>compound MLS001076491-01!Cortell
>formula C23H32O6
>ionization [M+H]+
>parentmass 405.227051
#inchi InChI=1S/C23H32O6/c1-13(24)29-12-19(27)23(28)9-7-17-16-5-4-14-10-15(25)6-8-21(14,2)20(16)18(26)11-22(17,23)3/h10,16-18,20,26,28H,4-9,11-12H2,1-3H3/t16-,17-,18-,20+,21-,22-,23-/m0/s1
#inchikey ALEXXDVDDISNDU
#Ion_Source LC-ESI
#Instrument qTof
#Compound_Source NIH Pharmacologically Active Library
#PI Dorrestein
#Data_Collector VP/LMS
#Scan -1
#Precursor_MZ 405.225
#ExactMass 404.22
#Charge 1
#CAS_Number N/A
#Pubmed_ID N/A
#Smiles CC(=O)OCC(=O)[C@@]1(O)CC[C@H]2[C@@H]3CC/C/4=C/C(=O)CC[C@]4(C)[C@H]3[C@@H](O)C[C@@]21C
#INCHI_AUX N/A
#Library_Class 1
#SpectrumID CCMSLIB00000085985
#IonMode Positive
#UpdateWorkflowName UPDATE-SINGLE-ANNOTATED-GOLD
#LibraryQualityString Gold
#TaskID d252d724072548979f1f6f1ced849daf
##Scan# 1904
#SpectrumFile p4-H11_GH11_01_18419.mzXML
#LibraryName Pharm_Active_Library.mgf
#MQScore -1
#Organism Pharm_Active_Library
#TIC_Query 0
#RT_Query -1
#MZErrorPPM -1
#SharedPeaks 0
#MassDiff 0
#LibMZ -1
#SpecMZ 405.225
#SpecCharge 0
#internalFilename spec-00000.mgf

>collision 10
44.997391 68.0
45.077534 180.0
45.148384 144.0
45.21394 192.0
45.279541 76.0
45.392113 204.0
45.421619 224.0
45.440403 124.0
45.567951 148.0
45.612301 164.0
45.641876 208.0
45.663395 116.0
45.736271 172.0
45.758938 208.0
45.77779 180.0
45.819546 164.0
45.858624 168.0
45.893673 128.0
45.904461 52.0
45.923344 164.0
45.974609 176.0
46.008354 180.0
46.061024 100.0
46.085339 188.0
46.100204 148.0
46.177265 156.0
46.215145 132.0
46.253761 160.0
46.298168 168.0
46.326164 180.0
46.361393 140.0
46.411549 248.0
46.484798 108.0
46.495655 180.0
46.533665 264.0
46.613956 180.0
46.655937 152.0
46.738907 112.0
46.757957 212.0
46.832844 208.0
46.86554 76.0
46.885979 76.0
46.896881 152.0
46.914604 144.0
46.932327 152.0
46.949265 204.0
47.173985 124.0
47.227314 136.0
47.24979 164.0
47.274132 184.0
47.321739 132.0
47.401184 160.0
47.410778 100.0
47.449158 188.0
47.487553 124.0
47.508129 76.0
47.528709 156.0
47.542431 72.0
47.561646 124.0
47.61245 32.0
47.650909 188.0
47.715508 128.0
47.740257 68.0
47.763641 160.0
47.803539 116.0
47.832443 180.0
47.879257 28.0
47.928978 172.0
47.997768 168.0
48.025352 144.0
48.040527 168.0
48.050182 156.0
48.086063 200.0
48.116432 216.0
48.153713 176.0
48.179958 204.0
48.211742 212.0
48.244915 120.0
48.31683 104.0
48.334816 68.0
48.410954 112.0
48.437061 188.0
48.494316 212.0
48.507942 144.0
48.550922 196.0
48.581551 200.0
48.657372 112.0
48.702206 176.0
48.778633 192.0
48.791145 168.0
48.846771 132.0
48.856506 120.0
48.875988 244.0
48.913563 44.0
48.983189 108.0
49.012447 116.0
49.036137 224.0
49.098877 192.0
49.11422 140.0
49.150215 180.0
49.168633 132.0
49.181194 140.0
49.217754 236.0
49.256599 192.0
49.27895 124.0
49.295719 144.0
49.327866 168.0
49.379601 152.0
49.422722 136.0
49.462154 224.0
49.494278 144.0
49.556595 212.0
49.624664 108.0
49.665333 136.0
49.70602 76.0
49.721455 188.0
49.735493 112.0
49.757954 120.0
49.795868 72.0
49.892826 244.0
49.921467 184.0
49.933605 180.0
49.98988 100.0
50.012398 196.0
50.025066 192.0
50.113792 124.0
50.175808 76.0
50.222343 172.0
50.254791 124.0
50.284172 156.0
50.321129 188.0
50.331013 212.0
50.357845 136.0
50.395988 72.0
50.408703 168.0
50.425663 164.0
50.465244 108.0
50.561436 48.0
50.599655 112.0
50.630337 180.0
50.652054 152.0
50.67614 120.0
50.705898 128.0
50.761814 136.0
50.783878 92.0
50.810833 192.0
50.827858 164.0
50.880375 40.0
50.971275 56.0
50.985489 88.0
51.003181 240.0
51.028133 136.0
51.055149 112.0
51.09071 144.0
51.10067 184.0
51.141937 128.0
51.171833 44.0
51.18771 180.0
51.214558 60.0
51.225952 180.0
51.275822 128.0
51.36731 148.0
51.406273 272.0
51.422726 48.0
51.442711 32.0
51.585564 236.0
51.637039 192.0
51.66851 44.0
51.957909 172.0
51.977997 124.0
52.01675 180.0
52.026798 68.0
52.090195 164.0
52.101479 208.0
52.289848 136.0
52.312881 164.0
52.37048 184.0
52.448288 148.0
52.575211 144.0
52.586754 168.0
52.65028 164.0
52.673393 252.0
52.706619 172.0
52.776001 220.0
52.862125 52.0
52.990215 148.0
53.007603 160.0
53.028889 192.0
53.041306 232.0
53.059784 224.0
53.101837 76.0
53.164223 244.0
53.195026 136.0
53.213577 160.0
53.289577 196.0
53.339466 256.0
53.3894 144.0
53.414127 172.0
53.441769 100.0
53.494164 148.0
53.50581 144.0
53.595108 180.0
53.628174 96.0
53.703995 156.0
53.717121 212.0
53.749218 116.0
53.765274 208.0
53.839729 108.0
53.860176 52.0
53.918621 152.0
53.96101 160.0
53.993183 184.0
54.004883 136.0
54.018047 172.0
54.037067 264.0
54.050236 48.0
54.11903 84.0
54.157108 148.0
54.322746 148.0
54.377037 136.0
54.416752 152.0
54.42989 44.0
54.478355 76.0
54.666557 168.0
54.698154 188.0
54.766674 140.0
54.77993 156.0
54.790245 112.0
54.818237 208.0
54.840347 148.0
54.891945 168.0
54.956848 176.0
54.98978 164.0
55.039509 160.0
55.083813 96.0
55.104496 164.0
55.131096 180.0
55.20945 212.0
55.283417 136.0
55.326344 104.0
55.369286 192.0
55.510071 136.0
55.551601 300.0
55.575336 176.0
55.66143 104.0
55.679253 132.0
55.703014 124.0
55.716488 176.0
55.75948 296.0
55.792179 120.0
55.905022 204.0
55.927551 200.0
56.049671 164.0
56.112274 164.0
56.13464 112.0
56.259972 132.0
56.328873 144.0
56.372383 108.0
56.451923 128.0
56.663773 140.0
56.722221 148.0
56.762699 104.0
56.785198 100.0
56.829491 152.0
56.840706 220.0
56.867718 132.0
56.975838 48.0
57.076538 176.0
57.241589 228.0
57.308342 136.0
57.355061 176.0
57.394257 164.0
57.527027 128.0
57.549736 188.0
57.601021 80.0
57.655415 140.0
57.676468 228.0
57.726467 144.0
57.789726 156.0
57.862648 172.0
57.929283 124.0
57.950493 216.0
57.998322 164.0
58.011116 116.0
58.041439 148.0
58.068733 148.0
58.080868 208.0
58.137005 208.0
58.167362 152.0
58.187096 196.0
58.21291 192.0
58.290382 108.0
58.351185 92.0
58.370949 200.0
58.410492 56.0
58.421143 224.0
58.448528 128.0
58.491142 156.0
58.574375 200.0
58.701397 164.0
58.715122 92.0
58.850933 128.0
58.873165 136.0
58.885818 180.0
58.90509 104.0
58.968563 184.0
58.997604 128.0
59.04348 156.0
59.066422 92.0
59.173321 164.0
59.222549 132.0
59.285366 180.0
59.296093 172.0
59.309891 64.0
59.340549 48.0
59.357418 172.0
59.405857 144.0
59.414951 172.0
59.579971 100.0
59.641441 116.0
59.738888 156.0
59.752163 128.0
59.784477 196.0
59.807564 56.0
59.872231 116.0
60.009182 112.0
60.072605 172.0
60.086784 168.0
60.121979 208.0
60.179096 172.0
60.195286 136.0
60.234692 140.0
60.247696 48.0
60.285679 188.0
60.322994 196.0
60.404732 204.0
60.463528 180.0
60.53474 172.0
60.680393 92.0
60.697449 152.0
60.714508 120.0
60.807598 132.0
60.838642 128.0
60.854168 172.0
60.888329 160.0
60.906967 96.0
60.938038 192.0
61.001759 196.0
61.071732 216.0
61.194672 188.0
61.221142 180.0
61.246063 164.0
61.285011 112.0
61.335369 128.0
61.364502 144.0
61.430004 220.0
61.481491 136.0
61.515831 84.0
61.529881 112.0
61.547058 140.0
61.597034 140.0
61.630035 160.0
61.706429 152.0
61.762726 56.0
61.795578 188.0
61.811226 156.0
61.870705 124.0
61.895756 144.0
61.981907 180.0
62.057262 164.0
62.110466 168.0
62.155964 124.0
62.217178 64.0
62.234447 148.0
62.345978 148.0
62.386845 168.0
62.550449 156.0
62.648083 92.0
62.701656 204.0
62.723724 176.0
62.797832 168.0
62.82938 160.0
62.870407 144.0
62.898628 100.0
62.982506 292.0
63.05534 168.0
63.263184 192.0
63.308319 156.0
63.341579 52.0
63.447754 148.0
63.576187 124.0
63.603218 120.0
63.646084 180.0
63.742867 168.0
63.825638 200.0
63.865398 372.0
63.921082 28.0
63.966362 200.0
63.978378 136.0
63.994301 136.0
64.100235 148.0
64.190292 176.0
64.233353 192.0
64.351448 196.0
64.370613 164.0
64.445686 160.0
64.508018 220.0
64.578377 108.0
64.653572 184.0
64.775253 112.0
64.866592 104.0
64.882629 176.0
64.905075 140.0
64.925919 152.0
64.940353 180.0
64.980461 212.0
65.020576 152.0
65.140999 180.0
65.173134 56.0
65.28566 132.0
65.316216 180.0
65.335251 72.0
65.414375 168.0
65.43782 164.0
65.461067 292.0
65.485229 112.0
65.549667 148.0
65.577065 164.0
65.61898 196.0
65.677032 120.0
65.717361 52.0
65.73764 368.0
65.783531 68.0
65.844109 140.0
65.912216 196.0
65.970924 156.0
65.998413 140.0
66.019432 72.0
66.122978 132.0
66.143112 152.0
66.16922 148.0
66.197449 164.0
66.231453 144.0
66.258621 208.0
66.296928 224.0
66.45031 196.0
66.531456 192.0
66.573677 216.0
66.589912 176.0
66.6549 124.0
66.686119 132.0
66.847626 160.0
67.019386 156.0
67.149345 332.0
67.252373 148.0
67.270546 176.0
67.299934 180.0
67.441322 176.0
67.563637 164.0
67.595802 232.0
67.620346 144.0
67.633438 136.0
67.667816 124.0
67.685829 108.0
67.741516 172.0
67.762817 136.0
67.789032 36.0
67.826729 196.0
67.88739 152.0
67.945786 140.0
68.000595 200.0
68.036705 92.0
68.066261 216.0
68.117264 220.0
68.189468 192.0
68.228142 144.0
68.286476 204.0
68.365448 200.0
68.381905 172.0
68.483986 216.0
68.50705 204.0
68.586143 184.0
68.696625 176.0
68.731277 88.0
68.789612 184.0
68.810501 144.0
68.914558 84.0
68.937691 92.0
69.013725 168.0
69.039558 212.0
69.071609 140.0
69.24044 136.0
69.348129 136.0
69.372993 164.0
69.394547 80.0
69.417763 200.0
69.639198 208.0
69.739845 192.0
69.754807 144.0
69.911148 80.0
70.029358 60.0
70.090996 72.0
70.144333 124.0
70.161804 100.0
70.187675 96.0
70.303818 380.0
70.319473 88.0
70.369553 228.0
70.434685 108.0
70.456398 68.0
70.488144 148.0
70.526581 52.0
70.548317 152.0
70.611855 164.0
70.73735 180.0
70.873703 212.0
70.908195 160.0
70.946754 152.0
71.035629 140.0
71.092682 128.0
71.143036 124.0
71.163177 148.0
71.211876 128.0
71.229652 116.0
71.258919 168.0
71.297562 64.0
71.33622 136.0
71.347992 244.0
71.374893 192.0
71.425346 192.0
71.507797 216.0
71.534729 164.0
71.571762 164.0
71.62397 292.0
71.716644 200.0
71.741493 200.0
71.865051 168.0
71.898804 148.0
71.954506 224.0
72.050774 132.0
72.084564 156.0
72.12851 204.0
72.177536 432.0
72.19783 328.0
72.289185 220.0
72.338264 132.0
72.478836 220.0
72.495781 208.0
72.555107 196.0
72.587326 164.0
72.636513 40.0
72.677223 136.0
72.751907 220.0
72.773972 136.0
72.78756 144.0
72.982971 56.0
73.0578 116.0
73.085022 236.0
73.11055 140.0
73.165016 156.0
73.246758 60.0
73.284241 172.0
73.299576 68.0
73.422318 148.0
73.437668 156.0
73.458138 160.0
73.563942 132.0
73.585846 192.0
73.613457 80.0
73.676651 188.0
73.780586 192.0
73.833908 124.0
73.893776 156.0
73.955383 64.0
73.993042 128.0
74.076958 64.0
74.227783 160.0
74.349586 172.0
74.382195 140.0
74.397644 100.0
74.413101 116.0
74.473206 188.0
74.490784 204.0
74.507561 136.0
74.59864 144.0
74.737953 172.0
74.767204 204.0
74.786362 152.0
74.824013 188.0
74.841225 56.0
74.861893 144.0
74.884277 176.0
74.956635 200.0
74.992828 172.0
75.02903 144.0
75.044548 164.0
75.118706 236.0
75.165291 40.0
75.206703 244.0
75.230873 148.0
75.253319 128.0
75.317215 164.0
75.337944 88.0
75.39151 208.0
75.495232 152.0
75.510803 36.0
75.588646 160.0
75.62326 180.0
75.702904 148.0
75.797119 200.0
75.843239 200.0
75.989578 156.0
76.021881 104.0
76.079155 164.0
76.112144 216.0
76.19725 164.0
76.223312 212.0
76.305008 144.0
76.353699 180.0
76.367615 36.0
76.426758 136.0
76.571251 152.0
76.718781 192.0
76.797829 124.0
76.84668 188.0
76.944412 132.0
77.141823 108.0
77.217186 372.0
77.235832 132.0
77.253746 116.0
77.29924 144.0
77.371002 32.0
77.392014 96.0
77.46907 136.0
77.55043 168.0
77.582985 120.0
77.61805 132.0
77.654877 164.0
77.686455 192.0
77.711014 68.0
77.73558 220.0
77.761444 244.0
77.774193 184.0
77.825104 156.0
77.886566 216.0
77.953476 348.0
77.98848 288.0
78.018364 108.0
78.10453 128.0
78.118607 148.0
78.16259 84.0
78.186172 184.0
78.234749 136.0
78.250595 164.0
78.273483 168.0
78.303421 168.0
78.3228 164.0
78.345703 168.0
78.382698 180.0
78.539612 172.0
78.624199 216.0
78.644646 148.0
78.687843 176.0
78.724922 212.0
78.82032 136.0
78.839752 72.0
78.883942 164.0
79.016579 128.0
79.037788 212.0
79.062584 200.0
79.153267 180.0
79.243202 212.0
79.28112 212.0
79.312317 104.0
79.393875 128.0
79.457352 160.0
79.491447 172.0
79.525169 164.0
79.573097 140.0
79.589081 224.0
79.615715 52.0
79.71875 144.0
79.791626 116.0
79.821854 132.0
79.905457 104.0
80.008682 76.0
80.070999 104.0
80.131134 164.0
80.145821 180.0
80.158295 228.0
80.256332 172.0
80.290215 196.0
80.342751 168.0
80.441879 192.0
80.456161 144.0
80.516457 172.0
80.532944 152.0
80.61692 252.0
80.632729 132.0
80.650223 176.0
80.665176 168.0
80.695564 136.0
80.714027 160.0
80.740273 252.0
80.772469 140.0
80.912048 36.0
80.974724 164.0
80.989052 120.0
81.125244 120.0
81.148552 140.0
81.218491 112.0
81.265129 116.0
81.313583 136.0
81.376411 84.0
81.406937 256.0
81.433685 184.0
81.572235 156.0
81.608192 112.0
81.674728 60.0
81.750298 164.0
81.795296 192.0
81.906227 172.0
81.950439 136.0
82.053925 156.0
82.125038 112.0
82.141273 184.0
82.175552 128.0
82.193596 116.0
82.233299 212.0
82.265785 172.0
82.282036 120.0
82.314537 84.0
82.400574 208.0
82.448219 132.0
82.462677 132.0
82.547646 144.0
82.600098 48.0
82.692375 140.0
82.815498 188.0
82.829987 148.0
82.857162 44.0
82.916962 152.0
82.985847 216.0
83.025742 232.0
83.039139 164.0
83.107368 212.0
83.179962 180.0
83.250771 192.0
83.290733 168.0
83.32103 256.0
83.337967 148.0
83.576332 128.0
83.66716 156.0
83.694473 108.0
83.762642 84.0
83.829269 136.0
83.866463 128.0
83.922234 68.0
84.004303 28.0
84.059036 160.0
84.126572 216.0
84.223541 196.0
84.259888 36.0
84.28244 152.0
84.386002 232.0
84.417526 164.0
84.475609 120.0
84.594559 100.0
84.608299 160.0
84.658646 240.0
84.683975 212.0
84.74382 144.0
84.805214 212.0
84.830879 100.0
84.852875 164.0
84.89505 168.0
84.915222 132.0
85.012459 232.0
85.060181 216.0
85.116524 232.0
85.253029 156.0
85.354134 156.0
85.374367 72.0
85.479118 144.0
85.529533 224.0
85.589668 56.0
85.699341 196.0
85.75547 128.0
85.805237 136.0
85.867935 148.0
85.901596 168.0
86.015549 68.0
86.082626 120.0
86.202438 84.0
86.255684 76.0
86.305603 192.0
86.346291 68.0
86.35923 192.0
86.41288 176.0
86.473946 124.0
86.492455 60.0
86.526352 220.0
86.575775 140.0
86.599854 120.0
86.666542 204.0
86.762917 188.0
86.77961 136.0
86.809525 148.0
86.898949 152.0
86.924286 116.0
86.944702 212.0
86.99408 196.0
87.022667 284.0
87.128532 184.0
87.182808 132.0
87.289536 220.0
87.426033 160.0
87.509804 316.0
87.591743 180.0
87.630867 168.0
87.65509 204.0
87.754005 184.0
87.774338 148.0
87.878311 168.0
87.904663 196.0
87.925499 192.0
87.97216 132.0
88.033775 200.0
88.048714 152.0
88.132782 204.0
88.300034 220.0
88.323677 216.0
88.340309 188.0
88.377724 156.0
88.392693 112.0
88.491898 160.0
88.617386 152.0
88.774841 100.0
88.848 168.0
88.904831 192.0
89.112717 172.0
89.359024 200.0
89.402298 128.0
89.468178 52.0
89.544044 152.0
89.573563 192.0
89.750793 256.0
89.780968 188.0
89.867737 108.0
89.913025 144.0
89.928131 120.0
89.988281 176.0
90.067856 92.0
90.088631 204.0
90.105637 68.0
90.149094 176.0
90.241714 156.0
90.273865 144.0
90.315468 60.0
90.38736 132.0
90.440353 192.0
90.454796 184.0
90.47821 148.0
90.544487 164.0
90.641106 140.0
90.665741 160.0
90.682793 148.0
90.743454 132.0
90.822739 164.0
90.952133 132.0
90.980606 180.0
91.025406 196.0
91.054382 2164.0
91.128746 72.0
91.267502 148.0
91.292831 224.0
91.324554 112.0
91.38353 48.0
91.427292 184.0
91.490105 244.0
91.543419 132.0
91.604691 192.0
91.640564 184.0
91.667244 112.0
91.699638 160.0
91.716797 124.0
91.741966 176.0
91.773987 136.0
91.787338 144.0
91.817848 140.0
91.875076 148.0
91.993393 148.0
92.056244 180.0
92.094597 164.0
92.123459 216.0
92.159554 128.0
92.214966 88.0
92.262756 168.0
92.276138 204.0
92.304825 76.0
92.322029 188.0
92.339249 84.0
92.421898 156.0
92.498055 152.0
92.530602 184.0
92.620605 228.0
92.666588 232.0
92.693413 156.0
92.727905 112.0
92.779663 172.0
92.803055 140.0
92.846771 176.0
92.873627 164.0
92.902397 144.0
92.93885 132.0
93.013435 172.0
93.033775 156.0
93.070206 1520.0
93.135361 172.0
93.152718 216.0
93.219208 160.0
93.249954 152.0
93.397751 208.0
93.458527 244.0
93.50383 184.0
93.546181 144.0
93.576981 188.0
93.590462 160.0
93.609718 236.0
93.652084 248.0
93.777328 136.0
93.871796 156.0
93.964378 192.0
94.024193 204.0
94.073982 136.0
94.081779 96.0
94.08918 120.0
94.094299 176.0
94.156868 172.0
94.314659 52.0
94.339043 44.0
94.431854 132.0
94.462807 48.0
94.513107 152.0
94.559555 180.0
94.576973 256.0
94.660225 124.0
94.896622 168.0
94.943161 172.0
95.048958 324.0
95.085632 1008.0
95.15078 128.0
95.187675 124.0
95.26342 136.0
95.298393 168.0
95.376129 204.0
95.459282 156.0
95.512245 264.0
95.574493 172.0
95.738014 200.0
95.763329 192.0
95.79834 140.0
95.823196 164.0
95.890068 208.0
95.925064 144.0
95.979652 156.0
96.010849 156.0
96.061562 184.0
96.092781 192.0
96.135712 176.0
96.196213 136.0
96.317284 128.0
96.440384 224.0
96.526405 200.0
96.633987 104.0
96.714218 76.0
96.73967 156.0
96.831116 176.0
96.851288 184.0
96.93161 172.0
96.955124 168.0
96.993279 224.0
97.015892 192.0
97.02961 124.0
97.065186 3248.0
97.147285 76.0
97.178673 240.0
97.23558 72.0
97.272873 232.0
97.288582 156.0
97.333382 176.0
97.441765 136.0
97.486961 224.0
97.530197 140.0
97.553787 164.0
97.760307 128.0
97.907791 188.0
97.967049 164.0
97.980843 160.0
98.0439 104.0
98.06813 676.0
98.177956 92.0
98.193733 136.0
98.278557 176.0
98.300262 132.0
98.349602 200.0
98.365395 148.0
98.405884 224.0
98.440041 188.0
98.496925 112.0
98.511528 68.0
98.525352 56.0
98.567078 208.0
98.626434 188.0
98.690742 236.0
98.695679 160.0
98.819939 76.0
98.85556 168.0
98.887222 136.0
98.919586 148.0
98.945488 176.0
98.964424 252.0
99.043205 388.0
99.073357 88.0
99.089211 204.0
99.136765 156.0
99.348923 120.0
99.366211 252.0
99.396538 56.0
99.412415 80.0
99.440201 144.0
99.565277 140.0
99.591095 196.0
99.638771 164.0
99.679321 196.0
99.72625 212.0
99.767952 28.0
99.853455 92.0
99.956909 120.0
99.996468 200.0
100.032539 152.0
100.058418 236.0
100.100227 192.0
100.148026 252.0
100.186455 208.0
100.223961 140.0
100.263588 132.0
100.279533 168.0
100.379211 132.0
100.478943 124.0
100.562752 312.0
100.576729 168.0
100.616653 136.0
100.634621 152.0
100.786133 140.0
100.834381 144.0
100.850372 120.0
100.866364 184.0
100.958336 136.0
100.980339 124.0
101.023224 440.0
101.040344 100.0
101.054352 220.0
101.068359 144.0
101.202461 132.0
101.246521 144.0
101.266548 116.0
101.298599 160.0
101.38475 144.0
101.498375 112.0
101.523079 116.0
101.577812 252.0
101.637329 168.0
101.755844 180.0
101.886391 204.0
101.9105 152.0
101.938629 168.0
101.967438 132.0
102.029083 80.0
102.063263 196.0
102.082275 176.0
102.113533 184.0
102.151756 116.0
102.222176 132.0
102.244308 128.0
102.278481 192.0
102.300667 116.0
102.322815 200.0
102.352325 184.0
102.367111 164.0
102.383224 168.0
102.493935 224.0
102.520218 116.0
102.545227 188.0
102.560524 236.0
102.580681 184.0
102.627052 192.0
102.671417 128.0
102.691582 124.0
102.70974 160.0
102.75412 252.0
102.781212 168.0
102.826767 168.0
102.844925 168.0
102.955971 120.0
103.053619 864.0
103.143875 116.0
103.158028 148.0
103.187286 152.0
103.246994 200.0
103.274597 148.0
103.330261 216.0
103.386581 148.0
103.50602 176.0
103.528297 144.0
103.59716 196.0
103.686317 104.0
103.814796 204.0
103.831848 92.0
103.864746 232.0
103.885025 164.0
103.912514 168.0
104.015862 144.0
104.056351 316.0
104.104233 224.0
104.186874 152.0
104.22612 136.0
104.258629 240.0
104.276924 144.0
104.305382 136.0
104.350105 196.0
104.433479 172.0
104.447716 116.0
104.478233 152.0
104.522995 124.0
104.543343 128.0
104.653267 144.0
104.704178 180.0
104.759171 120.0
104.789734 168.0
104.924248 144.0
105.070366 6200.0
105.115974 204.0
105.135345 140.0
105.226196 116.0
105.288406 120.0
105.307884 204.0
105.358948 160.0
105.400291 220.0
105.438637 164.0
105.536758 48.0
105.735191 168.0
105.757706 172.0
105.776131 172.0
105.839592 152.0
105.855972 32.0
105.919464 164.0
105.946098 72.0
106.049362 112.0
106.073326 592.0
106.136711 68.0
106.165421 56.0
106.245415 152.0
106.341858 108.0
106.413704 264.0
106.49585 188.0
106.510223 192.0
106.531471 128.0
106.571861 156.0
106.738029 252.0
106.787712 100.0
106.802109 40.0
106.888519 144.0
106.968781 212.0
107.022316 164.0
107.050385 1540.0
107.086006 3368.0
107.11911 172.0
107.196434 128.0
107.228752 148.0
107.281906 148.0
107.399445 96.0
107.516563 136.0
107.524117 236.0
107.593422 44.0
107.632652 176.0
107.692543 164.0
107.849579 48.0
107.946747 80.0
108.014999 48.0
108.058998 180.0
108.086449 480.0
108.126732 52.0
108.178474 212.0
108.213676 124.0
108.316048 136.0
108.366943 156.0
108.453979 148.0
108.536903 100.0
108.570084 168.0
108.619865 104.0
108.70285 168.0
108.756813 236.0
108.790024 180.0
108.821167 164.0
108.879311 72.0
108.979019 156.0
109.025818 208.0
109.064857 4740.0
109.100945 932.0
109.18898 64.0
109.26178 152.0
109.290215 96.0
109.342934 156.0
109.363747 52.0
109.444939 172.0
109.467842 168.0
109.48867 180.0
109.51783 188.0
109.551155 40.0
109.613663 272.0
109.65995 136.0
109.713707 164.0
109.728302 180.0
109.909767 200.0
110.027954 160.0
110.069138 760.0
110.094749 52.0
110.135239 140.0
110.262688 196.0
110.344215 40.0
110.645401 192.0
110.710396 124.0
110.787895 176.0
110.842369 184.0
110.935112 128.0
110.957649 160.0
111.020554 340.0
111.047318 172.0
111.080528 620.0
111.16111 96.0
111.198723 156.0
111.29335 172.0
111.419373 156.0
111.452988 196.0
111.469795 144.0
111.549667 184.0
111.576996 48.0
111.61274 220.0
111.678909 172.0
111.785233 232.0
111.850891 140.0
111.892578 204.0
111.932579 136.0
112.008545 180.0
112.06675 172.0
112.086067 176.0
112.151688 164.0
112.200172 112.0
112.436661 140.0
112.512413 188.0
112.527191 92.0
112.662354 208.0
112.723625 272.0
112.772232 84.0
112.854683 136.0
112.871597 180.0
112.894859 180.0
112.960426 184.0
113.040825 164.0
113.060936 328.0
113.123367 40.0
113.241951 68.0
113.258896 56.0
113.330925 140.0
113.472931 108.0
113.504738 156.0
113.631996 148.0
113.710518 196.0
113.748718 116.0
113.76358 196.0
113.847557 160.0
113.878242 132.0
113.907982 44.0
113.9356 180.0
113.963219 120.0
114.056725 192.0
114.214081 80.0
114.239609 176.0
114.302795 160.0
114.539757 208.0
114.680389 140.0
114.708099 88.0
114.752869 124.0
114.863434 180.0
114.981117 188.0
115.00032 100.0
115.055138 1116.0
115.079308 128.0
115.111343 100.0
115.175415 144.0
115.284378 112.0
115.305748 80.0
115.393387 168.0
115.483208 168.0
115.500313 188.0
115.517426 256.0
115.545242 64.0
115.609436 56.0
115.650635 224.0
115.677925 160.0
115.701469 152.0
115.748581 144.0
115.765709 128.0
115.791153 136.0
115.870667 116.0
115.919945 176.0
115.934952 180.0
115.982101 160.0
116.06221 432.0
116.162224 140.0
116.220154 240.0
116.243752 200.0
116.258774 96.0
116.315788 128.0
116.421547 200.0
116.57016 124.0
116.58622 156.0
116.851837 124.0
116.920471 76.0
117.069962 4076.0
117.112358 200.0
117.148933 60.0
117.198486 124.0
117.260139 132.0
117.312088 232.0
117.362305 72.0
117.386024 172.0
117.422684 84.0
117.452881 136.0
117.506813 80.0
117.586655 148.0
117.696571 188.0
117.761543 136.0
117.789619 104.0
117.804741 192.0
117.853882 140.0
117.945206 92.0
117.986275 112.0
118.014679 116.0
118.049576 116.0
118.075348 452.0
118.213387 52.0
118.429886 148.0
118.51004 60.0
118.527382 120.0
118.609734 144.0
118.629242 56.0
118.6661 128.0
118.70079 76.0
118.750931 168.0
118.77887 204.0
118.839615 96.0
118.867821 212.0
118.94178 104.0
118.983284 184.0
118.998062 212.0
119.016876 108.0
119.050827 336.0
119.085747 8528.0
119.115334 520.0
119.139229 152.0
119.173988 124.0
119.204407 176.0
119.256569 40.0
119.278305 92.0
119.293526 184.0
119.322716 112.0
119.363098 112.0
119.44268 88.0
119.449089 172.0
119.515358 148.0
119.544952 180.0
119.650307 132.0
119.719986 104.0
119.746117 204.0
119.794037 52.0
119.83979 28.0
119.855042 112.0
119.929947 108.0
120.048225 180.0
120.06485 148.0
120.089134 1064.0
120.121025 156.0
120.147202 168.0
120.190842 136.0
120.309875 216.0
120.415695 112.0
120.437538 132.0
120.487778 60.0
120.514 184.0
120.537567 168.0
120.545052 132.0
120.579559 44.0
120.69323 168.0
120.719475 220.0
120.916367 160.0
120.96756 216.0
120.984222 88.0
121.003929 152.0
121.026428 204.0
121.065392 20676.0
121.101311 896.0
121.13018 172.0
121.225159 72.0
121.265038 132.0
121.332565 132.0
121.398346 40.0
121.414833 208.0
121.445442 160.0
121.472916 176.0
121.505821 84.0
121.529953 56.0
121.604568 212.0
121.688164 296.0
121.728874 84.0
121.846123 108.0
121.868095 76.0
121.931816 160.0
121.971519 132.0
122.067406 2092.0
122.091148 144.0
122.099449 164.0
122.184692 152.0
122.202293 148.0
122.233101 64.0
122.261711 332.0
122.327744 32.0
122.376175 204.0
122.423698 144.0
122.495102 56.0
122.553619 128.0
122.646431 160.0
122.766693 108.0
122.812515 200.0
122.827957 40.0
122.896347 228.0
122.940559 228.0
122.96917 200.0
123.003059 136.0
123.03299 180.0
123.080719 6616.0
123.117638 284.0
123.141388 184.0
123.17894 164.0
123.226379 76.0
123.265106 188.0
123.296043 48.0
123.371193 32.0
123.417625 128.0
123.44416 116.0
123.504181 144.0
123.574234 144.0
123.592369 72.0
123.649902 128.0
123.665398 184.0
123.807091 32.0
123.920059 140.0
123.962166 168.0
124.041107 72.0
124.057472 116.0
124.083717 568.0
124.161682 148.0
124.239319 168.0
124.255333 220.0
124.286392 148.0
124.368027 36.0
124.392441 192.0
124.451309 140.0
124.539703 204.0
124.58786 32.0
124.632301 148.0
124.807899 148.0
124.860344 164.0
124.896858 144.0
124.990295 160.0
125.014778 120.0
125.061989 588.0
125.097168 204.0
125.266373 212.0
125.293106 140.0
125.406754 44.0
125.444008 140.0
125.466934 168.0
125.612823 192.0
125.685516 196.0
125.72345 208.0
125.739075 200.0
125.765144 212.0
125.89312 204.0
125.913216 96.0
125.957886 180.0
125.993629 144.0
126.015976 136.0
126.12101 180.0
126.13665 164.0
126.421822 160.0
126.517189 228.0
126.573685 200.0
126.80143 44.0
126.862801 148.0
126.895576 96.0
126.965096 116.0
127.056099 636.0
127.07312 332.0
127.110909 208.0
127.247826 164.0
127.320808 168.0
127.428673 164.0
127.573586 184.0
127.670273 92.0
127.829994 128.0
127.992065 220.0
128.020569 140.0
128.061676 3628.0
128.104019 124.0
128.146439 96.0
128.168777 188.0
128.445068 168.0
128.539825 164.0
128.564651 204.0
128.632355 200.0
128.668488 60.0
128.806229 156.0
128.88266 208.0
128.953354 184.0
128.996048 196.0
129.069778 4132.0
129.104584 124.0
129.129456 108.0
129.174164 248.0
129.249359 68.0
129.271988 120.0
129.342148 136.0
129.368378 140.0
129.387421 116.0
129.425919 176.0
129.475113 44.0
129.48204 148.0
129.509705 116.0
129.548218 60.0
129.607117 100.0
129.636581 132.0
129.795258 140.0
129.99559 140.0
130.033463 136.0
130.077164 1488.0
130.10173 208.0
130.187836 224.0
130.224182 196.0
130.276428 184.0
130.42186 148.0
130.460495 84.0
130.540085 176.0
130.587845 204.0
130.676559 104.0
130.710693 180.0
130.744019 168.0
130.809006 140.0
130.839569 180.0
130.936371 120.0
130.972504 108.0
131.011185 200.0
131.055862 176.0
131.085846 7428.0
131.13736 184.0
131.203033 196.0
131.339493 88.0
131.421616 228.0
131.444443 164.0
131.518478 216.0
131.592804 44.0
131.622482 188.0
131.716125 96.0
131.828079 132.0
131.896637 308.0
131.962936 144.0
131.983521 152.0
132.037323 204.0
132.05748 204.0
132.09082 872.0
132.153732 172.0
132.246597 148.0
132.280945 96.0
132.350204 156.0
132.471008 140.0
132.500793 120.0
132.569534 132.0
132.606201 144.0
132.626831 156.0
132.674973 180.0
132.725403 176.0
132.750626 140.0
132.902023 156.0
132.957108 152.0
132.992157 148.0
133.021362 164.0
133.06488 1660.0
133.102081 4060.0
133.128052 120.0
133.158295 184.0
133.23494 176.0
133.422501 176.0
133.46283 176.0
133.524567 144.0
133.566437 180.0
133.605072 196.0
133.678711 84.0
133.727036 144.0
134.009109 156.0
134.068588 184.0
134.104538 528.0
134.247711 120.0
134.268463 136.0
134.337662 96.0
134.3815 172.0
134.436874 160.0
134.47612 112.0
134.499191 160.0
134.545364 144.0
134.603088 240.0
134.659531 168.0
134.741669 68.0
134.817932 56.0
134.859528 216.0
134.896515 36.0
134.926559 108.0
134.947372 204.0
135.051437 220.0
135.081207 4416.0
135.11618 836.0
135.150909 32.0
135.238861 52.0
135.370819 172.0
135.462784 136.0
135.498215 184.0
135.69986 176.0
135.771744 120.0
135.813492 164.0
135.920212 108.0
135.968933 112.0
136.061783 64.0
136.082062 500.0
136.119278 116.0
136.191833 36.0
136.312637 84.0
136.333557 56.0
136.38237 152.0
136.491623 216.0
136.568375 320.0
136.680038 192.0
136.726593 212.0
136.80806 100.0
136.831329 208.0
136.847626 136.0
136.868591 196.0
136.940781 200.0
136.973389 204.0
137.060333 292.0
137.095505 996.0
137.201767 156.0
137.241409 124.0
137.307541 144.0
137.36734 244.0
137.465332 148.0
137.484009 64.0
137.551697 160.0
137.576111 52.0
137.67778 144.0
137.759521 116.0
137.813263 52.0
138.039124 108.0
138.095505 272.0
138.163956 84.0
138.20842 144.0
138.271606 196.0
138.287979 128.0
138.444839 152.0
138.538544 180.0
138.688507 188.0
138.749451 220.0
138.826828 304.0
139.035629 300.0
139.074142 420.0
139.113083 180.0
139.180832 116.0
139.239883 188.0
139.371429 156.0
139.606506 224.0
139.75 52.0
139.771164 148.0
139.794708 152.0
139.830002 152.0
139.860596 128.0
139.881256 176.0
139.957123 60.0
139.990097 184.0
140.011292 48.0
140.041687 128.0
140.085083 232.0
140.154984 116.0
140.262222 164.0
140.352982 128.0
140.442596 164.0
140.525162 164.0
140.553482 144.0
140.642456 108.0
140.676529 204.0
140.706512 96.0
140.999222 196.0
141.069763 3036.0
141.127457 196.0
141.236252 128.0
141.406601 100.0
141.425537 164.0
141.477615 128.0
141.496552 148.0
141.578461 212.0
141.759476 116.0
141.811615 144.0
141.9254 256.0
141.94809 204.0
142.010788 180.0
142.029755 152.0
142.077194 2596.0
142.13652 176.0
142.160248 148.0
142.17923 52.0
142.205338 180.0
142.230972 80.0
142.328003 220.0
142.390533 136.0
142.492203 164.0
142.507721 264.0
142.537827 80.0
142.571625 88.0
142.621002 128.0
142.663788 212.0
142.730362 148.0
142.877823 168.0
142.967163 168.0
143.013458 124.0
143.032501 140.0
143.085632 8520.0
143.123566 160.0
143.15155 28.0
143.18013 92.0
143.302841 176.0
143.377869 148.0
143.394547 108.0
143.451752 60.0
143.477982 48.0
143.537201 124.0
143.566208 72.0
143.603058 160.0
143.621063 184.0
143.644913 140.0
143.687851 64.0
143.766602 60.0
143.8573 60.0
143.948029 112.0
144.029236 184.0
144.057098 336.0
144.090271 1592.0
144.118271 152.0
144.144211 196.0
144.167801 140.0
144.191696 104.0
144.27536 84.0
144.318405 164.0
144.37056 128.0
144.600677 148.0
144.653336 144.0
144.771118 84.0
144.864273 144.0
144.920715 212.0
144.997055 168.0
145.064026 1492.0
145.101654 12316.0
145.146881 140.0
145.17897 168.0
145.226028 180.0
145.276398 128.0
145.297989 148.0
145.338776 104.0
145.463577 76.0
145.482788 140.0
145.641266 144.0
145.689316 224.0
145.722946 176.0
145.778214 72.0
145.900803 292.0
146.023438 168.0
146.072754 396.0
146.106079 2340.0
146.143723 108.0
146.182739 176.0
146.201477 128.0
146.288116 136.0
146.401291 176.0
146.459274 232.0
146.584366 184.0
146.628036 168.0
146.846924 184.0
146.93399 100.0
146.975006 156.0
146.996719 168.0
147.044998 120.0
147.080475 4952.0
147.117081 3908.0
147.172928 60.0
147.189835 108.0
147.238129 152.0
147.262283 36.0
147.288864 140.0
147.31543 88.0
147.337173 100.0
147.363754 64.0
147.428986 116.0
147.547424 64.0
147.593369 120.0
147.624802 244.0
147.686539 92.0
147.782043 48.0
147.813492 44.0
147.86026 116.0
147.883682 200.0
147.992615 144.0
148.014481 140.0
148.086945 1468.0
148.119965 444.0
148.215454 160.0
148.288162 180.0
148.365189 112.0
148.418076 128.0
148.453018 168.0
148.511215 76.0
148.560364 128.0
148.761154 92.0
148.788712 148.0
148.826706 80.0
148.938416 180.0
148.965149 32.0
149.011307 176.0
149.030731 48.0
149.059036 144.0
149.0961 2200.0
149.129486 476.0
149.169266 188.0
149.207596 188.0
149.242203 104.0
149.365753 140.0
149.41246 52.0
149.592545 64.0
149.672882 188.0
149.721588 68.0
149.750809 164.0
149.848251 144.0
149.970108 92.0
150.06517 100.0
150.10083 616.0
150.131271 156.0
150.204178 128.0
150.226135 44.0
150.257858 156.0
150.277374 72.0
150.339279 216.0
150.47995 200.0
150.514145 148.0
150.577637 156.0
150.603867 156.0
150.658234 124.0
150.777969 140.0
150.846405 72.0
150.868088 180.0
150.876755 156.0
151.046921 72.0
151.075943 1048.0
151.108765 436.0
151.185501 232.0
151.250031 80.0
151.328369 108.0
151.345505 100.0
151.460602 160.0
151.485107 192.0
151.644379 124.0
151.739975 176.0
151.884659 256.0
151.97789 160.0
152.062668 352.0
152.111816 204.0
152.130051 188.0
152.174255 224.0
152.224457 160.0
152.336334 156.0
152.427246 84.0
152.555054 128.0
152.631271 96.0
152.805908 216.0
153.01265 164.0
153.07019 1832.0
153.090073 408.0
153.123459 124.0
153.183533 216.0
153.202271 104.0
153.46283 144.0
153.480789 136.0
153.595932 352.0
153.645447 184.0
153.707718 92.0
153.75708 156.0
153.902725 160.0
153.944702 44.0
153.990143 60.0
154.078156 1960.0
154.110199 136.0
154.15715 148.0
154.24118 48.0
154.285751 140.0
154.405502 156.0
154.522141 124.0
154.545364 180.0
154.775574 80.0
154.812714 220.0
154.839951 104.0
154.857285 184.0
154.874634 120.0
154.91922 80.0
154.946472 112.0
155.058395 188.0
155.085617 4156.0
155.137299 196.0
155.238953 148.0
155.348083 144.0
155.747742 148.0
155.961426 144.0
155.991257 136.0
156.09169 2084.0
156.17775 32.0
156.207611 40.0
156.251007 144.0
156.3992 76.0
156.506256 108.0
156.533646 160.0
156.615829 140.0
156.68808 184.0
156.947296 60.0
157.009628 76.0
157.065414 824.0
157.101288 10172.0
157.132584 208.0
157.201309 64.0
157.301559 200.0
157.383942 72.0
157.411423 44.0
157.44014 136.0
157.566284 48.0
157.613754 44.0
157.678726 108.0
157.736206 160.0
157.813721 80.0
157.853714 32.0
157.942398 148.0
158.069794 1184.0
158.105804 1880.0
158.177979 180.0
158.244064 48.0
158.294144 120.0
158.336716 64.0
158.398483 164.0
158.456955 28.0
158.550888 156.0
158.57222 196.0
158.624863 108.0
158.644913 100.0
158.685028 44.0
158.747711 48.0
158.817947 80.0
158.910767 88.0
158.996078 252.0
159.024567 292.0
159.079926 4528.0
159.117111 8440.0
159.151718 116.0
159.178085 128.0
159.222031 128.0
159.251129 112.0
159.299896 108.0
159.346146 68.0
159.365219 44.0
159.458313 144.0
159.561264 100.0
159.611542 148.0
159.681961 52.0
159.709625 72.0
159.863098 176.0
159.885742 40.0
159.910919 180.0
159.936081 92.0
159.986435 148.0
160.019165 52.0
160.059082 140.0
160.083954 1104.0
160.122559 768.0
160.162704 116.0
160.225677 152.0
160.259338 64.0
160.281113 196.0
160.449982 124.0
160.523102 124.0
160.636597 52.0
160.669403 100.0
160.863724 120.0
161.040543 160.0
161.065735 332.0
161.095596 5040.0
161.132706 904.0
161.174362 80.0
161.212265 76.0
161.229965 60.0
161.326004 84.0
161.354813 184.0
161.394272 64.0
161.477783 172.0
161.669998 36.0
161.733276 212.0
161.788971 196.0
161.814285 176.0
161.984985 160.0
162.070099 92.0
162.101791 648.0
162.136047 328.0
162.262726 196.0
162.321045 84.0
162.351486 112.0
162.371765 132.0
162.432648 188.0
162.523972 168.0
162.645798 64.0
162.66864 108.0
162.757492 144.0
162.782516 164.0
162.807861 96.0
162.881943 308.0
162.930206 140.0
163.040268 128.0
163.048615 40.0
163.075256 736.0
163.11174 8476.0
163.151306 212.0
163.171906 304.0
163.362381 100.0
163.4328 172.0
163.484512 84.0
163.504883 200.0
163.526962 108.0
163.563416 116.0
163.596512 132.0
163.655075 184.0
163.76712 124.0
163.835892 160.0
163.914886 60.0
163.935272 172.0
163.988785 64.0
164.009186 60.0
164.078003 120.0
164.116135 1700.0
164.160645 256.0
164.195312 172.0
164.259079 80.0
164.338165 96.0
164.399399 168.0
164.483627 108.0
164.506607 184.0
164.567871 76.0
164.608734 152.0
164.639374 164.0
164.71344 52.0
164.80542 156.0
164.828415 84.0
164.953644 124.0
164.976654 136.0
165.070251 2004.0
165.131027 272.0
165.155655 160.0
165.319397 92.0
165.393616 48.0
165.456177 100.0
165.488342 144.0
165.536987 148.0
165.618942 192.0
165.690674 132.0
165.749603 48.0
165.987991 168.0
166.036209 60.0
166.075516 868.0
166.100845 176.0
166.131622 140.0
166.159851 108.0
166.421646 192.0
166.529495 164.0
166.586014 144.0
166.693924 200.0
166.717041 92.0
166.820969 156.0
166.898087 140.0
167.085083 4244.0
167.119904 180.0
167.167084 60.0
167.193405 156.0
167.370438 176.0
167.420029 204.0
167.448227 176.0
167.540436 40.0
167.617722 100.0
167.697617 132.0
168.091751 1716.0
168.159302 160.0
168.487244 128.0
168.58284 148.0
168.796326 144.0
168.975876 132.0
169.009521 180.0
169.026581 112.0
169.044662 200.0
169.064606 276.0
169.101654 6172.0
169.235764 244.0
169.312393 136.0
169.418594 192.0
169.623306 68.0
169.682938 220.0
169.843719 148.0
169.978622 248.0
170.0681 616.0
170.105331 1840.0
170.189255 196.0
170.269379 156.0
170.303146 36.0
170.394073 40.0
170.503204 132.0
170.530304 152.0
170.776199 228.0
170.853943 140.0
170.95311 144.0
171.022995 188.0
171.05101 176.0
171.080765 2484.0
171.116501 6104.0
171.213455 32.0
171.26033 60.0
171.283768 60.0
171.369736 224.0
171.393188 56.0
171.44812 52.0
171.468765 52.0
171.510468 116.0
171.561066 136.0
171.659073 88.0
171.779053 60.0
171.932999 148.0
172.085892 800.0
172.122223 1296.0
172.294693 116.0
172.324692 48.0
172.342972 116.0
172.366501 172.0
172.406464 188.0
172.476257 44.0
172.510239 156.0
172.528549 44.0
172.593903 116.0
172.745605 60.0
172.98111 192.0
173.015152 172.0
173.064896 204.0
173.095764 4564.0
173.131332 2448.0
173.208939 68.0
173.311111 64.0
173.350418 180.0
173.381546 168.0
173.505051 168.0
173.523407 208.0
173.594208 56.0
173.654526 68.0
173.733215 52.0
173.780441 116.0
173.940536 88.0
173.989365 80.0
174.013443 212.0
174.042923 112.0
174.06546 192.0
174.101227 1672.0
174.137466 528.0
174.156754 176.0
174.179489 88.0
174.29509 72.0
174.402832 48.0
174.615799 36.0
174.6763 56.0
174.894699 152.0
175.047562 140.0
175.082092 156.0
175.111938 3344.0
175.144135 412.0
175.179092 172.0
175.213348 60.0
175.255493 140.0
175.352997 104.0
175.410995 80.0
175.439987 156.0
175.465042 36.0
175.752487 132.0
176.114746 552.0
176.202698 184.0
176.374466 40.0
176.395615 140.0
176.445847 40.0
176.572769 76.0
176.596573 116.0
176.619904 44.0
176.634262 48.0
176.812729 140.0
176.903519 168.0
176.943237 136.0
177.089706 624.0
177.127472 480.0
177.18689 224.0
177.327332 64.0
177.459885 160.0
177.544739 132.0
177.791458 76.0
177.833923 168.0
177.97728 100.0
178.077576 864.0
178.09761 472.0
178.126007 132.0
178.319977 100.0
178.39502 52.0
178.649704 156.0
178.66832 152.0
178.697586 132.0
178.891861 184.0
178.966415 68.0
178.993042 60.0
179.086563 2128.0
179.131531 152.0
179.150177 240.0
179.19014 128.0
179.334045 68.0
179.547333 116.0
179.635361 88.0
179.760757 148.0
180.092865 2012.0
180.150574 100.0
180.28418 32.0
180.399109 100.0
180.425842 124.0
180.764465 272.0
180.824402 52.0
181.068115 460.0
181.099579 3344.0
181.212692 76.0
181.30014 196.0
181.40834 212.0
181.427109 140.0
181.528992 112.0
181.78183 188.0
181.939514 188.0
181.990524 176.0
182.075928 444.0
182.108444 2444.0
182.173157 200.0
182.299438 164.0
182.42038 88.0
182.517166 140.0
182.640884 144.0
182.670471 240.0
182.710831 48.0
182.79155 164.0
182.831909 104.0
182.93689 80.0
183.013489 88.0
183.078827 1256.0
183.116852 6472.0
183.187332 116.0
183.249298 52.0
183.285049 156.0
183.399414 124.0
183.435242 120.0
183.472992 100.0
183.564178 112.0
183.891098 140.0
184.004471 148.0
184.055771 56.0
184.085083 916.0
184.121704 1964.0
184.18811 160.0
184.309341 156.0
184.393463 164.0
184.417786 80.0
184.436707 124.0
184.558365 108.0
184.761688 136.0
184.935074 112.0
184.977707 120.0
185.021011 152.0
185.058929 236.0
185.095932 3668.0
185.132462 4892.0
185.183487 236.0
185.225418 84.0
185.275589 228.0
185.386688 96.0
185.507523 48.0
185.598129 116.0
185.657776 204.0
185.817825 212.0
185.836807 68.0
186.097961 1408.0
186.135971 1428.0
186.168594 140.0
186.192413 100.0
186.230438 28.0
186.269791 200.0
186.445084 112.0
186.470688 124.0
186.570114 100.0
186.589142 180.0
186.613617 132.0
186.676163 48.0
186.765915 200.0
186.869278 180.0
186.8965 44.0
187.075607 192.0
187.111954 4908.0
187.146561 624.0
187.193192 40.0
187.315765 144.0
187.342377 52.0
187.48468 68.0
187.509216 112.0
187.573441 128.0
187.631882 128.0
187.691101 244.0
187.940079 196.0
188.07991 308.0
188.113953 1316.0
188.150162 140.0
188.368713 340.0
188.442474 100.0
188.538116 76.0
188.762283 48.0
188.827911 160.0
189.039734 152.0
189.090942 320.0
189.126419 1912.0
189.163315 360.0
189.202805 40.0
189.377075 124.0
189.40271 164.0
189.457489 84.0
189.484894 64.0
189.520432 132.0
189.580795 156.0
189.599976 116.0
189.687683 116.0
189.871399 36.0
190.07132 168.0
190.09079 304.0
190.132965 596.0
190.202332 124.0
190.453262 196.0
190.733536 184.0
190.824249 164.0
191.081024 492.0
191.103912 668.0
191.136993 376.0
191.289185 48.0
191.389542 116.0
191.406387 120.0
191.451645 160.0
191.531113 140.0
191.669266 144.0
191.986282 144.0
192.092499 920.0
192.292511 160.0
192.31459 52.0
192.380844 140.0
192.425018 76.0
192.532715 180.0
192.587952 120.0
192.687393 136.0
192.767517 264.0
192.836609 72.0
192.983124 144.0
193.008011 104.0
193.060043 160.0
193.101044 2484.0
193.255432 116.0
193.399826 128.0
193.450058 160.0
193.81073 200.0
193.898544 180.0
193.949295 212.0
193.996429 144.0
194.061432 200.0
194.108109 924.0
194.15416 36.0
194.570694 136.0
194.701202 152.0
194.795639 140.0
194.976242 108.0
195.079254 516.0
195.115906 5016.0
195.179169 148.0
195.577011 168.0
195.710632 76.0
195.849884 52.0
195.886093 92.0
196.086472 280.0
196.122101 1596.0
196.315369 224.0
196.459549 124.0
196.50499 104.0
196.686386 156.0
196.775726 196.0
196.820404 96.0
196.973999 224.0
197.017227 152.0
197.057465 156.0
197.096222 3784.0
197.131943 3628.0
197.203125 156.0
197.513504 32.0
197.535873 32.0
197.60022 44.0
197.700958 128.0
197.81012 84.0
197.852097 32.0
197.964111 104.0
198.022919 188.0
198.059326 56.0
198.099991 732.0
198.137146 1512.0
198.314301 164.0
198.333923 92.0
198.353546 108.0
198.600311 156.0
198.64238 48.0
198.765823 68.0
198.86499 228.0
198.911774 132.0
198.979141 68.0
199.029678 60.0
199.071808 44.0
199.112564 2624.0
199.148041 3344.0
199.193893 128.0
199.265625 112.0
199.296524 108.0
199.327438 68.0
199.36116 48.0
199.406128 72.0
199.442657 48.0
199.498886 72.0
199.69368 132.0
199.905136 184.0
200.066574 252.0
200.117508 668.0
200.150284 728.0
200.27272 48.0
200.317795 136.0
200.579849 64.0
200.715179 124.0
200.746414 164.0
200.92598 152.0
200.980331 32.0
201.059341 84.0
201.094772 456.0
201.127457 2324.0
201.223068 132.0
201.296478 44.0
201.395325 160.0
201.423569 116.0
201.675888 180.0
201.706146 96.0
201.731583 96.0
202.070969 136.0
202.126953 516.0
202.184143 144.0
202.226608 176.0
202.260574 148.0
202.396454 104.0
202.509735 132.0
202.631546 136.0
202.770401 72.0
203.087524 380.0
203.108047 440.0
203.142441 696.0
203.47673 164.0
203.618713 100.0
203.672668 104.0
203.809036 112.0
203.880081 180.0
203.905655 68.0
204.110947 320.0
204.146118 304.0
204.19281 124.0
204.594025 160.0
204.875977 156.0
205.032684 132.0
205.120453 1080.0
205.374832 68.0
205.394791 60.0
205.460403 100.0
205.611633 56.0
205.720108 172.0
205.848587 52.0
205.957108 64.0
206.107391 800.0
206.251419 156.0
206.315201 64.0
206.488739 208.0
206.508759 144.0
206.771988 124.0
206.912247 332.0
207.068466 280.0
207.117676 2920.0
207.235886 76.0
207.571259 116.0
207.760559 64.0
207.846634 192.0
207.87532 128.0
207.94133 160.0
208.047546 48.0
208.086304 368.0
208.123535 1928.0
208.216949 72.0
208.390732 204.0
208.553116 104.0
208.700241 68.0
208.822342 188.0
208.898178 96.0
209.065048 164.0
209.094635 704.0
209.132034 4092.0
209.22049 128.0
209.2883 144.0
209.410538 52.0
209.434769 136.0
209.455124 108.0
209.533035 76.0
209.542191 40.0
209.603561 132.0
209.641769 172.0
209.727478 140.0
209.792358 184.0
209.94371 64.0
209.975433 208.0
210.074203 232.0
210.102203 696.0
210.136414 1932.0
210.243744 60.0
210.330338 108.0
210.57576 96.0
210.7202 56.0
210.751984 144.0
210.821335 44.0
210.957184 116.0
211.068619 200.0
211.111481 3068.0
211.147446 1872.0
211.257935 120.0
211.324478 216.0
211.448914 52.0
211.535736 32.0
211.602325 192.0
212.083206 160.0
212.116272 936.0
212.151337 740.0
212.24556 132.0
212.453186 56.0
212.510712 136.0
212.79686 188.0
213.08992 192.0
213.126633 4672.0
213.158569 852.0
213.235489 36.0
213.288849 112.0
213.412827 44.0
213.523987 140.0
213.619308 136.0
213.674591 56.0
213.74733 124.0
213.793884 44.0
213.834641 196.0
214.096359 276.0
214.129379 2208.0
214.164154 180.0
214.265594 76.0
214.318039 64.0
214.341354 140.0
214.41713 48.0
214.511292 52.0
214.653259 40.0
214.67659 92.0
214.909943 84.0
215.032516 128.0
215.069839 76.0
215.1082 856.0
215.142715 1128.0
215.22226 40.0
215.277756 64.0
215.298187 72.0
215.353683 92.0
215.400421 104.0
215.520203 56.0
215.609848 136.0
215.675095 52.0
215.724777 108.0
215.77919 88.0
215.827118 108.0
216.066681 180.0
216.093674 144.0
216.149017 292.0
216.183792 116.0
216.330338 152.0
216.549942 212.0
216.57045 164.0
216.720261 144.0
217.105789 584.0
217.113022 580.0
217.122177 932.0
217.161484 352.0
217.265182 140.0
217.291595 148.0
217.335602 152.0
217.379623 132.0
217.429504 176.0
218.076233 164.0
218.108627 276.0
218.157013 148.0
218.384384 44.0
219.028992 100.0
219.117294 588.0
219.167465 168.0
219.63031 128.0
219.830933 48.0
219.875198 136.0
220.086655 268.0
220.123764 436.0
220.400848 128.0
220.684601 160.0
220.977417 60.0
221.092636 796.0
221.131561 2096.0
221.25267 100.0
221.608078 120.0
222.085358 184.0
222.110916 156.0
222.138031 512.0
222.168411 156.0
222.263351 168.0
222.462204 152.0
222.640366 124.0
222.708679 96.0
222.895844 60.0
222.922592 176.0
223.038498 132.0
223.111038 1192.0
223.147278 4148.0
223.19606 268.0
223.32692 68.0
223.558975 68.0
223.663147 180.0
223.686966 48.0
223.745483 132.0
223.898361 104.0
223.9758 144.0
224.118439 792.0
224.150558 1448.0
224.264832 68.0
224.333389 208.0
224.378113 84.0
224.44072 80.0
224.482468 92.0
224.533173 112.0
224.673355 56.0
224.816589 44.0
224.900146 148.0
224.932983 60.0
225.015854 176.0
225.064346 148.0
225.086517 180.0
225.126404 3864.0
225.160797 1232.0
225.231598 84.0
225.252502 156.0
225.506485 148.0
225.544281 68.0
225.655945 52.0
225.778549 80.0
225.847336 40.0
225.999908 56.0
226.074722 164.0
226.134521 2112.0
226.169785 544.0
226.59874 64.0
226.640686 60.0
226.664658 192.0
226.772537 84.0
226.970398 128.0
227.072357 64.0
227.110504 480.0
227.142883 2696.0
227.298248 124.0
227.364044 72.0
227.802643 76.0
228.103134 96.0
228.148483 1564.0
228.186951 164.0
228.300705 148.0
228.577682 164.0
228.643661 76.0
228.685806 44.0
228.767075 68.0
228.848358 56.0
228.956772 40.0
229.1194 496.0
229.157928 1592.0
229.206802 40.0
229.270081 88.0
229.426819 176.0
229.565521 76.0
229.66806 236.0
229.74649 36.0
229.776672 176.0
229.827957 60.0
229.967529 112.0
230.104645 424.0
230.164932 88.0
230.193207 268.0
230.377441 64.0
230.498306 84.0
230.788483 40.0
230.994141 200.0
231.137299 864.0
231.172379 212.0
231.27858 204.0
231.529877 152.0
231.596512 140.0
231.705566 160.0
231.932846 148.0
231.984375 68.0
232.087448 280.0
232.125565 356.0
232.184494 200.0
232.34462 132.0
232.466629 108.0
232.493942 180.0
232.645706 144.0
233.049637 208.0
233.094284 228.0
233.131989 1336.0
234.032089 244.0
234.105804 360.0
234.13887 576.0
234.70549 196.0
235.044067 108.0
235.113663 584.0
235.146851 1972.0
235.285187 48.0
235.346252 212.0
235.41954 164.0
236.055176 164.0
236.114212 520.0
236.146332 328.0
236.224533 224.0
236.284576 40.0
236.318222 204.0
236.419205 64.0
236.599808 172.0
236.795776 72.0
237.127533 1196.0
237.162582 980.0
237.203308 212.0
237.307541 108.0
237.353531 148.0
237.388474 152.0
237.519135 64.0
237.54982 52.0
237.66333 68.0
237.951843 88.0
238.099838 184.0
238.134247 296.0
238.170212 468.0
238.787048 176.0
238.87381 52.0
238.923035 64.0
239.022812 316.0
239.064789 168.0
239.103638 1416.0
239.142502 6368.0
239.178665 572.0
239.35701 52.0
239.547958 52.0
239.589081 168.0
239.637299 52.0
239.677368 88.0
239.948593 144.0
240.007172 200.0
240.146194 1552.0
240.185211 280.0
240.269348 100.0
240.346481 96.0
240.574875 184.0
240.62735 172.0
240.806458 140.0
240.831161 80.0
241.046631 172.0
241.123047 312.0
241.158829 12948.0
241.257599 44.0
241.296661 76.0
241.423767 124.0
241.563751 104.0
241.650375 132.0
241.681381 124.0
241.78653 108.0
241.808197 152.0
241.835129 40.0
241.870102 120.0
241.93512 104.0
242.044601 176.0
242.093903 184.0
242.12709 552.0
242.16188 2996.0
242.213821 180.0
242.27887 64.0
242.328445 44.0
242.351547 100.0
242.588776 100.0
242.712784 40.0
242.988831 80.0
243.137512 640.0
243.170517 984.0
243.299194 52.0
243.323273 180.0
243.556931 136.0
243.681198 104.0
243.774231 140.0
243.917389 44.0
244.123734 152.0
244.176422 548.0
244.284317 184.0
244.452332 124.0
244.62352 156.0
244.819672 76.0
244.897537 152.0
244.94426 116.0
244.990982 88.0
245.142395 492.0
245.201309 104.0
245.273087 236.0
245.410736 176.0
245.439804 48.0
245.70491 196.0
245.954559 176.0
246.007629 72.0
246.145111 184.0
246.254318 52.0
246.295639 188.0
246.401123 140.0
246.99823 104.0
247.119415 300.0
247.146912 884.0
247.477051 136.0
247.589783 224.0
248.116852 332.0
248.156525 512.0
248.558441 52.0
248.796982 176.0
248.988525 128.0
249.063904 136.0
249.127228 1568.0
249.16304 2900.0
249.246124 40.0
249.299545 180.0
249.351242 196.0
249.620193 40.0
249.812042 132.0
249.862381 56.0
249.95993 132.0
250.136841 764.0
250.161438 604.0
250.406967 56.0
250.495163 168.0
250.555008 76.0
250.633774 160.0
250.6716 88.0
250.895386 96.0
250.932419 152.0
251.015198 120.0
251.049881 120.0
251.143417 3128.0
251.176407 768.0
251.3685 108.0
251.535767 44.0
251.652588 116.0
251.699951 48.0
251.740997 88.0
251.767426 152.0
251.964127 56.0
252.009491 68.0
252.115738 168.0
252.147217 1488.0
252.176575 252.0
252.347687 40.0
252.730392 112.0
252.793686 96.0
252.828491 32.0
252.929779 84.0
253.15712 4696.0
253.316101 36.0
253.499863 60.0
253.531555 128.0
253.569595 88.0
253.642487 108.0
253.715408 92.0
253.759781 68.0
253.892975 60.0
254.105499 184.0
254.160187 876.0
254.202057 120.0
254.214233 164.0
254.276855 40.0
254.324463 144.0
254.67691 100.0
254.988281 108.0
255.102707 180.0
255.137009 284.0
255.172028 336.0
255.60524 48.0
255.726166 228.0
255.949005 40.0
255.999969 96.0
256.041351 224.0
256.098694 112.0
256.146484 148.0
256.17691 336.0
256.208527 176.0
256.283478 136.0
256.32489 56.0
256.388611 48.0
256.481049 196.0
256.697845 220.0
257.154236 364.0
257.186401 332.0
257.732086 104.0
258.139923 264.0
258.186005 120.0
258.237183 80.0
258.345947 92.0
258.720367 192.0
258.954132 40.0
259.014984 68.0
259.111084 152.0
259.168732 284.0
259.361053 72.0
259.428375 48.0
259.538422 92.0
259.646423 48.0
259.938354 36.0
260.031403 52.0
260.136139 160.0
260.1763 732.0
260.346039 144.0
260.477722 64.0
260.718689 196.0
261.13031 140.0
261.157898 372.0
261.513092 76.0
261.683716 140.0
261.851166 116.0
262.070221 52.0
262.135376 324.0
262.175568 592.0
262.498932 80.0
262.647278 124.0
262.679535 52.0
262.702118 152.0
263.055908 236.0
263.144653 1236.0
263.17868 1184.0
263.740784 92.0
263.790405 208.0
264.145538 368.0
264.187164 172.0
264.404938 76.0
264.469696 176.0
264.621826 48.0
264.974854 88.0
265.016998 116.0
265.158356 1284.0
265.817902 124.0
265.908783 92.0
265.996399 180.0
266.077576 88.0
266.163422 1004.0
266.249664 72.0
266.317871 112.0
266.626526 56.0
266.681793 124.0
266.733795 72.0
266.779297 64.0
266.821991 208.0
266.993896 68.0
267.039429 120.0
267.095886 192.0
267.137573 624.0
267.172638 5444.0
267.449402 64.0
267.507996 72.0
267.670776 112.0
267.705994 84.0
267.732666 116.0
267.895508 64.0
268.179749 3896.0
268.498535 44.0
268.534393 100.0
268.583313 64.0
268.75296 80.0
268.824768 92.0
268.98468 36.0
269.155548 1280.0
269.187744 2652.0
269.34491 64.0
269.695984 132.0
269.755615 108.0
269.873322 88.0
270.023743 96.0
270.102234 132.0
270.130249 168.0
270.157349 308.0
270.191986 536.0
270.524384 116.0
271.166656 876.0
271.248322 36.0
271.858368 72.0
272.042175 60.0
272.11441 36.0
272.13739 108.0
272.172516 304.0
272.216187 168.0
272.99173 164.0
273.11673 172.0
273.162781 984.0
273.19635 152.0
273.458893 104.0
274.058258 64.0
274.166382 260.0
274.193359 140.0
274.23291 68.0
274.341705 72.0
274.499969 92.0
275.12027 140.0
275.146973 132.0
275.913147 268.0
276.088379 124.0
276.14624 616.0
276.286865 208.0
276.339783 104.0
276.456635 64.0
276.71048 80.0
277.157562 392.0
277.419464 100.0
277.671448 124.0
278.089508 64.0
278.166168 168.0
278.487946 72.0
278.521149 104.0
278.557678 248.0
278.860077 124.0
279.069489 148.0
279.140411 356.0
279.172119 512.0
279.288971 92.0
279.565125 44.0
279.947968 132.0
279.977936 172.0
280.136444 288.0
280.177765 436.0
280.337738 56.0
280.704437 120.0
280.957916 56.0
281.153656 1480.0
281.188232 2020.0
281.244415 192.0
281.294983 28.0
281.348389 180.0
281.425171 60.0
281.528687 32.0
281.555389 40.0
281.729095 60.0
281.832672 80.0
282.154724 696.0
282.192841 804.0
282.715485 40.0
282.819214 100.0
282.983276 60.0
283.098785 216.0
283.165131 864.0
283.196228 128.0
283.344971 68.0
283.448853 72.0
283.495758 52.0
283.609711 88.0
283.988617 92.0
284.028839 44.0
284.064636 96.0
284.178833 856.0
284.221283 144.0
284.861328 68.0
285.106628 120.0
285.181976 1044.0
285.230988 160.0
285.392365 60.0
285.452881 76.0
285.950775 36.0
286.10376 72.0
286.15274 160.0
286.191528 1404.0
286.253754 64.0
287.201599 1144.0
287.275024 160.0
287.342499 36.0
287.862305 56.0
287.889313 64.0
287.92984 32.0
287.960236 140.0
288.201935 468.0
288.281189 112.0
288.832275 108.0
289.170654 208.0
289.258636 64.0
289.299255 116.0
289.661621 72.0
289.963165 96.0
290.288635 120.0
290.441254 192.0
290.515869 60.0
291.124817 116.0
291.174469 2844.0
291.551483 112.0
291.595673 52.0
291.799622 40.0
291.833618 152.0
291.87442 260.0
292.174957 908.0
292.292816 48.0
292.507233 104.0
292.701294 100.0
293.021484 128.0
293.153259 312.0
293.18454 180.0
293.427063 124.0
293.628235 80.0
293.853394 56.0
294.160156 628.0
294.416595 156.0
294.546387 84.0
294.912018 84.0
294.990631 112.0
295.165283 428.0
295.969116 96.0
296.085541 56.0
296.177368 496.0
297.145203 60.0
297.184631 1672.0
297.388397 44.0
297.996246 40.0
298.184052 320.0
298.329224 180.0
298.439606 68.0
299.167603 448.0
299.200439 880.0
299.81311 72.0
299.968201 104.0
300.030273 72.0
300.064728 40.0
300.168182 208.0
300.201965 616.0
300.575226 52.0
300.92038 32.0
301.158478 172.0
301.183899 312.0
301.21048 64.0
301.739227 148.0
302.175293 284.0
302.358398 48.0
302.417236 20.0
303.12027 132.0
303.166901 132.0
304.046204 128.0
305.540375 144.0
306.696503 148.0
306.950989 60.0
307.170715 176.0
309.183716 7728.0
309.265381 96.0
309.596375 72.0
309.641907 140.0
309.897644 44.0
310.083374 68.0
310.130219 88.0
310.187592 2156.0
310.414276 76.0
310.518127 44.0
310.737732 112.0
311.152863 168.0
311.194458 136.0
311.983459 188.0
312.170288 832.0
312.239044 60.0
313.170135 128.0
313.598083 60.0
314.21167 152.0
314.804657 160.0
315.19455 292.0
316.186951 268.0
316.434753 84.0
316.463074 40.0
316.640137 96.0
317.201721 136.0
318.012238 92.0
318.065491 32.0
318.143585 76.0
318.211029 132.0
320.423248 120.0
321.007812 96.0
322.199951 216.0
323.211517 152.0
325.290527 88.0
325.577759 108.0
326.001678 76.0
326.192169 148.0
326.487 108.0
326.544556 168.0
326.943909 48.0
326.994293 100.0
327.098663 156.0
327.131073 204.0
327.195282 6400.0
327.469543 32.0
327.703705 80.0
327.73053 72.0
327.941528 48.0
328.118164 204.0
328.197815 2228.0
328.316498 88.0
328.476807 116.0
329.168152 148.0
329.201721 384.0
329.243988 276.0
329.442657 128.0
330.147491 120.0
330.201721 144.0
330.317474 148.0
330.412659 156.0
330.813232 120.0
332.041565 72.0
332.6185 132.0
333.453888 48.0
334.268524 128.0
335.970062 88.0
341.174133 148.0
341.210571 144.0
341.368988 100.0
343.176971 116.0
343.959076 80.0
344.187988 140.0
344.764252 100.0
345.206482 1676.0
345.433502 100.0
346.209808 808.0
346.625671 56.0
347.037109 32.0
347.155762 48.0
347.205627 136.0
348.488373 124.0
348.640717 44.0
349.187225 120.0
349.559265 44.0
350.874084 36.0
351.187531 140.0
352.206329 136.0
353.634644 68.0
354.185059 168.0
355.433502 120.0
356.451111 68.0
357.221863 96.0
357.684723 68.0
359.169373 156.0
359.788239 84.0
362.773102 88.0
363.218506 168.0
365.085449 88.0
365.207153 92.0
365.412598 52.0
367.61499 104.0
367.668427 144.0
369.198273 512.0
370.206787 204.0
372.88089 52.0
373.188416 184.0
373.857758 108.0
377.302246 36.0
377.785675 84.0
378.013947 80.0
379.842682 64.0
380.960663 92.0
384.621094 56.0
386.19577 80.0
387.215515 272.0
388.19873 240.0
395.137512 84.0
399.803925 56.0
401.305695 64.0
403.657562 68.0
404.270172 144.0
405.227051 400.0
405.422974 68.0
406.19278 132.0
406.227966 232.0
407.184204 92.0
407.232391 164.0
407.919525 80.0
409.931915 120.0
410.879486 144.0
418.531799 104.0
420.096863 112.0
421.705688 52.0
425.798737 56.0
432.784454 68.0
433.501099 32.0
451.241302 60.0
457.013885 72.0
459.297363 128.0
463.881409 72.0
464.164368 60.0
473.169708 48.0
475.046234 40.0
475.592987 84.0
478.849609 84.0
480.274872 76.0
482.082367 52.0
488.901764 88.0
489.645782 84.0
495.303833 96.0
501.234955 96.0
502.969849 88.0
503.787048 132.0
505.611359 64.0
510.20459 76.0
510.3125 60.0
511.792816 104.0
521.869446 100.0
526.435303 72.0
531.323792 104.0
534.19043 56.0
538.638855 48.0
542.526062 112.0
544.131287 100.0
546.362061 96.0
547.064819 104.0
554.332397 40.0
554.782349 68.0
562.06781 96.0
565.243225 84.0
573.373474 72.0
583.361633 136.0
583.95929 52.0
589.600159 92.0
590.997742 36.0
594.675903 48.0
595.865662 116.0
600.470642 84.0
612.114807 192.0
613.016296 108.0
614.100891 80.0
639.729492 224.0
642.420593 168.0
644.606812 76.0
661.866638 44.0
662.711792 56.0
693.480652 108.0
694.450623 144.0
699.847717 104.0
702.118896 112.0
703.53302 40.0
708.313538 288.0
709.113647 60.0
711.973267 172.0
720.992798 40.0
727.404114 84.0
737.255371 100.0
739.797607 76.0
748.130737 96.0
750.511658 52.0
751.177002 132.0
753.196716 72.0
753.688416 68.0
754.606689 68.0
758.937683 108.0
764.315125 232.0
774.545349 188.0
779.54425 180.0
782.687195 172.0
783.049133 228.0
783.979553 64.0
794.721558 44.0
797.203552 88.0
797.259766 112.0
799.689392 52.0
823.132324 228.0
825.549561 44.0
827.111511 56.0
833.379761 232.0
835.104431 112.0
836.612061 68.0
847.296204 140.0
852.942688 164.0
854.582703 68.0
857.016541 148.0
859.179626 200.0
861.327881 124.0
863.092834 88.0
865.784729 60.0
874.968384 148.0
875.987183 176.0
880.629395 132.0
882.626892 52.0
882.96991 128.0
890.871216 212.0
891.102905 56.0
894.141541 168.0
894.278442 240.0
901.620361 96.0
906.467773 228.0
906.953186 188.0
907.594666 212.0
911.670654 140.0
913.113525 116.0
915.852112 88.0
923.481445 52.0
926.072021 196.0
932.770874 88.0
934.5224 184.0
934.826599 60.0
935.654419 172.0
937.701172 192.0
938.414368 144.0
940.274902 176.0
943.102844 204.0
947.018738 192.0
951.980347 36.0
953.540833 104.0
953.946533 156.0
955.970093 132.0
956.948792 244.0
957.108887 104.0
958.790649 64.0
964.765625 124.0
965.854004 140.0
969.730103 88.0
970.771667 148.0
974.067322 176.0
976.298706 116.0
977.063782 136.0
978.694458 96.0
979.068054 192.0
979.541443 112.0
979.809326 52.0
981.542053 104.0
984.487488 216.0
987.618713 164.0
998.211548 236.0
999.696167 136.0
1000.728516 172.0
1002.076355 96.0
1002.196045 240.0
1004.402588 156.0
1006.396851 112.0
1006.744202 204.0
1006.820679 176.0
1006.870483 120.0
1007.090637 216.0
1007.413696 200.0
1009.15802 140.0
1017.292786 104.0
1017.94043 52.0
1018.994812 68.0
1021.531433 148.0
1022.065857 176.0
1025.995605 172.0
1026.869263 152.0
1027.079712 152.0
1027.953857 92.0
1028.253784 216.0
1030.309814 240.0
1034.178711 176.0
1034.255493 96.0
1038.760132 84.0
1040.691895 60.0
1041.449707 156.0
1043.133301 172.0
1043.53833 188.0
1043.80835 172.0
1043.859863 68.0
1045.332886 148.0
1046.285522 184.0
1047.122681 132.0
1047.824829 36.0
1048.901001 160.0
1048.958984 196.0
1049.332886 204.0
1050.726074 204.0
1054.122314 164.0
1054.296875 220.0
1054.781616 52.0
1055.331055 132.0
1061.190796 172.0
1061.644653 172.0
1062.818848 52.0
1065.734253 140.0
1066.065674 172.0
1066.176147 144.0
1067.521851 180.0
1067.645386 224.0
1070.150635 128.0
1071.902832 156.0
1073.747803 148.0
1074.413086 200.0
1075.117798 196.0
1075.346191 156.0
1075.966309 180.0
1078.579468 216.0
1082.040039 216.0
1082.269287 160.0
1082.773438 152.0
1083.828125 176.0
1084.857178 176.0
1088.66272 156.0
1091.633057 72.0
1092.863159 176.0
1094.732666 204.0
1098.16626 156.0
1100.060059 220.0
1100.416626 136.0
1101.037354 188.0
1102.424683 180.0
1102.649414 148.0
1104.599976 228.0
1106.552246 236.0
1111.828735 168.0
1112.207031 156.0
1112.751343 172.0
1113.17627 92.0
1115.169434 176.0
1115.860718 136.0
1116.911499 132.0
1120.57959 140.0
1121.8125 124.0
1122.205933 56.0
1122.285889 84.0
1122.699341 176.0
1124.821045 180.0
1125.395264 136.0
1125.90271 80.0
1127.105225 76.0
1128.047607 128.0
1128.38855 172.0
1130.763184 168.0
1133.060059 144.0
1133.314697 228.0
1133.87085 108.0
1135.546997 68.0
1137.466064 180.0
1137.89563 152.0
1139.789795 76.0
1139.984619 160.0
1142.956909 184.0
1143.253052 216.0
1144.195312 136.0
1145.515259 160.0
1148.805054 208.0
1151.147095 156.0
1151.532104 136.0
1152.065674 252.0
1152.957642 160.0
1153.079224 228.0
1153.985107 148.0
1154.086548 156.0
1154.620728 180.0
1154.729004 204.0
1154.884521 232.0
1155.506836 152.0
1156.210571 192.0
1156.99585 128.0
1157.158325 132.0
1157.496826 184.0
1157.591675 240.0
1157.855835 56.0
1158.824463 112.0
1159.949463 224.0
1160.464722 216.0
1161.054688 256.0
1161.922852 152.0
1162.974731 144.0
1163.041382 200.0
1163.266602 192.0
1163.402344 132.0
1163.589111 188.0
1164.135742 80.0
1164.407349 60.0
1165.005127 164.0
1166.078735 216.0
1167.057617 184.0
1168.145752 140.0
1168.853394 32.0
1168.935059 44.0
1170.861572 36.0
1171.46106 112.0
1172.6875 152.0
1174.651367 188.0
1176.261719 192.0
1176.766968 160.0
1178.61792 84.0
1181.003906 176.0
1181.27063 208.0
1181.503296 156.0
1183.933228 124.0
1184.012939 192.0
1184.405151 172.0
1185.029175 192.0
1185.666504 140.0
1185.714478 196.0
1187.078735 176.0
1187.346191 72.0
1189.239868 180.0
1190.915161 200.0
1191.341064 164.0
1193.499146 192.0
1195.783081 176.0
1195.968994 160.0
1199.233765 148.0
1201.061035 136.0
1201.205933 188.0
1203.400513 72.0
1204.008179 92.0
1204.526245 100.0
1204.940674 52.0
1205.838989 160.0
1206.495728 176.0
1207.851074 140.0
1209.504883 176.0
1211.485474 144.0
1211.533936 148.0
1212.268433 160.0
1213.390869 124.0
1213.973755 148.0
1214.209473 152.0
1214.47998 128.0
1214.632568 188.0
1215.451294 96.0
1215.562256 112.0
1215.624756 204.0
1215.888428 72.0
1216.03418 184.0
1218.096436 176.0
1219.576538 92.0
1220.389893 68.0
1221.001831 124.0
1221.300903 156.0
1221.676636 80.0
1223.24231 196.0
1223.799316 164.0
1224.432983 216.0
1224.621094 140.0
1225.463989 184.0
1228.001465 168.0
1228.161865 196.0
1230.758057 116.0
1230.848755 164.0
1231.393555 56.0
1231.512207 184.0
1231.861572 192.0
1232.098999 164.0
1232.832764 184.0
1233.433838 172.0
1235.482788 148.0
1235.629639 68.0
1236.161499 188.0
1237.596436 160.0
1239.144287 148.0
1240.959595 192.0
1241.85022 180.0
1242.158936 124.0
1242.727173 164.0
1243.267456 164.0
1243.674561 84.0
1244.060669 228.0
1244.854004 156.0
1246.329224 152.0
1247.067017 184.0
1249.303223 104.0
1249.464966 160.0
1249.669067 212.0
1250.731689 152.0
1250.851318 224.0
1251.830078 200.0
1252.541382 212.0
1252.675171 180.0
1253.538208 192.0
1254.063354 176.0
1254.824707 152.0
1259.108032 108.0
1259.750732 164.0
1260.902466 144.0
1261.149902 248.0
1262.06189 68.0
1262.167969 56.0
1263.60376 112.0
1264.523682 48.0
1265.415649 328.0
1266.20874 108.0
1266.484985 168.0
1267.087158 228.0
1267.285522 40.0
1267.717773 80.0
1268.249268 200.0
1270.905762 168.0
1274.302612 248.0
1276.662598 116.0
1276.968384 144.0
1278.249023 72.0
1278.369995 132.0
1279.160034 156.0
1279.993042 36.0
1280.740723 112.0
1281.617065 160.0
1282.536377 228.0
1282.743164 140.0
1283.049683 164.0
1283.784058 140.0
1283.869629 184.0
1284.953857 184.0
1286.888062 168.0
1287.553223 176.0
1287.809326 100.0
1288.073608 168.0
1288.373657 148.0
1288.687988 136.0
1289.731445 212.0
1290.303223 152.0
1291.225708 168.0
1294.192627 204.0
1294.26709 120.0
1296.946533 204.0
1297.699219 168.0
1297.763794 188.0
1299.585571 184.0
1300.023315 160.0
1300.382202 76.0
1301.193359 128.0
1301.645752 188.0
1302.069458 176.0
1304.915039 124.0
1305.425537 96.0
1305.511841 160.0
1305.569336 144.0
1305.634155 68.0
1306.231079 72.0
1308.126953 176.0
1308.303589 296.0
1308.64917 172.0
1309.138916 200.0
1309.225342 176.0
1309.967163 124.0
1310.406616 120.0
1311.141602 148.0
1311.321777 216.0
1311.487549 128.0
1312.078735 144.0
1312.677246 132.0
1313.174805 172.0
1313.600342 148.0
1314.964111 120.0
1315.454956 64.0
1316.689697 188.0
1317.520386 184.0
1319.254761 236.0
1319.399414 172.0
1319.789795 148.0
1320.06543 180.0
1320.635986 116.0
1320.795044 152.0
1320.932495 144.0
1321.200195 144.0
1321.908081 216.0
1322.897705 172.0
1323.023926 200.0
1323.241089 144.0
1323.335205 188.0
1324.320068 204.0
1327.03772 68.0
1327.632324 144.0
1327.900635 112.0
1328.826904 212.0
1328.923462 208.0
1329.293579 164.0
1329.576538 108.0
1329.627319 128.0
1330.418579 136.0
1331.202759 168.0
1332.321289 164.0
1332.372192 224.0
1332.546509 148.0
1333.076904 152.0
1333.680176 144.0
1334.581665 180.0
1334.901611 208.0
1335.192993 128.0
1335.359741 128.0
1335.454346 148.0
1336.669312 128.0
1337.804688 120.0
1338.387207 148.0
1340.557861 140.0
1340.659912 140.0
1341.031616 152.0
1341.439819 160.0
1342.453247 184.0
1342.628296 172.0
1343.547363 188.0
1344.225952 164.0
1346.218872 268.0
1347.112183 244.0
1347.431396 84.0
1348.030518 144.0
1349.126953 204.0
1350.274902 168.0
1352.338257 116.0
1353.275269 52.0
1353.597412 60.0
1354.13208 220.0
1356.17627 196.0
1356.711304 108.0
1356.865356 212.0
1357.165894 112.0
1357.928589 152.0
1358.332031 132.0
1358.537476 44.0
1358.882202 180.0
1359.197754 192.0
1359.660034 96.0
1359.71875 224.0
1360.652466 120.0
1360.768555 168.0
1361.789307 172.0
1361.943481 172.0
1362.501831 140.0
1363.384277 168.0
1363.589966 208.0
1363.964233 140.0
1365.184692 172.0
1365.41272 204.0
1365.814819 220.0
1365.942261 152.0
1366.60437 148.0
1367.031128 180.0
1367.274048 168.0
1367.325562 176.0
1367.656738 136.0
1367.752441 140.0
1367.818726 92.0
1368.562256 116.0
1369.158691 200.0
1369.30603 164.0
1369.40918 172.0
1369.696411 212.0
1370.131104 144.0
1370.352051 156.0
1370.786865 136.0
1371.0448 196.0
1371.140503 156.0
1371.318604 160.0
1371.450073 152.0
1371.627075 128.0
1372.172607 152.0
1372.467529 216.0
1373.914429 160.0
1374.355713 200.0
1375.152832 56.0
1375.423218 144.0
1375.750732 68.0
1376.223267 148.0
1376.437378 132.0
1376.998657 172.0
1379.821411 140.0
1380.138916 140.0
1381.108154 104.0
1382.158691 168.0
1382.980103 180.0
1383.513184 188.0
1383.779663 108.0
1387.358032 128.0
1388.414062 244.0
1388.952393 124.0
1389.436646 196.0
1390.525391 196.0
1390.666504 188.0
1391.393921 184.0
1391.898804 324.0
1392.086304 196.0
1392.634033 136.0
1392.908936 124.0
1394.157104 224.0
1394.699707 240.0
1395.264648 140.0
1395.502563 184.0
1395.5979 156.0
1395.859497 176.0
1395.926392 144.0
1396.104858 112.0
1396.447021 172.0
1396.945435 208.0
1398.753662 152.0
1399.438599 224.0
1399.527954 80.0
1399.747437 160.0
1399.922607 136.0
1400.026855 140.0
1400.242798 112.0
1400.481201 100.0
1400.905762 168.0
1401.077148 208.0
1401.919067 184.0
1402.694214 188.0
1402.946777 172.0
1404.028931 160.0
1404.431641 48.0
1404.685303 180.0
1404.804565 168.0
1405.214966 204.0
1405.617798 244.0
1406.401489 140.0
1406.491089 128.0
1406.625366 164.0
1406.72998 168.0
1407.693115 136.0
1408.365234 132.0
1408.80603 92.0
1408.955444 80.0
1409.110596 144.0
1409.39624 104.0
1409.777344 248.0
1412.177246 180.0
1412.326782 196.0
1412.513794 176.0
1412.798096 176.0
1413.104858 144.0
1413.874146 168.0
1414.856201 64.0
1415.080811 192.0
1415.260498 148.0
1415.485107 168.0
1415.672363 164.0
1416.675781 164.0
1417.282837 164.0
1418.152222 208.0
1418.856812 68.0
1418.991821 176.0
1419.786621 120.0
1420.116577 176.0
1420.214111 68.0
1420.439209 156.0
1420.664185 92.0
1421.16687 208.0
1421.523804 156.0
1422.960693 116.0
1423.644043 212.0
1424.154785 108.0
1425.792603 152.0
1426.559326 200.0
1427.88269 76.0
1428.183594 204.0
1428.236206 96.0
1428.552124 220.0
1428.985718 172.0
1429.808716 192.0
1429.981812 208.0
1430.395874 160.0
1431.186401 96.0
1431.314331 180.0
1431.464966 52.0
1431.848999 112.0
1432.579712 208.0
1432.700195 144.0
1433.152222 132.0
1433.220093 128.0
1433.838013 140.0
1435.572021 148.0
1437.14856 156.0
1437.374878 124.0
1437.586182 152.0
1438.288086 168.0
1438.854248 144.0
1440.115356 160.0
1440.168213 184.0
1440.825439 164.0
1442.155396 204.0
1442.246094 80.0
1442.722412 52.0
1443.07019 132.0
1443.523804 228.0
1443.758301 156.0
1444.688599 164.0
1446.247437 160.0
1447.405762 196.0
1447.875244 156.0
1447.943481 152.0
1448.73877 172.0
1449.541992 176.0
1449.75415 188.0
1450.064819 156.0
1450.421143 192.0
1450.784912 64.0
1451.179199 192.0
1451.247437 160.0
1452.10437 168.0
1453.432007 144.0
1453.507812 232.0
1454.411011 136.0
1455.028076 224.0
1455.170166 164.0
1455.792725 140.0
1456.415527 184.0
1456.529541 136.0
1457.076416 224.0
1457.281616 152.0
1457.547485 232.0
1458.284668 136.0
1458.550781 176.0
1458.778809 144.0
1458.999268 124.0
1460.200684 84.0
1460.37561 180.0
1460.520142 144.0
1460.832031 144.0
1461.052612 148.0
1461.653687 164.0
1461.836304 140.0
1461.904907 156.0
1462.04187 140.0
1462.917114 164.0
1464.638184 140.0
1464.935181 172.0
1465.110474 148.0
1465.308472 100.0
1466.985107 168.0
1467.922974 328.0
1468.01709 128.0
1468.655151 196.0
1468.761963 116.0
1469.013672 180.0
1469.135742 164.0
1469.265381 164.0
1471.081665 164.0
1471.829956 108.0
1472.56311 164.0
1472.937378 104.0
1473.273438 148.0
1474.557129 164.0
1475.826172 160.0
1476.843262 140.0
1477.275635 124.0
1477.416992 144.0
1478.15918 208.0
1478.220459 168.0
1478.641357 188.0
1479.238403 248.0
1480.042236 192.0
1480.20813 112.0
1480.325562 236.0
1482.255981 160.0
1482.317261 200.0
1483.00708 144.0
1483.898071 100.0
1484.555664 188.0
1484.617065 136.0
1486.46582 308.0
1486.650024 200.0
1487.007202 192.0
1488.492432 164.0
1488.807251 104.0
1488.907104 112.0
1489.045288 92.0
1489.928711 80.0
1490.205322 164.0
1490.789307 248.0
1492.657349 120.0
1492.765015 152.0
1494.095581 212.0
1494.818848 168.0
1495.088257 156.0
1496.620117 200.0
1498.445557 128.0
1499.340576 160.0
1499.855835 176.0
1500.750122 32.0
1501.151123 132.0
1501.467285 44.0
1501.937744 112.0
1502.068848 204.0
1503.650635 128.0
1504.823975 164.0
1505.040161 200.0
