>compound MLS002222307-01!N-Ethyl-o-crotonotoluidide483-63-6
>formula C13H17NO
>ionization [M+H]+
>parentmass 204.138
#inchi InChI=1S/C13H17NO/c1-4-8-13(15)14(5-2)12-10-7-6-9-11(12)3/h4,6-10H,5H2,1-3H3/b8-4+
#inchikey DNTGGZPQPQTDQF
#Ion_Source LC-ESI
#Instrument qTof
#Compound_Source NIH Pharmacologically Active Library
#PI Dorrestein
#Data_Collector VP/LMS
#Scan -1
#Precursor_MZ 204.138
#ExactMass 203.131
#Charge 1
#CAS_Number N/A
#Pubmed_ID N/A
#Smiles CCN(C(=O)/C=C/C)c1ccccc1C
#INCHI_AUX N/A
#Library_Class 1
#SpectrumID CCMSLIB00000084985
#IonMode Positive
#UpdateWorkflowName UPDATE-SINGLE-ANNOTATED-GOLD
#LibraryQualityString Gold
#TaskID d252d724072548979f1f6f1ced849daf
##Scan# 2059
#SpectrumFile p3-D05_GD5_01_18262.mzXML
#LibraryName Pharm_Active_Library.mgf
#MQScore -1
#Organism Pharm_Active_Library
#TIC_Query 0
#RT_Query -1
#MZErrorPPM -1
#SharedPeaks 0
#MassDiff 0
#LibMZ -1
#SpecMZ 204.138
#SpecCharge 0
#internalFilename spec-00000.mgf

>collision 10
45.400517 144.0
47.257828 84.0
47.834259 180.0
51.138214 136.0
53.487503 204.0
53.770279 164.0
54.979645 140.0
56.634525 192.0
56.937504 132.0
57.808903 152.0
58.099827 140.0
58.31242 188.0
58.437119 172.0
58.593941 244.0
59.074852 144.0
59.393482 132.0
60.142857 164.0
62.395576 116.0
62.582813 140.0
63.263294 116.0
63.355148 176.0
63.531124 160.0
63.642223 196.0
64.417854 176.0
65.209435 148.0
66.350731 92.0
66.847771 116.0
67.095352 180.0
68.1642 188.0
69.769165 220.0
72.914406 204.0
73.626556 156.0
75.149216 80.0
75.610611 112.0
76.075157 124.0
76.381004 200.0
76.703148 168.0
79.604568 208.0
80.698662 172.0
81.142693 184.0
84.938629 152.0
86.567947 160.0
87.614616 184.0
87.841125 140.0
89.969269 144.0
90.400223 160.0
90.691887 180.0
91.053284 712.0
92.052208 112.0
93.056458 732.0
93.838654 140.0
94.27684 176.0
94.933113 200.0
96.229065 56.0
96.78241 168.0
101.952408 228.0
103.050629 188.0
104.057259 120.0
104.134422 132.0
104.325432 116.0
104.873009 40.0
105.064697 152.0
106.064934 3704.0
106.113892 44.0
106.163101 56.0
106.222588 68.0
106.327232 68.0
106.555161 152.0
106.57724 220.0
107.071732 716.0
107.57872 48.0
108.079903 1372.0
109.082558 156.0
109.594673 72.0
109.738487 92.0
109.851112 100.0
110.561523 120.0
113.434555 152.0
113.973633 176.0
114.011887 92.0
115.053841 316.0
115.564293 156.0
116.047874 344.0
116.067657 60.0
116.539879 224.0
116.722588 140.0
117.055702 300.0
118.027168 152.0
118.063232 284.0
119.071709 120.0
120.037971 188.0
120.079758 396.0
120.214668 76.0
120.710556 196.0
121.087685 1296.0
121.163643 28.0
121.525398 92.0
121.575874 92.0
122.098831 204.0
122.918251 40.0
126.172279 216.0
126.707176 256.0
128.048431 184.0
129.06601 152.0
129.081833 160.0
130.061035 360.0
130.776566 124.0
131.07103 244.0
132.043579 476.0
132.079193 208.0
133.083252 144.0
134.059891 764.0
134.094589 1160.0
134.434464 104.0
134.519867 76.0
135.063797 144.0
135.096664 328.0
135.153122 60.0
136.001343 76.0
136.024551 340.0
136.073303 148.0
136.110367 1696.0
136.18013 68.0
136.368317 68.0
136.854523 88.0
136.912735 148.0
137.11499 212.0
142.067642 320.0
142.637573 44.0
143.072159 376.0
143.881104 144.0
144.041107 116.0
144.084106 124.0
145.086884 148.0
145.956055 212.0
146.059402 304.0
146.097733 308.0
147.066666 128.0
147.944138 152.0
148.560883 184.0
152.034302 124.0
155.077774 172.0
155.186859 208.0
157.084946 160.0
157.948746 124.0
158.095169 700.0
158.115189 184.0
158.251556 48.0
158.534622 100.0
159.101837 148.0
160.072861 188.0
160.124924 112.0
160.402084 144.0
160.926834 116.0
161.088455 276.0
161.971298 112.0
162.095444 140.0
162.128387 152.0
171.101501 192.0
174.091293 108.0
176.108521 260.0
177.110107 104.0
177.987946 152.0
182.073822 172.0
183.588974 136.0
186.133224 156.0
186.640869 40.0
189.107056 116.0
190.121109 172.0
204.133911 524.0
204.235565 28.0
205.137299 400.0
214.055984 100.0
232.048141 148.0
386.481384 92.0
761.631653 52.0
875.120667 156.0
911.982361 220.0
941.354675 92.0
951.371704 196.0
962.126831 252.0
983.100769 164.0
991.744202 180.0
1001.262878 216.0
1007.406494 156.0
1024.006592 56.0
1057.749756 252.0
1066.779663 136.0
1096.760986 160.0
1120.505371 72.0
1122.96521 116.0
1124.266235 56.0
1124.426392 184.0
1139.170776 180.0
1146.295898 124.0
1150.207764 236.0
1167.403442 176.0
1168.117676 216.0
1179.567017 152.0
1196.442993 148.0
1203.496216 196.0
1204.13855 164.0
1219.95105 124.0
1233.251099 156.0
1239.963257 156.0
1240.83252 260.0
1244.972534 136.0
1245.836426 84.0
1252.751831 176.0
1269.177124 80.0
1288.444214 176.0
1303.562866 228.0
1309.757446 160.0
1310.189575 180.0
1322.849365 52.0
1325.087158 204.0
1339.151001 136.0
1346.473633 196.0
1354.585327 92.0
1365.294189 160.0
1371.751465 84.0
1372.791138 192.0
1377.647827 164.0
1384.53418 144.0
1386.919922 124.0
1396.699097 172.0
1398.641235 164.0
1403.133301 168.0
1418.848511 152.0
1421.879028 140.0
1421.961548 180.0
1426.505981 160.0
1433.626221 132.0
1436.72522 64.0
1438.996948 228.0
1448.897095 40.0
1449.162354 200.0
1449.904907 200.0
1452.695312 228.0
1454.93396 120.0
1457.258057 240.0
1462.855591 224.0
1464.172852 148.0
1480.324829 176.0
1480.929932 196.0
1482.16333 196.0
1484.401611 112.0
1485.690186 168.0
