>compound MLS002695239-01!7-hydroxy-2-phenylchromen-4-one
>formula C15H10O3
>ionization [M+H]+
>parentmass 239.07222
#inchi InChI=1S/C15H10O3/c16-11-6-7-12-13(17)9-14(18-15(12)8-11)10-4-2-1-3-5-10/h1-9,16H
#inchikey MQGPSCMMNJKMHQ
#Ion_Source LC-ESI
#Instrument qTof
#Compound_Source NIH Natural Product Library
#PI Dorrestein
#Data_Collector VVP/LMS
#Scan -1
#Precursor_MZ 239.071
#ExactMass 238.063
#Charge 1
#CAS_Number N/A
#Pubmed_ID N/A
#Smiles Oc1ccc2c(=O)cc(oc2c1)c3ccccc3
#INCHI_AUX N/A
#Library_Class 1
#SpectrumID CCMSLIB00000080189
#IonMode Positive
#UpdateWorkflowName UPDATE-SINGLE-ANNOTATED-GOLD
#LibraryQualityString Gold
#TaskID b1d8e8f6646f4e71acdff9ca3d919d08
##Scan# 1918
#SpectrumFile p2-D05_GD5_01_18017.mzXML
#LibraryName NIH_Natural_Products_Library.mgf
#MQScore -1
#Organism NIH_Natural_Products_Library
#TIC_Query 0
#RT_Query -1
#MZErrorPPM -1
#SharedPeaks 0
#MassDiff 0
#LibMZ -1
#SpecMZ 239.071
#SpecCharge 0
#internalFilename spec-00000.mgf

>collision 10
94.955688 192.0
95.013382 596.0
95.044922 92.0
95.167206 228.0
95.190506 120.0
95.231285 128.0
95.287621 100.0
95.378952 196.0
95.499504 152.0
95.588997 108.0
95.604561 120.0
95.662956 112.0
95.676582 80.0
95.853821 120.0
96.021156 336.0
96.154137 208.0
96.202934 180.0
96.216599 164.0
96.247841 180.0
96.320099 148.0
96.464699 176.0
96.503799 216.0
96.58593 112.0
96.693542 156.0
96.770737 128.0
97.063789 236.0
97.12458 168.0
97.203056 120.0
97.240341 160.0
97.258003 168.0
97.312973 204.0
97.358139 192.0
97.37188 40.0
97.436707 44.0
97.782784 116.0
97.806396 168.0
98.011261 160.0
98.214272 160.0
98.253723 192.0
98.346466 148.0
98.480728 256.0
98.585434 216.0
98.624092 264.0
98.698105 152.0
98.919685 164.0
99.018684 64.0
99.040474 248.0
99.268387 152.0
99.488617 168.0
99.532295 160.0
99.58989 48.0
99.607765 116.0
99.715057 160.0
99.826385 200.0
99.864174 228.0
99.880089 164.0
99.955681 184.0
100.152779 164.0
100.242424 196.0
100.354263 184.0
100.435814 140.0
100.473709 196.0
100.785172 132.0
100.841125 56.0
100.879105 88.0
100.995735 132.0
101.038116 636.0
101.147148 156.0
101.379471 160.0
101.421562 144.0
101.596016 156.0
101.644165 152.0
101.704376 128.0
101.852959 152.0
101.966133 196.0
101.9916 136.0
102.027786 128.0
102.046478 936.0
102.184654 212.0
102.404068 56.0
102.476585 220.0
102.581383 236.0
102.609604 144.0
102.682198 72.0
102.73262 136.0
102.877922 156.0
102.914261 148.0
102.928391 136.0
102.972824 132.0
103.05529 11332.0
103.084808 384.0
103.109207 236.0
103.15004 176.0
103.204903 52.0
103.336678 72.0
103.409531 48.0
103.498596 236.0
103.528976 44.0
103.601891 200.0
103.689018 60.0
103.800514 108.0
103.895836 108.0
104.058884 1268.0
104.216614 76.0
104.319786 152.0
104.33519 176.0
104.417862 224.0
104.446335 192.0
104.532829 148.0
104.727226 144.0
104.776115 248.0
104.901367 152.0
105.034798 2176.0
105.07016 204.0
105.171715 136.0
105.24929 132.0
105.453575 128.0
105.611008 160.0
105.701019 176.0
105.789925 100.0
106.012276 164.0
106.036674 300.0
106.081963 32.0
106.192688 120.0
106.243965 40.0
106.289101 292.0
106.360931 148.0
106.37941 120.0
106.395477 232.0
106.432785 148.0
106.595055 96.0
106.775787 140.0
106.98378 156.0
107.152649 80.0
107.173256 288.0
107.239197 96.0
107.779877 212.0
107.924561 148.0
107.986603 64.0
108.311554 144.0
108.361275 96.0
108.59137 108.0
108.794716 176.0
108.90062 144.0
108.933792 152.0
108.979553 128.0
109.029259 4760.0
109.098015 44.0
109.291435 232.0
109.432968 40.0
109.474106 212.0
109.568344 136.0
109.687126 176.0
109.79763 124.0
109.812225 180.0
109.866463 36.0
109.979141 168.0
110.031326 384.0
110.048027 216.0
110.246468 160.0
110.597824 168.0
110.627129 112.0
110.767113 132.0
110.821899 148.0
110.888954 64.0
111.044106 156.0
111.083954 160.0
111.123817 40.0
111.325317 148.0
111.361023 272.0
111.461861 172.0
111.560638 224.0
111.640533 144.0
111.718361 204.0
111.865662 92.0
111.979362 132.0
112.150024 164.0
112.240677 84.0
112.500183 104.0
112.584633 104.0
112.920662 204.0
113.144958 120.0
113.223305 132.0
113.318626 176.0
113.428825 176.0
113.473343 172.0
113.517868 140.0
113.657867 164.0
113.757614 180.0
113.927238 164.0
113.976364 244.0
113.991241 164.0
114.046494 128.0
114.078377 188.0
114.357025 160.0
114.57209 184.0
114.60405 208.0
114.742584 112.0
114.776695 100.0
115.054749 3272.0
115.10096 148.0
115.190727 52.0
115.293282 56.0
115.55629 184.0
115.618347 176.0
115.804604 120.0
115.823883 144.0
115.890289 220.0
115.931007 96.0
116.057381 280.0
116.156128 72.0
116.297737 60.0
116.320358 264.0
116.45018 132.0
116.493141 184.0
116.54332 180.0
116.613464 32.0
116.656456 176.0
116.703751 148.0
116.782639 156.0
116.824127 144.0
116.912407 192.0
116.959755 184.0
117.045868 100.0
117.170792 132.0
117.297928 200.0
117.520058 200.0
117.578323 148.0
117.718643 180.0
117.768311 40.0
117.988724 140.0
118.014664 140.0
118.038109 500.0
118.122795 104.0
118.239632 248.0
118.549316 140.0
118.592659 184.0
118.737976 152.0
118.826859 220.0
118.894127 104.0
119.013268 176.0
119.046394 168.0
119.067802 84.0
119.103394 152.0
119.289421 128.0
119.524307 184.0
119.633125 196.0
119.75724 108.0
119.781204 40.0
120.036194 224.0
120.14743 68.0
120.241257 160.0
120.409363 116.0
120.638786 52.0
120.706558 160.0
120.851997 228.0
121.017265 120.0
121.043869 160.0
121.067627 192.0
121.242882 52.0
121.332001 152.0
121.470909 128.0
121.7211 116.0
121.859474 128.0
122.000809 168.0
122.116035 152.0
122.382652 152.0
122.444595 192.0
122.493057 168.0
122.539314 192.0
122.565758 60.0
122.803841 320.0
122.874428 172.0
122.898697 148.0
123.000214 208.0
123.081902 208.0
123.159195 288.0
123.225258 172.0
123.267448 168.0
123.300598 156.0
123.453133 44.0
123.502029 184.0
123.647812 136.0
123.678864 136.0
123.863266 116.0
123.942329 144.0
124.011032 136.0
124.094505 220.0
124.135178 68.0
124.237206 88.0
124.445824 48.0
124.470245 212.0
124.521324 200.0
124.636841 204.0
124.661514 192.0
124.730179 188.0
124.830223 96.0
124.992607 224.0
125.015564 176.0
125.039337 116.0
125.08519 140.0
125.099434 188.0
125.257416 200.0
125.357796 176.0
125.478157 76.0
125.529434 188.0
125.545044 88.0
125.852982 112.0
125.957947 116.0
126.047554 220.0
126.071175 200.0
126.206009 160.0
126.304405 272.0
126.351379 164.0
126.454315 168.0
126.482681 124.0
126.525948 240.0
126.581917 120.0
126.611031 196.0
126.691666 216.0
126.765602 224.0
127.034523 172.0
127.052979 348.0
127.263557 132.0
127.286011 180.0
127.346649 220.0
127.398315 120.0
127.695015 212.0
127.805244 60.0
127.856995 108.0
127.888504 180.0
127.947037 108.0
128.063202 452.0
128.226349 152.0
128.293961 156.0
128.310471 236.0
128.386414 184.0
128.589447 164.0
128.625565 164.0
128.654709 132.0
128.686523 160.0
128.722641 140.0
128.774582 168.0
128.79039 100.0
128.81073 168.0
128.876236 188.0
128.929153 144.0
128.959229 236.0
128.968704 236.0
128.996017 272.0
129.034622 47032.0
129.06813 656.0
129.099075 88.0
129.115845 164.0
129.131683 76.0
129.149063 140.0
129.167877 72.0
129.199677 160.0
129.236008 76.0
129.256104 48.0
129.276093 72.0
129.301361 68.0
129.33078 52.0
129.365845 80.0
129.406143 224.0
129.428696 64.0
129.474731 60.0
129.498337 88.0
129.539108 84.0
129.570816 156.0
129.736252 188.0
129.799744 128.0
129.867767 48.0
129.888184 32.0
129.942627 88.0
129.985733 76.0
130.037323 4416.0
130.071976 164.0
130.142365 64.0
130.212753 40.0
130.240005 32.0
130.446777 52.0
130.53508 196.0
130.551376 212.0
130.608231 96.0
130.687851 108.0
130.769775 108.0
130.803909 52.0
130.833511 112.0
130.888153 92.0
130.974686 180.0
131.038605 336.0
131.099991 60.0
131.124466 152.0
131.154694 108.0
131.239044 212.0
131.382721 36.0
131.684036 188.0
131.818207 212.0
131.953674 176.0
131.985672 124.0
132.220276 128.0
132.530441 60.0
132.619812 168.0
132.656479 48.0
132.692047 72.0
132.743607 140.0
132.800934 220.0
133.027039 156.0
133.20491 192.0
133.409439 160.0
133.443924 220.0
133.552002 44.0
133.593399 96.0
133.733765 156.0
133.871902 140.0
134.240601 136.0
134.323624 112.0
134.50592 240.0
134.538239 224.0
134.784317 320.0
134.808472 60.0
135.13913 144.0
135.298813 148.0
135.391434 132.0
135.572128 116.0
135.745987 128.0
135.80397 152.0
135.950134 168.0
136.096359 168.0
136.135834 56.0
136.314713 172.0
136.379547 164.0
136.40303 180.0
136.419296 192.0
136.468124 92.0
136.500778 164.0
136.626266 156.0
136.65419 116.0
136.761337 176.0
136.886948 204.0
136.926529 216.0
136.974625 216.0
137.02478 41644.0
137.083664 200.0
137.126373 108.0
137.153473 128.0
137.175171 56.0
137.224792 48.0
137.2621 104.0
137.300049 128.0
137.350723 92.0
137.376389 100.0
137.408844 168.0
137.448532 108.0
137.485031 92.0
137.567734 72.0
137.59108 148.0
137.624695 264.0
137.696152 164.0
137.738205 76.0
137.777908 136.0
137.812958 80.0
137.890076 148.0
138.026581 3408.0
138.161316 40.0
138.268936 108.0
138.299362 40.0
138.327454 112.0
138.369598 204.0
138.403671 108.0
138.730377 204.0
138.780258 72.0
138.850601 176.0
138.882202 128.0
138.88855 96.0
138.932053 84.0
138.953156 120.0
138.976624 140.0
139.027969 352.0
139.055222 656.0
139.124481 84.0
139.152649 104.0
139.188507 132.0
139.341858 168.0
139.368729 152.0
139.576981 132.0
139.613205 120.0
139.867294 88.0
139.944977 64.0
140.064056 196.0
140.182877 196.0
140.246521 148.0
140.37854 60.0
140.47995 240.0
140.897797 176.0
140.954514 120.0
141.018311 168.0
141.069473 3284.0
141.13887 216.0
141.325729 96.0
141.664276 212.0
141.908386 160.0
141.972397 64.0
142.071152 252.0
142.494598 28.0
142.709656 156.0
143.081268 112.0
143.267792 72.0
143.379776 132.0
143.529953 76.0
143.606262 112.0
143.832932 148.0
143.966644 56.0
144.045456 172.0
144.260513 144.0
144.346588 56.0
144.439865 148.0
144.566666 160.0
145.014511 204.0
145.062515 144.0
145.499054 164.0
145.996429 96.0
146.063766 80.0
146.475372 84.0
146.600662 188.0
146.653687 140.0
146.706711 96.0
147.044189 900.0
147.157852 172.0
147.215805 128.0
147.474304 156.0
147.70401 68.0
147.837067 112.0
147.861267 200.0
148.046814 304.0
148.093704 40.0
148.149414 56.0
148.188171 300.0
148.510574 156.0
148.585785 44.0
149.044662 128.0
149.282883 152.0
149.341248 64.0
149.489639 32.0
149.574829 120.0
149.604034 132.0
149.725784 208.0
150.046417 444.0
150.154709 132.0
150.467041 68.0
150.503662 72.0
150.826141 112.0
151.054276 1212.0
151.205246 160.0
151.2444 124.0
151.288467 76.0
151.317841 136.0
151.428024 96.0
151.670593 188.0
151.79808 164.0
151.888824 152.0
152.023758 100.0
152.06369 3060.0
152.143433 132.0
152.330658 176.0
152.406815 144.0
152.485458 200.0
152.635406 44.0
152.80513 192.0
153.044144 340.0
153.070496 4168.0
153.110352 36.0
153.36412 60.0
153.672363 180.0
153.904373 128.0
153.921661 56.0
153.938934 160.0
154.080307 1472.0
154.143967 268.0
154.198334 72.0
154.514145 212.0
154.54454 72.0
154.6064 188.0
154.8936 60.0
154.920837 84.0
154.940659 60.0
155.03447 1880.0
155.083878 2324.0
155.146362 96.0
155.178589 80.0
155.473755 156.0
155.553177 56.0
155.635117 120.0
155.770905 212.0
156.039352 308.0
156.045685 112.0
156.053802 148.0
156.085617 432.0
156.194565 172.0
156.244034 180.0
156.281342 96.0
156.331116 52.0
156.348526 204.0
156.468002 180.0
156.75444 44.0
156.903992 164.0
156.966324 136.0
157.068542 168.0
157.128448 128.0
157.198303 136.0
157.250717 136.0
157.303131 64.0
158.14798 176.0
158.448471 196.0
158.566238 172.0
158.686569 56.0
158.869644 48.0
159.205963 104.0
159.326538 156.0
159.406937 112.0
159.789124 248.0
160.028214 208.0
160.088638 152.0
160.212067 304.0
160.453995 208.0
160.494339 112.0
161.02623 232.0
161.0672 68.0
161.321625 140.0
161.370453 112.0
161.418503 188.0
161.598083 76.0
161.795486 172.0
162.104492 40.0
162.596466 80.0
162.865585 196.0
163.054703 212.0
163.213745 156.0
163.340912 152.0
163.893341 136.0
164.023315 76.0
164.061935 652.0
164.200043 216.0
164.308929 108.0
164.491409 204.0
164.763351 192.0
164.837448 152.0
164.998474 140.0
165.021484 164.0
165.041931 144.0
165.071442 9384.0
165.108429 120.0
165.14679 68.0
165.164688 120.0
165.287491 84.0
165.384735 68.0
165.840652 104.0
165.938065 160.0
165.963699 60.0
166.073761 1472.0
166.166321 112.0
166.222763 44.0
166.800613 164.0
167.080719 300.0
167.168396 80.0
167.191559 116.0
167.338272 84.0
167.456726 60.0
167.48764 240.0
167.552429 132.0
167.737579 80.0
168.058075 1192.0
168.318054 128.0
168.821945 184.0
169.064911 988.0
169.425018 184.0
169.450928 64.0
169.487198 60.0
169.598633 152.0
169.645294 136.0
169.800873 168.0
170.023987 184.0
170.074432 172.0
170.112228 148.0
170.442062 124.0
170.494034 156.0
170.577209 168.0
171.045273 548.0
171.080231 536.0
171.561188 48.0
171.73851 184.0
171.785461 104.0
172.049026 260.0
172.195251 204.0
172.961334 132.0
173.668777 164.0
173.83931 108.0
173.899658 140.0
174.19899 188.0
174.411835 160.0
175.04982 176.0
175.301392 140.0
175.58873 168.0
176.008316 180.0
176.063461 660.0
176.505066 72.0
176.589691 140.0
177.070663 176.0
177.391983 64.0
177.901306 76.0
177.978973 156.0
178.077469 432.0
178.576218 148.0
179.050903 744.0
179.08342 120.0
179.217773 116.0
179.540314 72.0
180.050034 144.0
180.087418 44.0
180.132828 88.0
181.066132 136.0
181.256485 152.0
181.307404 56.0
182.071274 320.0
182.120331 92.0
182.85701 196.0
183.07901 1304.0
183.128937 176.0
183.190887 156.0
183.484634 124.0
183.738144 156.0
183.7948 160.0
184.016113 60.0
184.085388 436.0
184.524048 76.0
185.292648 188.0
185.422714 240.0
186.076447 40.0
186.155334 208.0
186.195923 104.0
186.361618 224.0
188.590759 176.0
188.697372 140.0
188.760178 136.0
188.97908 228.0
189.693848 136.0
189.776093 148.0
190.039398 168.0
190.745178 76.0
190.965149 32.0
191.036652 216.0
191.097183 40.0
191.254044 56.0
191.578964 80.0
191.600998 160.0
191.906921 128.0
192.051895 176.0
192.273804 132.0
193.022415 248.0
193.067245 364.0
194.074493 300.0
194.396362 124.0
194.804504 176.0
195.137985 112.0
195.335434 96.0
195.443939 144.0
195.811386 120.0
195.981308 60.0
196.010712 152.0
196.054977 320.0
196.29071 52.0
196.728729 80.0
196.848785 168.0
196.91861 128.0
197.01358 136.0
197.060104 468.0
197.158875 128.0
197.670609 76.0
197.908539 168.0
198.048553 120.0
198.068161 108.0
198.129791 132.0
198.216644 168.0
198.84201 132.0
199.572372 180.0
199.94368 164.0
200.55484 188.0
200.77475 132.0
201.034286 68.0
201.847824 140.0
202.58934 120.0
202.765015 120.0
203.380478 172.0
203.698502 52.0
204.137878 188.0
204.249939 184.0
204.634125 132.0
204.671127 192.0
205.08136 180.0
205.126953 92.0
205.883041 96.0
206.414551 108.0
206.963943 156.0
206.995438 196.0
207.072754 140.0
207.59433 196.0
207.663162 136.0
208.797592 136.0
208.882599 188.0
208.912659 112.0
209.068024 136.0
209.546005 132.0
209.819794 108.0
209.845749 48.0
210.07222 308.0
210.093765 152.0
210.66246 116.0
211.035263 132.0
211.076447 1664.0
211.218445 164.0
211.331161 192.0
211.778976 136.0
211.865875 136.0
211.902664 224.0
212.076508 344.0
212.448563 160.0
212.58783 168.0
213.052399 148.0
213.084473 196.0
213.511642 76.0
213.691986 144.0
213.860764 60.0
215.18129 200.0
215.873779 128.0
216.447296 176.0
216.857437 108.0
216.942444 96.0
217.009872 196.0
217.109558 236.0
217.191681 208.0
217.543808 180.0
217.593704 164.0
217.73465 156.0
218.484177 76.0
218.657791 164.0
218.772583 180.0
218.93042 204.0
219.485565 48.0
221.05629 776.0
221.139877 140.0
221.279007 148.0
221.678864 112.0
221.800385 100.0
222.066635 460.0
222.20369 148.0
223.308701 68.0
223.389008 36.0
223.707413 112.0
223.894989 144.0
224.049881 180.0
224.464172 220.0
224.562576 136.0
225.047928 56.0
225.075867 188.0
225.156494 148.0
226.469452 160.0
227.221848 180.0
227.542969 172.0
228.191925 156.0
228.256317 116.0
229.945053 200.0
230.002411 200.0
230.174484 136.0
230.666931 188.0
231.025269 120.0
231.296097 256.0
231.844284 60.0
232.220215 180.0
232.293015 120.0
232.87883 64.0
233.237366 180.0
233.653961 36.0
234.007004 36.0
234.317657 196.0
234.99144 100.0
235.192841 156.0
235.461517 220.0
235.754791 172.0
236.237885 76.0
236.886841 140.0
237.048859 168.0
237.174881 216.0
237.306702 112.0
237.591919 116.0
237.680542 192.0
237.691849 168.0
237.965271 180.0
237.990891 108.0
238.021606 124.0
238.055374 116.0
238.159805 164.0
238.188141 88.0
238.322479 96.0
238.340836 112.0
238.365631 152.0
238.420944 72.0
238.44368 120.0
238.467041 60.0
238.508377 116.0
238.537735 132.0
238.599213 216.0
238.648407 152.0
238.684189 88.0
238.765259 192.0
238.807175 364.0
238.819412 304.0
238.846619 216.0
238.910187 240.0
238.948563 144.0
238.995972 144.0
239.07222 94248.0
239.134552 196.0
239.159973 128.0
239.195389 64.0
239.215668 124.0
239.240738 120.0
239.265137 80.0
239.303757 32.0
239.35527 152.0
239.41011 56.0
239.444504 152.0
239.477417 156.0
239.528564 36.0
239.580093 156.0
239.626282 108.0
239.651413 136.0
239.694931 76.0
239.730942 124.0
239.753479 64.0
239.780136 80.0
239.816772 56.0
239.866608 68.0
239.913239 48.0
239.936356 92.0
239.969238 232.0
240.023712 84.0
240.07518 8412.0
240.127365 172.0
240.154541 68.0
240.176926 116.0
240.236694 72.0
240.333191 52.0
240.36441 68.0
240.391815 96.0
240.435028 64.0
240.478226 56.0
240.51593 92.0
240.572571 92.0
240.597641 76.0
240.722107 68.0
240.77153 88.0
240.798172 108.0
240.85527 68.0
240.963028 40.0
240.984665 32.0
241.04808 160.0
241.077789 1660.0
241.120621 160.0
241.142258 60.0
241.182434 56.0
241.213348 128.0
241.408127 128.0
241.442047 120.0
241.454041 116.0
241.528748 60.0
241.553558 144.0
241.612259 132.0
241.640106 112.0
241.659897 92.0
241.686523 88.0
241.707214 64.0
241.750336 128.0
241.779358 120.0
241.808685 52.0
241.862915 84.0
241.898666 168.0
241.935608 224.0
241.977448 64.0
242.03009 100.0
242.079315 200.0
242.135376 116.0
242.234482 84.0
242.510254 52.0
242.711761 96.0
242.776871 92.0
242.814087 72.0
242.935059 112.0
243.105698 96.0
243.341599 60.0
243.652176 48.0
243.700684 124.0
243.890411 96.0
244.320572 80.0
244.460587 68.0
244.547714 40.0
244.700256 96.0
244.871521 84.0
245.226685 120.0
248.234131 40.0
248.525833 72.0
248.889938 56.0
249.116058 72.0
249.254288 72.0
249.329712 60.0
249.857956 128.0
249.999542 80.0
250.254517 136.0
251.534439 40.0
251.929153 48.0
253.051849 148.0
254.186569 60.0
255.142578 40.0
255.871109 56.0
255.950699 88.0
256.705902 36.0
258.872467 104.0
263.584991 76.0
265.443024 68.0
266.468658 100.0
266.614899 32.0
266.988739 140.0
267.932678 120.0
270.869446 72.0
274.893616 48.0
275.824951 96.0
278.110413 100.0
278.851074 64.0
283.513336 48.0
283.71109 60.0
294.574188 20.0
295.025269 88.0
296.038025 56.0
311.62027 96.0
313.678955 28.0
320.134308 80.0
330.148956 32.0
335.360138 132.0
344.116547 68.0
347.343506 116.0
351.044037 56.0
352.118805 72.0
358.349457 104.0
360.749664 84.0
368.658325 76.0
373.389801 84.0
378.274506 80.0
404.99057 60.0
415.755249 88.0
420.333191 76.0
430.815094 100.0
437.608246 136.0
438.212158 100.0
438.262146 116.0
452.111145 124.0
462.778412 104.0
467.203156 48.0
476.45462 80.0
480.215485 76.0
493.154572 68.0
493.636444 128.0
493.963715 68.0
496.435059 56.0
516.672058 48.0
518.202332 100.0
524.628418 100.0
538.314941 68.0
539.206543 32.0
540.464294 36.0
573.952942 60.0
592.079163 92.0
595.80426 104.0
603.260254 48.0
614.166077 112.0
650.659058 64.0
652.640503 156.0
656.214661 76.0
677.377686 72.0
688.931152 92.0
715.942444 176.0
717.434326 120.0
718.975769 128.0
720.048828 184.0
727.405457 20.0
730.151001 104.0
734.303284 56.0
748.381592 172.0
749.846924 208.0
757.67157 124.0
776.478882 180.0
779.704407 40.0
789.342712 48.0
815.904724 184.0
818.447876 80.0
823.831665 192.0
825.706421 168.0
829.003845 68.0
829.439453 156.0
840.360046 148.0
842.848511 92.0
860.960754 148.0
863.567261 96.0
866.628845 164.0
880.942383 196.0
883.709106 152.0
893.694519 236.0
901.003845 216.0
904.657654 144.0
905.489929 44.0
906.53833 200.0
909.020874 36.0
910.46759 124.0
915.157776 144.0
917.953552 164.0
920.590515 80.0
923.727234 188.0
932.591919 212.0
934.264099 168.0
936.43103 188.0
938.874878 216.0
940.625916 112.0
945.325745 156.0
946.690796 144.0
950.994507 188.0
951.264526 68.0
952.23468 212.0
952.45575 160.0
953.967346 116.0
961.339661 116.0
961.975403 168.0
962.067993 136.0
962.432251 208.0
963.568665 160.0
964.829346 216.0
967.916687 56.0
968.381104 120.0
977.743286 44.0
978.45282 184.0
979.318359 228.0
983.477051 216.0
988.601746 176.0
989.352783 40.0
989.471741 76.0
994.50531 184.0
999.266296 140.0
1001.547241 136.0
1002.265442 216.0
1003.116211 124.0
1007.059753 156.0
1009.707825 172.0
1010.954102 132.0
1020.284119 152.0
1021.956726 72.0
1026.485352 128.0
1026.708618 184.0
1026.970093 208.0
1027.327271 152.0
1029.66333 216.0
1029.85498 44.0
1043.246948 32.0
1044.82251 164.0
1047.358643 184.0
1047.545532 176.0
1047.713013 172.0
1050.20752 80.0
1052.143311 184.0
1055.082764 68.0
1055.832764 124.0
1057.754395 156.0
1057.942017 168.0
1058.401733 168.0
1059.282471 152.0
1063.049316 168.0
1063.269897 256.0
1064.15271 156.0
1064.65271 144.0
1070.557373 168.0
1074.546387 232.0
1075.009644 128.0
1076.602417 52.0
1081.374878 52.0
1085.305298 128.0
1090.03772 160.0
1093.773193 120.0
1094.148438 176.0
1094.31958 160.0
1098.517456 196.0
1101.217041 140.0
1102.247681 148.0
1102.293945 120.0
1102.551636 132.0
1103.239014 140.0
1106.963867 192.0
1107.944092 188.0
1112.260986 124.0
1118.921753 104.0
1119.714111 176.0
1121.153076 108.0
1122.012939 176.0
1124.767944 208.0
1127.77356 104.0
1128.502197 144.0
1131.392334 176.0
1133.394897 80.0
1134.232544 92.0
1139.453247 84.0
1139.52124 172.0
1140.832397 76.0
1143.30603 180.0
1143.66272 208.0
1144.975586 152.0
1145.642456 88.0
1151.625366 92.0
1153.199585 104.0
1157.651123 164.0
1158.96521 140.0
1160.700317 204.0
1162.273926 232.0
1162.552124 72.0
1163.332642 168.0
1163.441284 184.0
1164.799438 140.0
1164.975952 172.0
1167.096436 200.0
1169.184692 148.0
1170.396362 132.0
1171.881104 188.0
1173.803223 136.0
1174.116943 176.0
1174.212402 196.0
1175.795166 184.0
1176.211426 120.0
1177.201416 88.0
1178.102905 168.0
1179.394409 120.0
1185.238647 244.0
1185.889648 152.0
1186.739624 164.0
1187.363647 132.0
1189.037598 208.0
1192.340942 176.0
1193.585083 144.0
1194.47229 196.0
1194.678589 208.0
1196.103027 248.0
1196.490845 176.0
1196.894775 188.0
1198.816528 112.0
1198.961182 136.0
1200.553711 152.0
1201.015747 120.0
1202.747559 144.0
1205.97998 160.0
1207.127563 76.0
1208.614746 216.0
1208.718506 176.0
1209.029907 140.0
1209.337646 216.0
1211.210815 164.0
1214.711182 180.0
1214.773682 168.0
1215.404907 100.0
1215.509033 172.0
1216.904175 56.0
1218.709961 196.0
1223.529541 124.0
1225.166138 124.0
1226.490112 136.0
1227.36145 216.0
1228.023926 152.0
1228.428467 116.0
1231.143555 80.0
1234.008301 128.0
1234.896362 92.0
1237.89856 148.0
1238.227661 208.0
1238.444824 76.0
1239.334473 148.0
1240.946533 172.0
1241.247925 192.0
1241.42334 68.0
1241.500366 56.0
1242.692871 196.0
1243.219116 172.0
1247.158936 140.0
1249.908691 220.0
1251.478271 136.0
1251.964111 168.0
1252.872681 216.0
1253.344727 172.0
1253.7323 208.0
1256.588013 160.0
1257.484131 44.0
1257.893433 204.0
1258.140503 180.0
1260.089722 196.0
1260.223999 192.0
1261.545532 208.0
1261.785889 168.0
1262.606079 172.0
1264.947632 168.0
1265.131958 164.0
1265.28772 136.0
1266.250732 100.0
1266.796143 168.0
1268.31958 172.0
1268.482544 200.0
1268.63147 192.0
1269.042603 148.0
1270.00708 164.0
1270.219849 196.0
1270.737671 164.0
1270.808594 184.0
1270.943481 192.0
1271.383423 152.0
1271.922729 176.0
1273.548706 188.0
1273.605591 148.0
1273.896729 176.0
1273.982056 112.0
1274.465088 172.0
1277.920532 48.0
1282.463745 216.0
1283.739868 136.0
1284.28186 192.0
1287.479126 152.0
1288.307617 160.0
1291.152344 180.0
1292.475708 64.0
1292.718994 124.0
1296.707764 144.0
1296.851074 132.0
1297.302734 148.0
1298.70813 176.0
1298.894531 128.0
1301.183716 136.0
1302.677368 160.0
1302.892944 156.0
1303.403076 200.0
1307.336304 184.0
1307.437134 168.0
1309.258423 132.0
1309.539307 172.0
1309.712158 108.0
1310.007446 176.0
1310.520752 160.0
1310.763916 136.0
1311.801758 116.0
1312.277466 220.0
1315.444458 240.0
1315.675537 228.0
1315.819824 152.0
1315.913696 188.0
1317.358032 148.0
1318.456299 172.0
1319.063354 152.0
1320.711914 144.0
1320.914429 60.0
1321.297852 80.0
1321.847778 96.0
1321.90564 128.0
1322.557007 168.0
1324.04834 224.0
1324.446777 152.0
1326.627808 184.0
1328.317383 176.0
1329.00647 164.0
1329.245972 172.0
1330.225708 136.0
1331.002563 148.0
1331.096924 184.0
1332.062866 192.0
1332.847412 148.0
1333.930298 252.0
1334.765381 152.0
1335.137207 204.0
1335.69165 208.0
1335.977295 40.0
1339.416626 164.0
1339.489502 136.0
1341.05603 56.0
1343.199707 212.0
1344.673462 152.0
1346.425659 40.0
1346.608154 248.0
1347.309448 128.0
1347.360596 88.0
1347.440918 60.0
1347.879272 40.0
1348.054688 140.0
1348.50769 212.0
1349.560425 132.0
1350.370728 156.0
1352.303589 136.0
1358.861816 240.0
1358.979248 124.0
1359.118652 164.0
1359.859741 52.0
1359.947876 116.0
1360.300171 76.0
1362.870483 184.0
1364.016968 92.0
1366.215576 176.0
1366.818848 144.0
1367.105835 128.0
1368.742065 200.0
1370.109863 156.0
1372.763184 132.0
1373.810547 192.0
1374.076172 320.0
1374.703247 136.0
1374.932007 156.0
1378.580078 160.0
1378.653931 128.0
1379.097412 196.0
1379.910522 148.0
1380.317139 216.0
1381.286011 180.0
1381.38208 132.0
1382.28479 52.0
1383.409668 188.0
1383.653931 164.0
1383.765015 236.0
1383.950073 72.0
1384.520264 152.0
1385.431274 184.0
1387.076294 216.0
1387.180176 160.0
1387.506348 136.0
1387.69165 148.0
1388.047485 148.0
1389.30835 172.0
1389.484009 132.0
1389.553223 204.0
1390.19873 216.0
1390.436157 72.0
1390.621704 160.0
1391.185791 116.0
1391.675781 80.0
1391.794556 68.0
1392.262451 160.0
1392.656006 144.0
1393.144653 192.0
1394.060059 112.0
1394.387085 224.0
1396.096924 188.0
1397.092896 216.0
1397.264648 220.0
1397.368774 48.0
1398.4552 168.0
1398.819946 120.0
1398.87854 180.0
1399.154907 140.0
1399.944214 172.0
1400.264404 128.0
1400.361206 212.0
1400.41333 172.0
1400.927246 180.0
1402.730591 120.0
1404.184448 48.0
1404.825928 268.0
1404.878174 184.0
1405.019897 184.0
1405.691406 172.0
1406.654175 160.0
1406.855713 168.0
1408.916748 152.0
1409.028809 176.0
1409.279419 172.0
1411.338257 144.0
1412.923828 156.0
1415.139038 212.0
1417.753174 168.0
1419.102417 176.0
1419.3573 124.0
1420.564697 80.0
1421.172363 144.0
1421.907837 188.0
1422.996216 152.0
1423.206421 160.0
1426.978027 188.0
1427.053223 156.0
1427.414062 124.0
1427.714966 56.0
1427.82019 140.0
1428.429443 112.0
1429.941772 144.0
1431.063354 128.0
1431.816284 160.0
1431.929321 172.0
1432.155273 220.0
1433.420776 220.0
1433.51123 148.0
1433.910645 236.0
1434.189575 156.0
1435.665894 144.0
1437.779419 124.0
1437.93042 124.0
1439.900757 52.0
1441.041382 136.0
1441.21521 136.0
1442.484741 180.0
1444.049927 204.0
1444.51123 176.0
1444.617188 152.0
1444.692871 128.0
1445.154297 120.0
1445.287354 192.0
1445.502319 184.0
1448.507935 228.0
1449.386719 180.0
1451.137573 64.0
1451.236084 136.0
1452.001953 128.0
1452.123291 184.0
1452.396362 92.0
1452.5177 160.0
1452.9729 152.0
1453.367432 148.0
1453.549438 220.0
1453.769531 140.0
1454.179321 220.0
1454.42981 216.0
1454.794189 60.0
1454.885254 124.0
1455.265869 148.0
1456.350708 184.0
1457.102783 156.0
1459.702148 76.0
1460.089966 92.0
1461.489624 176.0
1462.32666 164.0
1462.379883 164.0
1462.593018 216.0
1464.648804 68.0
1464.96875 152.0
1465.494385 172.0
1465.562988 148.0
1466.309692 196.0
1467.239624 144.0
1470.588257 216.0
1470.69519 224.0
1471.133667 184.0
1471.275269 172.0
1471.427979 292.0
1472.466431 196.0
1475.92041 132.0
1477.342896 148.0
1479.418823 196.0
1481.239136 168.0
1481.828979 76.0
1482.434326 116.0
1484.458008 156.0
1486.306519 104.0
1486.498413 84.0
1486.728638 100.0
1489.807373 76.0
1492.958618 140.0
1494.235474 168.0
1494.312378 160.0
1494.981812 180.0
1496.567505 172.0
1499.525391 260.0
1501.630127 148.0
1502.748657 160.0
1502.987793 128.0
1503.04187 156.0
