>compound MLS001142709-01!(2S)-3-(4-hydroxyphenyl)-2-[[1-[(2S)-2-[(4-methylphenyl)sulfonylamino]-4-methylsulfanylbutanoyl]piperidine-4-carbonyl]amino]propanoic acid
>formula C27H35N3O7S2
>ionization [M+H]+
>parentmass 578.199
#inchi InChI=1S/C27H35N3O7S2/c1-18-3-9-22(10-4-18)39(36,37)29-23(13-16-38-2)26(33)30-14-11-20(12-15-30)25(32)28-24(27(34)35)17-19-5-7-21(31)8-6-19/h3-10,20,23-24,29,31H,11-17H2,1-2H3,(H,28,32)(H,34,35)/t23-,24-/m0/s1
#inchikey DVWSPEXVOFZTQT
#Ion_Source LC-ESI
#Instrument qTof
#Compound_Source NIH Natural Product Library
#PI Dorrestein
#Data_Collector VVP/LMS
#Scan -1
#Precursor_MZ 578.199
#ExactMass 577.192
#Charge 1
#CAS_Number N/A
#Pubmed_ID N/A
#Smiles CSCC[C@H](NS(=O)(=O)c1ccc(C)cc1)C(=O)N2CCC(CC2)C(=O)N[C@@H](Cc3ccc(O)cc3)C(=O)O
#INCHI_AUX N/A
#Library_Class 1
#SpectrumID CCMSLIB00000080535
#IonMode Positive
#UpdateWorkflowName UPDATE-SINGLE-ANNOTATED-GOLD
#LibraryQualityString Gold
#TaskID b1d8e8f6646f4e71acdff9ca3d919d08
##Scan# 1860
#SpectrumFile p2-C10_GC10_01_18010.mzXML
#LibraryName NIH_Natural_Products_Library.mgf
#MQScore -1
#Organism NIH_Natural_Products_Library
#TIC_Query 0
#RT_Query -1
#MZErrorPPM -1
#SharedPeaks 0
#MassDiff 0
#LibMZ -1
#SpecMZ 578.199
#SpecCharge 0
#internalFilename spec-00000.mgf

>collision 10
96.300789 116.0
97.077736 156.0
98.601471 148.0
100.388176 156.0
101.12336 168.0
101.401749 144.0
102.033798 160.0
102.432503 156.0
103.036659 152.0
103.490738 72.0
103.894051 176.0
107.740868 52.0
107.83799 92.0
109.54776 92.0
110.061234 176.0
111.091644 200.0
111.529366 212.0
111.785942 160.0
111.903816 120.0
112.007004 216.0
112.076942 4788.0
112.139748 104.0
112.221954 144.0
112.274673 120.0
112.538437 76.0
113.080368 660.0
113.210854 44.0
113.675102 48.0
113.849174 52.0
114.085022 148.0
115.84343 120.0
116.055595 352.0
116.602989 200.0
117.041832 148.0
118.075485 164.0
118.738197 180.0
119.053032 220.0
119.248398 76.0
119.979782 168.0
120.075722 168.0
120.090988 156.0
121.068253 152.0
122.262154 192.0
123.046761 184.0
124.044563 128.0
124.788261 192.0
126.074409 72.0
126.786064 136.0
128.071182 76.0
128.168045 140.0
129.211151 168.0
129.242828 176.0
130.08432 404.0
130.740494 136.0
132.075165 160.0
133.081207 140.0
134.056488 116.0
135.044586 140.0
135.067719 140.0
135.155624 68.0
136.075333 604.0
136.11525 48.0
137.078751 360.0
137.110901 116.0
137.250763 80.0
137.408798 164.0
137.558716 68.0
138.871384 236.0
139.023804 368.0
139.049683 100.0
139.08873 148.0
140.072479 148.0
142.402283 168.0
143.118073 168.0
145.744354 96.0
146.059296 108.0
147.044708 164.0
147.099762 220.0
147.859192 140.0
149.113037 156.0
150.093689 172.0
151.656235 176.0
151.97258 68.0
152.88913 128.0
154.822128 164.0
154.854324 112.0
155.016129 2476.0
155.149185 60.0
155.680161 84.0
156.021362 144.0
156.625244 180.0
157.009171 216.0
157.248581 108.0
160.880707 144.0
162.05925 148.0
162.472504 180.0
162.703445 160.0
163.040039 200.0
164.899155 104.0
165.051971 516.0
165.102234 628.0
165.8564 120.0
166.079483 180.0
166.105011 220.0
167.081299 152.0
167.112 148.0
167.418488 220.0
168.114517 140.0
168.382996 44.0
174.089081 92.0
176.558365 176.0
176.976456 136.0
178.475571 176.0
180.512756 120.0
181.053314 148.0
182.087326 308.0
183.068146 148.0
183.09166 144.0
184.086746 148.0
185.084534 148.0
186.256104 72.0
187.623657 36.0
189.59288 148.0
190.086472 100.0
191.860489 84.0
193.089233 112.0
193.382507 176.0
193.495987 144.0
194.108322 220.0
197.164917 100.0
198.099426 28.0
203.554123 228.0
204.031448 132.0
205.13884 160.0
205.972061 188.0
207.110458 60.0
208.329575 156.0
209.984634 140.0
210.058426 1160.0
211.067551 132.0
211.109375 268.0
211.126038 160.0
211.333664 88.0
211.432037 64.0
212.054443 176.0
212.06131 160.0
212.072891 220.0
212.109451 144.0
214.047577 156.0
220.040756 208.0
222.759338 148.0
224.104019 136.0
224.205338 232.0
224.527313 132.0
225.112213 168.0
229.254974 136.0
230.112991 180.0
230.232391 168.0
232.745743 196.0
233.453751 212.0
234.11412 176.0
235.90889 152.0
238.083557 140.0
239.098068 152.0
242.027542 92.0
244.725723 172.0
244.903229 100.0
245.115067 56.0
245.139999 236.0
247.142273 736.0
248.150192 164.0
248.20961 136.0
249.056946 96.0
249.163742 160.0
250.954544 92.0
255.849411 156.0
257.491547 160.0
257.967621 156.0
258.015564 188.0
258.063019 4188.0
258.172241 48.0
258.30658 128.0
258.511322 80.0
258.869843 112.0
258.92749 144.0
259.065247 484.0
259.882751 100.0
259.988647 128.0
260.056122 404.0
260.088135 116.0
260.900848 124.0
261.055817 140.0
262.052979 156.0
264.267853 128.0
265.100006 136.0
267.982147 120.0
271.256714 44.0
272.286987 96.0
273.124451 64.0
274.90744 80.0
275.144562 148.0
276.116547 196.0
279.407013 128.0
279.68988 116.0
280.505951 132.0
284.154449 220.0
284.624329 132.0
287.08075 148.0
287.181946 164.0
289.503723 116.0
290.089874 108.0
291.063568 148.0
291.135529 964.0
292.13443 324.0
292.951111 176.0
293.098022 132.0
293.15155 2500.0
293.240753 96.0
294.045624 164.0
294.156219 732.0
294.322144 96.0
294.496307 96.0
295.108002 84.0
295.166534 320.0
295.870911 88.0
296.473755 40.0
297.808319 76.0
298.929077 160.0
299.121796 152.0
300.14502 112.0
301.142334 172.0
301.532745 128.0
302.1586 100.0
304.171997 108.0
305.120361 196.0
305.144684 132.0
307.454071 212.0
308.124481 100.0
309.250458 124.0
310.487183 140.0
311.164398 140.0
313.158203 140.0
314.17691 244.0
315.179596 240.0
316.208649 96.0
317.831635 112.0
318.143951 164.0
321.10376 236.0
321.136993 328.0
322.127991 148.0
323.122589 140.0
325.775452 88.0
328.174438 244.0
329.067078 180.0
329.171082 276.0
330.181244 236.0
331.178894 184.0
331.490479 52.0
345.011383 136.0
345.817749 196.0
347.37027 64.0
349.129089 512.0
352.255951 20.0
356.160889 128.0
357.160706 152.0
359.159668 136.0
362.722656 80.0
364.073334 68.0
367.134949 304.0
368.140442 232.0
371.282288 100.0
372.391418 132.0
373.079224 80.0
374.067841 184.0
374.174774 544.0
375.096313 88.0
375.131012 112.0
375.178864 844.0
375.296783 44.0
375.859924 36.0
376.079895 64.0
376.182678 224.0
376.269043 104.0
376.342407 48.0
376.438934 84.0
376.48526 72.0
377.185608 144.0
377.242554 48.0
378.782654 92.0
379.596527 176.0
379.720612 40.0
387.559967 140.0
390.291779 140.0
394.35611 152.0
395.281525 80.0
397.080017 104.0
399.586487 80.0
403.638824 104.0
404.082794 188.0
406.815948 156.0
410.106262 204.0
413.624359 156.0
414.32489 80.0
415.16391 140.0
419.738647 188.0
428.170105 188.0
428.258667 104.0
431.146637 104.0
432.594269 64.0
433.874329 104.0
434.849091 68.0
436.641785 20.0
437.284576 176.0
440.123413 136.0
444.887848 156.0
449.800323 136.0
453.086029 64.0
465.236023 48.0
465.991882 52.0
476.25589 116.0
481.220245 136.0
483.720825 32.0
484.057922 176.0
484.188507 436.0
484.842072 104.0
485.187714 224.0
485.890015 40.0
486.188385 140.0
486.622925 56.0
487.158722 48.0
487.202637 104.0
490.154816 140.0
490.943878 80.0
497.53656 40.0
498.784821 156.0
502.186523 176.0
503.203949 88.0
507.745697 88.0
513.822571 80.0
519.173523 108.0
519.259644 96.0
525.286255 152.0
527.66095 68.0
528.003845 76.0
529.459167 40.0
530.013428 108.0
530.108826 156.0
530.195984 2308.0
530.797241 92.0
530.875183 84.0
530.916504 116.0
531.10907 100.0
531.199707 1220.0
531.263611 204.0
531.306335 156.0
531.471497 44.0
531.783569 72.0
532.192139 540.0
533.074036 144.0
533.206665 144.0
533.6026 44.0
534.025635 116.0
534.204407 148.0
537.291504 128.0
544.06665 64.0
549.180542 140.0
552.35199 64.0
573.163025 96.0
577.19635 80.0
577.315918 72.0
577.358948 188.0
579.220764 152.0
579.364441 128.0
580.34259 208.0
580.409241 188.0
582.396057 116.0
588.980347 32.0
597.001343 96.0
602.31366 124.0
616.141968 104.0
642.058716 136.0
671.528259 92.0
718.283813 52.0
749.908569 120.0
750.344666 56.0
764.888916 80.0
797.501404 120.0
806.796448 44.0
807.226135 208.0
840.033142 120.0
851.905762 152.0
934.643433 164.0
940.536499 224.0
961.638123 144.0
998.93103 188.0
1031.787109 92.0
1080.592041 132.0
1082.752197 100.0
1105.390991 20.0
1125.97229 96.0
1147.087158 176.0
1184.172729 212.0
1188.57373 216.0
1201.887695 248.0
1214.713989 216.0
1248.638306 136.0
1252.319092 200.0
1297.757324 208.0
1310.003296 108.0
1319.49292 160.0
1319.579712 180.0
1321.127319 244.0
1336.645996 172.0
1341.882812 196.0
1343.377808 136.0
1345.55249 224.0
1364.22583 172.0
1371.578613 172.0
1434.464111 172.0
1439.911621 180.0
1449.746216 40.0
1453.241699 140.0
1459.135254 148.0
1467.677612 160.0
1472.339966 192.0
1479.098511 160.0
1484.261963 228.0
1493.423584 116.0
1495.816406 176.0
1496.932739 152.0
1501.070679 216.0
1502.628662 160.0
