>compound PrednisoloneAcetate
>formula C23H30O6 
>ionization [M+H]+
>parentmass 403.212
#inchi InChI=1S/C23H30O6/c1-13(24)29-12-19(27)23(28)9-7-17-16-5-4-14-10-15(25)6-8-21(14,2)20(16)18(26)11-22(17,23)3/h6,8,10,16-18,20,26,28H,4-5,7,9,11-12H2,1-3H3/t16-,17-,18-,20+,21-,22-,23-/m0/s1
#inchikey LRJOMUJRLNCICJ
#Ion_Source LC-ESI
#Instrument qTof
#Compound_Source Isolated
#PI Sirenas
#Data_Collector Ed Esquenazi 
#Scan -1
#Precursor_MZ 403.212
#ExactMass 0.0
#Charge 1
#CAS_Number N/A
#Pubmed_ID N/A
#Smiles N/A
#INCHI_AUX N/A
#Library_Class 3
#SpectrumID CCMSLIB00000004751
#IonMode Positive
#UpdateWorkflowName UPDATE-SINGLE-ANNOTATED-BRONZE
#LibraryQualityString Bronze
#TaskID d19310cd93df49b68e9fcbec27720eb5
##Scan# 3
#SpectrumFile PrednisoloneAcetate.mgf
#LibraryName fda_library.mgf
#MQScore -1
#Organism fda_library
#TIC_Query 0
#RT_Query -1
#MZErrorPPM -1
#SharedPeaks 0
#MassDiff 0
#LibMZ -1
#SpecMZ 403.212
#SpecCharge 0
#internalFilename spec-00000.mgf

>collision 10
100.662766 8.333333
101.022598 219.165802
101.059059 181.8517
103.036705 85.47229
104.627769 6.880952
104.650246 7.280303
104.713181 14.36134
105.069534 487.67099
105.180191 4.531863
105.3657 32.666672
105.41922 6.070402
105.515686 5.357143
106.419655 7.84375
107.04789 191.974106
107.08532 513.048401
107.170082 1.777778
107.277885 8.081897
107.303429 10.2192
107.316353 2.708333
107.391518 10.96429
108.20562 9.171748
109.063866 53.87764
109.09716 82.634773
109.440063 4.733333
111.039619 15.04412
111.07235 7.352941
111.222725 10.35
112.093994 35.013161
113.061096 108.621597
113.624008 4.009259
115.040604 54.11657
115.054123 225.220306
115.075043 4.35
115.242905 10.30876
116.032188 11.03571
116.968529 53.742401
117.068542 212.434601
117.170509 10.53452
117.336212 20.292601
117.614265 9.3
118.537727 4.8
119.047112 22.59968
119.084595 967.673828
119.132935 5.394608
119.146355 10.88056
119.220337 4.0
119.300629 11.75543
119.319931 4.222222
119.365562 5.041667
119.414139 3.402778
119.508987 11.6886
119.531853 9.980392
119.656799 17.156481
119.928139 12.24537
120.054077 63.297531
120.122292 7.429762
120.351929 3.926282
120.377281 25.033449
120.396973 5.346264
120.524879 20.91667
120.62735 21.749359
121.04734 37.727409
121.06459 3064.7229
121.097542 75.144867
121.149879 9.547619
121.183319 3.75
121.207581 7.028153
121.226524 9.670455
121.284195 12.8125
121.305824 14.51923
121.317352 15.99519
121.429497 16.019609
121.489555 5.449074
121.552528 19.02977
121.571709 9.041667
121.621651 26.39456
121.635284 8.095239
121.718307 6.880952
121.825371 19.21814
121.856285 16.53178
122.270828 8.029761
122.301056 12.82996
122.399887 9.333333
122.91037 20.075001
123.077736 137.917999
123.151833 11.14969
125.057037 71.379967
125.620476 11.57615
127.052208 56.672409
127.21653 3.027778
128.059509 174.063599
128.432953 24.77137
128.698471 4.958333
129.069214 297.377106
129.328735 10.64015
129.518661 7.711957
130.075943 163.683899
130.25116 13.78333
130.661453 11.68709
131.085327 416.337189
131.119156 2.35
131.133133 2.791667
131.609772 7.363636
131.646027 3.185606
131.864899 9.068182
132.054214 147.538193
132.404343 10.34722
132.741501 3.440476
133.064285 392.368286
133.100052 292.163208
133.133194 3.933333
133.146988 2.816667
133.178726 7.721847
133.291153 8.003788
133.309937 21.674999
133.343048 8.897436
133.371506 6.775537
133.70517 6.005208
134.579651 2.008333
134.602142 5.761905
135.045532 59.913109
135.079376 1067.593994
135.216751 12.24074
135.310806 4.531863
135.363602 5.686403
135.579453 4.7
135.638962 8.346265
136.393616 6.341667
137.056915 27.438669
137.098343 107.104797
138.445023 18.2663
138.547272 6.016304
139.072708 345.725311
139.125244 4.007576
139.149719 3.686404
139.507126 7.698232
139.693329 3.266667
140.24408 6.001984
141.069412 162.156799
141.370361 11.34964
141.428497 3.34375
142.076797 62.224541
142.518677 7.06586
143.085159 424.251312
143.205246 4.675
143.366745 2.75
144.053833 46.22625
144.197296 3.402778
145.062347 331.51059
145.098801 433.896393
145.172394 22.00079
146.234726 7.366936
146.335144 19.849569
146.366501 15.21365
146.559052 23.96081
147.079788 4782.464844
147.118134 108.975998
147.131378 40.271542
147.151154 12.125
147.19101 10.125
147.244553 6.148809
147.295959 7.083333
147.322891 17.80278
147.340576 20.64003
147.365051 30.88862
147.389771 20.334681
147.415039 4.336538
147.427704 7.001344
147.448853 12.67432
147.477875 24.9077
147.49559 16.733971
147.524872 5.454545
147.538193 40.148499
147.554276 23.83567
147.588257 8.716666
147.727966 3.490385
147.820282 14.67083
147.88002 3.669118
148.015427 2.003788
148.082993 32.71196
148.405075 3.028846
148.481094 11.67593
148.847076 8.595239
149.057617 62.586441
149.093063 69.530777
149.19014 3.677083
149.22374 2.675
149.266815 10.33532
150.442032 15.76056
150.804962 3.010417
151.074631 37.473911
152.681915 4.453432
152.945679 58.713699
153.215683 6.678572
153.262833 2.003788
153.478989 26.70455
153.771454 5.720238
154.075134 48.206059
155.083847 375.21109
155.384781 4.681667
155.423813 14.36292
155.433792 3.266667
156.261993 4.001984
156.758957 48.872711
157.062515 119.733299
157.099747 108.1772
157.297363 2.041667
157.630661 7.564103
157.962616 9.031566
158.072723 473.829712
158.108688 41.695511
158.189957 6.787879
158.216324 12.04167
158.262207 14.3986
158.531357 6.494048
158.843643 8.223765
158.912842 5.673611
158.978638 4.001812
159.079178 653.94989
159.114807 67.338707
159.154022 2.695513
159.305374 12.04741
159.338821 10.16329
159.392746 8.428572
159.518219 6.306159
160.160767 5.742284
160.39035 5.746795
160.711578 8.361486
161.060608 48.734718
161.095459 524.581787
161.135239 4.366667
163.07753 101.826797
163.110855 18.148149
163.161316 26.825491
163.390854 4.355392
163.521164 4.8
164.607254 5.09375
165.067627 115.949898
165.090561 134.604797
165.424911 9.708333
166.752014 7.782407
167.087051 25.39126
167.314133 16.426769
169.060303 33.117519
169.101501 72.273117
169.825363 5.160714
170.070786 130.727005
170.156143 15.15802
170.179138 2.354167
170.305679 5.013889
170.364731 13.04167
170.487915 9.280702
170.624191 15.97711
171.0802 2473.844971
171.114288 167.141403
171.137711 4.42803
171.15506 18.831791
171.174164 25.80603
171.201797 12.33422
171.220001 4.336538
171.23822 6.371913
171.263733 9.926282
171.280258 28.178289
171.298233 9.388888
171.316879 15.21354
171.333832 11.11725
171.379379 14.36134
171.406784 9.010715
171.427475 7.880051
171.438583 8.004386
171.479218 8.958333
171.630051 19.044451
171.721085 3.388889
171.821411 13.33418
172.014984 20.650419
172.223633 20.68103
172.247284 7.573412
172.346237 8.730159
172.364502 4.0
172.720947 16.00952
172.978912 26.787649
173.094635 1144.243042
173.159775 3.125
173.191879 11.91595
173.250946 21.86989
173.306656 3.703704
173.337997 3.555556
173.426346 10.12121
173.783157 10.75556
174.009628 5.333333
175.080017 25.76025
175.110229 82.061867
175.29538 6.76923
176.115646 37.490311
177.087387 24.26833
177.122498 28.867861
178.075684 55.050671
178.290894 16.25379
178.694824 12.58333
178.971634 4.336111
179.083984 145.879593
181.060394 142.487
181.101028 156.961807
181.147003 2.0
181.315598 3.0
181.337936 6.59375
181.587402 7.335318
182.071335 151.538895
183.077957 106.980499
183.115631 32.262409
183.250732 3.34375
183.967239 16.34041
185.020996 5.444445
185.055008 32.252399
185.094757 380.622192
185.253006 6.454545
185.414337 25.48576
185.712524 8.005952
187.073273 9.791667
187.111969 236.059097
189.065201 6.927469
189.085953 35.380951
189.670944 11.63377
190.053497 3.490385
190.075623 59.395081
190.555695 8.334459
190.589691 21.049601
191.084885 99.218803
191.102478 90.096863
191.24353 8.314103
191.638321 3.36218
192.095779 105.338501
193.099258 196.343399
194.073181 122.780296
194.104324 70.629913
194.160049 2.083333
195.079056 276.329712
195.116043 239.715103
195.184143 21.43293
195.271591 4.340909
195.384109 6.704545
195.972412 15.46944
196.056473 8.224999
196.087372 182.014801
196.157364 8.010135
196.296982 11.29657
196.320007 1.791667
197.094345 805.637878
197.130859 43.717388
197.354111 5.041667
197.489777 2.367424
197.684265 12.52273
197.919815 5.080128
198.000244 6.906746
198.03772 16.016529
198.155228 11.40514
198.236679 4.560185
198.488373 10.68627
199.10965 224.641495
199.550171 1.6875
199.892685 18.765949
199.976395 12.66886
203.103226 10.59572
204.091995 84.62767
204.487534 4.066667
205.102646 335.811493
206.107864 152.391006
206.970016 6.633772
207.080032 48.9496
207.115067 90.581139
207.468307 9.075
207.896942 5.510417
208.088074 489.960907
208.14772 23.11618
208.286377 12.68709
208.316498 3.666667
208.402588 27.32292
208.6978 9.075
209.0569 44.32338
209.096268 393.596313
209.261551 6.016304
209.502762 16.698231
209.667633 11.5625
209.680252 5.333333
209.838654 5.933333
210.102142 305.304108
210.138535 4.339286
210.153244 7.102564
210.238998 12.05128
210.380386 7.777778
210.420868 3.490385
210.450195 6.136111
210.63475 7.382936
210.91687 5.115741
211.074631 144.946503
211.112228 450.508392
211.145203 42.706669
211.174164 3.888889
211.259537 9.122475
211.352966 11.04423
211.856323 13.80682
212.008194 3.675
213.085251 35.380951
213.12442 270.781311
213.184998 2.333333
213.25676 6.371212
214.456757 6.748333
214.859756 12.61232
215.082794 62.72718
216.086334 29.77482
217.120514 17.26844
218.069077 31.014851
218.906815 7.74074
219.081009 26.39279
219.114059 98.419273
219.493988 5.041667
220.090454 20.07419
220.758057 27.815331
221.094727 271.364288
221.129974 104.1502
221.203293 5.667929
221.399963 5.338889
221.688019 4.6
221.92308 3.666667
221.94899 9.337963
222.103302 408.967499
222.286011 8.086538
222.514282 2.666667
223.06926 7.09375
223.109406 1096.595947
223.174149 8.689693
223.198975 11.59414
223.392975 10.66667
223.485764 5.088768
223.558075 13.43021
223.594925 18.42424
224.118271 478.033386
224.162827 6.863096
224.407303 8.284091
224.782669 10.00417
225.090378 15.68182
225.127579 392.82019
226.863312 17.76313
227.078629 32.979939
227.107391 31.15691
228.175018 8.214286
229.093536 88.434662
229.122604 12.28409
229.208954 3.0
230.593597 6.068182
231.0746 25.69915
231.117142 6.98077
232.088638 37.33456
232.121017 7.041667
232.754425 5.265351
233.095093 152.368393
233.126633 208.708694
233.193283 2.375
233.534866 6.001984
234.106888 96.415413
234.242477 10.67539
235.109787 178.909393
235.452515 5.09375
235.645355 14.46897
236.120071 111.550301
236.148071 12.74167
236.580902 9.054825
237.089081 17.02043
237.127808 523.952576
237.261292 5.333333
237.340836 6.361111
237.415344 2.782408
237.67482 9.115741
237.834167 9.122968
237.866348 2.005952
238.09256 36.215061
238.183029 9.383333
238.730988 3.670455
239.141266 688.035217
239.20961 2.020833
239.403351 6.020833
239.516388 10.09643
239.618683 10.41177
239.88266 12.39682
240.113144 27.15802
241.005402 9.041667
241.869675 4.844298
243.118134 61.3507
244.086411 50.544231
244.609619 17.53186
245.092346 154.422897
245.769958 9.016305
245.846222 12.71204
246.102264 104.159401
246.14064 70.747017
246.697906 6.001812
247.109238 94.085472
248.119324 195.138199
248.16304 7.856884
248.598129 30.402519
248.844498 11.34987
249.126175 265.616486
249.168396 22.75174
249.825241 4.5
249.883667 9.416667
250.132507 134.173904
251.000412 4.120098
251.140778 407.104797
251.171906 51.049938
251.265015 6.685185
251.463577 9.773936
251.535309 15.56481
251.595993 12.49223
251.717407 4.366667
252.187485 4.59375
253.323883 12.81636
254.100815 53.326729
254.634567 5.720238
256.124084 24.72024
258.215118 16.6
259.112366 165.577499
259.62915 12.44185
259.868134 19.005951
260.117737 179.093796
260.906921 11.36232
261.125061 155.073502
261.167358 66.602142
263.139038 279.913788
263.185516 2.408333
263.543365 8.671569
264.110718 61.18396
264.334625 6.004902
264.934601 11.77174
265.155792 249.748795
266.164673 232.791504
266.283905 6.668011
266.340668 12.84444
271.148315 12.68254
272.11731 9.166667
273.123108 81.406273
273.197235 1.675
273.778351 10.83
274.134003 307.706787
274.285156 32.206341
275.204865 10.04167
276.145172 90.093163
276.388519 10.64651
276.490448 8.732527
277.116028 149.432007
277.190155 4.558333
278.437531 4.342593
278.553741 9.546718
279.138763 149.540894
279.170837 74.44294
279.20929 7.377451
279.314789 16.02273
279.431061 11.83
287.142609 26.69187
289.155731 248.922195
289.292206 18.01829
289.742126 6.880952
289.848694 3.0
290.601379 4.120098
292.141327 97.354134
292.484344 10.74074
294.158234 107.2742
297.143433 31.0112
297.203461 6.363636
307.167297 21.336109
308.06189 5.414216
308.167908 31.440041
308.200745 4.336538
308.483978 4.680556
347.398346 4.033333
930.166199 12.41667
