>compound MLS001160313-01!2-[(5-hydroxy-2,2-dimethyl-4-oxo-3H-chromen-7-yl)oxy]-N-(4-methoxyphenyl)acetamide
>formula C20H21NO6
>ionization [M+H]+
>parentmass 372.145
#inchi InChI=1S/C20H21NO6/c1-20(2)10-16(23)19-15(22)8-14(9-17(19)27-20)26-11-18(24)21-12-4-6-13(25-3)7-5-12/h4-9,22H,10-11H2,1-3H3,(H,21,24)
#inchikey XSTNTAIXZAKVEJ
#Ion_Source LC-ESI
#Instrument qTof
#Compound_Source NIH Natural Product Library
#PI Dorrestein
#Data_Collector VVP/LMS
#Scan -1
#Precursor_MZ 372.145
#ExactMass 371.137
#Charge 1
#CAS_Number N/A
#Pubmed_ID N/A
#Smiles COc1ccc(NC(=O)COc2cc(O)c3C(=O)CC(C)(C)Oc3c2)cc1
#INCHI_AUX N/A
#Library_Class 1
#SpectrumID CCMSLIB00000080234
#IonMode Positive
#UpdateWorkflowName UPDATE-SINGLE-ANNOTATED-GOLD
#LibraryQualityString Gold
#TaskID b1d8e8f6646f4e71acdff9ca3d919d08
##Scan# 2253
#SpectrumFile p2-H05_GH5_01_18065.mzXML
#LibraryName NIH_Natural_Products_Library.mgf
#MQScore -1
#Organism NIH_Natural_Products_Library
#TIC_Query 0
#RT_Query -1
#MZErrorPPM -1
#SharedPeaks 0
#MassDiff 0
#LibMZ -1
#SpecMZ 372.145
#SpecCharge 0
#internalFilename spec-00000.mgf

>collision 10
95.047279 368.0
95.064964 144.0
95.08226 372.0
95.141197 92.0
95.590187 160.0
95.687515 48.0
95.755669 232.0
95.899849 96.0
96.079254 204.0
96.131935 64.0
96.295929 228.0
96.430748 124.0
96.456154 108.0
96.493301 152.0
96.512848 32.0
96.814209 148.0
97.026421 480.0
97.163116 108.0
97.384941 188.0
97.595215 156.0
97.632584 140.0
97.723068 132.0
97.894318 72.0
97.969948 152.0
97.994781 144.0
98.164299 216.0
98.209816 184.0
98.245171 136.0
98.401077 152.0
98.46032 172.0
98.539047 192.0
98.61245 144.0
98.636169 52.0
98.778549 168.0
98.899254 128.0
99.048904 152.0
99.174576 140.0
99.188454 76.0
99.232063 180.0
99.442345 172.0
99.458221 232.0
99.634964 168.0
99.718422 200.0
99.965027 168.0
99.996872 128.0
100.066544 168.0
100.293648 216.0
100.313583 152.0
100.527 72.0
100.598854 168.0
100.658752 180.0
100.76461 140.0
100.830559 156.0
100.892525 156.0
100.920517 68.0
101.046524 168.0
101.114555 196.0
101.128571 144.0
101.214653 184.0
101.23468 188.0
101.262718 124.0
101.378914 192.0
101.473129 172.0
101.499191 48.0
101.523254 184.0
101.824295 196.0
101.852417 188.0
102.029259 152.0
102.08757 180.0
102.170044 176.0
102.222359 116.0
102.306892 56.0
102.510323 60.0
102.5466 148.0
103.055145 136.0
103.107681 192.0
103.421181 172.0
103.477867 152.0
103.520386 160.0
103.72097 152.0
103.767593 228.0
103.913628 168.0
103.964355 152.0
104.049118 6772.0
104.144897 260.0
104.187714 44.0
104.208031 96.0
104.252731 80.0
104.26696 80.0
104.35437 116.0
104.543549 76.0
104.572037 276.0
104.63311 60.0
104.671791 160.0
104.690125 180.0
104.751228 408.0
104.814384 144.0
104.871452 72.0
104.934647 52.0
104.987663 116.0
105.035591 168.0
105.057091 748.0
105.081841 164.0
105.248863 108.0
105.389801 172.0
105.422501 148.0
105.45929 156.0
105.487907 204.0
105.629005 228.0
105.753822 132.0
105.780434 184.0
105.835709 168.0
105.948357 120.0
106.001633 136.0
106.026222 168.0
106.042618 132.0
106.065437 1032.0
106.100014 156.0
106.249733 128.0
106.366707 232.0
106.530991 180.0
106.571892 44.0
106.644005 188.0
106.68512 148.0
106.709785 160.0
106.843475 368.0
107.009789 148.0
107.049583 612.0
107.084579 412.0
107.207932 144.0
107.282135 232.0
107.319244 56.0
107.370125 196.0
107.447121 132.0
107.585114 148.0
107.645271 176.0
107.758881 180.0
108.01973 252.0
108.056282 1148.0
108.081047 772.0
108.145592 56.0
108.164223 184.0
108.191132 152.0
108.240822 180.0
108.25946 124.0
108.278099 216.0
108.402191 160.0
108.447998 80.0
108.510185 188.0
108.620102 116.0
108.639938 212.0
108.682343 100.0
108.698944 60.0
108.721771 172.0
108.742523 164.0
108.767433 192.0
108.792343 184.0
108.83802 172.0
108.902397 208.0
108.941864 160.0
109.000038 204.0
109.029152 404.0
109.064308 4856.0
109.114357 44.0
109.199615 152.0
109.264107 124.0
109.286995 176.0
109.311958 48.0
109.37648 244.0
109.399376 188.0
109.643082 68.0
109.720207 40.0
109.770256 192.0
109.799446 128.0
109.814049 68.0
109.851593 108.0
109.884972 40.0
109.980972 192.0
110.028114 196.0
110.066589 608.0
110.084106 140.0
110.154289 108.0
110.277573 192.0
110.331917 116.0
110.407196 160.0
110.702271 156.0
110.739975 156.0
110.75882 220.0
110.943718 184.0
111.007858 448.0
111.052277 108.0
111.079544 40.0
111.176056 176.0
111.220131 96.0
111.304108 56.0
111.390221 184.0
111.41333 152.0
111.476364 148.0
111.518394 224.0
111.600388 128.0
111.865471 124.0
111.929657 124.0
111.999901 172.0
112.286896 72.0
112.582359 104.0
112.628822 232.0
112.783073 160.0
112.926857 124.0
112.973396 152.0
112.990318 132.0
113.307892 176.0
113.424446 68.0
113.511375 160.0
113.591972 88.0
113.693817 216.0
113.744759 140.0
113.814819 176.0
113.997498 140.0
114.088898 124.0
114.11441 120.0
114.134651 160.0
114.212234 152.0
114.286697 160.0
114.422913 212.0
114.567734 244.0
114.608215 184.0
114.797935 100.0
114.851257 48.0
114.964333 224.0
115.032814 144.0
115.052238 196.0
115.378716 52.0
115.421478 188.0
115.457832 172.0
115.511307 140.0
115.892387 44.0
115.988831 160.0
116.023132 192.0
116.053146 188.0
116.072449 164.0
116.111046 116.0
116.147507 180.0
116.194702 260.0
116.521049 104.0
116.576912 32.0
117.068062 480.0
117.12986 140.0
117.252678 136.0
117.399277 184.0
117.616814 172.0
117.725143 204.0
117.856911 132.0
117.921745 120.0
118.066597 152.0
118.112022 180.0
118.189903 112.0
118.215874 128.0
118.261322 120.0
118.363075 104.0
118.402054 176.0
118.458366 136.0
118.534416 184.0
118.566711 48.0
118.892021 168.0
118.931084 184.0
118.970161 176.0
119.045654 172.0
119.109138 164.0
119.169975 168.0
119.196045 236.0
119.576622 252.0
119.731201 232.0
119.774765 180.0
119.890244 220.0
119.949089 96.0
120.044289 936.0
120.256645 108.0
120.555855 40.0
120.833557 180.0
120.857628 100.0
120.886894 212.0
120.980186 152.0
121.020821 168.0
121.057808 4212.0
121.126915 104.0
121.225502 124.0
121.262764 52.0
121.519333 32.0
121.600533 156.0
121.640038 128.0
121.697121 184.0
121.797691 116.0
121.824852 176.0
121.85556 148.0
121.970917 216.0
122.059402 2888.0
122.172523 52.0
122.248863 48.0
122.336899 68.0
122.601219 48.0
122.627663 80.0
122.701599 200.0
122.71476 220.0
122.768768 108.0
123.006386 684.0
123.041656 904.0
123.062943 244.0
123.135124 180.0
123.455582 108.0
123.484329 68.0
123.768974 148.0
123.789742 192.0
123.920433 160.0
124.004089 156.0
124.057785 168.0
124.07502 916.0
124.131004 64.0
124.155403 164.0
124.197273 164.0
124.352859 48.0
124.392815 128.0
124.410576 36.0
124.581573 160.0
124.634895 44.0
124.77375 144.0
124.958588 124.0
124.986221 132.0
125.023506 396.0
125.065849 256.0
125.133125 156.0
125.211067 144.0
125.295715 52.0
125.387077 228.0
125.402672 180.0
125.639046 64.0
126.134804 44.0
126.177284 168.0
126.358444 144.0
126.472572 84.0
126.559883 180.0
126.651703 180.0
126.680824 164.0
126.774933 216.0
126.89373 132.0
126.969971 164.0
127.030106 104.0
127.068672 168.0
127.158432 184.0
127.223534 128.0
127.26619 236.0
127.484077 192.0
127.504311 172.0
127.578484 148.0
127.960953 184.0
128.073547 144.0
128.251556 208.0
128.319183 208.0
128.371048 104.0
128.404449 104.0
128.417557 168.0
128.434204 156.0
128.522186 204.0
128.684692 128.0
128.750183 112.0
128.790833 144.0
128.921875 224.0
128.937698 212.0
129.014557 140.0
129.193207 80.0
129.256561 152.0
129.639267 120.0
129.693665 172.0
129.723129 132.0
129.738998 148.0
129.793411 124.0
129.868256 156.0
130.140579 148.0
130.449554 200.0
130.467743 256.0
130.490479 196.0
130.554153 128.0
130.606461 228.0
130.728989 136.0
130.847687 112.0
130.952438 88.0
131.045837 160.0
131.104294 160.0
131.164337 144.0
131.390106 88.0
131.42662 88.0
131.556717 44.0
131.662689 96.0
131.693726 188.0
131.734833 40.0
131.885651 68.0
132.044876 1148.0
132.139496 192.0
132.171524 128.0
132.574554 152.0
132.629562 128.0
132.677704 164.0
132.851959 204.0
132.893295 160.0
132.95755 224.0
133.00116 164.0
133.051636 4480.0
133.145813 88.0
133.17337 108.0
133.244583 72.0
133.414658 56.0
133.791946 88.0
134.026169 224.0
134.058365 1132.0
134.089096 140.0
134.154785 192.0
134.183609 64.0
134.506577 104.0
134.555069 184.0
134.700546 248.0
134.751373 104.0
134.776794 240.0
134.836884 124.0
134.93396 92.0
134.965469 160.0
135.007492 972.0
135.040924 588.0
135.07814 536.0
135.169891 48.0
135.262466 104.0
135.338867 132.0
135.429184 184.0
135.505264 152.0
135.54039 140.0
135.605286 144.0
135.6586 188.0
135.691055 204.0
135.718872 216.0
135.742065 36.0
135.767288 132.0
135.812088 228.0
135.883148 136.0
135.916046 168.0
135.940903 352.0
135.984711 196.0
136.010239 184.0
136.03743 144.0
136.044724 108.0
136.076141 49960.0
136.1436 144.0
136.165634 124.0
136.183701 68.0
136.203918 72.0
136.279633 208.0
136.306152 52.0
136.335831 88.0
136.368896 56.0
136.45549 80.0
136.510712 52.0
136.529312 104.0
136.547928 32.0
136.608398 96.0
136.663315 172.0
136.685181 112.0
136.813873 96.0
136.864883 100.0
136.913315 216.0
137.022247 1520.0
137.079163 4032.0
137.141647 52.0
137.176605 36.0
137.279205 52.0
137.328171 84.0
137.408127 44.0
137.456497 76.0
137.475159 116.0
137.578568 184.0
137.598877 44.0
137.680603 104.0
137.751038 52.0
137.774033 132.0
137.802063 152.0
137.81842 72.0
137.842621 80.0
137.888535 68.0
138.013947 172.0
138.0289 236.0
138.079086 364.0
138.144928 116.0
138.162125 48.0
138.226807 148.0
138.269821 152.0
138.424271 80.0
138.451813 152.0
138.478134 80.0
138.522629 72.0
138.660873 72.0
138.832031 180.0
139.000931 192.0
139.021652 144.0
139.039139 676.0
139.219254 160.0
139.26857 72.0
139.435394 192.0
139.545868 56.0
139.569382 188.0
139.642288 300.0
139.672867 124.0
139.743439 204.0
140.02121 52.0
140.190842 44.0
140.459625 228.0
140.768814 172.0
140.79657 148.0
140.814346 140.0
140.974335 76.0
141.00032 160.0
141.019241 108.0
141.062057 168.0
141.097244 132.0
141.153992 100.0
141.21785 124.0
141.248596 164.0
141.485245 216.0
141.833206 160.0
141.949646 132.0
142.074265 148.0
142.091965 144.0
142.137039 60.0
142.224854 220.0
142.374435 224.0
142.978302 124.0
143.035431 112.0
143.090179 176.0
143.178284 184.0
143.249741 164.0
143.407013 240.0
143.697937 84.0
143.817261 148.0
143.857849 136.0
144.003494 104.0
144.194641 56.0
144.448914 188.0
144.553375 148.0
144.646713 112.0
144.67305 128.0
144.852646 188.0
144.869415 168.0
145.06636 528.0
145.228989 152.0
145.334534 56.0
145.55777 172.0
145.579391 152.0
145.711502 148.0
145.918198 132.0
146.059937 608.0
146.120438 184.0
146.16835 112.0
146.368134 120.0
146.48616 96.0
146.712677 148.0
146.780197 184.0
146.835663 248.0
146.92009 196.0
146.936966 120.0
146.99971 48.0
147.063538 160.0
147.171097 140.0
147.192825 176.0
147.386063 112.0
147.431976 176.0
147.833435 148.0
148.042969 244.0
148.077957 200.0
148.106567 192.0
148.172424 212.0
148.291168 92.0
148.402679 176.0
148.429352 136.0
148.448746 120.0
148.477844 52.0
148.582153 124.0
148.674362 188.0
148.795731 196.0
148.87529 204.0
149.01918 120.0
149.046021 3232.0
149.259811 120.0
149.361954 300.0
149.41304 96.0
149.585831 72.0
149.69783 84.0
149.895142 244.0
149.995071 132.0
150.053391 372.0
150.102356 144.0
150.148682 88.0
150.169235 180.0
150.187714 220.0
150.232574 132.0
150.399994 144.0
150.430252 172.0
150.536713 112.0
150.641739 148.0
150.810349 188.0
151.00264 124.0
151.038635 1500.0
151.080765 212.0
151.124176 220.0
151.174667 100.0
151.182816 96.0
151.187607 128.0
151.204132 200.0
151.238388 108.0
151.468567 228.0
151.728333 64.0
151.800049 192.0
151.980957 48.0
152.005493 232.0
152.051132 148.0
152.32222 144.0
152.35907 104.0
152.545837 116.0
152.666321 88.0
152.70813 200.0
152.741653 208.0
152.772079 128.0
152.804062 152.0
152.832016 212.0
152.870499 156.0
152.935257 232.0
152.962173 196.0
152.987961 204.0
153.018814 56628.0
153.079742 60.0
153.107986 112.0
153.153641 48.0
153.227539 68.0
153.262039 80.0
153.306381 80.0
153.350754 96.0
153.375397 56.0
153.404984 156.0
153.423874 224.0
153.440399 76.0
153.464142 72.0
153.495377 72.0
153.557861 56.0
153.575119 52.0
153.607193 64.0
153.629395 64.0
153.713287 128.0
153.774979 56.0
153.844101 44.0
154.020401 3428.0
154.097656 84.0
154.128128 152.0
154.202271 96.0
154.264069 64.0
154.338226 32.0
154.508896 44.0
154.58313 84.0
154.600449 40.0
154.67305 180.0
154.815826 44.0
154.843063 64.0
154.870316 88.0
154.90004 140.0
154.917374 100.0
154.979324 144.0
155.020416 368.0
155.04483 192.0
155.078445 200.0
155.09906 140.0
155.137939 56.0
155.181107 152.0
155.21727 140.0
155.304077 100.0
155.399139 112.0
155.452942 124.0
155.510025 188.0
155.564636 96.0
155.673874 152.0
155.780685 152.0
155.928207 100.0
156.029617 188.0
156.106277 40.0
156.185242 120.0
156.292847 84.0
156.402344 76.0
156.733582 60.0
157.065155 124.0
157.474518 128.0
157.506989 164.0
157.56694 72.0
157.94693 196.0
158.630554 148.0
158.675674 68.0
158.794922 36.0
158.886353 96.0
159.446304 160.0
159.695221 188.0
159.838623 168.0
159.972763 160.0
160.070145 196.0
160.596939 44.0
161.018433 120.0
161.061371 140.0
161.079056 140.0
161.503723 64.0
161.888412 48.0
162.052292 536.0
162.298935 76.0
162.397827 56.0
163.040588 292.0
163.075958 2640.0
163.197784 72.0
163.330032 36.0
163.462326 156.0
163.513229 188.0
163.576859 128.0
163.68634 80.0
164.032959 164.0
164.069992 11248.0
164.123123 136.0
164.203674 40.0
164.267441 36.0
164.303162 60.0
164.321014 84.0
164.397568 40.0
164.455704 72.0
164.507324 92.0
164.640091 64.0
164.77803 52.0
164.936096 188.0
165.01796 5376.0
165.075058 1068.0
165.146698 56.0
165.299652 92.0
165.322678 80.0
165.414429 128.0
165.504425 276.0
165.778625 100.0
165.881042 168.0
166.022812 896.0
166.078873 136.0
166.15802 164.0
166.185272 128.0
166.289322 120.0
166.373596 60.0
166.501984 148.0
166.620148 236.0
166.807755 136.0
167.02005 440.0
167.069229 276.0
167.184036 76.0
167.304245 116.0
168.036179 96.0
168.400177 116.0
168.420837 64.0
168.749039 236.0
168.919724 68.0
169.046509 172.0
169.073486 232.0
169.248413 204.0
169.305389 100.0
169.352005 204.0
169.725189 216.0
169.90155 80.0
169.966415 196.0
170.065445 152.0
170.285736 96.0
170.454605 112.0
170.74057 104.0
170.776978 128.0
170.813385 160.0
170.943481 80.0
171.029221 1008.0
171.072601 168.0
171.289764 40.0
171.420029 156.0
171.440872 64.0
171.698975 80.0
172.03447 272.0
172.262772 68.0
172.299347 176.0
172.427383 164.0
173.013321 88.0
173.034271 168.0
173.05896 196.0
173.298798 204.0
173.505859 208.0
173.602875 96.0
174.038467 180.0
174.090195 136.0
174.322174 132.0
174.845505 72.0
175.006088 104.0
175.089417 156.0
175.625397 48.0
176.046417 772.0
176.084656 36.0
176.317139 136.0
176.444031 152.0
176.555084 44.0
177.049042 140.0
177.288406 100.0
177.617188 212.0
177.683502 88.0
177.731262 188.0
178.04982 148.0
178.959274 160.0
179.033615 208.0
179.069977 900.0
179.151993 132.0
179.308243 140.0
179.889725 192.0
179.921753 172.0
180.064407 312.0
180.138077 176.0
180.319763 136.0
180.592484 120.0
180.918945 112.0
181.075409 324.0
181.264465 144.0
181.884003 84.0
181.910843 72.0
183.024292 336.0
183.581726 108.0
183.770538 236.0
184.080963 100.0
184.540314 140.0
184.578171 100.0
185.141052 48.0
185.829575 152.0
186.508499 40.0
187.057968 200.0
187.548294 100.0
187.886429 156.0
187.930084 100.0
188.069748 160.0
189.064346 192.0
189.376236 164.0
189.395416 72.0
189.875061 136.0
190.053375 100.0
190.437714 96.0
190.542099 116.0
190.924179 140.0
190.951691 220.0
191.070312 10548.0
191.140884 140.0
191.226822 72.0
191.628876 96.0
191.791473 28.0
191.918289 148.0
192.032898 164.0
192.074936 1156.0
192.348663 56.0
192.448059 56.0
192.588898 152.0
192.83757 32.0
193.013718 3688.0
193.048157 740.0
193.071945 336.0
193.323349 148.0
193.462723 184.0
193.623322 96.0
193.717499 108.0
193.750748 132.0
193.869888 52.0
194.017044 212.0
194.049576 136.0
194.34407 92.0
194.430099 136.0
194.466171 40.0
194.52446 148.0
194.546677 120.0
194.652176 80.0
195.02153 72.0
197.923096 148.0
198.084412 168.0
198.663025 132.0
199.261002 152.0
200.006241 148.0
200.062531 160.0
200.087875 196.0
200.116028 172.0
200.769775 112.0
201.057541 128.0
201.178909 112.0
202.087646 200.0
203.071976 248.0
203.091827 108.0
204.145508 164.0
204.267807 148.0
204.330399 160.0
204.657715 168.0
205.062241 184.0
205.686905 56.0
206.092438 148.0
206.944809 80.0
207.039307 100.0
208.0802 144.0
208.192184 168.0
208.255371 140.0
208.304199 96.0
208.330048 112.0
208.437729 92.0
208.669174 228.0
208.769821 32.0
208.838852 192.0
208.93837 188.0
208.988449 240.0
209.044739 124.0
209.081497 26172.0
209.14949 104.0
209.207169 44.0
209.227325 48.0
209.305176 100.0
209.390671 88.0
209.428909 216.0
209.473495 48.0
209.512436 80.0
209.561417 68.0
209.598877 52.0
209.662277 104.0
209.832352 68.0
209.852524 64.0
209.922989 52.0
210.030151 88.0
210.083221 3544.0
210.215973 80.0
210.397827 32.0
210.41803 92.0
210.553757 40.0
210.573975 108.0
210.608627 44.0
210.640396 48.0
210.666199 116.0
210.721298 48.0
210.952499 48.0
211.019318 292.0
211.086868 736.0
211.235886 80.0
211.259033 116.0
211.296646 96.0
211.413834 80.0
211.484741 104.0
211.522369 120.0
211.570129 104.0
211.615005 112.0
211.634735 84.0
211.710571 96.0
211.754013 96.0
211.838013 116.0
211.858292 60.0
211.948105 92.0
212.397476 52.0
212.647018 120.0
212.693451 40.0
212.943161 52.0
213.100021 168.0
213.355789 40.0
213.99295 104.0
214.090286 316.0
215.068665 276.0
215.386948 168.0
215.541779 136.0
215.769775 68.0
216.062225 116.0
216.627243 148.0
217.052216 192.0
218.238495 168.0
218.362 60.0
219.401459 132.0
221.08075 6608.0
221.310089 48.0
221.413742 96.0
221.45224 84.0
221.570724 104.0
221.662582 36.0
222.083893 736.0
222.131027 44.0
222.273438 48.0
222.365433 68.0
222.692032 72.0
222.739563 76.0
222.938629 52.0
223.009964 48.0
223.083557 312.0
223.39653 56.0
223.488754 128.0
223.551239 76.0
223.643509 84.0
224.030624 252.0
224.06636 136.0
224.543304 96.0
226.078918 76.0
227.070587 152.0
227.355591 196.0
228.062424 176.0
229.072449 168.0
229.280365 56.0
230.077591 576.0
230.167267 56.0
231.064957 188.0
231.219284 72.0
231.416046 80.0
232.058884 336.0
233.13295 104.0
234.048584 36.0
235.9953 68.0
238.048325 76.0
238.12204 60.0
239.044327 92.0
241.964294 116.0
242.072662 120.0
243.077042 120.0
246.09639 140.0
246.524338 168.0
249.075439 708.0
249.137527 84.0
250.080276 180.0
252.066376 164.0
252.428116 92.0
252.924835 84.0
253.051468 112.0
253.121124 132.0
253.304825 216.0
253.938766 124.0
256.485657 144.0
258.072998 224.0
259.375305 164.0
261.405121 112.0
261.440521 116.0
263.313629 148.0
265.041138 136.0
265.833984 20.0
267.011627 108.0
267.353241 124.0
267.877472 124.0
270.073639 264.0
270.247681 68.0
271.023682 96.0
272.093292 384.0
273.289307 76.0
273.954346 40.0
274.066376 52.0
275.078857 152.0
279.153809 184.0
280.102722 248.0
281.039551 188.0
281.376648 176.0
284.245148 68.0
286.167816 116.0
287.029419 108.0
287.141693 40.0
287.475677 92.0
288.087708 440.0
288.989502 144.0
289.094421 228.0
291.390015 192.0
294.978607 36.0
295.098267 140.0
297.05722 88.0
298.071594 296.0
298.499725 52.0
300.418182 60.0
302.519318 60.0
304.937012 104.0
308.174408 60.0
309.188507 56.0
310.944366 88.0
312.423706 44.0
314.100525 112.0
314.69342 96.0
315.230316 92.0
315.573181 264.0
316.082642 1356.0
316.16394 44.0
316.820404 172.0
317.042206 148.0
317.087555 284.0
317.205261 40.0
317.577576 60.0
318.096619 172.0
318.138245 48.0
318.22699 72.0
318.965942 128.0
319.346405 84.0
321.088043 152.0
326.132874 148.0
333.65564 64.0
334.980316 64.0
339.347626 20.0
354.134338 148.0
355.037781 112.0
355.960938 64.0
356.114929 128.0
356.61087 92.0
368.372925 128.0
370.293091 120.0
371.891937 68.0
372.148102 748.0
373.148041 164.0
374.140717 132.0
374.911072 68.0
375.242584 48.0
390.323517 96.0
392.047729 80.0
396.914001 140.0
396.993317 76.0
398.668579 120.0
403.715607 36.0
410.942047 56.0
411.321411 92.0
414.091125 124.0
417.976227 60.0
419.034851 40.0
423.381104 60.0
434.390442 84.0
452.038605 104.0
455.846649 88.0
473.414307 124.0
502.887146 112.0
522.25354 104.0
533.125793 64.0
541.995056 44.0
549.788879 172.0
556.154114 60.0
571.556274 76.0
580.244446 48.0
608.900452 116.0
610.128845 84.0
622.685059 32.0
624.02179 100.0
629.393005 92.0
629.662659 148.0
645.953369 96.0
650.620667 92.0
668.145325 80.0
668.484924 168.0
675.124268 92.0
684.907715 76.0
687.984314 96.0
691.428955 52.0
729.226196 44.0
739.998962 84.0
748.736145 36.0
749.580566 48.0
755.460815 64.0
762.666199 136.0
795.008362 172.0
822.099426 80.0
824.926636 180.0
835.915833 220.0
854.978455 80.0
865.327881 160.0
865.439148 168.0
870.446655 156.0
878.49231 112.0
884.602661 88.0
885.182861 64.0
889.528748 144.0
892.867981 160.0
894.337524 144.0
897.477051 88.0
902.313232 168.0
903.258118 148.0
904.412964 128.0
917.755737 60.0
919.016357 84.0
921.926941 48.0
928.950378 176.0
929.569275 184.0
930.734741 148.0
950.708496 176.0
960.23822 136.0
960.546631 92.0
961.7005 144.0
963.868164 160.0
966.545593 140.0
969.796875 152.0
971.353271 88.0
972.811523 148.0
983.418335 148.0
985.616577 172.0
989.926514 132.0
992.721375 140.0
994.308594 148.0
998.423584 172.0
1001.488647 40.0
1008.580811 228.0
1008.80835 64.0
1017.862122 204.0
1019.691711 60.0
1032.365723 148.0
1032.5448 60.0
1033.363647 40.0
1041.383057 116.0
1042.256836 148.0
1042.449585 72.0
1043.407227 168.0
1046.089966 208.0
1049.897827 76.0
1051.775391 204.0
1052.188477 60.0
1052.756714 176.0
1058.758057 172.0
1063.614258 220.0
1065.640503 160.0
1083.117554 244.0
1083.3927 56.0
1084.427124 204.0
1084.532837 152.0
1084.749146 172.0
1086.618164 56.0
1093.794434 148.0
1094.321167 160.0
1095.137695 112.0
1101.991699 72.0
1113.152832 228.0
1114.222168 184.0
1115.690918 176.0
1116.475464 96.0
1118.538086 48.0
1121.262207 160.0
1121.742188 180.0
1123.936401 44.0
1129.969727 220.0
1131.328247 180.0
1133.009277 164.0
1133.464844 180.0
1135.482666 168.0
1135.86499 164.0
1138.274414 144.0
1140.289795 136.0
1143.073975 64.0
1144.824097 256.0
1149.973145 156.0
1150.818726 232.0
1153.811768 164.0
1154.312134 148.0
1154.508179 88.0
1155.543091 40.0
1157.214844 168.0
1157.648193 176.0
1164.790039 168.0
1165.931396 216.0
1166.25769 188.0
1166.522827 220.0
1170.448364 176.0
1171.742554 200.0
1175.178711 156.0
1176.844116 144.0
1178.551758 204.0
1180.171631 124.0
1180.486206 208.0
1182.607056 84.0
1185.079102 92.0
1186.018066 168.0
1187.156128 112.0
1187.890015 88.0
1190.292114 132.0
1191.562744 124.0
1191.672729 136.0
1191.844482 160.0
1196.142822 172.0
1197.464844 196.0
1197.554321 76.0
1198.663574 152.0
1204.866333 144.0
1204.942383 68.0
1208.392334 100.0
1211.764038 216.0
1214.953247 268.0
1215.348633 156.0
1216.778442 144.0
1217.820068 176.0
1219.015015 232.0
1223.21582 180.0
1223.529053 196.0
1225.6604 136.0
1226.050659 156.0
1226.332886 208.0
1226.420044 136.0
1226.810303 224.0
1226.942749 196.0
1227.124023 168.0
1227.228638 112.0
1229.935425 104.0
1231.54834 180.0
1233.281128 200.0
1234.75647 252.0
1237.317505 192.0
1241.142944 116.0
1241.220093 168.0
1241.37439 184.0
1245.304443 228.0
1245.768066 64.0
1247.967041 208.0
1249.719116 132.0
1250.641113 172.0
1251.598511 112.0
1252.190063 160.0
1253.063477 164.0
1254.134644 88.0
1254.585815 156.0
1256.870972 116.0
1257.414307 212.0
1257.597778 180.0
1257.901367 176.0
1258.706177 124.0
1260.238892 160.0
1260.514526 160.0
1261.645386 204.0
1263.080933 144.0
1265.614502 156.0
1265.685303 108.0
1266.039307 180.0
1266.386353 88.0
1266.499756 48.0
1267.583618 164.0
1268.505005 156.0
1269.667847 156.0
1270.845337 232.0
1271.327881 60.0
1272.477783 168.0
1273.329956 172.0
1275.063477 140.0
1275.305054 128.0
1275.411743 156.0
1276.165283 184.0
1276.919067 60.0
1278.612305 148.0
1279.452148 52.0
1279.736938 160.0
1282.002197 128.0
1283.53479 168.0
1284.06958 68.0
1284.190918 132.0
1285.246704 164.0
1287.630981 108.0
1288.259521 148.0
1288.43811 152.0
1290.653809 156.0
1296.416138 124.0
1298.531128 124.0
1299.499512 56.0
1299.822388 224.0
1300.91333 132.0
1301.502075 240.0
1303.21875 88.0
1305.022705 132.0
1308.080322 168.0
1308.418701 144.0
1309.405151 172.0
1309.779663 132.0
1311.487427 148.0
1311.869385 132.0
1312.626465 168.0
1314.321533 84.0
1314.681519 172.0
1315.678467 172.0
1318.242554 176.0
1319.637573 168.0
1320.244995 160.0
1321.84375 176.0
1321.944946 36.0
1322.104248 120.0
1323.827148 140.0
1324.116821 104.0
1326.696411 124.0
1327.544678 180.0
1328.763306 136.0
1331.25293 156.0
1331.645142 172.0
1332.415161 260.0
1333.279785 76.0
1334.319214 168.0
1335.948242 200.0
1336.959595 132.0
1339.905518 168.0
1342.197266 72.0
1343.262085 176.0
1343.663818 204.0
1344.122925 128.0
1344.319946 84.0
1345.575439 236.0
1345.925903 204.0
1346.364014 176.0
1346.58313 84.0
1346.875244 60.0
1346.992188 124.0
1347.686157 120.0
1347.868896 140.0
1349.001709 136.0
1352.007812 168.0
1352.289062 168.0
1354.152954 144.0
1354.746216 152.0
1355.500854 164.0
1357.157471 176.0
1358.521606 96.0
1358.638916 216.0
1359.093872 192.0
1359.387329 220.0
1359.482788 188.0
1360.378174 104.0
1360.781982 156.0
1361.229858 208.0
1362.177368 104.0
1362.934082 168.0
1363.029541 128.0
1364.587769 68.0
1364.859863 196.0
1365.49231 232.0
1368.089722 72.0
1368.671387 108.0
1370.505371 152.0
1372.097412 228.0
1374.346924 192.0
1377.124878 172.0
1378.703613 88.0
1378.880981 136.0
1379.23584 284.0
1379.516724 140.0
1380.758911 208.0
1381.676147 140.0
1382.253296 192.0
1384.496216 120.0
1384.733276 36.0
1384.962891 212.0
1385.629517 216.0
1385.93335 144.0
1386.452026 168.0
1387.415649 140.0
1387.667725 188.0
1390.81311 212.0
1391.124878 200.0
1392.052979 148.0
1393.129883 152.0
1393.768799 160.0
1394.028931 56.0
1394.660645 164.0
1396.638428 140.0
1398.230713 204.0
1398.446533 160.0
1399.846069 184.0
1399.90564 144.0
1400.747314 128.0
1400.903687 196.0
1402.803955 176.0
1402.863647 176.0
1403.39917 172.0
1403.944702 172.0
1404.347534 244.0
1404.526489 164.0
1405.779907 208.0
1405.865967 196.0
1408.325684 180.0
1408.44519 148.0
1411.300049 84.0
1411.703735 44.0
1412.369385 216.0
1412.765869 192.0
1413.065186 136.0
1413.746094 88.0
1414.172607 156.0
1415.138306 224.0
1415.445312 64.0
1415.752319 156.0
1416.561279 168.0
1416.718506 64.0
1417.280518 84.0
1420.751831 112.0
1421.667236 204.0
1424.047119 140.0
1425.459473 216.0
1426.902588 152.0
1427.233398 220.0
1428.459229 160.0
1430.122192 236.0
1431.018066 44.0
1431.62793 64.0
1434.445801 60.0
1436.247925 184.0
1436.572388 120.0
1437.266479 124.0
1437.613525 172.0
1438.564575 152.0
1438.723022 132.0
1439.802856 216.0
1440.512817 104.0
1440.830078 196.0
1441.207886 92.0
1441.411865 136.0
1441.494995 176.0
1441.712524 168.0
1442.855469 196.0
1443.089844 204.0
1444.36792 160.0
1445.533081 136.0
1446.138428 160.0
1447.637451 104.0
1448.32666 168.0
1451.024414 184.0
1451.979858 204.0
1452.563965 44.0
1453.271973 144.0
1454.088989 148.0
1454.552002 180.0
1454.973999 200.0
1455.227661 180.0
1456.366699 216.0
1456.503418 116.0
1456.845337 172.0
1457.415161 180.0
1457.741821 76.0
1457.939453 44.0
1458.023926 172.0
1459.193604 192.0
1459.338135 156.0
1459.398926 152.0
1459.452148 112.0
1459.535767 52.0
1459.938843 172.0
1460.501587 100.0
1461.399292 144.0
1463.286865 208.0
1463.484741 148.0
1463.77417 112.0
1464.017822 172.0
1464.352905 160.0
1464.947021 188.0
1465.769897 204.0
1467.73645 224.0
1468.255005 124.0
1468.5448 188.0
1468.857544 144.0
1469.147461 192.0
1469.338135 60.0
1470.001953 148.0
1470.475098 144.0
1473.078857 156.0
1473.460815 160.0
1474.584106 172.0
1476.472534 144.0
1476.831909 116.0
1477.627563 148.0
1478.553345 156.0
1478.622314 144.0
1479.556152 192.0
1480.275879 180.0
1480.674072 128.0
1481.838379 184.0
1481.915039 136.0
1482.558716 124.0
1483.164185 220.0
1483.647095 164.0
1484.74353 136.0
1486.016968 144.0
1487.720703 96.0
1487.98938 204.0
1489.340942 160.0
1489.724976 120.0
1490.039917 228.0
1492.030518 192.0
1492.47644 148.0
1493.40686 140.0
1494.67627 188.0
1497.455322 208.0
1497.767578 180.0
1500.483765 88.0
1500.946289 172.0
1501.000366 48.0
1502.157227 248.0
1502.342285 68.0
1502.442627 160.0
1502.542847 176.0
1502.643188 104.0
1502.712646 124.0
1502.782104 40.0
1503.762085 164.0
1504.078613 196.0
