>compound MLS000069600-01!CHALCONE614-47-1
>formula C15H12O
>ionization [M+H]+
>parentmass 209.097061
#inchi InChI=1S/C15H12O/c16-15(14-9-5-2-6-10-14)12-11-13-7-3-1-4-8-13/h1-12H/b12-11+
#inchikey DQFBYFPFKXHELB
#Ion_Source LC-ESI
#Instrument qTof
#Compound_Source NIH Pharmacologically Active Library
#PI Dorrestein
#Data_Collector VP/LMS
#Scan -1
#Precursor_MZ 209.096
#ExactMass 208.089
#Charge 1
#CAS_Number N/A
#Pubmed_ID N/A
#Smiles O=C(/C=C/c1ccccc1)c2ccccc2
#INCHI_AUX N/A
#Library_Class 1
#SpectrumID CCMSLIB00000085199
#IonMode Positive
#UpdateWorkflowName UPDATE-SINGLE-ANNOTATED-GOLD
#LibraryQualityString Gold
#TaskID d252d724072548979f1f6f1ced849daf
##Scan# 2431
#SpectrumFile p3-F11_GF11_01_18292.mzXML
#LibraryName Pharm_Active_Library.mgf
#MQScore -1
#Organism Pharm_Active_Library
#TIC_Query 0
#RT_Query -1
#MZErrorPPM -1
#SharedPeaks 0
#MassDiff 0
#LibMZ -1
#SpecMZ 209.096
#SpecCharge 0
#internalFilename spec-00000.mgf

>collision 10
45.222832 136.0
45.279068 140.0
45.61319 212.0
45.704651 188.0
46.927864 200.0
47.311806 216.0
47.384396 184.0
47.946453 164.0
48.436985 404.0
48.552036 224.0
48.714443 160.0
48.95369 116.0
49.224239 176.0
49.334629 156.0
50.7015 248.0
51.655544 136.0
51.674145 76.0
52.110035 144.0
52.253822 244.0
52.381958 164.0
52.409332 200.0
52.51025 156.0
52.554974 132.0
52.800568 164.0
52.855541 224.0
53.1889 164.0
54.292015 192.0
54.306683 172.0
55.013046 240.0
55.17704 36.0
55.944092 152.0
56.023026 176.0
56.210903 136.0
57.334209 176.0
57.56353 200.0
58.056896 60.0
59.137169 192.0
59.184628 164.0
59.19841 192.0
59.569603 184.0
60.168709 148.0
60.41909 176.0
61.301083 144.0
61.450783 36.0
61.572548 252.0
62.208302 164.0
62.368534 168.0
63.71978 116.0
63.929684 200.0
64.10965 212.0
65.193138 148.0
65.766533 144.0
65.850494 200.0
66.036377 180.0
66.167458 200.0
68.943588 196.0
69.662735 136.0
69.707596 172.0
70.434044 108.0
70.485832 164.0
70.756813 132.0
71.217995 84.0
71.554344 156.0
71.584648 184.0
71.877975 152.0
72.1922 136.0
72.280167 148.0
72.292015 88.0
72.413918 168.0
73.387711 208.0
73.416702 208.0
73.61467 108.0
73.980591 36.0
74.026817 128.0
75.460251 232.0
75.583061 148.0
76.661499 132.0
76.924881 168.0
77.623009 68.0
77.673874 196.0
78.084908 132.0
78.098976 152.0
79.370605 200.0
79.493011 216.0
79.677681 120.0
79.738861 204.0
79.853676 248.0
80.019173 132.0
80.954887 80.0
81.060577 216.0
81.329613 88.0
81.431961 156.0
81.635056 236.0
82.953163 224.0
83.36338 128.0
85.247581 72.0
85.622894 100.0
86.370445 184.0
86.53331 156.0
86.637032 208.0
87.444817 208.0
87.532318 204.0
87.692543 176.0
87.742874 136.0
88.938309 164.0
89.18438 124.0
89.353638 216.0
89.615356 208.0
89.65493 168.0
89.917091 48.0
90.622475 136.0
90.764641 96.0
90.842407 76.0
91.053108 188.0
91.536171 184.0
92.093079 168.0
92.186699 184.0
92.576973 204.0
92.964233 212.0
93.056374 160.0
93.192749 180.0
93.577446 236.0
93.733467 44.0
95.11055 220.0
95.763901 124.0
96.188995 172.0
97.243866 176.0
97.648827 308.0
97.975601 212.0
98.419395 48.0
100.913162 188.0
101.133224 208.0
101.191284 232.0
101.397614 172.0
101.845062 140.0
101.981705 80.0
102.044144 1068.0
102.078209 108.0
102.54126 52.0
102.587624 176.0
102.609802 172.0
102.684418 148.0
102.738884 60.0
102.821617 192.0
102.857948 196.0
102.8741 100.0
102.914482 172.0
103.003342 208.0
103.035095 184.0
103.053627 23456.0
103.171082 136.0
103.209496 40.0
103.324791 132.0
103.369308 64.0
103.38752 40.0
103.42598 76.0
103.482666 56.0
103.559113 48.0
103.639915 120.0
103.713615 192.0
103.760246 64.0
104.055962 1808.0
104.143105 188.0
104.208809 40.0
104.458878 44.0
104.615578 40.0
104.68766 120.0
104.711281 84.0
104.739799 88.0
104.782585 120.0
104.817223 108.0
104.851868 188.0
104.930351 136.0
105.033752 1912.0
105.059883 196.0
105.270103 48.0
105.793556 112.0
106.031082 204.0
106.402466 44.0
106.540077 76.0
107.046074 400.0
108.266609 180.0
108.980225 128.0
109.100777 180.0
109.404526 168.0
110.017464 132.0
110.048782 48.0
111.52787 44.0
114.532715 96.0
115.049881 172.0
115.77581 20.0
116.056541 156.0
116.687813 192.0
117.96846 140.0
118.980209 224.0
119.143097 48.0
119.521431 112.0
120.953178 148.0
121.036377 180.0
121.393578 164.0
124.026161 188.0
126.018013 216.0
127.906395 132.0
128.055008 188.0
129.342087 168.0
130.022079 64.0
130.330933 136.0
130.999847 180.0
131.015793 148.0
131.048737 7076.0
131.117157 100.0
131.250565 36.0
131.27565 68.0
132.048737 724.0
133.144653 128.0
133.186798 96.0
133.343033 184.0
133.966644 212.0
134.938293 180.0
134.959091 188.0
139.000763 196.0
139.37883 164.0
140.065826 136.0
140.733276 156.0
141.068771 176.0
144.003494 188.0
144.026428 232.0
144.883804 116.0
146.064941 216.0
148.133789 56.0
151.04776 212.0
151.544754 252.0
152.063477 616.0
152.258621 44.0
152.974167 156.0
153.065262 192.0
153.410202 116.0
154.064209 160.0
158.926971 116.0
160.61261 212.0
163.962128 188.0
164.061539 92.0
164.906494 144.0
165.024078 136.0
165.068619 1712.0
165.254288 60.0
165.366882 32.0
166.053558 212.0
166.073669 836.0
166.387161 64.0
166.451355 116.0
166.471909 44.0
167.0811 268.0
168.080841 140.0
168.173752 64.0
171.475662 64.0
173.763855 112.0
174.015839 112.0
176.357864 192.0
177.072266 164.0
178.078979 140.0
178.739502 208.0
179.080368 216.0
180.082382 188.0
181.096924 140.0
189.035538 188.0
189.068375 764.0
189.583252 232.0
189.662735 32.0
190.07782 356.0
190.362381 68.0
191.080841 656.0
191.294479 76.0
191.523041 108.0
192.082626 140.0
194.072968 464.0
195.079254 220.0
195.738434 104.0
206.005997 168.0
207.078476 156.0
209.097061 140.0
218.994461 128.0
220.050217 160.0
269.327057 92.0
275.962463 48.0
283.66333 56.0
396.436493 108.0
418.394318 52.0
566.802917 64.0
649.796509 64.0
787.890015 184.0
819.812317 148.0
844.125305 64.0
860.249084 164.0
872.340637 44.0
875.058716 40.0
875.417908 60.0
875.624084 60.0
908.053711 116.0
919.183655 156.0
929.689453 52.0
941.518738 212.0
946.313049 156.0
951.070435 68.0
955.47052 212.0
972.936584 20.0
983.937866 192.0
986.71814 20.0
1011.613525 100.0
1014.426331 212.0
1034.615601 172.0
1043.469482 132.0
1049.064331 204.0
1058.2323 168.0
1059.197266 164.0
1063.691162 140.0
1065.334106 180.0
1066.542847 192.0
1067.77771 248.0
1089.375732 228.0
1089.474243 176.0
1098.942139 160.0
1106.914185 188.0
1108.808838 248.0
1110.174561 144.0
1110.373535 240.0
1116.164551 144.0
1121.684082 216.0
1124.539062 200.0
1127.785278 228.0
1128.360107 144.0
1129.778076 144.0
1131.263794 176.0
1134.077271 232.0
1135.451782 180.0
1136.256714 188.0
1139.029419 112.0
1145.884888 200.0
1153.855957 160.0
1158.085449 56.0
1161.773193 104.0
1164.604492 176.0
1166.853394 200.0
1169.697144 164.0
1173.328247 224.0
1177.204102 260.0
1178.734253 184.0
1192.38623 180.0
1195.123291 104.0
1195.64624 120.0
1197.80835 168.0
1199.903442 188.0
1201.979614 232.0
1204.651611 104.0
1207.658691 164.0
1210.780273 200.0
1219.578247 160.0
1219.988281 36.0
1223.682739 144.0
1224.093628 200.0
1224.15625 44.0
1225.633057 96.0
1229.4198 120.0
1235.324097 204.0
1236.114746 212.0
1236.989624 120.0
1238.803467 164.0
1239.111694 92.0
1241.466919 224.0
1255.582153 220.0
1260.983398 208.0
1262.390381 236.0
1263.246216 156.0
1263.925415 168.0
1269.727539 80.0
1271.118042 200.0
1277.706055 128.0
1280.246094 184.0
1280.780273 176.0
1280.894287 168.0
1282.027222 164.0
1286.556641 128.0
1296.972534 168.0
1300.788818 124.0
1301.858643 164.0
1308.992676 104.0
1309.87854 124.0
1310.843994 176.0
1318.161499 208.0
1318.855347 96.0
1322.247681 200.0
1323.195923 144.0
1324.644409 172.0
1326.702637 148.0
1332.639648 180.0
1333.707886 176.0
1335.438477 156.0
1335.714966 172.0
1338.961304 168.0
1339.325439 208.0
1345.816406 156.0
1351.130127 176.0
1352.923218 180.0
1355.054443 208.0
1359.534912 168.0
1363.721436 52.0
1365.736084 156.0
1375.566284 236.0
1380.124878 148.0
1381.27124 132.0
1381.796509 240.0
1383.039795 232.0
1389.249878 152.0
1390.229248 284.0
1390.949219 216.0
1392.218872 176.0
1392.352661 36.0
1392.434326 184.0
1393.511475 180.0
1393.689819 144.0
1394.916138 132.0
1403.448364 176.0
1406.850708 152.0
1408.426392 104.0
1409.793701 152.0
1411.879517 208.0
1418.153931 180.0
1420.456055 156.0
1423.015259 172.0
1426.591431 144.0
1427.832153 104.0
1430.435669 420.0
1435.121948 252.0
1435.416016 232.0
1439.362671 212.0
1439.740234 52.0
1443.776123 188.0
1448.006958 196.0
1449.037109 148.0
1454.019409 160.0
1454.429199 196.0
1454.497559 144.0
1456.114868 176.0
1456.244019 244.0
1458.37915 120.0
1459.724854 136.0
1462.501953 164.0
1465.441528 128.0
1469.505615 156.0
1473.182617 196.0
1477.895386 136.0
1478.270386 116.0
1480.766235 168.0
1481.432617 180.0
1486.025146 216.0
1486.984375 200.0
1487.306763 224.0
1488.205078 172.0
1490.632446 180.0
1492.423462 172.0
1496.455444 164.0
1501.371948 136.0
1504.697754 212.0
