>compound Artemether (SM-224)
>formula C16H26O5
>ionization [M+Na]+
>parentmass 321.167
#inchi InChI=1S/C16H26O5/c1-9-5-6-12-10(2)13(17-4)18-14-16(12)11(9)7-8-15(3,19-14)20-21-16/h9-14H,5-8H2,1-4H3/t9-,10-,11-,12-,13-,14-,15+,16+/m0/s1
#inchikey SXYIRMFQILZOAM
#Ion_Source LC-ESI
#Instrument qTof
#Compound_Source Commercial
#PI Dorrestein
#Data_Collector Garg_Neha
#Scan -1
#Precursor_MZ 321.167
#ExactMass 298.178
#Charge 1
#CAS_Number 71963-77-4
#Pubmed_ID N/A
#Smiles [C@]12([C@]34[C@@](CC[C@@]1(C)[H])([C@]([C@H](O[C@@](O[C@@](CC2)(OO3)C)4[H])OC)([H])C)[H])[H]
#INCHI_AUX N/A
#Library_Class 1
#SpectrumID CCMSLIB00000078461
#IonMode Positive
#UpdateWorkflowName UPDATE-SINGLE-ANNOTATED-GOLD
#LibraryQualityString Gold
#TaskID 77f51c88eb8b467eb4a01dd2d0cb90d2
##Scan# 2446
#SpectrumFile Plate7_21_40_GD3_01_15768.mzXML
#LibraryName FDALibrary_2_04302014.mgf
#MQScore -1
#Organism FDALibrary_2_04302014
#TIC_Query 0
#RT_Query -1
#MZErrorPPM -1
#SharedPeaks 0
#MassDiff 0
#LibMZ -1
#SpecMZ 321.167
#SpecCharge 0
#internalFilename spec-00000.mgf

>collision 10
46.350098 192.0
47.990437 144.0
51.022034 196.0
51.302494 168.0
52.26786 200.0
55.33337 180.0
58.734604 148.0
64.954498 168.0
68.51667 164.0
69.767853 196.0
71.480629 216.0
76.905823 160.0
78.174728 172.0
78.581772 196.0
85.825409 168.0
91.726265 252.0
92.498001 284.0
93.068535 212.0
95.052734 112.0
97.237534 152.0
99.041664 208.0
99.071381 168.0
100.385208 252.0
104.285103 184.0
105.068481 440.0
106.489754 140.0
106.695244 156.0
107.047096 184.0
107.084816 532.0
108.306946 180.0
109.063293 168.0
112.495636 140.0
114.292931 148.0
115.055969 180.0
117.068413 96.0
119.08371 572.0
121.064476 384.0
121.099716 308.0
123.07692 380.0
125.059509 156.0
130.07785 188.0
131.082138 152.0
132.056976 148.0
133.100464 496.0
135.049438 160.0
135.080902 208.0
135.113419 724.0
135.141968 156.0
139.113434 204.0
143.085236 196.0
144.457504 160.0
145.100479 1952.0
146.102814 412.0
146.343903 172.0
147.055054 148.0
147.071945 240.0
151.107712 144.0
153.565094 148.0
159.059341 160.0
160.96524 140.0
161.09404 164.0
161.118637 164.0
161.157211 168.0
162.984116 156.0
163.110443 10744.0
163.230026 140.0
164.112366 1712.0
165.121155 192.0
173.124359 332.0
175.144882 264.0
179.101395 192.0
179.143066 908.0
180.144714 248.0
181.242859 160.0
182.122818 164.0
185.131165 212.0
189.085861 160.0
192.748978 140.0
192.909271 160.0
193.153778 160.0
195.137802 332.0
203.108688 160.0
203.141159 1568.0
204.144516 96.0
207.132614 196.0
208.146072 180.0
211.16684 288.0
212.174026 168.0
217.606628 208.0
221.15329 3628.0
222.157928 480.0
223.151535 136.0
223.769852 124.0
233.113586 492.0
239.159805 472.0
240.156387 148.0
244.89563 168.0
253.130508 164.0
253.176392 180.0
261.140503 1320.0
275.01709 144.0
275.160461 5416.0
276.01709 156.0
276.162567 1108.0
277.171478 180.0
283.912994 168.0
286.91571 164.0
293.162781 156.0
319.140167 160.0
319.184692 200.0
319.214844 272.0
321.120178 148.0
321.16391 876.0
321.234314 164.0
321.278351 176.0
322.174744 140.0
322.286804 176.0
1214.355835 168.0
1741.69458 164.0
1832.482666 240.0
1859.204956 176.0
1991.256836 144.0
