>compound BetamethazoneDipropionate
>formula C28H37FO7 
>ionization [M+H]+
>parentmass 505.26
#inchi InChI=1S/C28H37FO7/c1-6-23(33)35-15-22(32)28(36-24(34)7-2)16(3)12-20-19-9-8-17-13-18(30)10-11-25(17,4)27(19,29)21(31)14-26(20,28)5/h10-11,13,16,19-21,31H,6-9,12,14-15H2,1-5H3/t16-,19-,20-,21-,25-,26-,27-,28-/m0/s1
#inchikey CIWBQSYVNNPZIQ
#Ion_Source LC-ESI
#Instrument qTof
#Compound_Source Isolated
#PI Sirenas
#Data_Collector Ed Esquenazi 
#Scan -1
#Precursor_MZ 505.26
#ExactMass 0.0
#Charge 1
#CAS_Number N/A
#Pubmed_ID N/A
#Smiles N/A
#INCHI_AUX N/A
#Library_Class 3
#SpectrumID CCMSLIB00000005600
#IonMode Positive
#UpdateWorkflowName UPDATE-SINGLE-ANNOTATED-BRONZE
#LibraryQualityString Bronze
#TaskID d19310cd93df49b68e9fcbec27720eb5
##Scan# 2
#SpectrumFile BetamethazoneDipropionate.mgf
#LibraryName fda_library.mgf
#MQScore -1
#Organism fda_library
#TIC_Query 0
#RT_Query -1
#MZErrorPPM -1
#SharedPeaks 0
#MassDiff 0
#LibMZ -1
#SpecMZ 505.26
#SpecCharge 0
#internalFilename spec-00000.mgf

>collision 10
106.626839 14.0744
107.084839 231.270599
108.08963 70.480263
109.063148 56.333599
109.103912 53.554081
109.441269 10.79594
114.550896 10.85417
115.040123 415.912811
119.082703 99.243317
121.064445 51.241669
121.104477 21.440041
123.082047 57.44038
123.113098 37.792709
125.090408 36.87619
130.08316 38.15152
133.065414 51.000992
133.100235 93.979584
135.079239 111.342201
137.09581 63.269249
142.0737 37.33342
145.099472 63.639801
147.079468 307.578186
149.09967 66.29348
151.114517 14.025
151.371704 14.67029
152.455109 10.5625
153.08989 243.175201
153.398621 17.53788
157.103943 39.498631
159.079086 42.23563
161.054535 36.85141
161.095245 105.491798
165.090683 99.609711
166.159058 16.33333
167.105896 181.563004
170.099991 10.0049
171.079849 352.873901
171.114365 37.85688
173.093292 299.285797
175.106506 46.1381
177.089706 158.771698
185.094879 542.639771
187.07402 205.133896
187.115143 58.416031
187.564041 11.11111
189.067764 59.353069
191.106155 30.35918
197.093933 68.870781
199.070892 75.394569
199.110306 20.51042
209.117142 76.87426
211.109238 147.174896
213.125137 95.394974
215.105209 38.547352
221.092667 18.211849
221.113281 14.34722
222.996597 15.49745
223.115967 137.498901
224.226013 24.41333
227.962952 13.67816
229.122131 87.899872
231.654602 11.77381
235.116653 40.477009
237.126556 39.680019
239.105682 17.183821
239.143784 60.500801
239.164612 27.35
241.121826 27.42407
244.843323 19.508881
249.120544 37.653439
249.334457 14.95238
249.825912 11.7002
253.1203 24.199471
253.153183 58.732121
257.132965 49.69186
259.106445 17.280001
259.142273 33.384529
261.128632 142.524796
261.157928 10.35526
263.10675 50.942009
263.143097 118.314796
265.163391 61.138142
267.171478 39.019901
273.120514 14.12354
273.164856 202.148804
275.142517 226.265198
276.008484 10.76179
276.596863 11.67361
277.155212 413.575012
277.188782 20.04545
278.367035 14.90476
279.110077 45.975849
279.174347 1552.641968
279.393951 23.11692
285.106934 13.75439
288.149017 21.81081
289.136505 12.8648
289.151917 61.506371
289.59201 13.03125
291.13385 121.445503
291.174164 936.656982
292.316895 20.15151
293.148621 17.183981
293.756927 19.17289
295.162354 196.328003
297.180756 94.911133
299.132568 36.54007
301.156799 492.188995
301.348022 10.47704
302.098602 17.037359
302.799225 19.75
304.141754 14.74976
307.172424 27.08177
309.188812 119.337997
311.162323 30.21007
313.101105 23.05793
317.28537 18.3435
317.466522 19.038931
319.16864 1254.692993
319.346039 22.26305
319.390961 13.39919
319.426819 22.81699
319.537384 12.28167
319.643677 11.7037
319.964478 40.094181
320.592926 27.09519
320.677856 10.00417
320.902069 14.78667
325.179382 142.548798
326.397156 10.66987
335.153564 13.67262
335.204376 59.008499
335.305664 46.20322
336.269196 10.04688
337.083191 12.73039
337.180145 682.307373
337.290619 15.44872
337.367493 10.73016
337.431274 15.49389
337.693695 13.015
337.738159 13.44444
351.154999 29.051979
351.19342 90.015808
352.95108 29.611111
353.125854 10.36687
353.341553 16.690069
355.035675 18.76066
355.192383 988.021118
355.24707 14.68333
356.130737 19.18528
357.181427 15.18087
357.683868 14.44511
361.907135 17.709391
371.225983 12.64706
372.952484 17.92531
375.189453 149.210297
383.218964 33.55975
392.204742 11.2
393.205078 450.659485
393.543762 10.22685
408.613434 30.06706
411.220459 166.143494
430.228546 27.677191
