>compound MLS000876992-01!(E)-1-(2,4-dihydroxy-6-methoxyphenyl)-3-phenylprop-2-en-1-one
>formula C16H14O4
>ionization [M+H]+
>parentmass 271.096008
#inchi InChI=1S/C16H14O4/c1-20-15-10-12(17)9-14(19)16(15)13(18)8-7-11-5-3-2-4-6-11/h2-10,17,19H,1H3/b8-7+
#inchikey NYSZJNUIVUBQMM
#Ion_Source LC-ESI
#Instrument qTof
#Compound_Source NIH Natural Product Library
#PI Dorrestein
#Data_Collector VVP/LMS
#Scan -1
#Precursor_MZ 271.097
#ExactMass 270.089
#Charge 1
#CAS_Number N/A
#Pubmed_ID N/A
#Smiles COc1cc(O)cc(O)c1C(=O)/C=C/c2ccccc2
#INCHI_AUX N/A
#Library_Class 1
#SpectrumID CCMSLIB00000079436
#IonMode Positive
#UpdateWorkflowName UPDATE-SINGLE-ANNOTATED-GOLD
#LibraryQualityString Gold
#TaskID b1d8e8f6646f4e71acdff9ca3d919d08
##Scan# 2375
#SpectrumFile p1-C06_GC6_01_17902.mzXML
#LibraryName NIH_Natural_Products_Library.mgf
#MQScore -1
#Organism NIH_Natural_Products_Library
#TIC_Query 0
#RT_Query -1
#MZErrorPPM -1
#SharedPeaks 0
#MassDiff 0
#LibMZ -1
#SpecMZ 271.097
#SpecCharge 0
#internalFilename spec-00000.mgf

>collision 10
94.984749 144.0
95.186584 176.0
95.398361 160.0
95.538368 48.0
95.612312 184.0
96.019402 712.0
96.11702 96.0
96.474426 224.0
96.688774 156.0
96.865791 76.0
97.027534 564.0
97.053932 192.0
97.087265 220.0
97.216736 172.0
97.267769 252.0
97.297211 132.0
97.415039 132.0
97.849648 164.0
97.88903 188.0
98.24971 172.0
98.334557 56.0
98.4076 148.0
98.576607 148.0
98.628845 68.0
98.794952 208.0
98.891907 128.0
99.044991 432.0
99.072098 108.0
99.109741 196.0
99.139465 176.0
99.309959 144.0
99.339714 176.0
99.732872 68.0
99.997398 224.0
100.045166 200.0
100.411797 220.0
100.459663 164.0
100.605339 192.0
100.837044 204.0
100.907005 148.0
101.038994 196.0
101.053001 176.0
101.184547 192.0
101.289223 160.0
101.395416 148.0
101.441513 124.0
101.535751 136.0
101.70829 108.0
101.991501 176.0
102.01313 216.0
102.045235 316.0
102.134262 112.0
102.768829 192.0
102.891945 192.0
103.021187 196.0
103.054878 5988.0
103.088936 136.0
103.130928 116.0
103.249588 64.0
103.316338 92.0
103.368942 172.0
103.780121 144.0
103.840958 184.0
103.946442 48.0
104.059937 696.0
104.18399 52.0
104.340477 176.0
104.46714 120.0
104.493004 128.0
104.598824 32.0
104.659897 120.0
104.733208 108.0
104.806549 92.0
104.820808 124.0
104.879913 136.0
105.597343 52.0
105.621101 152.0
105.678383 232.0
105.729538 124.0
105.842125 184.0
105.967064 160.0
105.991646 32.0
106.071571 60.0
106.096176 72.0
106.252029 152.0
106.37516 60.0
106.4347 104.0
107.016075 164.0
107.050041 204.0
107.218445 184.0
107.478264 84.0
107.540176 80.0
107.852051 100.0
108.023315 160.0
108.079536 136.0
108.493752 176.0
108.545586 204.0
108.595352 92.0
109.004326 164.0
109.029358 876.0
109.102005 196.0
109.618179 108.0
109.90593 188.0
110.131386 208.0
110.171074 148.0
110.194054 192.0
110.244202 120.0
110.570435 104.0
110.652069 148.0
110.978912 176.0
111.007706 1676.0
111.044479 1600.0
111.070366 72.0
111.247444 124.0
111.493187 48.0
111.573059 148.0
111.600395 156.0
111.669792 40.0
112.013893 148.0
112.041702 192.0
112.073967 132.0
112.13929 44.0
112.217285 168.0
112.261566 204.0
112.314293 112.0
112.546425 152.0
112.614006 148.0
112.719635 228.0
112.814598 176.0
112.846451 84.0
112.958534 208.0
113.023781 204.0
113.104538 216.0
113.555832 196.0
113.723442 196.0
114.301476 288.0
114.331268 144.0
114.478157 180.0
114.507973 192.0
114.814857 44.0
115.060242 236.0
115.203323 116.0
115.481194 144.0
115.669479 104.0
115.695168 136.0
116.291069 184.0
116.379951 204.0
116.688461 192.0
116.800285 164.0
117.073616 84.0
117.489609 52.0
117.528442 208.0
117.847992 120.0
117.962532 216.0
118.046852 100.0
118.271843 168.0
118.646599 164.0
118.918808 200.0
119.050163 136.0
119.143562 248.0
119.330467 164.0
119.715599 124.0
120.022591 208.0
120.079536 168.0
120.243164 120.0
120.833145 152.0
121.027252 372.0
121.052017 172.0
121.407021 40.0
121.496948 168.0
122.631577 116.0
122.834427 60.0
122.942535 136.0
122.993294 116.0
123.205284 96.0
123.38871 52.0
123.513336 56.0
123.643082 144.0
123.727196 84.0
123.826836 32.0
123.874901 188.0
123.935379 124.0
123.979698 120.0
124.01651 16320.0
124.08609 60.0
124.101608 36.0
124.139305 68.0
124.167313 108.0
124.239113 80.0
124.262108 44.0
124.310974 144.0
124.387787 180.0
124.447731 68.0
124.547661 56.0
124.62764 88.0
124.703194 228.0
124.785439 64.0
124.816566 28.0
124.858818 92.0
124.881905 144.0
124.925545 96.0
125.019531 1260.0
125.052376 36.0
125.067955 176.0
125.083534 124.0
125.1147 84.0
125.317368 128.0
125.435478 92.0
125.645096 180.0
125.741043 108.0
125.847839 76.0
126.021606 380.0
126.129669 80.0
126.250397 184.0
126.299606 188.0
126.35553 28.0
126.409225 236.0
127.017387 132.0
127.044441 184.0
127.085915 200.0
127.256485 128.0
127.674431 56.0
128.063522 176.0
128.124603 176.0
128.266571 28.0
128.372528 196.0
128.512375 208.0
128.799072 184.0
129.01149 184.0
129.050705 160.0
129.497971 188.0
129.627106 180.0
129.858337 176.0
129.976303 164.0
130.41687 84.0
130.9561 180.0
130.990265 188.0
131.050293 3104.0
131.325317 84.0
131.345856 84.0
131.63797 120.0
131.688217 144.0
131.829865 168.0
132.049332 136.0
132.131668 104.0
132.181381 200.0
132.573578 164.0
132.676727 48.0
132.812012 188.0
132.915253 132.0
132.988693 132.0
133.055252 60.0
133.466507 52.0
133.889923 176.0
134.207916 156.0
134.510132 128.0
134.879715 160.0
135.008087 152.0
135.045303 212.0
135.81282 148.0
136.404922 196.0
136.949402 92.0
137.022903 1312.0
137.063538 76.0
137.163757 156.0
137.938721 260.0
138.026855 388.0
138.549484 156.0
138.792755 176.0
139.011368 68.0
139.0392 1484.0
139.067703 196.0
139.368286 192.0
139.685654 180.0
139.737411 84.0
139.939819 68.0
140.045792 176.0
140.161224 168.0
140.691879 172.0
140.826477 104.0
140.916245 96.0
140.94223 144.0
141.073334 500.0
141.789383 156.0
142.026474 76.0
142.991089 36.0
143.048218 112.0
143.181549 136.0
143.326859 72.0
143.610336 220.0
144.092743 104.0
144.19548 228.0
144.37001 180.0
144.525482 180.0
144.807953 224.0
145.021194 260.0
145.208206 144.0
145.27536 136.0
145.32814 96.0
145.366531 136.0
145.450531 80.0
145.986298 172.0
146.075287 120.0
146.513397 188.0
147.007675 188.0
147.080078 204.0
147.73735 132.0
147.973129 204.0
148.170685 160.0
148.410629 172.0
148.650757 164.0
148.932373 36.0
149.019821 168.0
149.071136 172.0
149.295013 112.0
149.4599 168.0
149.942062 144.0
149.963989 36.0
150.022491 184.0
150.207825 180.0
150.285889 228.0
150.451843 156.0
151.049149 224.0
151.175308 168.0
151.373596 120.0
151.433441 156.0
151.464203 76.0
151.496048 128.0
151.596512 48.0
151.625916 48.0
151.682281 120.0
151.822037 180.0
151.927505 128.0
151.944672 136.0
151.974899 304.0
152.011169 19096.0
152.062805 164.0
152.095184 228.0
152.144119 108.0
152.187653 48.0
152.234314 88.0
152.28833 80.0
152.32518 124.0
152.35466 60.0
152.386597 152.0
152.43573 52.0
152.489807 36.0
152.538956 192.0
152.574326 96.0
152.625 76.0
152.647141 88.0
152.688934 140.0
152.766586 104.0
152.813675 152.0
153.014969 2156.0
153.064667 200.0
153.09993 104.0
153.159027 80.0
153.329025 72.0
153.543518 180.0
153.683472 56.0
153.772949 68.0
153.896378 152.0
153.943298 68.0
154.014923 180.0
154.086624 160.0
154.173035 136.0
154.197754 76.0
154.215057 372.0
154.355957 104.0
154.390579 88.0
154.534042 160.0
154.714706 164.0
154.796417 52.0
155.019363 144.0
155.262299 40.0
155.359024 116.0
155.445862 120.0
155.468201 140.0
155.525284 200.0
155.87793 184.0
155.897812 44.0
156.054413 80.0
156.089218 144.0
156.479858 160.0
157.235123 96.0
157.457321 144.0
157.967209 216.0
158.022247 220.0
158.147354 152.0
158.188446 472.0
158.75885 200.0
158.811325 152.0
158.951813 112.0
159.064743 156.0
159.195297 312.0
159.416351 220.0
159.582245 140.0
159.775909 136.0
160.007431 156.0
160.307159 180.0
160.516388 188.0
160.983215 188.0
161.949295 192.0
161.979691 184.0
162.146912 120.0
162.337051 48.0
162.425812 144.0
162.77858 152.0
162.867462 156.0
163.036774 200.0
163.060562 152.0
163.078354 48.0
163.426727 180.0
163.70491 196.0
163.854462 168.0
164.147568 196.0
164.474121 92.0
164.573685 104.0
164.778 160.0
164.877655 92.0
165.020798 124.0
165.072083 316.0
165.386612 196.0
166.050201 176.0
166.075836 172.0
166.291367 48.0
166.31189 204.0
166.345261 164.0
166.392517 76.0
166.55838 112.0
166.586639 128.0
166.640854 192.0
166.661148 116.0
166.715103 124.0
166.751083 112.0
166.812775 80.0
166.843613 144.0
166.936325 204.0
166.981583 216.0
167.035019 77292.0
167.120712 92.0
167.156265 56.0
167.184723 96.0
167.242325 96.0
167.261902 92.0
167.293442 56.0
167.313416 108.0
167.337265 88.0
167.431152 128.0
167.456512 32.0
167.526672 160.0
167.553909 36.0
167.656021 108.0
167.719696 80.0
167.747787 152.0
167.821945 60.0
167.840714 128.0
167.857147 104.0
167.927673 92.0
167.953461 76.0
168.037674 7776.0
168.097137 128.0
168.123749 128.0
168.154709 112.0
168.192261 88.0
168.20311 48.0
168.207291 76.0
168.327667 56.0
168.440247 52.0
168.491623 48.0
168.531723 136.0
168.580826 64.0
168.630844 80.0
168.813675 100.0
168.84169 44.0
168.950562 68.0
168.973846 132.0
169.010056 80.0
169.039917 1176.0
169.063385 176.0
169.110703 108.0
169.114868 96.0
169.152405 128.0
169.197052 80.0
169.230057 128.0
169.296478 88.0
169.328461 76.0
169.385864 92.0
169.408752 64.0
169.470444 136.0
169.574585 60.0
169.772842 144.0
169.888336 84.0
170.01947 1760.0
170.064011 136.0
170.069443 136.0
170.199768 76.0
170.288071 68.0
170.514099 92.0
170.66037 132.0
170.748077 100.0
170.826111 80.0
170.885941 68.0
171.027054 312.0
171.542206 44.0
171.930832 136.0
171.983032 56.0
172.08223 40.0
172.210175 72.0
173.060059 40.0
173.101959 44.0
173.631302 92.0
173.930923 100.0
174.282303 72.0
174.710846 76.0
176.060349 92.0
178.024597 376.0
178.04921 48.0
178.078415 148.0
178.184677 68.0
178.633942 88.0
179.033447 408.0
179.121063 44.0
181.065872 192.0
181.180649 108.0
182.8508 100.0
183.072556 160.0
184.57457 76.0
185.042648 164.0
185.600784 136.0
187.978134 152.0
189.063889 164.0
192.190109 100.0
193.045425 308.0
194.06813 120.0
196.047241 176.0
197.083038 156.0
197.286484 92.0
197.997177 104.0
199.065628 64.0
199.175156 100.0
200.103149 136.0
201.095383 92.0
202.090088 112.0
203.098373 168.0
210.074005 140.0
211.080475 100.0
212.121597 184.0
213.060028 180.0
225.283752 76.0
226.103012 164.0
229.078506 156.0
235.414474 112.0
237.061829 284.0
238.060257 132.0
238.81012 56.0
239.077789 120.0
244.873322 108.0
252.781448 172.0
253.090118 124.0
254.864685 76.0
255.06868 380.0
256.074188 152.0
263.454346 104.0
265.931427 88.0
268.935547 116.0
269.056335 112.0
269.092224 160.0
269.320831 172.0
270.315765 904.0
271.096008 160.0
271.31842 164.0
271.34967 212.0
272.100983 156.0
274.694153 28.0
278.281525 88.0
283.304047 100.0
283.545288 124.0
285.438629 44.0
286.623444 92.0
287.06839 84.0
290.993378 64.0
304.544617 132.0
309.164032 80.0
311.021545 140.0
314.068634 52.0
323.277496 64.0
331.864838 64.0
332.982513 84.0
344.609558 84.0
370.643097 60.0
377.413635 92.0
398.525909 72.0
407.913544 20.0
409.365967 88.0
417.691101 84.0
436.761292 72.0
444.55304 96.0
478.378815 48.0
510.967346 60.0
515.33606 76.0
577.766663 88.0
599.017517 80.0
673.630493 144.0
756.924927 116.0
775.540222 28.0
783.79834 32.0
794.437744 60.0
800.1474 208.0
832.961182 208.0
841.824829 188.0
849.754578 180.0
854.053284 148.0
878.562317 76.0
899.139954 196.0
910.556824 180.0
929.560852 76.0
929.961426 136.0
932.135498 64.0
945.5271 84.0
949.699402 120.0
950.607361 132.0
957.554077 160.0
958.262451 132.0
961.919434 160.0
966.065796 196.0
976.343262 48.0
977.817688 96.0
979.274536 168.0
982.777893 168.0
987.957092 168.0
992.698364 164.0
993.501221 156.0
1006.756592 192.0
1008.184326 192.0
1010.852905 156.0
1010.985779 40.0
1021.206238 20.0
1028.227173 220.0
1029.037842 220.0
1036.220093 188.0
1045.556396 120.0
1049.56311 52.0
1050.085449 188.0
1061.493042 144.0
1063.939087 216.0
1064.984497 148.0
1066.329468 200.0
1068.000366 180.0
1069.353638 84.0
1071.372192 164.0
1073.757812 188.0
1074.488403 212.0
1078.255981 240.0
1086.243896 140.0
1092.260742 48.0
1093.622681 220.0
1093.839966 228.0
1096.500854 172.0
1097.133667 196.0
1101.297363 140.0
1103.094604 20.0
1107.249756 132.0
1108.886108 144.0
1111.240112 180.0
1113.457153 100.0
1113.652588 48.0
1114.606445 140.0
1128.423218 200.0
1129.606934 224.0
1131.487427 180.0
1135.729126 180.0
1135.970581 40.0
1138.339722 224.0
1138.977783 60.0
1145.56311 164.0
1161.088501 84.0
1167.703369 220.0
1169.887573 148.0
1170.3573 108.0
1171.263062 68.0
1171.453735 120.0
1172.809692 188.0
1174.12561 120.0
1174.411987 212.0
1176.370361 164.0
1178.009155 132.0
1179.356323 108.0
1183.024292 224.0
1186.282349 68.0
1187.72229 188.0
1192.054321 172.0
1213.35437 152.0
1214.782959 192.0
1216.149902 172.0
1217.600952 160.0
1217.92041 64.0
1218.184326 168.0
1218.42749 244.0
1223.39978 36.0
1226.42981 140.0
1227.315186 208.0
1228.654297 160.0
1230.008057 188.0
1231.509277 100.0
1231.558105 152.0
1231.865479 192.0
1232.396484 148.0
1234.668213 200.0
1241.804688 240.0
1241.980103 196.0
1243.89563 168.0
1248.462402 188.0
1250.143677 172.0
1250.305542 148.0
1253.587158 120.0
1256.385132 240.0
1261.088989 188.0
1264.618286 152.0
1268.386475 188.0
1268.953613 32.0
1271.592285 156.0
1272.337646 540.0
1275.882568 156.0
1282.844727 140.0
1284.941406 104.0
1285.547852 120.0
1285.854736 184.0
1286.411499 76.0
1287.46106 80.0
1288.368164 156.0
1291.291626 132.0
1293.373657 188.0
1294.691162 160.0
1296.438965 64.0
1297.019531 156.0
1298.073364 156.0
1300.849854 152.0
1301.158569 136.0
1304.398438 140.0
1305.778931 152.0
1306.634888 188.0
1307.289673 188.0
1310.464966 128.0
1312.598511 164.0
1313.189819 176.0
1314.214233 124.0
1314.841919 200.0
1315.52771 108.0
1317.499146 208.0
1318.698608 32.0
1319.363647 148.0
1319.985352 240.0
1322.00354 144.0
1322.452271 116.0
1324.189941 180.0
1324.349243 168.0
1324.479614 152.0
1325.733032 244.0
1326.138794 264.0
1326.291016 28.0
1326.907227 216.0
1328.364868 60.0
1329.278931 152.0
1329.670776 232.0
1334.094238 260.0
1335.30127 168.0
1341.09668 120.0
1342.846436 212.0
1344.969604 192.0
1347.503662 192.0
1347.667114 52.0
1349.308838 200.0
1350.091187 168.0
1353.574341 184.0
1354.299316 124.0
1356.87146 192.0
1357.355347 156.0
1357.421265 188.0
1361.413208 180.0
1361.4646 160.0
1363.095459 112.0
1363.940552 116.0
1366.529175 176.0
1367.875854 192.0
1370.954468 140.0
1371.440918 156.0
1373.770996 108.0
1378.784302 144.0
1379.405151 184.0
1384.391846 108.0
1385.687988 160.0
1386.592041 196.0
1388.348999 180.0
1389.468994 188.0
1390.040405 148.0
1390.663696 168.0
1391.487671 92.0
1392.207886 68.0
1394.451538 152.0
1395.945801 168.0
1396.987061 220.0
1397.768188 228.0
1399.472656 160.0
1400.254639 124.0
1400.686523 184.0
1402.765503 156.0
1403.093506 192.0
1403.436523 168.0
1405.808472 112.0
1407.249146 204.0
1407.480591 144.0
1407.95105 120.0
1409.855957 204.0
1410.850098 228.0
1410.904419 76.0
1411.283691 152.0
1413.415405 76.0
1413.98584 192.0
1416.005493 124.0
1416.462402 236.0
1416.866943 180.0
1417.211548 168.0
1418.358154 164.0
1421.102783 152.0
1425.96875 56.0
1427.442261 120.0
1427.885864 112.0
1428.088989 188.0
1429.548462 120.0
1430.0 128.0
1430.699951 92.0
1432.394287 184.0
1434.142456 112.0
1435.212891 100.0
1436.864624 160.0
1440.269043 180.0
1441.757446 204.0
1443.019775 56.0
1444.796997 176.0
1445.651978 108.0
1446.106079 116.0
1446.696411 140.0
1448.013916 136.0
1448.597168 196.0
1448.922852 132.0
1450.696167 176.0
1451.515015 84.0
1453.001587 200.0
1454.853271 84.0
1455.035522 196.0
1456.508667 180.0
1458.14978 180.0
1458.78064 212.0
1458.909912 204.0
1459.27478 160.0
1460.073242 184.0
1461.655518 36.0
1462.78186 176.0
1464.076172 156.0
1465.729126 148.0
1466.133057 172.0
1466.735107 192.0
1466.918091 132.0
1467.093384 204.0
1468.122681 184.0
1468.526978 148.0
1469.327881 100.0
1470.037476 124.0
1471.098267 232.0
1471.434204 164.0
1472.12146 156.0
1473.511597 244.0
1474.267944 208.0
1475.552124 144.0
1475.613281 104.0
1478.213867 188.0
1479.171387 208.0
1480.556274 156.0
1486.35144 44.0
1486.558594 176.0
1487.602417 116.0
1492.419434 108.0
1493.157593 252.0
1493.688232 44.0
1493.95752 220.0
1494.511475 128.0
1495.450317 196.0
1495.804321 148.0
1496.035278 108.0
1502.153809 180.0
1502.662964 152.0
1502.724609 168.0
