>compound MLS001159045-01!2-[[2-(3,4-dimethyl-2-oxochromen-7-yl)oxyacetyl]amino]benzamide
>formula C20H18N2O5
>ionization [M+H]+
>parentmass 367.129
#inchi InChI=1S/C20H18N2O5/c1-11-12(2)20(25)27-17-9-13(7-8-14(11)17)26-10-18(23)22-16-6-4-3-5-15(16)19(21)24/h3-9H,10H2,1-2H3,(H2,21,24)(H,22,23)
#inchikey TXGYAFMZOGJQPI
#Ion_Source LC-ESI
#Instrument qTof
#Compound_Source NIH Natural Product Library
#PI Dorrestein
#Data_Collector VVP/LMS
#Scan -1
#Precursor_MZ 367.129
#ExactMass 366.122
#Charge 1
#CAS_Number N/A
#Pubmed_ID N/A
#Smiles Cc1c(C)c2ccc(OCC(=O)Nc3ccccc3C(=O)N)cc2oc1=O
#INCHI_AUX N/A
#Library_Class 3
#SpectrumID CCMSLIB00000080215
#IonMode Positive
#UpdateWorkflowName UPDATE-SINGLE-ANNOTATED-BRONZE
#LibraryQualityString Bronze
#TaskID b1d8e8f6646f4e71acdff9ca3d919d08
##Scan# 1979
#SpectrumFile p2-F05_GF5_01_18041.mzXML
#LibraryName NIH_Natural_Products_Library.mgf
#MQScore -1
#Organism NIH_Natural_Products_Library
#TIC_Query 0
#RT_Query -1
#MZErrorPPM -1
#SharedPeaks 0
#MassDiff 0
#LibMZ -1
#SpecMZ 367.129
#SpecCharge 0
#internalFilename spec-00000.mgf

>collision 10
95.322205 252.0
98.283005 256.0
101.947182 140.0
102.466316 96.0
102.677979 180.0
104.05201 160.0
105.036919 212.0
105.05571 160.0
106.057266 148.0
108.865295 260.0
112.059486 196.0
116.482605 144.0
117.068733 188.0
118.428261 180.0
119.038315 304.0
120.046463 372.0
120.464287 240.0
121.043877 40.0
127.718048 140.0
127.990364 140.0
130.030014 512.0
131.030014 140.0
131.086975 188.0
132.004654 132.0
132.046661 528.0
132.524246 40.0
133.049072 716.0
135.051987 188.0
135.075119 132.0
137.050827 124.0
137.139389 56.0
140.082504 192.0
142.569275 104.0
147.040054 376.0
148.038055 296.0
149.036163 116.0
149.053162 100.0
154.130524 112.0
158.064407 220.0
161.047043 1388.0
161.87056 152.0
162.025055 60.0
162.064651 496.0
162.570206 48.0
163.069733 128.0
166.078323 212.0
169.344025 84.0
169.65239 88.0
171.474533 132.0
173.049744 120.0
174.006714 168.0
175.079865 400.0
176.087021 148.0
176.31424 52.0
178.084061 168.0
180.068329 96.0
182.525787 100.0
183.053207 116.0
190.062775 756.0
191.061325 176.0
193.548126 92.0
195.171371 132.0
196.039871 168.0
196.081665 192.0
203.009064 176.0
203.070526 952.0
203.27005 128.0
204.078445 388.0
205.084518 148.0
205.40387 76.0
211.785278 132.0
214.033096 68.0
220.1082 184.0
221.081467 120.0
222.062119 112.0
230.094025 108.0
231.0672 164.0
232.113876 148.0
233.083527 136.0
234.084305 108.0
235.099304 180.0
239.098862 124.0
248.109192 164.0
249.07373 180.0
250.290833 124.0
253.01564 156.0
257.042725 152.0
259.274872 132.0
260.088623 196.0
260.101837 140.0
260.106567 132.0
261.088776 188.0
263.07547 148.0
263.228577 36.0
264.069702 148.0
264.100616 212.0
264.767883 100.0
270.184326 220.0
273.093994 64.0
275.084229 148.0
276.105133 188.0
276.816711 72.0
277.101593 116.0
278.747345 120.0
279.066437 116.0
280.068146 220.0
287.093109 144.0
288.011139 96.0
288.089844 148.0
288.12262 80.0
289.062561 76.0
290.078644 160.0
291.055145 160.0
294.130005 120.0
302.085205 144.0
304.098267 764.0
305.09491 292.0
305.91983 68.0
306.059082 108.0
317.040527 192.0
317.068878 136.0
317.11496 28.0
329.048981 124.0
332.088715 1336.0
332.124969 44.0
333.093719 284.0
334.09021 152.0
336.039337 196.0
336.396973 160.0
347.522858 104.0
349.443756 64.0
350.098541 584.0
350.653992 44.0
351.096161 260.0
352.082886 104.0
376.011719 156.0
391.178711 140.0
393.031067 172.0
411.032104 152.0
411.084564 64.0
437.70401 84.0
457.847076 160.0
482.085297 156.0
522.79541 80.0
600.896729 72.0
784.245972 60.0
961.937683 136.0
1171.825439 84.0
1180.583008 152.0
1218.703125 96.0
1222.353516 180.0
1241.830811 184.0
1266.096436 240.0
1276.492676 180.0
1377.351074 192.0
1433.449951 140.0
1468.154541 176.0
1481.23938 248.0
1493.720703 164.0
1499.765259 84.0
