>compound duloxetine hydrochloride
>formula C18H19NOS
>ionization [M+H]+
>parentmass 298.125793
#inchi InChI=1S/C18H19NOS/c1-19-12-11-17(18-10-5-13-21-18)20-16-9-4-7-14-6-2-3-8-15(14)16/h2-10,13,17,19H,11-12H2,1H3/t17-/m0/s1
#inchikey ZEUITGRIYCTCEM
#Ion_Source LC-ESI
#Instrument qTof
#Compound_Source Commercial
#PI Dorrestein
#Data_Collector Garg_Neha
#Scan -1
#Precursor_MZ 298.126
#ExactMass 297.119
#Charge 1
#CAS_Number N/A
#Pubmed_ID N/A
#Smiles CNCC[C@H](Oc1cccc2ccccc12)c3cccs3
#INCHI_AUX N/A
#Library_Class 1
#SpectrumID CCMSLIB00000079067
#IonMode Positive
#UpdateWorkflowName UPDATE-SINGLE-ANNOTATED-GOLD
#LibraryQualityString Gold
#TaskID 278b19f5865741e282cec7349aa7e7a1
##Scan# 1191
#SpectrumFile NCP003432_C2_D11_BD1_01_15723.mzXML
#LibraryName NIHcollectionI_05062014.mgf
#MQScore -1
#Organism NIHcollectionI_05062014
#TIC_Query 0
#RT_Query -1
#MZErrorPPM -1
#SharedPeaks 0
#MassDiff 0
#LibMZ -1
#SpecMZ 298.126
#SpecCharge 0
#internalFilename spec-00000.mgf

>collision 10
45.177074 232.0
46.301014 224.0
46.791206 160.0
48.912724 148.0
52.614681 144.0
59.664879 172.0
63.711506 140.0
66.52684 156.0
68.941193 232.0
95.066902 144.0
98.023697 188.0
99.747536 148.0
100.022041 176.0
103.054329 148.0
105.826607 192.0
108.679245 200.0
110.098572 272.0
110.73259 176.0
111.462631 156.0
112.033829 328.0
118.329216 180.0
119.231575 172.0
119.875725 172.0
120.410202 148.0
123.027283 896.0
124.034279 1428.0
125.036453 284.0
126.03038 148.0
127.053055 228.0
128.06189 544.0
129.069168 460.0
139.964828 148.0
143.004501 172.0
144.046494 172.0
145.058685 148.0
152.486557 164.0
153.067123 452.0
154.068771 3628.0
154.123337 160.0
155.076218 2612.0
155.330795 104.0
156.070877 408.0
157.064682 1252.0
163.115784 172.0
165.071182 492.0
166.83783 148.0
167.105286 216.0
167.35495 144.0
168.934402 148.0
168.955093 192.0
180.950058 212.0
183.080704 1080.0
184.07933 308.0
187.105484 188.0
188.11142 252.0
191.101349 172.0
194.919861 144.0
205.082901 156.0
206.070251 212.0
207.071442 164.0
208.396729 144.0
209.325806 156.0
218.959747 160.0
219.077103 204.0
221.043182 268.0
222.045197 204.0
223.066589 244.0
229.485291 176.0
229.518463 152.0
237.036713 100.0
238.511917 240.0
239.053146 380.0
239.487289 184.0
240.054581 112.0
241.048172 156.0
241.070618 240.0
244.058105 148.0
251.943756 228.0
255.204987 160.0
258.935364 252.0
262.970276 236.0
266.259644 148.0
267.083466 2004.0
268.083313 348.0
269.089417 140.0
270.184143 148.0
275.262238 176.0
279.243073 192.0
280.584229 168.0
281.932739 172.0
296.389832 140.0
297.077118 120.0
297.195831 1396.0
297.573151 152.0
298.050568 188.0
298.125793 9400.0
298.201874 292.0
298.63266 136.0
299.128143 1468.0
300.12439 700.0
300.15799 200.0
300.201965 216.0
300.79657 140.0
301.125275 96.0
301.197083 156.0
394.940033 164.0
411.783539 168.0
1492.538086 156.0
1526.647583 172.0
1556.757446 172.0
1620.309937 148.0
1626.115356 208.0
1907.442017 172.0
1969.736938 160.0
