>compound MLS001306441-01!
>formula C15H12ClNO2
>ionization [M+H]+
>parentmass 274.064
#inchi InChI=1S/C15H12ClNO2/c1-8(15(18)19)9-2-4-11-12-7-10(16)3-5-13(12)17-14(11)6-9/h2-8,17H,1H3,(H,18,19)
#inchikey PUXBGTOOZJQSKH
#Ion_Source LC-ESI
#Instrument qTof
#Compound_Source NIH Pharmacologically Active Library
#PI Dorrestein
#Data_Collector VP/LMS
#Scan -1
#Precursor_MZ 274.064
#ExactMass 273.056
#Charge 1
#CAS_Number N/A
#Pubmed_ID N/A
#Smiles CC(C(=O)O)c1ccc2c(c1)[nH]c3ccc(Cl)cc32
#INCHI_AUX N/A
#Library_Class 1
#SpectrumID CCMSLIB00000085418
#IonMode Positive
#UpdateWorkflowName UPDATE-SINGLE-ANNOTATED-GOLD
#LibraryQualityString Gold
#TaskID d252d724072548979f1f6f1ced849daf
##Scan# 2213
#SpectrumFile p4-A07_GA7_01_18324.mzXML
#LibraryName Pharm_Active_Library.mgf
#MQScore -1
#Organism Pharm_Active_Library
#TIC_Query 0
#RT_Query -1
#MZErrorPPM -1
#SharedPeaks 0
#MassDiff 0
#LibMZ -1
#SpecMZ 274.064
#SpecCharge 0
#internalFilename spec-00000.mgf

>collision 10
45.209122 148.0
45.268024 172.0
45.313564 108.0
45.440933 48.0
45.557735 216.0
45.700249 64.0
45.904991 208.0
45.91713 164.0
46.146694 184.0
46.250862 212.0
46.637436 204.0
46.704063 108.0
46.893711 168.0
47.017433 220.0
47.830215 224.0
47.861877 140.0
47.940399 156.0
48.39209 36.0
48.486286 144.0
48.648575 140.0
48.705505 240.0
48.882076 168.0
48.904343 172.0
48.918262 52.0
49.336773 120.0
49.844151 232.0
49.87788 192.0
49.896156 160.0
49.970695 176.0
50.056561 260.0
50.184784 180.0
50.246841 44.0
50.323055 168.0
50.586014 184.0
50.61433 176.0
50.690823 180.0
51.229313 56.0
51.520336 160.0
51.580357 124.0
51.886711 116.0
51.934032 168.0
51.955551 160.0
51.991425 176.0
52.041664 160.0
52.101986 160.0
52.322025 192.0
52.340744 228.0
52.571388 180.0
52.637791 112.0
52.711464 148.0
52.818451 196.0
52.856064 176.0
53.154568 120.0
53.42627 128.0
53.462646 168.0
53.856297 164.0
53.952744 208.0
53.989296 140.0
54.044884 140.0
54.298313 144.0
54.533226 164.0
54.580269 108.0
55.054771 148.0
55.264675 56.0
55.338684 208.0
55.394958 108.0
55.547646 172.0
55.574348 40.0
55.792675 116.0
55.852158 140.0
55.931019 212.0
56.026325 116.0
56.124424 156.0
56.144077 148.0
56.23658 144.0
56.363518 248.0
56.575901 128.0
56.586384 108.0
56.619328 144.0
56.790184 104.0
56.806686 176.0
56.821686 176.0
56.970375 196.0
57.293762 140.0
57.338966 64.0
57.457256 188.0
57.488934 152.0
57.723927 132.0
57.890385 236.0
58.087421 180.0
58.135971 216.0
58.258961 196.0
58.672905 40.0
58.88501 108.0
58.99197 208.0
59.073017 100.0
59.235283 128.0
59.291973 168.0
59.641918 120.0
59.708031 40.0
60.032246 228.0
60.080791 152.0
60.250614 80.0
60.315517 100.0
60.595623 164.0
60.683968 184.0
60.952492 228.0
61.336906 152.0
61.561577 188.0
61.639683 148.0
61.69595 152.0
62.164272 176.0
62.401459 168.0
62.481667 216.0
62.569801 264.0
62.65012 188.0
62.722607 72.0
63.269188 40.0
63.365799 136.0
63.452969 100.0
63.516399 228.0
63.529091 148.0
63.770451 212.0
64.119003 108.0
64.350304 168.0
64.39502 220.0
64.533295 148.0
64.628418 196.0
64.706841 140.0
64.980911 132.0
65.10611 188.0
65.441437 136.0
65.488892 184.0
65.587181 192.0
66.027962 104.0
66.505928 60.0
66.77076 164.0
66.94278 152.0
66.975838 160.0
67.000275 164.0
67.094795 136.0
67.202438 132.0
67.584778 144.0
67.720657 152.0
67.797661 84.0
67.817322 76.0
67.984612 116.0
68.245796 148.0
68.439949 132.0
68.456413 84.0
68.578331 120.0
68.614594 156.0
68.855515 192.0
68.923241 112.0
68.984398 212.0
69.181252 172.0
69.403259 80.0
69.725311 176.0
69.931541 104.0
69.959839 208.0
69.974823 168.0
70.088081 164.0
70.103081 56.0
70.465172 188.0
70.572136 140.0
70.608925 112.0
70.640709 180.0
70.928726 184.0
71.096451 116.0
71.154266 36.0
71.324867 192.0
71.639542 132.0
72.133987 204.0
72.225296 104.0
72.506355 180.0
72.594513 48.0
73.099037 200.0
73.129669 184.0
73.160309 80.0
73.356216 184.0
74.096199 172.0
74.111618 176.0
74.192177 120.0
74.217888 216.0
74.54747 172.0
74.592155 184.0
74.734901 120.0
74.865723 176.0
74.879501 56.0
75.044937 152.0
75.098396 176.0
75.391891 184.0
75.954597 192.0
76.12468 164.0
76.269958 232.0
76.550728 244.0
76.683136 104.0
76.719742 116.0
76.749374 200.0
77.124725 180.0
77.718407 136.0
78.372498 100.0
78.562904 116.0
79.022255 168.0
79.257744 164.0
79.656921 128.0
80.162216 200.0
80.249557 136.0
80.629776 160.0
80.699493 192.0
80.837227 204.0
80.966118 132.0
81.109459 128.0
81.702065 148.0
81.757843 132.0
81.840645 148.0
81.85865 196.0
81.943306 140.0
82.006378 164.0
82.24086 96.0
82.658333 148.0
82.699959 204.0
82.940857 164.0
83.060539 144.0
83.251106 104.0
83.811378 172.0
83.944443 132.0
83.969978 208.0
83.995514 160.0
84.410095 164.0
84.853195 152.0
84.928383 104.0
85.229462 124.0
85.404114 164.0
85.484726 196.0
85.647079 132.0
85.866409 176.0
85.879318 164.0
85.929131 68.0
86.122963 176.0
86.246758 172.0
86.274483 96.0
86.980278 200.0
87.253357 116.0
87.417038 204.0
87.744858 60.0
87.890343 172.0
88.007935 140.0
88.825783 144.0
88.985298 164.0
89.032242 184.0
89.920868 124.0
90.092697 200.0
90.340347 164.0
90.442528 212.0
90.595909 136.0
90.842354 160.0
90.967598 92.0
91.149925 200.0
91.564644 164.0
91.665611 172.0
92.081497 164.0
92.141556 136.0
92.394989 92.0
92.435165 100.0
92.603638 180.0
92.973663 160.0
93.065804 180.0
93.136856 152.0
93.161827 216.0
93.279053 176.0
93.346344 204.0
93.665825 128.0
94.229141 124.0
94.294838 176.0
94.571419 192.0
94.858093 140.0
95.086975 140.0
95.156853 268.0
95.37249 124.0
95.401642 116.0
95.502762 92.0
95.541664 76.0
95.681793 104.0
95.81617 72.0
95.835655 224.0
95.958443 96.0
95.981842 96.0
96.08522 284.0
96.348778 216.0
96.798645 48.0
97.229927 68.0
97.41449 228.0
97.51667 148.0
97.626762 156.0
98.01062 164.0
98.227486 184.0
98.559166 116.0
98.669846 200.0
98.763893 208.0
99.022072 108.0
99.623093 184.0
99.843727 116.0
100.128319 100.0
100.18808 168.0
100.644806 180.0
100.73468 168.0
100.814606 76.0
100.834587 132.0
100.852577 172.0
100.872566 156.0
100.920547 140.0
100.952538 88.0
101.090569 128.0
101.1306 144.0
101.294792 168.0
101.358902 104.0
101.68177 144.0
101.743996 240.0
101.858459 132.0
102.033295 144.0
102.055412 48.0
102.447868 196.0
102.51033 120.0
102.659508 196.0
103.257286 200.0
103.309883 192.0
103.354393 180.0
103.664207 112.0
104.413315 92.0
104.561836 172.0
104.702309 204.0
104.899956 156.0
104.971313 164.0
105.063095 136.0
105.087578 180.0
105.457199 164.0
105.708748 164.0
105.74968 68.0
105.852043 228.0
107.345978 196.0
107.426414 156.0
107.649323 180.0
107.872467 156.0
107.96344 180.0
108.236595 200.0
108.423035 124.0
108.759033 188.0
108.860764 240.0
108.91684 188.0
109.101784 192.0
109.284805 100.0
109.795166 224.0
110.616302 200.0
110.681206 124.0
110.725548 160.0
110.796402 148.0
111.083603 48.0
111.108772 148.0
111.243088 196.0
111.373276 176.0
111.686462 200.0
111.86953 212.0
111.983238 148.0
112.042221 40.0
112.105431 156.0
112.611763 164.0
112.871704 152.0
113.28653 200.0
114.178017 220.0
114.650642 100.0
114.716713 204.0
114.740166 152.0
114.831856 176.0
114.915054 48.0
115.515373 168.0
115.767929 180.0
115.789345 232.0
116.291046 184.0
116.449928 176.0
116.469261 168.0
116.531555 236.0
116.737907 144.0
116.84761 196.0
116.909019 244.0
117.370995 140.0
117.554352 196.0
117.649323 136.0
117.904198 92.0
118.077156 192.0
118.403954 220.0
118.557777 152.0
118.598953 164.0
118.865707 64.0
119.028511 188.0
119.321838 136.0
119.339226 124.0
119.829811 176.0
120.243256 132.0
120.291275 104.0
120.413551 96.0
120.835442 200.0
120.872635 140.0
120.997398 164.0
121.09375 152.0
121.113457 56.0
121.214241 168.0
121.354523 76.0
121.422867 120.0
121.486107 116.0
121.672646 124.0
121.971413 156.0
122.8368 168.0
122.925056 212.0
122.944916 188.0
123.011131 188.0
123.050865 116.0
123.090614 172.0
123.143616 64.0
123.167908 204.0
123.243027 136.0
123.377846 140.0
123.426483 88.0
123.548126 216.0
123.731384 184.0
124.310326 240.0
124.370247 96.0
124.652306 148.0
125.428917 148.0
125.5093 192.0
125.616348 176.0
125.785942 152.0
125.839523 124.0
126.615463 164.0
127.048065 36.0
127.292717 140.0
127.708481 144.0
127.751221 136.0
127.940254 184.0
127.97628 208.0
128.075363 188.0
128.294662 164.0
128.341293 200.0
128.490158 168.0
128.555588 212.0
128.83783 264.0
128.867203 96.0
128.998276 160.0
129.604813 56.0
130.066315 172.0
130.1492 56.0
130.228683 60.0
130.274109 120.0
130.403625 32.0
130.571869 152.0
130.610535 224.0
130.665131 148.0
131.040283 196.0
131.355408 200.0
131.665817 220.0
131.709213 172.0
131.816589 48.0
131.887436 184.0
132.088654 164.0
132.113815 192.0
132.269424 152.0
132.354141 152.0
132.409103 140.0
132.587799 200.0
132.86525 92.0
133.000641 168.0
133.308395 88.0
133.485397 200.0
133.565903 164.0
133.772995 116.0
133.964127 140.0
134.072418 184.0
134.180756 180.0
134.233795 92.0
134.914917 184.0
135.053665 204.0
135.234131 216.0
135.289688 176.0
135.423996 196.0
135.804108 160.0
135.855148 168.0
135.913147 160.0
136.019897 116.0
136.563614 56.0
136.589203 180.0
136.740448 216.0
137.551575 144.0
137.838852 164.0
137.91597 116.0
137.951035 172.0
138.212982 152.0
138.440033 104.0
138.78215 156.0
138.887695 124.0
139.00264 164.0
139.061325 160.0
139.082443 132.0
139.265594 200.0
139.458252 120.0
139.486465 172.0
139.528778 120.0
139.898132 156.0
140.056656 356.0
140.435379 88.0
140.520309 224.0
141.325989 148.0
141.624283 180.0
141.692978 68.0
141.761688 148.0
142.048584 180.0
142.357117 144.0
142.406998 160.0
142.744461 136.0
142.76825 172.0
142.894318 184.0
142.939529 192.0
143.072815 148.0
143.527878 216.0
143.6185 184.0
143.649521 176.0
144.406708 76.0
144.502396 152.0
145.086761 216.0
145.128952 200.0
145.338593 156.0
145.434586 344.0
145.545029 108.0
145.770813 128.0
145.816483 232.0
145.862152 204.0
145.905411 136.0
146.068939 172.0
146.090591 140.0
146.143524 164.0
146.29274 124.0
146.355331 212.0
146.514297 116.0
146.760132 204.0
146.837296 160.0
147.184799 124.0
147.893143 196.0
147.934296 132.0
148.004501 148.0
148.055359 148.0
148.108643 148.0
148.450378 156.0
148.59697 164.0
148.677475 124.0
148.819794 172.0
148.926056 128.0
149.03537 56.0
149.300339 152.0
149.3806 232.0
149.619095 160.0
149.860214 180.0
150.200653 148.0
150.377197 156.0
150.46019 204.0
150.665329 52.0
150.931488 192.0
151.007553 152.0
151.215515 124.0
151.438324 216.0
151.702957 116.0
151.835358 204.0
152.057404 176.0
152.611343 180.0
152.840088 72.0
152.995148 220.0
153.027161 156.0
153.441071 216.0
153.613693 232.0
153.645767 124.0
153.665497 160.0
153.803696 120.0
153.830856 152.0
154.06546 160.0
154.211243 128.0
154.2854 168.0
154.302704 220.0
154.703491 84.0
154.745575 72.0
154.844635 204.0
155.327957 148.0
155.439606 188.0
155.96611 224.0
156.406372 60.0
156.476089 128.0
156.647919 268.0
156.772491 136.0
157.423599 80.0
157.653427 44.0
157.963455 136.0
158.59697 104.0
158.654633 168.0
158.67218 252.0
158.747406 152.0
158.774979 152.0
158.892883 160.0
159.083603 196.0
159.774704 56.0
160.404282 108.0
160.457214 40.0
161.115921 212.0
161.41922 180.0
161.636765 104.0
161.65448 184.0
161.808868 176.0
161.829132 160.0
161.864578 144.0
162.117905 144.0
162.204071 92.0
162.262375 108.0
162.414536 64.0
162.622589 216.0
162.701279 152.0
162.744171 188.0
162.947632 132.0
163.089935 152.0
163.234848 152.0
163.942551 152.0
164.050461 296.0
164.082733 116.0
164.128632 132.0
164.416885 56.0
164.651764 216.0
164.692627 152.0
164.784592 176.0
164.81015 148.0
164.840805 40.0
164.889359 100.0
165.069916 988.0
165.124573 60.0
165.319016 176.0
165.449554 56.0
165.58783 92.0
165.818405 216.0
165.908127 120.0
166.067917 1428.0
166.136368 116.0
166.187683 96.0
166.218475 128.0
166.387863 52.0
166.529099 52.0
166.568771 160.0
166.62709 220.0
166.657547 152.0
166.683243 144.0
166.807907 132.0
166.847748 128.0
167.073502 3412.0
167.346863 64.0
167.442139 172.0
167.478195 212.0
167.573517 108.0
167.673218 188.0
167.986008 84.0
168.042145 184.0
168.075455 608.0
168.153717 132.0
168.781479 124.0
168.828018 48.0
168.892685 140.0
168.915955 100.0
168.949585 108.0
168.996155 64.0
169.081558 140.0
169.164383 212.0
169.24205 112.0
169.299011 172.0
169.477753 204.0
169.622879 68.0
169.786224 68.0
170.154694 72.0
170.898026 52.0
171.499603 120.0
171.723831 200.0
171.816208 204.0
172.674515 220.0
172.959717 104.0
173.013321 184.0
173.080139 196.0
173.169174 140.0
173.651443 232.0
174.55748 160.0
175.006638 252.0
175.049561 168.0
175.245743 116.0
175.302444 152.0
175.953949 172.0
176.68338 148.0
176.744232 144.0
176.90567 204.0
177.057571 292.0
177.422256 184.0
177.493851 60.0
177.76442 68.0
177.9104 160.0
178.064407 328.0
178.369965 132.0
178.622574 212.0
178.928619 168.0
178.989853 44.0
179.013824 156.0
179.142548 192.0
179.261566 200.0
179.626831 132.0
179.680176 144.0
179.92038 136.0
180.187439 184.0
180.342438 84.0
180.944321 116.0
180.965744 164.0
181.474808 96.0
181.498947 172.0
181.531128 160.0
182.493988 116.0
182.825974 160.0
183.108643 84.0
183.135574 72.0
183.386154 212.0
183.828445 200.0
183.874329 92.0
184.079498 160.0
184.198334 180.0
184.338837 140.0
184.419907 144.0
185.050217 204.0
185.074585 156.0
185.394226 40.0
185.792816 100.0
185.931198 64.0
186.031631 192.0
186.099503 176.0
186.167389 196.0
186.604858 152.0
186.939423 108.0
187.124512 184.0
187.361465 112.0
187.609451 128.0
187.745789 152.0
188.002228 144.0
188.305786 172.0
188.376282 132.0
188.47464 208.0
188.57486 220.0
188.76712 220.0
188.983215 196.0
189.783005 96.0
189.818649 68.0
189.862183 160.0
189.96402 120.0
190.064529 232.0
190.161575 180.0
190.279617 120.0
190.378464 144.0
190.642197 192.0
190.955597 184.0
191.029861 172.0
191.073883 1968.0
191.38765 100.0
191.470261 168.0
191.836731 48.0
191.883591 216.0
191.947006 44.0
191.971832 88.0
192.080704 20168.0
192.12027 44.0
192.136093 196.0
192.168167 180.0
192.196762 52.0
192.23941 124.0
192.291428 52.0
192.32222 112.0
192.392334 72.0
192.430191 176.0
192.476807 204.0
192.498901 92.0
192.561874 228.0
192.607422 164.0
192.628708 84.0
192.679993 184.0
192.72818 348.0
192.753799 188.0
192.789536 156.0
192.833191 44.0
192.855301 108.0
192.893997 64.0
192.916107 136.0
192.938217 168.0
192.970657 148.0
192.999054 364.0
193.042252 256.0
193.088913 76864.0
193.147675 112.0
193.192871 96.0
193.223083 116.0
193.246674 68.0
193.29393 92.0
193.329147 132.0
193.364212 80.0
193.413269 44.0
193.455551 64.0
193.511749 80.0
193.545822 132.0
193.590561 84.0
193.613373 88.0
193.638306 116.0
193.671539 48.0
193.693695 64.0
193.713089 52.0
193.74115 80.0
193.779236 64.0
193.801056 76.0
193.826126 184.0
193.862701 68.0
193.906601 208.0
193.938797 44.0
193.970795 420.0
193.99173 160.0
194.036819 196.0
194.091644 10068.0
194.17598 68.0
194.195389 148.0
194.245667 64.0
194.317444 124.0
194.376999 104.0
194.400696 52.0
194.443634 144.0
194.487869 148.0
194.517258 136.0
194.542252 60.0
194.617203 112.0
194.747726 48.0
194.794022 48.0
194.813751 140.0
194.85051 52.0
194.96344 168.0
195.040695 64.0
195.09581 1012.0
195.133987 32.0
195.239655 44.0
195.261902 160.0
195.298294 176.0
195.362045 108.0
195.386917 136.0
195.395432 68.0
195.509506 76.0
195.531509 128.0
195.547028 108.0
195.62085 80.0
195.654251 84.0
195.75235 136.0
196.072968 200.0
196.099945 112.0
196.177994 104.0
196.261627 100.0
196.314621 40.0
196.420593 124.0
196.459656 32.0
196.506653 132.0
196.560089 88.0
196.638229 44.0
196.688477 56.0
196.881119 92.0
197.020782 48.0
197.082245 140.0
197.300247 60.0
197.470825 80.0
197.537949 52.0
198.095016 128.0
198.148254 204.0
198.641647 40.0
198.756683 52.0
198.776321 44.0
200.024185 120.0
200.072037 52.0
200.252258 112.0
200.49173 124.0
200.985214 100.0
201.033524 2144.0
201.841095 80.0
202.036591 296.0
202.152252 76.0
202.43251 128.0
202.610947 56.0
202.633606 72.0
202.7668 72.0
203.031937 596.0
203.246048 36.0
203.359558 124.0
203.768478 36.0
203.975937 136.0
204.026199 164.0
204.101028 136.0
204.584702 180.0
205.956299 56.0
206.070572 136.0
206.179153 80.0
206.656708 108.0
207.069077 148.0
208.259201 80.0
209.058456 96.0
209.162064 76.0
210.087921 432.0
210.271759 140.0
210.528702 52.0
210.782898 88.0
211.416199 60.0
211.569611 124.0
212.056259 112.0
212.79306 144.0
213.01088 184.0
213.03653 156.0
213.615509 228.0
213.78717 144.0
214.039398 136.0
214.049927 184.0
214.072464 112.0
214.11615 100.0
214.570709 176.0
215.025772 120.0
215.101654 196.0
215.928543 48.0
217.610565 148.0
218.157013 68.0
218.821899 112.0
220.066193 152.0
221.080109 236.0
221.574493 72.0
222.060638 60.0
223.046417 132.0
223.90033 68.0
224.082382 224.0
224.293625 152.0
225.07634 168.0
225.840332 116.0
226.041901 244.0
226.094635 208.0
226.828461 120.0
227.05011 772.0
227.434372 40.0
227.584473 228.0
228.056671 14708.0
228.100082 128.0
228.146103 60.0
228.197403 44.0
228.24852 52.0
228.302658 236.0
228.371826 36.0
228.554901 120.0
228.594452 52.0
228.663666 112.0
228.702805 192.0
228.735916 52.0
228.93161 48.0
229.000885 156.0
229.061401 2192.0
229.103302 64.0
229.169586 200.0
229.269012 132.0
229.461929 52.0
229.724304 156.0
230.053864 4412.0
230.57579 32.0
230.660431 156.0
230.739029 100.0
230.802521 136.0
231.056213 452.0
231.174591 180.0
231.716583 44.0
231.785263 72.0
232.407867 60.0
232.482758 248.0
233.71138 28.0
233.827011 76.0
235.143646 156.0
235.198578 224.0
236.666016 56.0
236.819138 48.0
239.345337 148.0
239.506729 40.0
241.018417 40.0
241.052414 132.0
245.052048 128.0
246.290527 52.0
246.859344 48.0
250.005829 28.0
252.46019 72.0
256.661407 44.0
263.679047 132.0
266.547028 52.0
267.327484 40.0
274.052307 136.0
274.246582 88.0
274.267578 140.0
276.159546 148.0
276.21579 60.0
281.406799 124.0
286.81131 84.0
293.237762 72.0
294.725647 112.0
305.041107 180.0
305.64975 84.0
319.058044 108.0
319.171814 156.0
319.758789 144.0
325.047852 40.0
325.690491 120.0
326.348145 72.0
329.194794 72.0
335.544678 68.0
339.871582 116.0
340.624176 80.0
349.013672 52.0
350.115173 44.0
354.56842 68.0
369.457733 52.0
382.108521 100.0
390.884949 96.0
398.878052 172.0
400.322296 132.0
402.974884 76.0
419.172028 120.0
461.706635 64.0
467.881256 56.0
469.945709 56.0
491.709198 36.0
493.560181 80.0
527.275696 92.0
536.10553 64.0
555.785522 96.0
558.472717 96.0
563.105835 60.0
567.544739 76.0
572.843872 76.0
581.421753 88.0
589.71051 72.0
601.660339 80.0
700.641052 72.0
715.257019 52.0
729.663635 100.0
737.301697 96.0
865.939148 76.0
884.356384 96.0
908.586121 112.0
1049.423828 152.0
1087.074463 116.0
1096.979614 164.0
1098.331421 52.0
1098.648071 184.0
1099.02417 208.0
1125.194946 108.0
1127.305664 80.0
1130.46875 188.0
1135.707886 56.0
1139.594849 64.0
1143.461426 156.0
1215.957031 72.0
1216.352661 152.0
1228.167969 176.0
1263.050659 140.0
1266.497803 152.0
1271.837036 160.0
1275.232178 72.0
1281.786621 244.0
1283.404663 196.0
1284.709839 192.0
1295.869995 152.0
1308.690796 172.0
1336.107056 164.0
1346.552734 188.0
1369.583618 156.0
1376.250366 36.0
1377.919678 248.0
1380.691528 204.0
1381.423828 244.0
1382.2229 44.0
1385.45105 112.0
1387.007202 176.0
1387.177734 160.0
1390.574951 136.0
1392.171143 128.0
1402.520142 176.0
1403.228394 168.0
1404.958618 80.0
1414.389282 188.0
1415.759399 224.0
1419.678833 136.0
1424.918213 228.0
1427.639282 136.0
1429.346802 192.0
1429.595215 36.0
1433.834595 128.0
1435.327759 44.0
1435.561523 60.0
1436.323242 172.0
1441.51001 168.0
1441.903076 52.0
1442.333862 128.0
1443.31665 152.0
1444.004883 64.0
1455.478271 160.0
1461.825562 196.0
1467.782471 88.0
1471.162354 244.0
1471.490723 152.0
1480.942505 168.0
1481.501709 180.0
1482.390503 272.0
1490.908813 56.0
1491.508301 208.0
1497.548462 152.0
1502.767334 120.0
