>compound Asenapine
>formula C17H16ClNO 
>ionization [M+H]+
>parentmass 286.099762
#inchi InChI=1S/C17H16ClNO/c1-19-9-14-12-4-2-3-5-16(12)20-17-7-6-11(18)8-13(17)15(14)10-19/h2-8,14-15H,9-10H2,1H3/t14-,15-/m0/s1
#inchikey VSWBSWWIRNCQIJ
#Ion_Source LC-ESI
#Instrument qTof
#Compound_Source Isolated
#PI Sirenas
#Data_Collector Ed Esquenazi 
#Scan -1
#Precursor_MZ 286.1
#ExactMass 0.0
#Charge 1
#CAS_Number N/A
#Pubmed_ID N/A
#Smiles N/A
#INCHI_AUX N/A
#Library_Class 3
#SpectrumID CCMSLIB00000006501
#IonMode Positive
#UpdateWorkflowName UPDATE-SINGLE-ANNOTATED-BRONZE
#LibraryQualityString Bronze
#TaskID d19310cd93df49b68e9fcbec27720eb5
##Scan# 3
#SpectrumFile Asenapine.mgf
#LibraryName fda_library.mgf
#MQScore -1
#Organism fda_library
#TIC_Query 0
#RT_Query -1
#MZErrorPPM -1
#SharedPeaks 0
#MassDiff 0
#LibMZ -1
#SpecMZ 286.1
#SpecCharge 0
#internalFilename spec-00000.mgf

>collision 10
100.00885 20.36828
100.032127 2.482143
101.038727 129.924896
102.045265 120.554398
102.068291 3.554435
102.515144 1.839286
102.660881 4.483477
102.687813 8.344363
103.053894 773.725281
103.099274 2.501389
103.150688 2.006944
103.163429 7.260031
103.296089 6.160088
103.317451 3.826993
103.333931 4.685956
103.345551 3.204167
103.507317 4.343137
103.545677 2.6125
103.71283 8.745676
104.046547 11.8375
104.061745 845.47998
104.102905 1.380682
104.190224 2.241071
104.239166 10.0851
104.270653 6.86095
104.346565 4.168056
104.50605 2.520833
104.513512 1.408333
104.529167 2.683333
104.643494 8.351243
105.033257 51.877289
105.070129 806.517822
105.110802 2.669643
105.152634 3.843202
105.181076 2.691468
105.191757 1.683712
105.231873 3.575758
105.24015 3.104167
105.309814 3.857143
105.321571 10.85354
105.345291 3.621408
105.355972 5.558624
105.370255 4.368421
105.477417 4.919207
105.494675 7.320076
105.509621 3.282051
105.86364 5.009804
106.041878 43.013069
106.078148 17.92614
106.11113 1.375
106.12484 10.86294
106.198227 2.927083
106.265175 9.453896
106.293625 0.860119
106.485558 4.291667
106.617889 11.79323
106.922516 6.354167
107.04937 1168.848999
107.09436 7.748311
107.109375 2.363971
107.291283 11.03985
107.317558 4.836806
107.365128 3.66886
107.447632 4.247024
107.458878 6.666667
107.562828 8.91591
107.578438 1.166667
110.99868 68.243896
112.003387 22.002781
112.022858 2.113426
112.482338 3.673611
113.016129 216.220703
113.061539 4.407738
113.280647 4.531863
114.048538 11.11574
114.379135 5.801667
114.416367 3.7075
114.432007 8.705208
114.45356 2.839382
114.535454 2.333333
114.580139 6.410178
114.595016 4.576389
114.616631 3.720238
114.650902 6.183712
114.662079 2.837121
114.703346 2.632675
114.770233 2.501894
114.79995 2.520833
114.844925 2.835648
115.054619 2285.891113
115.087502 2.761905
115.1035 14.33018
115.120583 5.224856
115.150124 8.535228
115.169449 10.76379
115.18338 8.296371
115.197754 2.3
115.214706 18.137529
115.251411 3.667175
115.270645 11.20028
115.285271 2.401389
115.296295 10.19686
115.35601 6.834936
115.36454 3.926282
115.388618 4.056548
115.41964 30.85866
115.441963 7.234722
115.474991 3.540064
115.483086 9.179924
115.525467 18.01716
115.590042 10.17447
115.647171 7.041667
115.696373 4.083333
115.733841 3.828305
115.785637 5.115385
116.046265 22.05747
116.061287 1670.694946
116.167091 3.409091
116.250755 2.858135
116.258972 13.92297
116.307152 4.044384
116.337067 14.06114
116.348297 1.851852
116.363548 2.857143
116.402359 3.255208
116.468452 9.234601
116.478088 3.983553
116.576408 11.77914
116.607368 4.505357
117.114998 10.39765
117.137657 3.502604
117.147072 2.0625
117.173393 14.81559
117.19043 9.738739
117.200615 4.261775
117.233688 6.166667
117.310921 3.002604
117.325905 6.245614
117.361374 11.35396
117.397659 10.25104
117.444099 8.014798
117.46167 2.834722
117.477188 7.126689
117.495644 11.33721
117.544655 5.0
117.593513 23.09704
117.614738 11.72233
117.780907 12.14631
117.90554 5.453373
118.040184 57.326801
118.065536 680.535278
118.098907 1.020833
118.14325 7.75
118.237274 2.360577
118.323242 7.146849
118.338051 6.041325
118.345627 4.72815
118.383522 4.662725
118.435829 1.224537
118.493271 3.834005
118.528595 1.760417
118.557274 4.140833
118.974915 5.00463
119.047653 158.216797
119.084938 19.370449
119.183495 4.711957
119.219147 6.157328
119.494034 5.875
119.830246 1.224537
120.080444 500.637604
120.125336 2.1875
120.165375 1.010417
120.184448 2.522645
120.466034 3.916667
120.848976 4.17124
121.063072 67.976372
121.787636 7.391958
122.641457 4.504167
123.557274 7.463768
124.006744 20.53941
124.299927 3.170139
124.403122 3.068055
124.435921 12.52778
124.536415 4.171875
125.01561 1510.948975
125.063988 8.867424
125.073242 1.180556
125.135284 10.92722
125.150673 3.066667
125.175667 5.852092
125.197433 2.407408
125.221931 5.483477
125.232536 2.670455
125.318161 4.895833
125.331001 5.678611
125.341606 2.0
125.380112 2.708333
125.447441 3.060606
125.468605 9.150144
125.51461 6.905357
125.532486 3.672024
125.559914 13.64371
125.590965 2.509868
125.650131 2.851974
126.047035 32.182541
126.344536 5.333726
126.418846 3.333333
126.994591 50.501289
127.029938 12.61455
127.054291 222.577103
127.09166 4.053571
127.111603 5.253472
127.145668 1.208333
127.292625 7.83477
127.34758 5.517857
127.370819 9.942811
127.435013 3.851974
127.949715 21.493059
128.023941 44.280472
128.061996 1039.295044
128.106613 5.184307
128.137909 2.5
128.157593 2.204167
128.180817 2.047348
128.193619 9.989899
128.307297 2.666667
128.358536 5.76923
128.378555 14.85647
128.40152 3.887061
128.413712 2.511029
128.433411 1.169643
128.476807 2.4
128.587234 3.034091
129.012115 39.175861
129.069122 577.26123
129.116394 6.179598
129.136169 2.840833
129.155945 3.940025
129.215088 6.734797
129.235016 12.64948
129.290741 7.684576
129.306732 6.586926
129.3582 7.069445
129.365555 2.677696
129.448746 11.9494
129.489426 16.112801
129.539124 3.282408
129.545181 8.696098
129.594498 4.857143
129.631027 5.41875
129.638733 8.339286
129.667282 2.194444
129.721924 3.002451
129.816177 7.449253
129.900299 5.564637
129.979599 6.774765
130.039474 21.870449
130.065506 1820.595947
130.114487 16.23011
130.135559 23.099819
130.162201 11.29603
130.179443 7.190217
130.207245 8.668651
130.249466 12.23942
130.277237 6.833686
130.298813 9.042027
130.327621 10.62745
130.357178 12.07714
130.417542 3.722222
130.424377 16.8454
130.434128 2.291667
130.551376 6.500563
130.586456 5.104167
130.698486 3.003788
130.770081 5.53858
130.826553 4.926006
131.009628 3.926282
131.047455 301.675812
131.072861 2238.645996
131.104507 4.07337
131.120483 10.11468
131.164413 5.756299
131.202301 10.85417
131.22403 4.481482
131.250443 23.901911
131.260803 29.674231
131.29007 31.288
131.307709 5.932099
131.321716 5.578509
131.335617 12.76986
131.347565 7.833333
131.38269 7.098684
131.39827 12.9215
131.436264 7.150794
131.456345 1.446759
131.47583 7.835417
131.493774 3.648809
131.539017 2.170833
131.554977 5.395833
131.579666 12.55151
131.654755 3.166667
131.720139 2.466667
131.990265 2.167763
132.063141 34.921902
132.080933 2750.325928
132.129959 28.332939
132.146194 1.333333
132.178192 2.041667
132.189072 4.0
132.216675 2.8375
132.309998 8.238521
132.345444 9.834842
132.37825 5.34058
132.385727 29.856171
132.415436 10.38865
132.437424 12.82769
132.45433 2.367424
132.462311 2.0
132.498352 2.341486
132.526947 7.410257
132.575165 9.570873
132.601089 1.888889
132.613495 7.748737
132.682114 4.442935
132.694992 2.553571
132.710663 4.421568
132.730652 3.240036
133.088257 2252.88501
133.153397 7.220634
133.171967 2.900833
133.188156 14.85042
133.218964 8.810859
133.240265 12.57029
133.273895 17.87574
133.304367 14.00659
133.331696 12.21206
133.42543 11.77334
133.449112 6.371913
133.481323 2.544384
133.547882 4.316886
133.566055 9.187893
133.601868 1.834559
133.650269 11.06838
133.742645 8.745193
134.05983 108.459099
134.096848 22.334049
134.109009 1.527778
134.201691 1.334722
134.322632 4.539244
134.613113 8.362268
136.079849 9.926005
137.015991 130.497406
137.188538 3.490385
137.290222 2.501096
137.403336 6.056327
138.022812 227.620193
138.226166 3.130208
138.253998 3.969445
138.294815 5.571854
138.318665 5.066667
138.446228 3.377778
138.738297 3.453373
138.813919 4.483477
138.991928 11.15427
139.029236 154.230499
139.055908 21.68462
139.101944 1.540064
139.438599 3.355392
139.831985 1.59375
139.97728 1.361111
139.996658 18.373329
140.038818 8.783046
140.060837 20.94651
140.199631 1.52381
140.241043 2.969697
140.290268 3.034091
140.389175 4.261824
140.404495 1.354167
140.451004 4.166667
140.464661 3.453373
140.599472 1.168981
140.723251 5.528986
141.009995 1364.682007
141.054718 64.140282
141.070526 64.946716
141.113159 1.574405
141.137253 4.416667
141.177582 4.16875
141.185867 7.460805
141.26767 11.50529
141.326431 1.125
141.400879 5.70673
141.421555 8.003409
141.429871 13.3387
141.541565 8.917708
141.586212 4.203804
141.860443 3.080128
142.01355 7.300463
142.064926 184.822403
142.073105 4.224537
142.202866 1.340278
142.257874 3.370471
142.308289 6.674679
142.341492 2.181818
142.94812 3.420259
143.073059 395.746307
143.127029 4.012153
143.139786 1.208333
143.172821 3.721102
143.23526 4.942345
143.251648 5.671297
143.281143 10.67847
143.317093 3.755482
143.339386 2.177696
143.381027 5.467129
143.398544 34.261009
143.426956 8.543767
143.463913 3.368056
143.481018 6.010212
143.559113 3.870833
143.806244 1.851852
143.819 7.148149
144.056564 25.6994
144.080566 3315.915039
144.131866 5.178571
144.148407 6.654018
144.156906 19.36285
144.174988 6.914216
144.19873 6.224915
144.22374 4.535201
144.236267 2.009868
144.24472 21.0047
144.265732 9.004167
144.274445 4.347756
144.301834 6.37214
144.318222 4.704167
144.331879 3.834239
144.345154 3.004167
144.373444 2.851974
144.407623 4.013355
144.439789 12.534
144.483047 9.314951
144.497498 7.665792
144.541183 5.095158
144.586075 13.11607
144.616501 4.691468
144.65126 6.669514
144.662292 19.726219
144.68251 4.0
144.851257 3.828305
144.899063 28.95583
144.959991 2.858135
144.997681 6.738782
145.014435 2.333333
145.048172 9.907051
145.061615 48.232101
145.088257 2140.756104
145.140076 22.543921
145.182831 10.03533
145.261795 6.406666
145.289536 16.22982
145.305618 12.3614
145.329407 5.527412
145.374954 4.868421
145.443069 3.575758
145.485535 11.46065
145.525986 5.16886
145.535034 12.09399
145.578461 11.14751
145.649933 3.486413
146.059906 65.343178
146.160568 4.222222
146.213867 3.041667
146.339645 5.802778
146.397247 11.04609
146.74408 6.606771
146.89769 5.53125
146.948074 1.026786
147.065735 264.844513
147.167267 2.708333
147.179977 3.001096
147.429092 3.671474
147.834885 3.834326
148.24971 11.21131
148.262497 8.060012
148.4039 4.5
148.533646 1.505952
148.550613 2.370833
148.660873 2.508152
148.737488 6.98077
148.785095 2.854167
148.838928 3.020833
149.015625 940.531982
149.066833 4.236111
149.089844 1.677083
149.110825 3.002778
149.119232 7.503205
149.18338 4.005952
149.217056 5.542892
149.236954 13.69391
149.450882 10.09331
149.704025 3.541667
149.786819 4.666667
149.83287 6.458333
149.936203 4.981482
149.977798 1.055556
150.426392 4.207825
150.874741 4.174167
151.029968 347.421906
151.055908 59.742599
151.126953 1.6875
151.14238 1.427083
151.214645 3.104167
151.28685 5.323253
151.370834 2.0
151.576813 1.347222
151.726288 2.834239
151.940628 3.551136
151.998627 40.476189
152.061584 355.789703
152.11351 3.266667
152.146225 2.350379
152.210938 9.276316
152.265778 1.341667
152.28389 4.261824
152.296722 4.180556
152.374054 3.080128
152.654053 2.547348
152.700684 5.026175
152.859695 5.34058
153.008301 76.006767
153.028305 13.88562
153.036636 15.2125
153.069717 311.084991
153.189835 1.388889
153.358856 8.02374
153.421082 6.446509
153.438904 9.556941
153.49263 2.367424
153.665085 2.008929
154.00322 39.638
154.042618 405.517914
154.077133 122.897697
154.183014 3.006466
154.693466 2.401389
154.788544 5.743055
154.866287 4.838141
155.024033 255.2491
155.056854 1.2
155.250763 2.501389
155.303925 1.34375
155.369385 12.65308
156.054993 16.005381
156.080643 154.755798
156.307465 2.949074
156.481781 2.208333
156.59523 2.520833
157.05162 8.728536
157.088211 304.410095
157.252274 6.694256
157.30925 6.94079
157.383377 6.880952
157.400574 1.333333
157.448532 4.898438
157.48288 2.445833
157.509705 6.370535
157.520035 2.340278
157.602295 1.34375
157.644211 1.875
157.684402 4.169271
158.021469 2.388889
158.096939 358.057007
158.169678 4.280093
158.198822 6.964285
158.218124 10.45588
158.248444 3.5
158.265945 1.347756
158.314087 3.667262
158.366638 2.920139
158.476089 3.0
158.506775 3.960938
158.537415 3.500906
158.691193 18.84444
158.780411 8.168651
158.839798 5.514881
159.042404 8.668056
159.070999 2.75947
159.101471 136.631805
159.290787 10.92915
159.577255 2.685957
160.077011 113.657097
160.395706 5.009804
160.59845 7.043403
161.014084 21.366369
161.114685 4.503676
161.154419 2.839382
161.189499 7.349116
161.348801 2.7075
161.415085 3.500631
162.022339 480.742615
162.158493 6.676802
162.247131 4.180556
162.30957 4.929167
162.326874 7.182292
162.353592 3.109601
162.402222 14.50643
162.983536 3.204475
163.005753 3.780242
163.05246 12.25041
163.187119 2.658333
163.418854 6.242883
163.481339 1.863971
163.704041 8.866987
163.88176 2.017045
164.027695 463.854706
164.062271 123.637299
164.097641 22.77083
164.116714 13.78244
164.135941 29.386551
164.158157 4.004167
164.167068 5.335145
164.195465 15.619
164.222641 35.614269
164.252716 11.24038
164.279541 8.206117
164.313995 63.158772
164.347351 7.321047
164.361496 12.3501
164.400253 18.078529
164.446091 2.348611
164.46167 1.020833
164.470306 1.5
164.488251 7.900321
164.512695 1.416667
164.543823 9.105867
164.573761 11.50189
164.586334 2.347222
164.626129 8.035088
164.67308 5.234167
164.706879 5.537037
164.769333 4.000906
164.84256 5.615661
164.881531 3.000992
164.921234 5.333897
164.944351 8.29885
164.977325 12.08594
165.008423 159.323105
165.070343 15283.160156
165.12439 31.55357
165.160751 10.1875
165.194763 8.0625
165.23848 21.61862
165.250336 28.98114
165.273804 13.42424
165.288055 5.540833
165.321259 23.156429
165.339722 12.33565
165.352554 34.301689
165.36377 11.16806
165.380173 73.270561
165.395294 46.35741
165.426605 38.533829
165.438538 15.15659
165.457733 18.74437
165.470459 44.99131
165.482025 11.89347
165.497696 6.152027
165.520554 25.210501
165.55188 14.00027
165.567245 34.93882
165.589493 6.990032
165.599991 6.333333
165.610138 9.315476
165.636566 6.708333
165.654175 19.362101
165.66922 16.326559
165.709793 27.34226
165.747375 35.237999
165.793915 9.846154
165.843857 27.99641
165.896622 3.891204
165.906097 18.593399
165.99054 7.142045
166.04129 686.085815
166.077988 22298.060547
166.185226 25.48992
166.238785 17.863331
166.259689 21.809071
166.281998 41.152802
166.292862 42.158859
166.307648 66.532791
166.328491 11.72494
166.348877 17.401039
166.359283 55.264381
166.402405 36.202881
166.437943 37.887901
166.478882 6.328304
166.490021 16.75758
166.502655 29.770361
166.570175 34.652538
166.587112 29.133659
166.598602 7.124376
166.607559 21.648609
166.620865 17.955891
166.651321 29.501129
166.683212 16.076521
166.706024 17.37318
166.725693 40.93969
166.768158 14.88682
166.793335 5.354167
166.823883 13.03653
166.832764 28.674141
166.844193 20.737261
166.894699 22.10141
166.914932 10.72031
166.939178 4.51864
166.948288 3.826993
166.970428 15.41699
167.020859 121.867302
167.05011 1043.105957
167.125656 12.98018
167.159225 22.765341
167.203262 9.137127
167.347015 13.54929
167.408295 25.26511
167.596954 2.541667
167.73439 6.360923
167.754013 5.44676
167.791214 2.755208
167.807922 4.8375
167.869553 1.854167
167.941666 2.387061
168.180756 2.733333
168.204163 6.460649
168.336395 4.1875
168.492249 11.83727
168.63475 7.234722
168.6595 1.669643
168.78038 3.520833
168.856064 2.486742
168.867157 3.2075
169.063568 157.507797
169.089844 35.513889
169.115906 1.834325
169.186539 2.673611
169.416687 14.72984
169.509674 4.347222
169.550491 5.064637
169.786133 1.505952
170.035522 37.002869
170.321457 2.220395
171.067383 19.722759
171.083969 22.698231
172.146942 2.508929
172.87793 9.195269
174.937851 1.873397
175.029602 19.548479
175.053726 48.827419
176.022049 35.861012
176.032333 8.564273
176.062622 484.030304
176.099487 3.213542
176.210205 4.515625
176.269211 10.96363
176.325729 8.040441
176.367615 4.494971
176.621445 4.837323
177.012375 17.82008
177.037445 15.04762
177.098846 5.715278
177.130753 5.265351
177.223038 5.681159
177.241516 9.666997
177.283218 4.372578
177.402695 3.185307
177.483093 9.320833
177.899826 5.770833
177.984589 7.37633
178.001923 3.837121
178.041275 1077.264038
178.076782 602.519287
178.152313 2.820076
178.188049 8.433067
178.210846 1.502315
178.25589 1.633333
178.280563 7.380123
178.299088 7.220833
178.30838 2.669444
178.317673 3.190104
178.336197 3.516667
178.36972 4.953373
178.392487 4.782052
178.443146 3.246795
178.508362 2.506944
178.615112 3.878942
178.652557 6.569047
179.006058 7.400652
179.023239 76.570183
179.084229 413.934814
179.13623 2.845238
179.248001 5.677696
179.300095 5.889423
179.324097 1.870833
179.350174 7.190217
179.621536 9.642858
179.98819 3.463542
180.056244 302.21579
180.12001 7.605629
180.145569 5.346667
180.175323 1.75947
180.297501 6.6875
180.387543 2.541667
180.418976 7.522989
180.498428 2.833333
180.578674 6.717105
181.026535 60.622849
181.064743 1836.411011
181.101974 50.25227
181.121094 8.795591
181.147354 5.299342
181.179123 2.416667
181.224854 5.153846
181.243805 5.629808
181.279816 2.834326
181.312607 5.385417
181.445633 15.32969
181.467224 5.355053
181.69693 5.092803
181.889557 2.373398
181.905945 4.942402
182.037018 141.839294
182.105743 18.200701
182.143387 5.523913
182.194336 3.040833
182.29808 8.166667
182.357834 1.926136
182.460983 2.277778
182.56076 4.174819
182.655212 4.040948
182.777084 2.355978
182.819748 1.928571
183.1091 11.91335
183.502121 7.180669
183.923538 3.551282
186.021286 66.022812
186.09137 5.583333
186.437836 7.450171
187.883621 14.71896
188.044632 10.14735
188.240753 3.636364
189.010147 28.168171
189.042587 36.134369
189.069946 305.1604
189.119476 0.835648
189.21109 2.677083
189.234314 2.851293
189.334595 3.474167
189.354248 5.369932
189.431 9.010715
189.876556 12.86001
189.952728 8.016305
189.978333 6.483477
189.990387 6.113426
190.07608 523.277222
190.138123 4.001603
190.1642 12.68109
190.207047 1.52381
190.226242 3.833333
190.240601 7.409483
190.280029 5.020833
190.296066 6.34818
190.317749 1.505208
190.336487 5.561237
190.349915 4.533333
190.418213 4.509804
190.468094 12.11392
190.533447 4.912281
190.739792 4.246795
190.763153 3.632675
190.93222 1.166667
191.018372 3.720395
191.049271 219.4021
191.0858 3094.496094
191.149719 30.22611
191.17746 7.509827
191.204575 2.527244
191.225143 3.240741
191.239075 11.06241
191.294037 7.578241
191.305893 12.32381
191.341034 7.555555
191.39888 4.32353
191.413986 3.234722
191.525894 15.29465
191.58934 10.87524
191.605804 6.870535
191.639526 2.848485
191.671829 28.26594
191.693863 3.382102
191.711761 8.864473
191.754303 0.854167
191.793671 4.345446
191.899811 3.125
192.093369 2505.461914
192.151306 20.178089
192.258835 9.053353
192.285736 18.12752
192.306076 5.690123
192.319168 3.842105
192.3452 37.943298
192.372528 13.52523
192.389877 5.053571
192.406326 18.580561
192.420502 2.560606
192.434982 7.001389
192.492996 3.839015
192.604767 2.851974
192.619797 10.81674
192.734436 1.5625
192.771072 7.62887
192.845871 13.6884
192.864899 7.359509
192.918915 11.25753
192.959061 26.75514
192.977951 19.33539
193.02298 26.895769
193.038696 4.835526
193.065018 466.213409
193.138763 10.84776
193.171707 16.826509
193.203079 3.35
193.221039 14.22225
193.232758 4.609601
193.25209 10.8869
193.266663 7.930059
193.29834 18.39216
193.372635 6.594203
193.388229 3.911859
193.440094 5.320076
193.507675 8.84533
193.686935 4.837257
193.745102 8.380575
193.778107 8.572024
193.943619 4.685417
193.994568 18.07349
194.006027 7.211111
194.037186 40.75235
194.072998 13214.629883
194.13269 113.184601
194.189774 10.85272
194.21991 32.726891
194.23877 17.782591
194.250061 35.700371
194.277115 9.667397
194.290649 29.241421
194.299698 18.1173
194.343811 39.92416
194.372314 48.868641
194.382309 10.6511
194.400528 34.391441
194.414047 25.176689
194.426453 33.607521
194.4552 24.44241
194.471893 7.433067
194.482269 15.49492
194.520752 11.69802
194.555603 17.802561
194.582809 6.56744
194.603577 2.868056
194.615372 6.411765
194.650146 22.108829
194.662704 71.064537
194.694244 21.617769
194.731003 22.57222
194.777145 16.939421
194.818024 2.55787
194.8311 22.23308
194.950043 44.657429
194.979736 11.2653
195.114944 18.71102
195.210526 1.33631
195.264404 11.09289
195.361145 19.18314
195.506836 26.01041
195.583984 9.028846
195.711334 3.3075
195.983887 9.426786
196.797974 4.841667
197.081802 61.108009
197.701874 3.66723
198.056671 2.604167
198.068909 3.214286
198.386032 14.38028
198.411789 2.334326
199.031281 396.321411
199.099808 5.4375
199.162247 2.681818
199.196609 7.619048
199.226517 10.23707
199.293655 2.25947
199.334122 13.25083
199.347778 9.767262
199.865768 3.740833
199.945435 16.092609
199.99324 4.023809
200.061966 77.120918
200.088776 2.416667
200.122803 10.92048
200.151794 11.89997
200.184479 3.893939
200.214798 6.469477
200.283035 2.514423
200.411224 7.031481
200.475967 5.81579
200.508026 1.907738
200.609497 6.302083
200.676102 3.261905
200.787491 10.68687
200.893967 6.690104
200.949982 10.17708
201.014282 60.284248
201.04747 2365.426025
201.109756 18.93984
201.1548 19.93688
201.190201 11.34626
201.208374 4.556548
201.224884 3.172619
201.2444 17.27726
201.267578 20.34482
201.280182 35.927872
201.294601 9.505286
201.313965 7.953703
201.337936 21.07634
201.356628 3.851974
201.37059 4.816886
201.384796 8.321739
201.402298 1.901389
201.424316 11.47126
201.442474 11.23068
201.457123 3.197917
201.494751 4.4675
201.545578 1.2
201.585434 22.81077
201.625885 6.736111
201.67894 1.667892
201.690552 12.10642
201.719803 2.64881
201.832138 25.2516
201.891434 5.500595
201.914825 12.57194
201.926041 3.342592
201.960648 15.13079
201.985367 4.833333
202.07785 2910.429932
202.139465 13.7259
202.172775 6.70625
202.227219 22.98176
202.306915 6.426136
202.361313 2.016667
202.407913 22.8074
202.449265 15.18254
202.489502 11.61644
202.540268 11.17495
202.56839 3.336806
202.614868 6.592949
202.742554 6.839285
202.753021 2.3375
202.784393 7.382936
202.821808 2.016667
202.872147 31.747959
203.003998 5.833965
203.029434 40.44902
203.12709 5.618055
203.306274 9.175682
203.437012 7.932017
203.510406 4.323281
203.642899 20.18128
203.734467 6.201106
203.751465 4.253472
203.779114 11.86103
203.791565 1.270833
203.908295 6.542726
203.987915 15.64205
204.0177 18.002649
204.26622 8.910737
204.504074 6.146875
204.559586 3.333333
204.718399 14.99209
205.064957 3073.413086
205.123398 21.772221
205.158844 7.087823
205.174164 4.253472
205.246262 9.193348
205.283585 9.915887
205.31604 4.340278
205.336533 3.676713
205.36824 13.51187
205.396378 6.700379
205.441528 9.493209
205.472992 13.44985
205.539093 5.013889
205.550949 8.704166
205.610794 18.282221
205.640808 5.52193
205.690628 2.220395
205.745514 5.461436
205.797302 7.522917
205.855301 4.334167
205.99913 1.926136
206.032898 12.20711
206.095291 85.41523
206.399582 6.006945
206.674759 5.862145
206.729736 2.505208
206.884827 6.500409
207.080612 989.509827
207.105026 75.166748
207.160126 6.712963
207.210205 11.87556
207.260284 4.833742
207.295441 15.33359
207.320389 1.173611
207.347046 13.32305
207.405853 21.27545
207.456497 3.023809
207.541687 13.25403
207.586365 10.726
207.734482 3.25
207.909576 13.13514
207.992157 3.673132
208.162949 9.337693
208.428848 1.706731
208.449539 7.969136
208.564514 1.341667
208.866074 1.6875
209.098557 236.468002
209.167923 3.802778
209.298859 1.502976
209.374191 2.204167
209.566299 4.444444
210.019592 19.010941
210.054306 1.0
210.1772 4.948994
210.604248 4.506049
211.025177 17.10689
211.142532 6.169643
211.408096 7.777778
211.448288 1.34375
211.74202 1.6875
212.039185 666.368103
212.106369 2.685185
212.146912 4.178779
212.162781 6.5625
212.354706 1.671296
212.40538 5.000833
212.431015 2.206731
212.465591 9.915
212.588287 4.449306
212.775681 1.1875
212.922882 4.350134
212.988876 7.011364
213.558014 3.6
213.669327 14.26006
213.703644 25.657709
213.741196 50.371891
213.762238 12.91632
213.784195 4.416667
213.802002 4.51796
213.83046 18.4589
213.87471 13.33825
213.903839 5.551136
213.916107 42.32394
213.947617 13.56127
213.968521 8.80303
214.016403 223.641602
214.066589 8.333713
214.086624 5.241071
214.102219 4.834239
214.136261 10.09094
214.158218 3.01929
214.27533 41.228779
214.30423 2.895833
214.416 7.083916
214.44342 42.488449
214.588516 13.75439
214.63472 16.23904
214.901367 3.220238
214.972183 11.70417
214.988953 44.585018
215.025955 14085.679688
215.092285 15.19643
215.161514 4.391667
215.17453 10.90343
215.198181 15.3817
215.214462 45.607632
215.230942 16.369511
215.26004 29.27589
215.307434 32.367458
215.325943 38.361149
215.351166 17.54055
215.376099 47.36916
215.385086 29.522699
215.402374 2.240741
215.427139 7.1875
215.463623 15.71337
215.500961 6.38447
215.527832 18.376881
215.539246 33.47295
215.588013 13.98186
215.61972 49.467289
215.657608 3.714881
215.667206 40.220531
215.689453 48.556568
215.703003 11.73508
215.767654 22.76185
215.80397 20.174919
215.846268 21.27282
215.938904 5.341486
215.971512 8.410714
216.072861 2.020833
216.140671 7.25
216.274002 13.66328
216.417221 8.118783
216.563309 2.1125
216.601242 6.994971
216.889633 15.80927
216.968719 3.78125
216.9879 2.201389
217.011826 8.963235
217.044022 154.455307
217.060638 38.28828
217.087646 127.118401
217.137253 23.45219
217.164749 1.6875
217.256027 5.740833
217.291275 1.843202
217.733078 14.11262
217.757172 4.715278
217.777863 4.876736
217.804825 5.865196
217.844604 3.172348
217.918137 4.444444
217.993546 1.168981
218.010849 11.35011
218.073227 1514.587036
218.157944 1.5
218.204315 23.673059
218.282639 3.870833
218.332993 1.208333
218.353271 3.440476
218.370148 8.748311
218.39624 6.389881
218.426392 7.33507
218.458649 15.26459
218.489105 14.21935
218.537445 4.357143
218.558502 12.33377
218.623688 8.108173
218.651993 5.633333
218.677261 3.366285
218.699509 22.596689
218.756058 3.640152
218.771271 4.340278
218.808426 3.375
218.851715 15.10723
218.884094 10.92614
218.933197 10.4777
218.97525 25.239519
218.998245 8.516071
219.027023 11.17493
219.080887 4920.955078
219.109573 1.8375
219.143509 27.590281
219.164917 6.840278
219.201828 46.55843
219.231857 12.74646
219.259674 2.445833
219.274399 11.0582
219.300339 71.379379
219.334015 48.765369
219.350082 10.24138
219.367111 16.019449
219.37529 30.05928
219.391846 12.33791
219.405243 7.347222
219.435379 16.7642
219.461868 18.246941
219.506653 6.719203
219.52562 8.580514
219.563385 8.247795
219.591522 13.15371
219.659912 13.3447
219.678802 8.337501
219.73848 13.04374
219.856964 18.277
219.899338 8.29885
219.949768 3.680021
220.004395 10.8571
220.017929 35.996861
220.087326 4241.419922
220.150024 41.51852
220.216599 30.37155
220.254318 3.100833
220.285446 13.44461
220.315277 29.38176
220.339478 2.8125
220.400223 15.40341
220.424591 24.058611
220.438049 13.27894
220.460236 18.69249
220.493042 13.81888
220.54866 2.833333
220.615234 5.5675
220.629395 10.10089
220.708862 5.591912
220.724274 11.54861
220.759766 14.40299
220.782089 15.73746
220.874268 4.837906
220.887909 9.53728
220.968491 7.060937
221.179428 5.553635
221.515854 2.900833
221.545471 1.354167
221.686752 6.0
221.817749 4.526786
221.868088 2.670139
221.914749 3.440476
222.054672 4.855053
222.099899 146.189301
222.130356 12.09635
222.277725 5.035201
222.293213 10.73014
222.490509 1.334722
222.8797 1.168561
223.238205 1.0
223.446167 6.547348
223.468475 7.748724
223.503387 1.166667
223.685547 4.32353
223.758301 3.340278
223.784317 1.340278
224.336304 5.182971
224.632217 5.319746
225.046982 76.344414
225.474167 1.408333
225.646118 4.565104
226.02774 4.517045
226.054916 76.672287
226.188187 1.780093
226.331192 2.509868
226.655807 6.337323
226.677338 5.297861
226.697708 1.745192
226.776276 2.670833
226.95433 3.671296
227.026398 14.31669
227.063385 30.15011
227.169556 3.3075
227.273361 12.78662
227.301407 9.605449
227.384415 5.660017
227.421616 1.408333
227.588272 2.428571
227.617645 7.428572
227.670319 9.951869
227.69339 5.968344
227.705933 19.8773
227.718521 25.035971
227.761032 6.570367
227.793472 7.231304
227.812943 11.45807
227.835785 35.52314
227.861801 5.283633
227.885406 9.301623
227.899048 10.72039
227.948868 6.816498
227.998581 3.364268
228.033585 1287.991943
228.093155 5.335318
228.118073 25.873899
228.135193 3.940025
228.156204 2.851293
228.245834 6.418804
228.293213 5.081644
228.395096 28.184059
228.426865 4.060516
228.454788 17.60096
228.513733 10.05382
228.529449 1.505208
228.545425 3.797068
228.572754 12.04789
228.591568 6.170296
228.657532 2.19391
228.940002 13.80164
229.008652 13.02711
229.04187 10339.269531
229.104919 88.587196
229.129364 4.377778
229.149567 20.377371
229.186356 24.851151
229.207077 29.086809
229.234726 4.221258
229.246628 37.8246
229.274796 11.00417
229.314651 55.2267
229.335632 24.7225
229.376648 14.34028
229.417328 27.35309
229.43544 20.87431
229.44899 11.81856
229.469849 13.3
229.496445 11.49359
229.530853 16.645729
229.557816 23.28907
229.61026 3.336032
229.626617 8.633796
229.666824 14.2123
229.701691 26.464609
229.763794 8.741667
229.794662 2.208333
229.862411 11.13063
229.886932 11.86589
230.000549 15.40468
230.585098 1.863971
230.807404 13.63043
231.103104 8.83772
231.209976 3.223214
231.335861 2.333333
231.367157 4.393939
231.431107 2.191468
231.526382 4.34741
231.727585 1.333333
232.072037 8.25862
232.108978 171.996704
232.172699 1.380682
232.416733 10.37096
232.636215 11.72403
232.655853 9.617424
232.714951 3.78125
232.734818 2.18109
232.772018 7.22662
232.911987 9.100379
233.016251 2.370833
233.084671 60.060539
233.10025 20.06908
233.196671 1.533333
233.372879 18.049339
233.562637 0.854167
233.784241 3.125
233.802856 1.347756
233.838013 5.413377
234.055878 15.97272
234.091003 1870.629028
234.154068 1.166667
234.170822 2.411859
234.239258 5.879167
234.260452 5.15482
234.312836 1.506945
234.336304 4.629704
234.430054 11.35417
234.442612 1.963141
234.473587 1.020833
234.527328 11.6713
234.580215 3.50463
234.622574 4.440025
234.654739 8.273504
234.681381 2.345833
234.703384 18.0823
234.723679 8.343137
234.750671 4.505357
234.770126 10.30718
234.798523 12.50463
234.852783 10.83472
234.899994 9.516051
234.954025 17.832041
235.257523 21.169109
235.441193 17.853519
235.599091 1.041667
235.739227 2.0
236.037277 94.215439
236.107178 2875.601074
236.171555 29.71208
236.212357 26.158051
236.290085 3.707108
236.320374 4.515783
236.337708 13.76358
236.385941 9.047624
236.421982 9.104663
236.475983 5.351862
236.560791 4.509868
236.572906 2.14881
236.614609 3.837694
236.65303 11.92005
236.770355 8.15661
236.80748 6.051136
236.882248 6.571854
236.914673 10.69433
236.957214 1.010417
236.989349 4.408333
237.35405 10.23361
237.375122 6.820988
237.465408 11.4971
237.493271 2.755482
237.540985 2.922149
237.586655 3.407408
237.609711 4.483333
237.693497 2.427083
237.78801 6.168651
238.233505 3.667763
238.524017 2.816667
238.727737 5.23852
239.026093 1251.364014
239.093384 3.01929
239.150696 9.734127
239.176437 5.1075
239.297836 5.75511
239.331161 3.0375
239.424988 9.93497
239.448563 9.450582
239.529617 10.07216
239.555954 8.172349
239.615036 13.7027
239.707764 11.4865
239.79982 16.813471
239.819382 2.463542
239.859558 10.48975
239.874268 6.719203
240.052216 11.40741
240.185135 5.115741
240.235275 2.340278
240.584717 15.21206
240.726089 4.173913
240.786591 1.074405
240.877075 14.9378
240.997726 3.453373
241.041779 2426.701904
241.109482 9.50463
241.130737 6.688398
241.179794 6.5
241.201309 2.340833
241.237595 12.68889
241.305801 3.222222
241.336411 4.072024
241.384033 27.11944
241.422562 4.170833
241.440598 1.446759
241.454941 4.177696
241.493286 14.55671
241.521179 2.796875
241.551453 16.762671
241.565842 5.752604
241.650085 8.752688
241.677002 6.0
241.700943 10.69056
241.744843 13.12838
241.814941 6.527244
241.85936 7.409275
241.936203 5.672619
242.024216 4.520833
242.234924 16.45336
242.25058 4.180556
242.479965 4.200833
243.058258 232.0672
243.133331 1.592803
243.275085 1.168561
243.35437 1.541667
244.426788 1.52381
244.532059 3.815972
245.075592 45.915001
245.145248 1.335227
246.946045 3.366263
247.100571 2.707108
248.102997 116.665199
248.468124 6.360923
248.730392 1.891204
248.934509 2.867424
249.714615 3.282051
250.02359 2.020833
250.123383 321.207886
250.215393 10.32143
250.319611 1.183712
250.622452 1.83443
250.820679 0.833333
251.113052 13.66696
251.598221 2.170833
251.747284 4.670139
251.966415 2.891204
252.033844 74.620773
252.057404 34.39193
252.481903 2.341486
252.597046 3.722222
252.665024 3.889661
252.774963 2.191468
252.896667 1.505952
253.041214 241.902496
253.217651 4.876736
253.247467 5.697601
253.674957 2.595238
253.727325 18.281759
253.766006 2.740036
253.897308 3.168056
254.044083 247.888397
254.181808 4.686404
254.481644 15.26254
254.519989 4.426697
254.567566 8.130952
254.591431 13.25391
254.627274 1.427083
254.64238 8.730879
254.753738 6.964461
254.792343 12.69728
254.825607 5.078948
254.87558 5.022059
255.003342 2.836309
255.057022 538.25769
255.107971 3.949074
255.388199 9.976616
255.468933 9.681764
255.503571 4.011905
255.532547 2.129808
255.870712 2.836111
255.894577 11.07563
256.052612 2474.268066
256.120789 16.459999
256.160187 2.167659
256.196564 8.85934
256.256073 3.420139
256.316101 4.037037
256.339783 24.382441
256.38269 10.12624
256.412811 10.67894
256.451691 34.311821
256.49762 6.660326
256.516632 3.005682
256.544556 12.23157
256.571228 7.136111
256.607513 31.88085
256.641235 16.400141
256.655975 5.521719
256.723541 1.592803
256.739624 3.621408
256.867798 4.000772
257.006226 14.06813
257.103241 1.0375
257.220367 7.14938
257.475891 4.167298
258.095917 1.838542
258.45932 2.041667
258.923737 5.320076
259.724854 5.104167
260.477722 1.541667
263.014709 2.432598
267.843506 8.301667
268.05368 90.53109
268.305359 4.167201
268.356659 8.003179
268.519104 2.6875
268.835175 9.261905
268.899872 4.153846
269.476471 1.850379
269.646179 10.03713
269.783295 3.002976
270.067871 1243.067017
270.123291 1.604167
270.206665 4.360887
270.233337 10.34809
270.353943 11.83452
270.455963 8.853932
270.526825 2.040064
270.713013 4.818056
270.750305 4.172619
270.841583 3.843202
271.387848 4.030093
271.523224 5.041667
271.746796 2.334105
272.80307 4.851293
273.160492 6.075
273.469879 5.839798
274.627441 7.671474
282.070892 5.55787
284.082825 61.11158
284.825317 2.611111
284.844543 1.183712
285.173431 5.622874
285.196869 2.520833
285.255676 4.602083
285.393219 2.666667
285.54953 4.172024
286.053162 9.111112
286.099762 527.55188
286.455841 7.987654
286.602783 4.100595
286.726471 6.698232
286.823395 9.365319
286.85376 2.8
287.021088 8.130772
287.078339 1.520833
287.486908 3.172348
289.282898 5.140019
293.672089 8.516666
312.48465 14.32105
324.193695 11.70952
336.395538 3.828305
416.780304 5.843161
423.347107 6.340015
435.74939 2.395833
553.37561 12.20513
560.415161 5.0
574.615723 4.336806
655.211182 1.0
695.377197 4.780996
989.153442 15.08645
1192.229248 2.632675
1452.408203 5.000631
1547.743042 2.851974
