>compound MLS002154090-01!Proguanil hydrochloride637-32-1
>formula C11H16ClN5
>ionization [M+H]+
>parentmass 254.117065
#inchi InChI=1S/C11H16ClN5/c1-7(2)15-10(13)17-11(14)16-9-5-3-8(12)4-6-9/h3-7H,1-2H3,(H5,13,14,15,16,17)
#inchikey SSOLNOMRVKKSON
#origInchi InChI=1S/C11H16ClN5.ClH/c1-7(2)15-10(13)17-11(14)16-9-5-3-8(12)4-6-9;/h3-7H,1-2H3,(H5,13,14,15,16,17);1H
#Ion_Source LC-ESI
#Instrument qTof
#Compound_Source NIH Pharmacologically Active Library
#PI Dorrestein
#Data_Collector VP/LMS
#Scan -1
#Precursor_MZ 254.122
#ExactMass 253.109
#Charge 1
#CAS_Number N/A
#Pubmed_ID N/A
#Smiles CC(C)N=C(N)N=C(N)Nc1ccc(Cl)cc1.Cl
#INCHI_AUX N/A
#Library_Class 1
#SpectrumID CCMSLIB00000085607
#IonMode Positive
#UpdateWorkflowName UPDATE-SINGLE-ANNOTATED-GOLD
#LibraryQualityString Gold
#TaskID d252d724072548979f1f6f1ced849daf
##Scan# 1559
#SpectrumFile p4-D04_GD4_01_18364.mzXML
#LibraryName Pharm_Active_Library.mgf
#MQScore -1
#Organism Pharm_Active_Library
#TIC_Query 0
#RT_Query -1
#MZErrorPPM -1
#SharedPeaks 0
#MassDiff 0
#LibMZ -1
#SpecMZ 254.122
#SpecCharge 0
#internalFilename spec-00000.mgf

>collision 10
44.930393 216.0
44.945068 124.0
44.992413 136.0
45.025166 116.0
45.042526 144.0
45.081272 156.0
45.098648 144.0
45.122711 180.0
45.144104 200.0
45.190922 148.0
45.211563 348.0
45.22036 384.0
45.23616 180.0
45.269897 120.0
45.296684 180.0
45.344917 120.0
45.39896 180.0
45.41898 152.0
45.446835 148.0
45.456226 52.0
45.495152 64.0
45.569408 212.0
45.589172 144.0
45.602612 216.0
45.625462 160.0
45.689304 136.0
45.707508 192.0
45.762695 72.0
45.773125 236.0
45.79232 160.0
45.813034 232.0
45.851601 240.0
45.865078 132.0
45.874516 184.0
45.89204 184.0
45.91901 48.0
45.954082 248.0
45.973003 188.0
46.006718 168.0
46.018867 160.0
46.040474 168.0
46.062084 208.0
46.098114 120.0
46.12965 140.0
46.148579 208.0
46.175621 184.0
46.197266 96.0
46.213558 180.0
46.224323 152.0
46.244625 132.0
46.262058 132.0
46.342125 132.0
46.380993 212.0
46.404472 136.0
46.426487 184.0
46.441086 176.0
46.46822 156.0
46.482777 208.0
46.504211 176.0
46.508812 92.0
46.515232 168.0
46.517292 200.0
46.546944 164.0
46.580898 204.0
46.613503 204.0
46.654362 196.0
46.676472 136.0
46.684692 152.0
46.707855 140.0
46.728371 200.0
46.738602 124.0
46.760376 176.0
46.773987 156.0
46.803307 224.0
46.824303 168.0
46.90126 176.0
46.911572 104.0
46.925205 164.0
46.941605 148.0
46.966114 200.0
46.97839 172.0
47.006687 144.0
47.013058 184.0
47.041466 156.0
47.058914 168.0
47.073933 104.0
47.09988 184.0
47.134274 160.0
47.158634 156.0
47.169571 176.0
47.181133 184.0
47.203751 112.0
47.220226 172.0
47.241779 184.0
47.274662 172.0
47.278912 144.0
47.315948 164.0
47.3269 172.0
47.372097 112.0
47.407719 168.0
47.436501 196.0
47.448841 212.0
47.469406 144.0
47.490276 232.0
47.506577 160.0
47.524273 196.0
47.537994 272.0
47.586037 156.0
47.605263 220.0
47.634106 40.0
47.649612 124.0
47.702812 180.0
47.712238 168.0
47.716522 144.0
47.720619 172.0
47.734432 144.0
47.779823 100.0
47.797581 168.0
47.844505 156.0
47.855518 96.0
47.866234 128.0
47.878929 240.0
47.909233 180.0
47.921021 144.0
47.960217 56.0
47.980896 112.0
48.045715 180.0
48.074692 240.0
48.103508 132.0
48.183773 124.0
48.212788 92.0
48.230755 116.0
48.244579 120.0
48.261169 124.0
48.303471 280.0
48.33448 68.0
48.359295 172.0
48.405075 116.0
48.424465 68.0
48.470181 148.0
48.486771 144.0
48.496601 184.0
48.512074 176.0
48.529781 112.0
48.572773 136.0
48.662979 144.0
48.682419 156.0
48.692139 136.0
48.711586 148.0
48.746319 172.0
48.771626 192.0
48.78315 80.0
48.80061 140.0
48.810795 220.0
48.853378 180.0
48.863117 160.0
48.907646 80.0
48.922321 156.0
48.932705 196.0
48.949924 164.0
48.981853 192.0
49.002342 108.0
49.017513 144.0
49.035275 152.0
49.040779 96.0
49.067848 168.0
49.095444 96.0
49.138977 188.0
49.164093 108.0
49.204571 164.0
49.223251 196.0
49.254692 220.0
49.305145 116.0
49.338093 220.0
49.407219 40.0
49.418411 116.0
49.429604 112.0
49.460396 176.0
49.473534 176.0
49.513599 220.0
49.570084 400.0
49.596264 148.0
49.634224 156.0
49.657955 212.0
49.669178 316.0
49.686703 168.0
49.698639 200.0
49.718285 160.0
49.753376 176.0
49.76897 112.0
49.788479 76.0
49.831985 144.0
49.845558 272.0
49.857315 60.0
49.884022 140.0
49.895267 52.0
49.920578 60.0
49.951519 124.0
49.96418 164.0
49.976845 108.0
50.02047 156.0
50.041588 116.0
50.079609 164.0
50.118042 156.0
50.132271 116.0
50.150059 284.0
50.171463 196.0
50.192177 128.0
50.220558 56.0
50.243126 180.0
50.256462 180.0
50.319809 120.0
50.36549 176.0
50.405499 148.0
50.439415 164.0
50.46769 80.0
50.48531 96.0
50.510441 192.0
50.536495 292.0
50.550949 200.0
50.562469 136.0
50.583698 140.0
50.62759 172.0
50.651409 164.0
50.692757 200.0
50.706928 136.0
50.722519 48.0
50.738113 144.0
50.769306 76.0
50.848755 156.0
50.891342 128.0
50.908382 132.0
50.925503 144.0
50.978638 140.0
51.040535 104.0
51.056061 208.0
51.072647 76.0
51.091736 188.0
51.144703 140.0
51.17852 172.0
51.180588 140.0
51.217007 136.0
51.238373 140.0
51.25547 244.0
51.277531 200.0
51.28825 56.0
51.303932 212.0
51.321041 128.0
51.337444 356.0
51.348133 228.0
51.379517 208.0
51.400227 136.0
51.410908 80.0
51.432705 176.0
51.46109 228.0
51.496006 168.0
51.522278 68.0
51.557999 184.0
51.58147 200.0
51.604805 156.0
51.625191 148.0
51.661865 156.0
51.672039 404.0
51.699837 156.0
51.716755 144.0
51.729805 240.0
51.752544 176.0
51.854813 236.0
51.867153 128.0
51.887222 168.0
51.900093 184.0
51.905735 180.0
51.944584 188.0
51.962013 188.0
51.977585 196.0
51.99337 192.0
52.004848 184.0
52.053661 276.0
52.119736 80.0
52.144169 144.0
52.154228 116.0
52.203804 108.0
52.223244 88.0
52.240505 40.0
52.257771 116.0
52.299278 180.0
52.351334 196.0
52.414715 128.0
52.424801 72.0
52.440655 160.0
52.462276 144.0
52.482063 116.0
52.507957 188.0
52.52861 92.0
52.540154 148.0
52.554581 172.0
52.589214 100.0
52.609425 128.0
52.670071 136.0
52.681629 52.0
52.704746 144.0
52.716305 52.0
52.749546 148.0
52.774384 156.0
52.801601 200.0
52.837761 152.0
52.856525 192.0
52.869595 164.0
52.911572 132.0
52.933292 244.0
52.965153 108.0
52.979637 192.0
53.017311 148.0
53.031803 104.0
53.062244 132.0
53.081097 140.0
53.104298 152.0
53.115902 192.0
53.143467 188.0
53.182095 220.0
53.191231 136.0
53.204422 88.0
53.233463 136.0
53.266037 168.0
53.326183 204.0
53.35804 168.0
53.375317 148.0
53.410374 160.0
53.432594 196.0
53.473293 128.0
53.525105 236.0
53.546135 120.0
53.557785 44.0
53.584007 72.0
53.63546 108.0
53.662708 144.0
53.675835 120.0
53.696251 108.0
53.712292 144.0
53.72834 92.0
53.753143 152.0
53.779411 168.0
53.79401 104.0
53.830509 136.0
53.918163 120.0
53.930843 148.0
53.94511 192.0
53.962017 140.0
54.019051 120.0
54.042458 40.0
54.058254 156.0
54.086361 184.0
54.204914 156.0
54.224041 124.0
54.247494 136.0
54.290436 180.0
54.347221 148.0
54.360428 376.0
54.379505 52.0
54.431107 216.0
54.451447 176.0
54.474949 180.0
54.496986 140.0
54.511681 196.0
54.553864 200.0
54.587631 132.0
54.589901 132.0
54.632244 200.0
54.689362 152.0
54.740074 184.0
54.765766 136.0
54.78093 176.0
54.794186 60.0
54.804501 184.0
54.8325 164.0
54.856083 192.0
54.87022 196.0
54.925388 200.0
54.95966 156.0
55.006546 132.0
55.021927 144.0
55.060905 336.0
55.126179 220.0
55.160172 196.0
55.182346 140.0
55.212818 160.0
55.247421 160.0
55.273468 264.0
55.30365 136.0
55.318451 180.0
55.382126 116.0
55.404694 236.0
55.473995 160.0
55.506611 328.0
55.518475 192.0
55.537758 144.0
55.559116 140.0
55.591167 168.0
55.61277 144.0
55.650742 208.0
55.677269 192.0
55.698814 180.0
55.709946 152.0
55.730644 176.0
55.746082 272.0
55.791569 160.0
55.815472 116.0
55.904869 164.0
55.99107 192.0
56.055126 220.0
56.092388 132.0
56.104313 108.0
56.159698 168.0
56.175892 188.0
56.193794 180.0
56.216976 224.0
56.24155 168.0
56.268421 152.0
56.283474 192.0
56.298283 164.0
56.395393 132.0
56.435921 292.0
56.453701 112.0
56.489597 80.0
56.509045 156.0
56.54945 72.0
56.573399 132.0
56.634373 196.0
56.651272 116.0
56.664753 264.0
56.676739 72.0
56.711208 224.0
56.736691 180.0
56.748688 112.0
56.780178 52.0
56.795231 216.0
56.825176 152.0
56.859692 140.0
56.901386 144.0
56.915085 80.0
56.928749 200.0
56.943768 108.0
56.960663 208.0
56.983917 132.0
57.053059 88.0
57.088039 108.0
57.101578 168.0
57.115112 204.0
57.159222 176.0
57.175297 208.0
57.194344 128.0
57.209476 136.0
57.229488 136.0
57.247555 164.0
57.336441 168.0
57.354469 212.0
57.377872 156.0
57.393723 144.0
57.440475 152.0
57.466618 188.0
57.500828 76.0
57.529507 272.0
57.574806 136.0
57.630695 168.0
57.695686 116.0
57.746662 180.0
57.780376 136.0
57.798534 160.0
57.821232 144.0
57.927219 136.0
57.987831 208.0
58.00016 208.0
58.021179 124.0
58.083351 120.0
58.096508 196.0
58.12735 176.0
58.144043 88.0
58.181992 112.0
58.194138 152.0
58.228912 148.0
58.264 216.0
58.289516 212.0
58.299343 184.0
58.341507 108.0
58.435799 112.0
58.46682 196.0
58.486015 108.0
58.534733 152.0
58.559101 148.0
58.574333 168.0
58.592613 148.0
58.613945 144.0
58.636803 192.0
58.648994 180.0
58.664238 120.0
58.676434 180.0
58.694733 136.0
58.740139 176.0
58.752689 220.0
58.799992 128.0
58.810677 52.0
58.825939 100.0
58.848839 212.0
58.874798 120.0
58.890072 160.0
58.945068 152.0
58.96764 200.0
58.975304 148.0
59.001621 208.0
59.022198 184.0
59.050087 184.0
59.06279 120.0
59.117867 96.0
59.143887 112.0
59.165062 120.0
59.178074 144.0
59.220444 144.0
59.277256 188.0
59.324642 212.0
59.369106 328.0
59.387508 312.0
59.398247 176.0
59.476501 132.0
59.511215 144.0
59.609161 148.0
59.619339 256.0
59.642391 212.0
59.703892 108.0
59.74696 168.0
59.777733 156.0
59.811069 212.0
59.8778 184.0
59.905525 160.0
59.927254 160.0
59.938763 160.0
59.959454 140.0
59.997986 176.0
60.071953 216.0
60.107494 128.0
60.151173 140.0
60.201496 152.0
60.224827 228.0
60.238758 192.0
60.261902 128.0
60.305172 108.0
60.325062 184.0
60.371651 140.0
60.408253 168.0
60.42424 188.0
60.436619 80.0
60.495312 188.0
60.526394 100.0
60.555817 176.0
60.580799 184.0
60.666691 152.0
60.773151 224.0
60.812382 168.0
60.856659 96.0
60.886974 188.0
60.91412 124.0
60.932762 124.0
60.981033 128.0
61.044296 180.0
61.139534 168.0
61.155132 140.0
61.169144 152.0
61.246044 196.0
61.301781 196.0
61.324322 160.0
61.343609 240.0
61.359001 188.0
61.40369 128.0
61.420017 112.0
61.434055 148.0
61.444977 160.0
61.46701 196.0
61.52301 160.0
61.546429 132.0
61.568291 84.0
61.594841 192.0
61.654213 212.0
61.669842 168.0
61.694168 192.0
61.716648 136.0
61.756176 148.0
61.771481 212.0
61.84502 92.0
61.895119 132.0
61.929573 132.0
61.9468 76.0
61.959335 100.0
61.97187 160.0
62.00164 128.0
62.039261 144.0
62.051804 84.0
62.098846 156.0
62.188278 128.0
62.221241 108.0
62.252647 168.0
62.30064 292.0
62.322075 160.0
62.348473 164.0
62.410244 176.0
62.45224 104.0
62.489994 208.0
62.501297 88.0
62.516006 264.0
62.540352 100.0
62.562389 184.0
62.581284 140.0
62.595455 204.0
62.608051 188.0
62.632824 236.0
62.657013 144.0
62.669487 48.0
62.682091 148.0
62.698246 208.0
62.762482 148.0
62.779827 112.0
62.808216 172.0
62.839767 208.0
62.871326 36.0
62.921837 76.0
62.937626 172.0
63.005539 84.0
63.051365 132.0
63.065586 200.0
63.093647 224.0
63.100178 168.0
63.102226 204.0
63.192173 344.0
63.209503 172.0
63.254028 208.0
63.293396 176.0
63.350414 120.0
63.400051 220.0
63.420135 160.0
63.46928 64.0
63.493401 152.0
63.577148 100.0
63.602242 148.0
63.616829 168.0
63.6455 136.0
63.708935 156.0
63.718998 144.0
63.770908 96.0
63.804287 160.0
63.83213 196.0
63.846462 344.0
63.881435 320.0
63.917213 156.0
63.933128 60.0
63.96595 164.0
63.990433 164.0
64.028648 116.0
64.041389 168.0
64.095215 180.0
64.112045 120.0
64.13221 212.0
64.148033 160.0
64.230743 256.0
64.267761 108.0
64.30925 108.0
64.333199 52.0
64.381096 184.0
64.406654 112.0
64.451385 196.0
64.516914 136.0
64.552086 172.0
64.571281 140.0
64.611267 104.0
64.648315 156.0
64.699905 192.0
64.750488 180.0
64.755974 176.0
64.761009 220.0
64.809799 120.0
64.880318 136.0
64.905968 156.0
64.933235 128.0
65.019867 152.0
65.132256 176.0
65.146713 140.0
65.23671 116.0
65.272079 164.0
65.394341 112.0
65.413658 56.0
65.441025 196.0
65.463951 176.0
65.478065 148.0
65.498283 248.0
65.523163 160.0
65.589241 112.0
65.606972 160.0
65.632629 160.0
65.670944 160.0
65.681908 204.0
65.698891 100.0
65.718254 136.0
65.750526 160.0
65.819267 144.0
65.838249 308.0
65.866028 320.0
65.900703 236.0
65.929787 124.0
65.958878 160.0
65.986206 204.0
66.061653 216.0
66.078552 136.0
66.191299 212.0
66.282562 156.0
66.30687 172.0
66.319839 160.0
66.336044 188.0
66.379822 84.0
66.397377 136.0
66.454437 128.0
66.532333 108.0
66.546951 232.0
66.564812 144.0
66.650902 60.0
66.667152 176.0
66.698029 160.0
66.714287 52.0
66.729645 188.0
66.750534 164.0
66.777702 60.0
66.836357 148.0
66.87207 176.0
66.902885 120.0
66.920906 108.0
66.985199 192.0
66.999077 192.0
67.077301 36.0
67.100121 192.0
67.111534 68.0
67.181664 188.0
67.219193 200.0
67.246422 228.0
67.267769 116.0
67.325623 164.0
67.341637 156.0
67.3694 124.0
67.431496 168.0
67.500153 120.0
67.560669 176.0
67.572121 136.0
67.590073 136.0
67.601578 188.0
67.632668 136.0
67.663773 180.0
67.692795 216.0
67.699715 156.0
67.703484 208.0
67.803078 256.0
67.839066 160.0
67.885628 60.0
67.916138 212.0
67.935822 148.0
67.952225 156.0
67.975197 84.0
68.016228 172.0
68.052345 148.0
68.091751 80.0
68.113106 168.0
68.13282 180.0
68.153366 132.0
68.172256 72.0
68.183754 172.0
68.223206 212.0
68.244576 168.0
68.279114 188.0
68.328461 192.0
68.371239 56.0
68.384407 92.0
68.422264 108.0
68.443672 156.0
68.486488 64.0
68.588921 120.0
68.628212 188.0
68.648003 200.0
68.676041 152.0
68.765839 216.0
68.786484 124.0
68.806404 172.0
68.824463 136.0
68.86702 152.0
68.891869 176.0
68.980423 176.0
69.004662 264.0
69.035225 136.0
69.1054 136.0
69.125404 188.0
69.173401 128.0
69.201546 160.0
69.216446 140.0
69.229691 164.0
69.259506 112.0
69.291428 416.0
69.408661 60.0
69.426727 152.0
69.466461 212.0
69.501007 160.0
69.521461 168.0
69.674217 92.0
69.702705 136.0
69.74115 144.0
69.795547 176.0
69.860413 148.0
69.875381 176.0
69.94191 156.0
69.966919 152.0
70.006279 144.0
70.022621 212.0
70.081841 168.0
70.1185 148.0
70.130165 152.0
70.165176 104.0
70.176842 48.0
70.203522 136.0
70.257965 180.0
70.365379 212.0
70.402023 156.0
70.420486 164.0
70.433846 168.0
70.4589 168.0
70.478951 80.0
70.5224 164.0
70.534103 208.0
70.560852 108.0
70.594009 168.0
70.616035 128.0
70.673058 176.0
70.704704 120.0
70.726463 120.0
70.744873 144.0
70.773338 144.0
70.845352 172.0
70.964348 136.0
70.992851 152.0
71.014656 196.0
71.101898 164.0
71.169044 112.0
71.194229 196.0
71.218712 160.0
71.262543 192.0
71.268501 244.0
71.29335 84.0
71.387489 136.0
71.415657 128.0
71.478142 184.0
71.482101 164.0
71.488869 224.0
71.528816 140.0
71.571198 160.0
71.600533 188.0
71.622871 172.0
71.665222 152.0
71.702301 176.0
71.774788 140.0
71.786591 168.0
71.862663 132.0
71.891182 160.0
71.908058 128.0
71.924934 132.0
71.955322 144.0
71.96714 260.0
71.983246 140.0
71.999222 56.0
72.041451 136.0
72.063416 152.0
72.09552 212.0
72.121582 180.0
72.149605 224.0
72.196182 176.0
72.219765 204.0
72.240929 44.0
72.257843 208.0
72.284477 200.0
72.342461 328.0
72.35939 76.0
72.384789 232.0
72.396645 224.0
72.433395 212.0
72.479645 108.0
72.515236 152.0
72.533882 204.0
72.562546 268.0
72.588135 136.0
72.63562 96.0
72.655594 176.0
72.707054 272.0
72.739128 152.0
72.751015 188.0
72.824974 228.0
72.837341 172.0
72.878387 176.0
72.920876 192.0
72.956566 196.0
72.976967 148.0
73.010979 184.0
73.022888 124.0
73.060303 144.0
73.147095 208.0
73.172157 172.0
73.222015 228.0
73.233932 156.0
73.290154 100.0
73.314011 180.0
73.329346 120.0
73.368553 180.0
73.402924 152.0
73.437248 168.0
73.508415 324.0
73.534439 160.0
73.561317 164.0
73.582367 356.0
73.600586 152.0
73.612541 260.0
73.626205 72.0
73.63987 180.0
73.696236 92.0
73.710167 188.0
73.72435 176.0
73.744339 164.0
73.764465 204.0
73.793808 192.0
73.841545 128.0
73.92366 92.0
73.985275 120.0
74.03994 156.0
74.042305 224.0
74.058319 140.0
74.06353 92.0
74.123497 160.0
74.148003 128.0
74.177353 192.0
74.213142 144.0
74.271446 148.0
74.298897 44.0
74.338005 152.0
74.39328 188.0
74.408737 64.0
74.479141 116.0
74.525528 100.0
74.580521 144.0
74.621529 196.0
74.675079 152.0
74.694 112.0
74.747337 160.0
74.764542 156.0
74.781487 152.0
74.80069 116.0
74.867836 220.0
74.897118 164.0
74.910309 212.0
74.957413 120.0
74.983658 204.0
74.996681 168.0
75.025368 188.0
75.06118 164.0
75.107407 132.0
75.166451 232.0
75.186775 176.0
75.202301 168.0
75.238556 160.0
75.270195 136.0
75.282455 196.0
75.29554 40.0
75.309357 224.0
75.324898 132.0
75.340446 132.0
75.352539 120.0
75.364632 136.0
75.433762 140.0
75.493568 136.0
75.530739 96.0
75.556549 196.0
75.575577 152.0
75.598076 308.0
75.649269 188.0
75.663849 148.0
75.677696 196.0
75.70887 152.0
75.748802 204.0
75.774689 36.0
75.788551 124.0
75.804802 200.0
75.880638 180.0
75.906418 132.0
75.940926 200.0
75.975792 156.0
76.072975 372.0
76.086098 156.0
76.114647 80.0
76.147606 184.0
76.169632 176.0
76.202339 156.0
76.216942 152.0
76.265976 188.0
76.280258 172.0
76.329521 236.0
76.342285 136.0
76.363152 116.0
76.377068 164.0
76.390984 76.0
76.465805 204.0
76.497139 148.0
76.530212 44.0
76.545883 36.0
76.559814 224.0
76.654465 228.0
76.68177 92.0
76.720116 112.0
76.734062 208.0
76.779404 152.0
76.791611 176.0
76.807304 128.0
76.849174 212.0
76.866623 224.0
76.988457 288.0
77.011528 152.0
77.027245 160.0
77.049957 156.0
77.063934 160.0
77.10762 204.0
77.145638 192.0
77.163559 184.0
77.212517 96.0
77.228256 204.0
77.296486 88.0
77.311195 208.0
77.338486 160.0
77.364746 204.0
77.408516 76.0
77.420776 184.0
77.44664 156.0
77.480331 144.0
77.492592 124.0
77.50486 124.0
77.624527 208.0
77.683685 144.0
77.699478 60.0
77.850426 108.0
77.883797 160.0
77.903122 168.0
77.936501 168.0
77.956474 164.0
77.975159 140.0
77.995422 136.0
78.029655 160.0
78.050751 168.0
78.077126 180.0
78.103508 136.0
78.126381 188.0
78.150047 292.0
78.209084 140.0
78.221405 148.0
78.240768 92.0
78.29007 136.0
78.302399 40.0
78.333328 208.0
78.369339 40.0
78.406342 144.0
78.425728 228.0
78.494484 144.0
78.559746 172.0
78.596794 172.0
78.612679 272.0
78.665627 148.0
78.686813 208.0
78.72612 184.0
78.730873 172.0
78.751015 72.0
78.77243 224.0
78.803696 112.0
78.852859 176.0
78.877632 216.0
78.896477 148.0
78.920776 208.0
78.943726 164.0
78.968697 200.0
78.985916 140.0
79.008186 344.0
79.036766 140.0
79.072159 44.0
79.084549 52.0
79.102249 156.0
79.178558 168.0
79.208496 116.0
79.226212 64.0
79.240387 168.0
79.26342 208.0
79.282913 80.0
79.300636 384.0
79.332542 200.0
79.352043 148.0
79.364456 208.0
79.414108 176.0
79.438942 148.0
79.463852 184.0
79.477974 152.0
79.49572 232.0
79.531067 100.0
79.542664 168.0
79.57914 240.0
79.616432 104.0
79.658867 148.0
79.712265 152.0
79.716362 192.0
79.84391 184.0
79.874146 140.0
79.889694 184.0
79.931076 132.0
79.948875 136.0
79.980911 172.0
80.002274 152.0
80.048561 172.0
80.088669 116.0
80.158409 156.0
80.196434 164.0
80.24456 164.0
80.258827 204.0
80.349792 136.0
80.417595 188.0
80.446159 160.0
80.489777 204.0
80.574738 220.0
80.59082 128.0
80.639069 36.0
80.67482 48.0
80.74276 180.0
80.787483 64.0
80.817894 72.0
80.830421 88.0
80.844673 116.0
80.878738 144.0
80.89843 156.0
80.923492 192.0
81.014832 52.0
81.072716 184.0
81.079338 56.0
81.08522 184.0
81.104431 116.0
81.161797 148.0
81.182579 188.0
81.201248 124.0
81.215599 124.0
81.22995 156.0
81.243126 204.0
81.276596 92.0
81.291351 188.0
81.336624 268.0
81.36454 172.0
81.425591 136.0
81.459717 116.0
81.48185 176.0
81.596298 136.0
81.672066 152.0
81.738388 88.0
81.767181 248.0
81.812187 188.0
81.842789 180.0
81.895294 104.0
81.963379 236.0
81.983292 224.0
82.03376 88.0
82.064407 132.0
82.091454 156.0
82.127525 144.0
82.156944 104.0
82.187057 116.0
82.204567 160.0
82.219543 128.0
82.264832 248.0
82.289421 140.0
82.304955 172.0
82.390953 168.0
82.407738 216.0
82.430824 128.0
82.468781 220.0
82.494919 104.0
82.521202 224.0
82.557365 180.0
82.638763 160.0
82.673714 216.0
82.685814 252.0
82.769356 192.0
82.810738 40.0
82.84697 48.0
82.866898 128.0
82.879578 164.0
82.981079 148.0
83.013718 220.0
83.053619 100.0
83.097153 140.0
83.160667 76.0
83.21035 260.0
83.245186 168.0
83.268822 144.0
83.293617 144.0
83.324532 168.0
83.339539 96.0
83.350327 156.0
83.369522 156.0
83.389519 164.0
83.402237 128.0
83.418602 328.0
83.472008 160.0
83.505875 180.0
83.54953 60.0
83.618675 72.0
83.689674 168.0
83.704239 84.0
83.738838 196.0
83.77803 236.0
83.825218 188.0
83.845345 192.0
83.875496 172.0
83.899193 160.0
83.958946 208.0
83.976456 204.0
84.030228 168.0
84.053154 180.0
84.150963 168.0
84.242279 228.0
84.262375 164.0
84.275162 192.0
84.298912 132.0
84.337296 148.0
84.355019 172.0
84.396561 160.0
84.412254 208.0
84.434196 176.0
84.472603 140.0
84.490898 148.0
84.527496 120.0
84.554604 128.0
84.590782 184.0
84.619011 132.0
84.675774 148.0
84.718712 300.0
84.747223 168.0
84.800362 148.0
84.902061 144.0
84.914436 196.0
84.968216 148.0
85.036064 180.0
85.047974 296.0
85.095703 108.0
85.11039 136.0
85.141609 116.0
85.174667 172.0
85.290428 428.0
85.33271 176.0
85.345581 72.0
85.470657 132.0
85.520348 156.0
85.566368 188.0
85.601349 228.0
85.70266 140.0
85.739517 120.0
85.759789 192.0
85.787437 84.0
85.809563 200.0
85.842751 200.0
85.894394 84.0
85.910606 96.0
85.937897 220.0
85.994026 132.0
86.010643 52.0
86.054947 88.0
86.106651 156.0
86.173149 348.0
86.192963 172.0
86.230438 156.0
86.245224 112.0
86.267403 112.0
86.309929 148.0
86.335815 152.0
86.370956 108.0
86.393158 184.0
86.470871 284.0
86.48938 144.0
86.516777 140.0
86.547325 160.0
86.568993 180.0
86.617142 156.0
86.641228 152.0
86.654198 108.0
86.679314 108.0
86.693573 128.0
86.713417 196.0
86.732025 156.0
86.769104 120.0
86.826584 260.0
86.926758 124.0
86.94532 140.0
86.971306 180.0
86.999031 292.0
87.017715 172.0
87.051132 156.0
87.068398 176.0
87.091995 136.0
87.142151 116.0
87.168159 132.0
87.195602 220.0
87.263779 196.0
87.298286 212.0
87.311302 184.0
87.328041 124.0
87.389435 96.0
87.411758 128.0
87.492958 128.0
87.506149 276.0
87.537346 228.0
87.549118 168.0
87.600632 192.0
87.648247 208.0
87.752625 156.0
87.772781 256.0
87.802971 156.0
87.845345 200.0
87.860359 172.0
87.906219 240.0
87.970123 48.0
88.006371 112.0
88.030647 132.0
88.137115 44.0
88.218323 176.0
88.251137 268.0
88.26796 184.0
88.312843 120.0
88.346519 160.0
88.404518 176.0
88.447563 156.0
88.483131 136.0
88.513092 108.0
88.591751 156.0
88.626801 232.0
88.668121 180.0
88.681694 116.0
88.711685 136.0
88.739807 124.0
88.764183 84.0
88.805443 172.0
88.863594 100.0
88.882362 132.0
88.961182 128.0
88.996277 540.0
89.015427 180.0
89.030655 400.0
89.070099 168.0
89.147125 172.0
89.199753 164.0
89.23912 132.0
89.251038 172.0
89.299408 180.0
89.316338 64.0
89.387825 84.0
89.406647 144.0
89.449593 132.0
89.470367 216.0
89.502655 176.0
89.538429 184.0
89.647354 176.0
89.666542 372.0
89.711479 208.0
89.732849 160.0
89.764572 112.0
89.783432 136.0
89.796631 164.0
89.823036 164.0
89.838127 176.0
89.85511 128.0
89.879822 164.0
89.906052 124.0
89.936661 148.0
90.002327 184.0
90.017433 184.0
90.032707 180.0
90.057686 140.0
90.125099 112.0
90.147774 88.0
90.176125 172.0
90.242287 116.0
90.270653 228.0
90.296677 168.0
90.336845 96.0
90.377907 176.0
90.401062 132.0
90.451408 160.0
90.493927 116.0
90.509071 104.0
90.529251 244.0
90.546944 196.0
90.615143 64.0
90.689049 144.0
90.748451 344.0
90.772461 376.0
90.795219 88.0
90.857811 124.0
90.884377 48.0
90.912834 240.0
90.935356 120.0
90.941742 104.0
90.945633 144.0
90.996353 164.0
91.038872 280.0
91.097008 96.0
91.112206 28.0
91.132439 160.0
91.163506 132.0
91.225296 300.0
91.256653 164.0
91.273766 52.0
91.316101 224.0
91.333961 196.0
91.363579 160.0
91.409157 336.0
91.434128 160.0
91.447906 104.0
91.467819 160.0
91.490173 172.0
91.526833 104.0
91.543968 180.0
91.567917 188.0
91.576279 108.0
91.579041 184.0
91.597298 120.0
91.626083 224.0
91.644928 100.0
91.688759 192.0
91.812675 116.0
91.847008 36.0
91.868584 308.0
91.902077 152.0
91.940697 152.0
91.974846 140.0
91.993935 160.0
92.020668 212.0
92.047272 624.0
92.080338 128.0
92.100868 224.0
92.129524 176.0
92.154358 152.0
92.200218 128.0
92.236534 304.0
92.261383 140.0
92.295799 136.0
92.309189 156.0
92.335899 216.0
92.404243 132.0
92.439262 208.0
92.454575 76.0
92.475891 200.0
92.531136 176.0
92.554115 168.0
92.56752 48.0
92.60582 148.0
92.626892 212.0
92.644135 76.0
92.724609 328.0
92.768692 108.0
92.810875 140.0
92.872238 160.0
92.912521 104.0
92.927132 148.0
92.939941 220.0
92.959297 192.0
92.987358 164.0
93.014084 156.0
93.038132 320.0
93.057739 11104.0
93.089691 288.0
93.097603 360.0
93.128426 160.0
93.135399 76.0
93.142014 168.0
93.167473 100.0
93.19091 232.0
93.210121 88.0
93.256248 56.0
93.297699 220.0
93.342758 100.0
93.369148 172.0
93.390839 144.0
93.427383 128.0
93.485107 96.0
93.502426 136.0
93.550552 224.0
93.602531 164.0
93.660309 48.0
93.741226 192.0
93.775917 148.0
93.827965 164.0
93.877029 80.0
93.891594 164.0
93.912811 76.0
93.955246 168.0
93.991905 168.0
94.043449 356.0
94.060638 1384.0
94.09034 244.0
94.18927 192.0
94.212006 128.0
94.24292 144.0
94.266106 144.0
94.318291 52.0
94.345352 172.0
94.37693 156.0
94.410019 140.0
94.490585 204.0
94.521355 68.0
94.584396 264.0
94.592758 152.0
94.598 160.0
94.633713 160.0
94.668076 232.0
94.695587 168.0
94.740135 28.0
94.7537 172.0
94.788574 232.0
94.842842 60.0
94.868225 124.0
94.930084 128.0
94.945595 164.0
94.963051 160.0
95.011703 200.0
95.042587 164.0
95.087227 60.0
95.1241 120.0
95.156174 192.0
95.215363 192.0
95.234779 100.0
95.260643 204.0
95.307434 120.0
95.335808 120.0
95.36718 192.0
95.392578 152.0
95.434944 228.0
95.451447 320.0
95.495842 216.0
95.522461 192.0
95.551186 188.0
95.579079 284.0
95.615852 120.0
95.676193 228.0
95.724869 212.0
95.812515 140.0
95.826157 128.0
95.861229 180.0
95.898254 168.0
95.935295 120.0
95.979271 144.0
95.986298 176.0
96.030838 88.0
96.06395 156.0
96.081558 120.0
96.101067 116.0
96.134964 216.0
96.153175 176.0
96.2006 220.0
96.229881 208.0
96.268677 152.0
96.284561 248.0
96.329483 196.0
96.386375 200.0
96.408165 192.0
96.433044 180.0
96.474091 136.0
96.493645 180.0
96.55426 136.0
96.570595 148.0
96.59877 164.0
96.669678 216.0
96.731079 260.0
96.755798 148.0
96.779297 124.0
96.810623 156.0
96.826294 152.0
96.900726 136.0
96.949715 164.0
96.963432 188.0
96.992836 192.0
97.016357 80.0
97.03479 72.0
97.104599 44.0
97.126167 104.0
97.171288 48.0
97.192871 180.0
97.226875 196.0
97.241936 108.0
97.263527 180.0
97.302788 140.0
97.330917 268.0
97.373474 156.0
97.39608 212.0
97.412758 104.0
97.452049 140.0
97.477592 120.0
97.50528 136.0
97.532623 64.0
97.61071 156.0
97.640762 192.0
97.668297 212.0
97.772575 156.0
97.807999 116.0
97.829659 180.0
97.937798 148.0
98.030663 148.0
98.073914 132.0
98.135025 140.0
98.16066 216.0
98.215408 184.0
98.350914 192.0
98.365845 200.0
98.383606 60.0
98.472466 100.0
98.559387 168.0
98.581123 176.0
98.610771 312.0
98.636604 164.0
98.703682 120.0
98.729393 240.0
98.778038 168.0
98.782791 100.0
98.789528 168.0
98.830276 180.0
98.872063 168.0
98.913391 120.0
98.939972 188.0
98.972298 212.0
98.977112 176.0
98.99971 3276.0
99.065872 192.0
99.090569 180.0
99.137199 160.0
99.246223 400.0
99.289848 116.0
99.317612 160.0
99.344315 192.0
99.375504 176.0
99.452538 100.0
99.510109 256.0
99.560593 132.0
99.599472 228.0
99.6213 168.0
99.655998 176.0
99.667595 192.0
99.692848 132.0
99.732056 160.0
99.77037 52.0
99.789543 284.0
99.816101 136.0
99.843941 152.0
99.921242 180.0
100.003525 396.0
100.021011 308.0
100.03495 204.0
100.093445 136.0
100.128532 36.0
100.184303 356.0
100.240089 156.0
100.295891 88.0
100.331779 192.0
100.345734 136.0
100.399567 144.0
100.449432 180.0
100.511276 112.0
100.569153 112.0
100.58712 156.0
100.67421 168.0
100.698936 152.0
100.802818 140.0
100.848785 160.0
100.870377 184.0
100.906754 144.0
100.92675 96.0
100.950745 164.0
100.996498 1616.0
101.026749 208.0
101.040497 156.0
101.082413 180.0
101.114792 196.0
101.205215 184.0
101.24292 164.0
101.337059 108.0
101.353088 148.0
101.371124 188.0
101.38855 156.0
101.415215 180.0
101.429245 120.0
101.461319 168.0
101.497414 160.0
101.553566 96.0
101.595459 176.0
101.630501 204.0
101.730141 88.0
101.826523 212.0
101.846603 184.0
101.892807 196.0
101.929947 140.0
101.953087 152.0
101.985245 148.0
102.000511 332.0
102.025452 132.0
102.049576 56.0
102.075714 200.0
102.103424 10056.0
102.148384 240.0
102.174271 180.0
102.188354 132.0
102.212502 124.0
102.234726 268.0
102.261543 184.0
102.299248 176.0
102.33931 116.0
102.379578 152.0
102.406525 92.0
102.435745 140.0
102.466194 168.0
102.484329 124.0
102.595177 128.0
102.621384 96.0
102.639526 164.0
102.669777 156.0
102.7202 136.0
102.748444 140.0
102.780617 144.0
102.806961 124.0
102.883659 144.0
102.959076 160.0
102.998764 176.0
103.051285 88.0
103.074585 136.0
103.104362 480.0
103.158051 152.0
103.174187 148.0
103.241295 184.0
103.273659 108.0
103.310066 140.0
103.356598 160.0
103.423386 216.0
103.467918 128.0
103.490189 152.0
103.54541 164.0
103.562935 152.0
103.603607 132.0
103.643112 192.0
103.660339 176.0
103.684654 168.0
103.732117 112.0
103.774887 140.0
103.802231 136.0
103.841934 152.0
103.860664 168.0
103.868439 124.0
103.936745 204.0
104.005112 60.0
104.038132 120.0
104.076164 64.0
104.094437 168.0
104.125435 184.0
104.198029 140.0
104.29557 148.0
104.460274 124.0
104.494858 100.0
104.513 144.0
104.557938 128.0
104.596909 276.0
104.680084 152.0
104.714752 180.0
104.775146 220.0
104.802299 268.0
104.826752 112.0
104.857323 100.0
104.906242 144.0
105.018394 292.0
105.049187 204.0
105.067345 156.0
105.096512 164.0
105.109497 140.0
105.158356 200.0
105.172035 172.0
105.204079 220.0
105.224495 180.0
105.259209 204.0
105.275543 76.0
105.351151 204.0
105.371544 140.0
105.396065 136.0
105.414108 164.0
105.426575 116.0
105.451241 100.0
105.477806 228.0
105.491623 400.0
105.584351 256.0
105.640923 120.0
105.670044 184.0
105.689308 144.0
105.718033 136.0
105.760078 120.0
105.809303 172.0
105.867554 308.0
105.897263 116.0
105.960762 112.0
105.985352 80.0
106.065941 160.0
106.078796 128.0
106.107933 124.0
106.134979 96.0
106.186249 196.0
106.276512 164.0
106.305237 204.0
106.383621 148.0
106.49411 184.0
106.514656 164.0
106.53109 172.0
106.557793 40.0
106.633827 176.0
106.672562 208.0
106.761482 172.0
106.7798 144.0
106.827103 72.0
106.845619 136.0
106.874428 152.0
106.905289 188.0
106.923813 176.0
106.983505 96.0
107.007141 172.0
107.065475 168.0
107.153908 172.0
107.189468 140.0
107.214195 80.0
107.24511 188.0
107.273964 108.0
107.292885 136.0
107.329636 80.0
107.37706 152.0
107.406586 140.0
107.445137 196.0
107.480209 156.0
107.507034 180.0
107.587532 180.0
107.624695 180.0
107.668564 132.0
107.762848 176.0
107.771553 156.0
107.823006 156.0
107.92276 124.0
107.994606 140.0
108.022392 636.0
108.0513 192.0
108.09391 180.0
108.123665 116.0
108.162209 84.0
108.228455 136.0
108.259285 144.0
108.292656 104.0
108.349258 160.0
108.398308 208.0
108.426346 220.0
108.448051 112.0
108.470848 176.0
108.632042 180.0
108.697029 136.0
108.724312 156.0
108.744644 184.0
108.80899 148.0
108.860901 128.0
108.902237 164.0
108.926659 168.0
108.998001 144.0
109.022934 180.0
109.044167 208.0
109.064507 92.0
109.087227 60.0
109.114395 160.0
109.131027 156.0
109.203812 60.0
109.22187 152.0
109.261513 168.0
109.28286 188.0
109.297424 140.0
109.316154 176.0
109.345306 220.0
109.478004 128.0
109.516533 144.0
109.549347 208.0
109.573074 164.0
109.647278 132.0
109.747337 72.0
109.776527 96.0
109.797379 220.0
109.839096 140.0
109.855782 36.0
109.910309 164.0
109.970551 212.0
110.00341 172.0
110.012161 128.0
110.01693 164.0
110.085373 132.0
110.20768 376.0
110.275482 124.0
110.308929 216.0
110.417656 148.0
110.438568 136.0
110.453209 160.0
110.507607 192.0
110.572472 76.0
110.601776 156.0
110.685516 88.0
110.788139 216.0
110.855186 120.0
110.891693 144.0
110.906746 160.0
110.957893 48.0
111.00074 13676.0
111.049942 208.0
111.098061 96.0
111.127937 148.0
111.150856 84.0
111.167648 136.0
111.184433 120.0
111.20752 72.0
111.232712 124.0
111.293594 196.0
111.316689 116.0
111.346092 40.0
111.362892 100.0
111.381798 72.0
111.402802 136.0
111.567467 236.0
111.59079 196.0
111.640312 120.0
111.665543 48.0
111.716026 144.0
111.747581 44.0
111.772835 56.0
111.799263 172.0
111.829659 204.0
111.848595 156.0
111.86544 252.0
111.882103 144.0
111.953865 196.0
112.00518 708.0
112.033905 72.0
112.053879 108.0
112.066605 108.0
112.092903 44.0
112.109756 52.0
112.198288 268.0
112.227806 140.0
112.255219 116.0
112.291069 140.0
112.329033 108.0
112.348015 160.0
112.447189 124.0
112.485184 140.0
112.544296 160.0
112.567528 132.0
112.587219 196.0
112.68792 112.0
112.728065 140.0
112.751312 132.0
112.774567 200.0
112.80838 76.0
112.84877 196.0
112.886612 84.0
112.909874 88.0
112.949036 132.0
112.997818 2668.0
113.017761 352.0
113.03257 136.0
113.047386 32.0
113.064316 156.0
113.16317 104.0
113.183289 148.0
113.199799 196.0
113.218857 72.0
113.246391 172.0
113.26757 100.0
113.288864 160.0
113.324768 156.0
113.376709 188.0
113.421516 196.0
113.48716 272.0
113.514328 176.0
113.533882 140.0
113.604622 188.0
113.627289 184.0
113.705307 208.0
113.724442 128.0
113.758987 172.0
113.829597 36.0
113.941666 204.0
113.986328 204.0
114.002518 228.0
114.046295 148.0
114.061172 124.0
114.082428 132.0
114.101562 60.0
114.148186 220.0
114.203636 220.0
114.218521 44.0
114.252556 144.0
114.293335 220.0
114.335541 120.0
114.387764 252.0
114.410042 140.0
114.478172 60.0
114.49308 96.0
114.51651 44.0
114.554848 88.0
114.582542 228.0
114.637947 156.0
114.652863 104.0
114.688026 168.0
114.88446 188.0
114.957817 176.0
114.994202 1436.0
115.033234 84.0
115.061806 184.0
115.069519 132.0
115.190956 184.0
115.266754 160.0
115.293091 152.0
115.334084 248.0
115.41494 196.0
115.439133 64.0
115.547546 76.0
115.59462 140.0
115.608978 196.0
115.645981 196.0
115.682373 144.0
115.702339 248.0
115.721901 276.0
115.797997 136.0
115.821556 160.0
115.97879 296.0
116.010124 128.0
116.04657 80.0
116.078735 152.0
116.104469 160.0
116.125916 176.0
116.147362 112.0
116.218391 148.0
116.243912 172.0
116.32547 112.0
116.366257 108.0
116.381287 216.0
116.402756 192.0
116.462234 196.0
116.486519 140.0
116.538559 180.0
116.61544 148.0
116.684227 104.0
116.7043 120.0
116.7939 164.0
116.873497 196.0
116.91008 184.0
116.929451 124.0
116.990967 600.0
117.042969 560.0
117.077995 224.0
117.142616 148.0
117.198631 260.0
117.24173 180.0
117.407722 148.0
117.458366 160.0
117.548172 192.0
117.595909 124.0
117.604454 152.0
117.625641 120.0
117.662338 156.0
117.689804 180.0
117.748917 128.0
117.783508 180.0
117.801712 60.0
117.874428 208.0
117.897781 168.0
117.956139 108.0
117.990005 120.0
118.008354 104.0
118.052795 21000.0
118.079117 196.0
118.137779 132.0
118.165909 52.0
118.245972 132.0
118.260147 132.0
118.276276 36.0
118.310905 88.0
118.326065 152.0
118.380081 144.0
118.417381 116.0
118.471329 184.0
118.564331 68.0
118.664497 192.0
118.6894 144.0
118.713913 44.0
118.783813 176.0
118.809349 40.0
118.833008 164.0
118.839195 148.0
118.930244 292.0
118.97863 108.0
119.055656 1632.0
119.097015 172.0
119.148026 124.0
119.317535 156.0
119.33493 52.0
119.378418 176.0
119.421913 132.0
119.480652 164.0
119.539398 120.0
119.562775 124.0
119.571091 92.0
119.575256 176.0
119.632179 76.0
119.66037 200.0
119.676529 172.0
119.737503 156.0
119.783066 148.0
119.80938 228.0
119.848595 204.0
119.86821 52.0
119.885643 68.0
119.913559 168.0
119.957565 176.0
119.982155 144.0
120.018608 64.0
120.053497 136.0
120.090096 240.0
120.153267 184.0
120.157623 136.0
120.167397 148.0
120.254211 156.0
120.339348 80.0
120.356819 88.0
120.423355 256.0
120.48349 188.0
120.56871 88.0
120.616791 120.0
120.682381 252.0
120.730484 60.0
120.750168 116.0
120.839851 132.0
120.917458 428.0
120.981079 196.0
120.997437 152.0
121.054108 200.0
121.100868 168.0
121.166069 148.0
121.183594 56.0
121.225227 40.0
121.255913 136.0
121.336395 184.0
121.369904 168.0
121.404991 164.0
121.428825 152.0
121.453239 152.0
121.501495 164.0
121.515854 96.0
121.534409 200.0
121.583603 344.0
121.692436 172.0
121.727638 128.0
121.778862 124.0
121.798775 124.0
121.859207 168.0
121.885727 180.0
121.929176 140.0
121.956055 28.0
121.98616 184.0
122.019798 220.0
122.066948 208.0
122.08802 164.0
122.124962 156.0
122.191345 160.0
122.222153 128.0
122.241959 80.0
122.274963 56.0
122.301376 184.0
122.349808 112.0
122.373215 240.0
122.394051 196.0
122.459831 232.0
122.545815 176.0
122.587685 168.0
122.643456 208.0
122.678047 228.0
122.726555 172.0
122.755219 208.0
122.786095 156.0
122.843857 232.0
122.874329 132.0
122.900803 164.0
122.997902 208.0
123.028809 184.0
123.065659 168.0
123.114098 140.0
123.163513 152.0
123.228043 208.0
123.278397 140.0
123.298286 84.0
123.313759 36.0
123.336861 212.0
123.355751 164.0
123.420815 168.0
123.434547 200.0
123.470726 104.0
123.548019 140.0
123.623375 132.0
123.676491 140.0
123.724564 156.0
123.845459 140.0
123.889069 132.0
123.92466 188.0
123.972 288.0
123.995178 280.0
124.024239 144.0
124.108482 116.0
124.124001 160.0
124.163918 200.0
124.179443 164.0
124.288147 60.0
124.310333 140.0
124.343224 176.0
124.374695 128.0
124.392784 212.0
124.423531 96.0
124.441292 164.0
124.495308 196.0
124.55455 52.0
124.612312 152.0
124.634529 168.0
124.658974 124.0
124.67897 164.0
124.698975 148.0
124.723427 72.0
124.748474 148.0
124.775368 140.0
124.806976 296.0
124.852379 192.0
124.903534 180.0
124.919106 200.0
124.992821 180.0
125.010643 168.0
125.034805 112.0
125.179504 204.0
125.201775 148.0
125.297554 148.0
125.392014 164.0
125.430824 364.0
125.460243 172.0
125.478081 112.0
125.51516 228.0
125.526314 120.0
125.532364 184.0
125.55835 164.0
125.652473 248.0
125.681046 84.0
125.721581 120.0
125.74308 200.0
125.794861 156.0
125.810493 164.0
125.865059 208.0
125.92765 324.0
125.946709 148.0
125.971848 324.0
126.011108 32140.0
126.090683 164.0
126.136635 120.0
126.156754 116.0
126.224167 216.0
126.25737 176.0
126.277321 196.0
126.282516 180.0
126.300949 116.0
126.320541 112.0
126.346115 172.0
126.402679 88.0
126.405373 124.0
126.427391 100.0
126.458725 60.0
126.49678 180.0
126.552002 180.0
126.602013 72.0
126.675491 164.0
126.704796 184.0
126.735199 160.0
126.787949 80.0
126.825478 156.0
126.920212 224.0
126.935745 168.0
126.949974 132.0
127.014999 1912.0
127.037529 312.0
127.065437 176.0
127.097 708.0
127.123566 140.0
127.132851 176.0
127.137093 152.0
127.241051 100.0
127.261261 192.0
127.290451 148.0
127.330872 180.0
127.360069 196.0
127.384781 52.0
127.440948 152.0
127.461166 212.0
127.481758 196.0
127.521843 136.0
127.566803 140.0
127.59153 160.0
127.645584 188.0
127.665726 108.0
127.699226 136.0
127.742203 84.0
127.75853 124.0
127.778198 240.0
127.830505 160.0
127.856186 224.0
127.877655 60.0
127.924477 124.0
127.941574 148.0
127.959557 148.0
127.966377 124.0
127.980812 172.0
128.026718 51612.0
128.098419 240.0
128.148727 132.0
128.173569 252.0
128.229477 296.0
128.2556 44.0
128.27594 100.0
128.326675 144.0
128.354797 128.0
128.372833 44.0
128.396896 260.0
128.428253 92.0
128.447266 76.0
128.469818 28.0
128.502838 76.0
128.519455 116.0
128.553299 68.0
128.610077 76.0
128.663895 28.0
128.693253 152.0
128.718094 36.0
128.751968 112.0
128.779404 132.0
128.832825 184.0
128.86264 164.0
128.907837 116.0
128.934952 96.0
128.966599 124.0
129.01207 1912.0
129.028854 2372.0
129.147476 76.0
129.188812 228.0
129.242493 136.0
129.276443 76.0
129.29454 100.0
129.347107 160.0
129.369232 156.0
129.391876 136.0
129.420212 140.0
129.443954 128.0
129.523224 180.0
129.5504 60.0
129.60025 176.0
129.625168 188.0
129.688629 164.0
129.722626 80.0
129.752106 172.0
129.770844 104.0
129.850067 276.0
129.880569 228.0
129.91539 116.0
129.931259 116.0
129.948578 228.0
129.965149 140.0
129.986328 148.0
130.023376 16288.0
130.082886 108.0
130.097244 144.0
130.111877 48.0
130.115997 80.0
130.165039 152.0
130.185776 124.0
130.192978 172.0
130.21727 96.0
130.260437 96.0
130.290955 64.0
130.328583 128.0
130.346771 40.0
130.468842 124.0
130.552689 116.0
130.580917 40.0
130.61853 156.0
130.637787 148.0
130.659637 212.0
130.678741 48.0
130.703842 108.0
130.724243 52.0
130.810898 112.0
130.864227 156.0
130.91774 164.0
130.976959 168.0
131.006683 684.0
131.028152 1560.0
131.043991 288.0
131.099991 60.0
131.218521 148.0
131.248856 280.0
131.25827 64.0
131.266876 172.0
131.309723 92.0
131.356628 128.0
131.426071 96.0
131.473984 140.0
131.620514 192.0
131.646667 208.0
131.663467 116.0
131.709152 124.0
131.738846 128.0
131.84166 104.0
131.896515 188.0
131.921661 144.0
131.978821 204.0
132.010834 164.0
132.049103 120.0
132.09317 100.0
132.159515 200.0
132.312866 168.0
132.422775 160.0
132.44339 140.0
132.461716 188.0
132.49379 164.0
132.527145 136.0
132.615234 108.0
132.640442 128.0
132.658783 144.0
132.699005 264.0
132.768845 36.0
132.888123 152.0
132.908768 128.0
132.966141 168.0
133.096985 148.0
133.209518 92.0
133.232498 296.0
133.273849 68.0
133.361176 148.0
133.390701 104.0
133.425537 172.0
133.471527 220.0
133.522125 148.0
133.54895 196.0
133.609528 148.0
133.662445 140.0
133.685455 160.0
133.726761 144.0
133.824997 244.0
133.850067 180.0
133.906464 188.0
133.966354 200.0
134.01474 76.0
134.071915 520.0
134.162231 172.0
134.188599 168.0
134.217575 156.0
134.256775 60.0
134.327164 200.0
134.411331 204.0
134.457474 48.0
134.501328 160.0
134.558472 96.0
134.621384 128.0
134.642181 124.0
134.695297 208.0
134.77153 128.0
134.817749 176.0
134.887085 140.0
135.007309 104.0
135.051254 280.0
135.19371 140.0
135.278015 80.0
135.328949 68.0
135.361374 116.0
135.593033 124.0
135.646347 128.0
135.667206 156.0
135.728226 164.0
135.794739 148.0
135.88739 132.0
135.939514 212.0
136.005875 176.0
136.075516 188.0
136.119629 148.0
136.163361 184.0
136.196274 92.0
136.219498 84.0
136.247955 196.0
136.377502 100.0
136.398422 176.0
136.414703 124.0
136.436264 160.0
136.500732 84.0
136.547241 148.0
136.589096 144.0
136.607712 180.0
136.663544 120.0
136.731812 168.0
136.746735 224.0
136.889328 184.0
136.92659 180.0
137.000351 160.0
137.036072 216.0
137.156174 172.0
137.230011 176.0
137.257507 112.0
137.278488 52.0
137.313477 56.0
137.381119 220.0
137.408737 148.0
137.438034 212.0
137.48378 212.0
137.500122 60.0
137.782654 136.0
137.799011 256.0
137.814774 156.0
137.84964 352.0
137.871445 172.0
137.929871 184.0
138.00235 132.0
138.07016 164.0
138.091217 148.0
138.109924 72.0
138.159042 136.0
138.187119 136.0
138.238602 72.0
138.269028 48.0
138.2854 136.0
138.308807 140.0
138.376694 52.0
138.394592 200.0
138.507843 172.0
138.531265 232.0
138.547668 224.0
138.587646 176.0
138.615616 92.0
138.704666 144.0
138.824234 140.0
138.882294 144.0
138.939667 188.0
138.974365 88.0
139.005402 8680.0
139.049454 56.0
139.136307 80.0
139.185547 132.0
139.244324 44.0
139.279846 160.0
139.307739 124.0
139.354721 56.0
139.439316 168.0
139.469711 164.0
139.502792 48.0
139.569916 196.0
139.600647 148.0
139.665131 192.0
139.717957 176.0
139.829727 236.0
139.89328 68.0
140.008682 540.0
140.036926 76.0
140.058121 88.0
140.08638 56.0
140.158722 148.0
140.217453 96.0
140.271255 240.0
140.374924 216.0
140.409302 132.0
140.492706 212.0
140.529602 160.0
140.581512 76.0
140.616913 64.0
140.649963 184.0
140.674088 288.0
140.703705 256.0
140.730225 84.0
140.755219 136.0
140.878601 208.0
140.897919 172.0
140.935715 148.0
140.956985 180.0
141.002747 2096.0
141.046783 104.0
141.076675 116.0
141.098801 196.0
141.128998 196.0
141.173782 168.0
141.271439 152.0
141.347137 156.0
141.363708 168.0
141.468063 180.0
141.500992 204.0
141.541245 388.0
141.609924 168.0
141.640717 52.0
141.662033 204.0
141.703323 120.0
141.725998 36.0
141.782867 88.0
141.806564 140.0
141.92984 108.0
142.007935 112.0
142.067398 196.0
142.115952 88.0
142.259613 188.0
142.317184 164.0
142.340347 128.0
142.378342 176.0
142.418716 124.0
142.450592 76.0
142.467545 268.0
142.492355 136.0
142.523239 200.0
142.669846 228.0
142.705597 172.0
142.752274 160.0
142.772079 176.0
142.867981 136.0
142.901855 84.0
142.96315 156.0
142.990173 188.0
143.017899 196.0
143.050049 456.0
143.09169 36.0
143.148834 196.0
143.220291 132.0
143.253632 144.0
143.306046 172.0
143.384689 180.0
143.43866 136.0
143.511017 44.0
143.584946 120.0
143.616989 68.0
143.704208 160.0
143.878754 212.0
143.935745 124.0
144.029144 148.0
144.052765 160.0
144.107712 172.0
144.200363 156.0
144.278595 212.0
144.32283 148.0
144.339569 152.0
144.356308 152.0
144.399353 172.0
144.442413 108.0
144.472885 200.0
144.599106 196.0
144.676926 64.0
144.89006 152.0
144.945175 252.0
144.985901 160.0
145.053207 204.0
145.093765 160.0
145.201675 220.0
145.271225 132.0
145.314423 148.0
145.451202 52.0
145.468002 136.0
145.500504 164.0
145.554443 108.0
145.609665 152.0
145.63063 132.0
145.724609 132.0
145.776123 180.0
145.813889 176.0
145.869171 152.0
145.941284 184.0
145.965332 132.0
146.010666 136.0
146.042404 176.0
146.08078 156.0
146.107239 208.0
146.136108 140.0
146.222748 112.0
146.274521 140.0
146.36087 212.0
146.439423 164.0
146.456284 104.0
146.487762 180.0
146.550232 176.0
146.648819 128.0
146.892578 236.0
146.945648 224.0
147.005966 184.0
147.074341 172.0
147.094528 180.0
147.19426 196.0
147.255035 48.0
147.351257 164.0
147.429779 200.0
147.539764 164.0
147.583282 208.0
147.600204 164.0
147.626816 144.0
147.665649 132.0
147.752579 200.0
147.796341 184.0
147.844528 40.0
147.98735 92.0
148.013977 140.0
148.149612 148.0
148.251373 116.0
148.338623 88.0
148.389542 116.0
148.411362 40.0
148.44046 84.0
148.471985 132.0
148.55687 208.0
148.656357 100.0
148.746155 172.0
148.787415 160.0
148.855408 184.0
148.936569 180.0
148.978439 116.0
149.018143 152.0
149.049728 68.0
149.091049 148.0
149.110489 200.0
149.171249 104.0
149.19899 252.0
149.220642 152.0
149.268509 64.0
149.285522 96.0
149.426605 192.0
149.587219 160.0
149.701645 128.0
149.801514 160.0
149.838058 184.0
149.879471 160.0
149.93605 164.0
149.943817 148.0
149.9534 224.0
149.994019 140.0
150.03302 132.0
150.075058 148.0
150.125015 224.0
150.157379 64.0
150.242752 212.0
150.303741 164.0
150.323273 208.0
150.401367 144.0
150.462387 60.0
150.489868 156.0
150.5625 200.0
150.586929 128.0
150.616241 140.0
150.647995 140.0
150.684631 164.0
150.7164 212.0
150.809265 304.0
150.828827 180.0
150.872452 136.0
150.953506 84.0
151.005341 3080.0
151.144302 152.0
151.175827 200.0
151.251984 140.0
151.286835 168.0
151.343231 144.0
151.412125 148.0
151.435623 104.0
151.46257 200.0
151.52626 164.0
151.670837 116.0
151.700256 160.0
151.793427 176.0
151.871902 36.0
151.930664 168.0
151.977386 132.0
152.010147 160.0
152.063278 132.0
152.13446 172.0
152.166382 240.0
152.195587 208.0
152.230225 40.0
152.291 176.0
152.313721 128.0
152.383911 164.0
152.43689 188.0
152.456375 124.0
152.472229 192.0
152.496231 132.0
152.515213 192.0
152.535004 108.0
152.556183 140.0
152.580551 124.0
152.619308 484.0
152.639755 164.0
152.645981 196.0
152.664383 172.0
152.689774 140.0
152.711212 156.0
152.720169 224.0
152.751266 164.0
152.78067 176.0
152.806381 228.0
152.824631 240.0
152.857422 324.0
152.886932 348.0
152.928787 192.0
152.947983 196.0
153.022324 195640.0
153.09433 156.0
153.115799 236.0
153.184326 136.0
153.189911 180.0
153.218994 172.0
153.226028 124.0
153.249649 264.0
153.273071 156.0
153.301788 108.0
153.317902 140.0
153.356476 88.0
153.3759 128.0
153.399948 172.0
153.427689 2212.0
153.46669 80.0
153.484161 48.0
153.492828 96.0
153.520554 212.0
153.552689 224.0
153.569946 208.0
153.597641 40.0
153.627258 176.0
153.657928 112.0
153.684479 60.0
153.703354 132.0
153.758392 80.0
153.763321 128.0
153.788681 312.0
153.823853 88.0
153.842758 56.0
153.878952 116.0
153.920532 296.0
153.954346 96.0
153.983597 64.0
154.024338 19372.0
154.091019 148.0
154.121536 104.0
154.156357 200.0
154.190384 152.0
154.207352 128.0
154.236359 184.0
154.26535 76.0
154.285126 60.0
154.344467 128.0
154.409851 76.0
154.43103 196.0
154.453278 168.0
154.513474 156.0
154.533035 128.0
154.559128 164.0
154.587509 352.0
154.636383 84.0
154.680817 80.0
154.700729 116.0
154.772537 56.0
154.791153 248.0
154.805618 144.0
154.826065 408.0
154.846512 64.0
154.875244 356.0
154.898071 100.0
154.929718 172.0
154.952103 272.0
154.968384 164.0
155.019073 69332.0
155.074661 96.0
155.107162 120.0
155.140152 288.0
155.165237 192.0
155.186035 212.0
155.190109 120.0
155.211563 316.0
155.234497 112.0
155.243759 240.0
155.280655 88.0
155.326981 240.0
155.351135 88.0
155.371704 96.0
155.426422 204.0
155.477036 40.0
155.495026 84.0
155.539551 52.0
155.570862 88.0
155.621475 52.0
155.657761 64.0
155.682587 76.0
155.719849 64.0
155.754623 40.0
155.789398 96.0
155.82576 256.0
155.844055 28.0
155.882339 68.0
155.93425 48.0
155.96582 48.0
156.021286 3112.0
156.062012 72.0
156.113495 180.0
156.142349 52.0
156.246826 164.0
156.328934 104.0
156.35701 100.0
156.397232 72.0
156.430984 88.0
156.607773 84.0
156.636917 120.0
156.656784 92.0
156.762238 28.0
156.866913 220.0
156.89389 156.0
156.921753 40.0
156.966644 108.0
156.994064 64.0
157.039215 196.0
157.056427 232.0
157.08136 92.0
157.098831 172.0
157.131882 132.0
157.158707 84.0
157.201126 80.0
157.223206 80.0
157.227692 68.0
157.237183 124.0
157.260452 232.0
157.280991 84.0
157.301926 108.0
157.335907 120.0
157.3638 116.0
157.480728 196.0
157.509247 48.0
157.581467 84.0
157.733093 92.0
157.773102 144.0
157.813095 52.0
157.898117 112.0
157.920624 56.0
158.249756 44.0
158.301651 176.0
158.433777 136.0
158.471359 92.0
158.589142 76.0
158.639267 168.0
158.777176 132.0
158.838699 196.0
158.872498 96.0
159.08078 148.0
159.261566 132.0
159.344467 144.0
159.51033 140.0
159.656158 48.0
159.673767 40.0
159.83728 36.0
159.86496 112.0
159.895157 56.0
159.920334 148.0
160.159531 44.0
160.207382 112.0
160.227539 128.0
160.33609 52.0
160.398895 100.0
160.719193 32.0
160.749466 212.0
160.878189 68.0
161.085266 188.0
161.156403 152.0
161.287415 96.0
161.489685 76.0
161.507385 192.0
161.552917 168.0
161.68956 172.0
161.742706 124.0
161.779419 128.0
161.83754 112.0
161.86676 152.0
161.993393 136.0
162.018738 40.0
162.092209 36.0
162.127686 64.0
162.198654 68.0
162.340637 160.0
162.449692 112.0
162.693314 176.0
162.751709 76.0
162.838043 168.0
162.970139 144.0
163.020966 104.0
163.107376 112.0
163.168381 136.0
163.201431 168.0
163.231064 92.0
163.422714 108.0
163.471069 288.0
163.499054 192.0
163.524506 252.0
163.555054 76.0
163.600876 144.0
163.697617 44.0
163.766388 168.0
163.786758 192.0
163.842804 128.0
163.973511 164.0
163.994888 152.0
164.023743 52.0
164.084915 52.0
164.119873 96.0
164.322098 144.0
164.628403 124.0
164.661606 176.0
164.779114 92.0
165.0168 212.0
165.142105 164.0
165.259781 60.0
165.328873 144.0
165.51062 212.0
165.625854 148.0
165.756516 80.0
165.779587 104.0
165.897476 108.0
166.005173 100.0
166.130844 132.0
166.220642 172.0
166.310471 172.0
166.598068 60.0
166.628891 104.0
166.726532 136.0
166.906479 92.0
167.104141 132.0
167.217758 156.0
167.372208 164.0
167.410843 136.0
167.464111 180.0
167.511276 140.0
167.575684 60.0
167.652985 168.0
167.779297 172.0
167.802139 348.0
167.836014 208.0
167.90564 148.0
167.995911 108.0
168.034103 184.0
168.265778 240.0
168.473495 88.0
168.540665 28.0
168.791397 108.0
168.868988 32.0
168.936234 164.0
169.011261 128.0
169.068542 120.0
169.171722 192.0
169.340027 120.0
169.392578 288.0
169.41774 192.0
169.441055 84.0
169.498062 60.0
169.526428 164.0
169.570618 92.0
169.591354 84.0
169.609497 144.0
169.674301 116.0
169.697647 112.0
169.723724 132.0
169.798111 140.0
169.823822 188.0
169.877029 140.0
169.899338 160.0
169.942108 200.0
169.963043 208.0
170.002487 304.0
170.048691 122548.0
170.096771 388.0
170.114914 180.0
170.13501 100.0
170.163956 104.0
170.240585 152.0
170.289612 228.0
170.322296 68.0
170.361404 80.0
170.407059 60.0
170.431229 120.0
170.45546 156.0
170.476273 500.0
170.515335 72.0
170.545181 132.0
170.580307 112.0
170.606308 80.0
170.632309 252.0
170.653107 32.0
170.690231 172.0
170.721786 96.0
170.749924 68.0
170.80394 172.0
170.824142 120.0
170.830597 128.0
170.876785 72.0
170.917236 68.0
170.935852 68.0
170.997391 144.0
171.050278 6596.0
171.089539 64.0
171.106766 76.0
171.158188 68.0
171.217773 72.0
171.246994 220.0
171.295914 92.0
171.327164 56.0
171.358429 84.0
171.39682 196.0
171.474182 108.0
171.493942 40.0
171.543991 60.0
171.583405 112.0
171.613403 68.0
171.617722 132.0
171.658188 148.0
171.676437 40.0
171.712296 48.0
171.773956 124.0
171.796417 48.0
171.82251 160.0
171.843384 160.0
171.869629 64.0
171.89035 48.0
171.915421 164.0
171.934189 80.0
171.963074 288.0
171.976913 148.0
172.000671 176.0
172.045761 32760.0
172.102325 132.0
172.127274 68.0
172.135345 144.0
172.186264 132.0
172.228638 76.0
172.256424 112.0
172.300156 296.0
172.328491 104.0
172.333359 48.0
172.369614 160.0
172.402725 76.0
172.426422 144.0
172.450287 244.0
172.46843 124.0
172.504105 104.0
172.532867 68.0
172.574692 80.0
172.610458 136.0
172.64006 64.0
172.684525 36.0
172.708069 48.0
172.728699 80.0
172.768692 112.0
172.815323 76.0
172.836258 76.0
172.85997 60.0
173.014023 100.0
173.048096 1252.0
173.209137 84.0
173.231583 60.0
173.29184 96.0
173.320663 68.0
173.383545 96.0
173.443832 68.0
173.464462 124.0
173.527725 96.0
173.700806 128.0
173.769012 60.0
173.813004 68.0
173.913345 36.0
173.931717 80.0
173.950089 32.0
174.068237 68.0
174.112885 80.0
174.194931 116.0
174.236328 56.0
174.259109 48.0
174.304642 96.0
174.338806 104.0
174.370346 60.0
174.40271 200.0
174.528076 244.0
174.659561 36.0
174.94902 156.0
174.980621 104.0
175.399475 68.0
175.512848 76.0
176.476578 176.0
176.503021 36.0
176.561203 80.0
176.585007 36.0
176.836349 72.0
176.958115 88.0
177.124954 128.0
177.223251 156.0
177.450912 212.0
177.535767 92.0
177.76535 88.0
177.789749 184.0
177.825928 108.0
177.864761 84.0
177.949707 200.0
178.016769 13640.0
178.103729 56.0
178.1418 80.0
178.170151 44.0
178.26712 72.0
178.308319 68.0
178.337555 76.0
178.427933 96.0
178.515671 92.0
178.765732 88.0
178.850891 120.0
178.869537 152.0
178.912125 84.0
179.020813 1516.0
179.346329 48.0
179.450287 48.0
179.514282 80.0
179.538284 36.0
179.586288 108.0
179.65564 104.0
179.786392 84.0
179.895813 136.0
180.013687 3204.0
180.069382 216.0
180.269745 44.0
180.31517 108.0
180.454178 76.0
180.491608 124.0
180.531723 32.0
180.689529 80.0
180.812622 36.0
180.946457 72.0
181.019058 396.0
181.3992 104.0
181.42601 88.0
181.466217 80.0
181.487671 128.0
181.637848 76.0
181.723694 60.0
181.777359 68.0
181.900818 84.0
181.954514 132.0
182.11026 76.0
182.161301 44.0
182.225769 52.0
182.489166 72.0
182.596725 44.0
182.712387 40.0
182.766205 32.0
182.860397 108.0
183.15657 128.0
183.239426 148.0
183.38829 44.0
183.995224 140.0
184.770859 108.0
184.927811 84.0
184.95488 40.0
185.114609 48.0
185.323181 120.0
185.670151 140.0
186.751099 180.0
186.89801 72.0
189.475403 100.0
189.623383 52.0
190.811966 48.0
191.521942 148.0
191.632126 128.0
191.742355 76.0
192.418167 104.0
193.432724 116.0
193.928543 148.0
194.802597 204.0
194.82959 240.0
194.87204 88.0
194.974792 176.0
195.005432 164.0
195.042618 9508.0
195.088821 140.0
195.279068 96.0
195.342896 76.0
195.430908 88.0
195.450378 48.0
195.550568 100.0
195.820633 36.0
195.87912 80.0
195.982208 120.0
196.042603 864.0
196.099243 92.0
196.184357 112.0
196.397583 72.0
196.431046 64.0
196.578918 112.0
196.87204 36.0
196.969788 176.0
197.039474 2608.0
197.117859 84.0
197.400192 52.0
197.457474 100.0
197.503677 120.0
197.534439 136.0
197.649155 48.0
197.859055 100.0
198.042679 180.0
198.806458 84.0
198.969254 40.0
199.028214 148.0
199.067535 96.0
199.101227 76.0
199.407455 40.0
201.39946 44.0
201.68483 60.0
202.723511 60.0
203.409866 64.0
203.665421 72.0
203.923981 44.0
203.960938 116.0
204.578217 124.0
204.64653 36.0
205.812698 44.0
207.265762 64.0
208.629059 56.0
208.921036 132.0
209.244705 112.0
209.887222 72.0
209.930481 52.0
210.932327 64.0
212.07663 132.0
213.541901 56.0
214.753525 84.0
215.524216 100.0
215.874985 56.0
217.008179 124.0
218.420731 60.0
220.336868 84.0
221.221115 84.0
221.478729 92.0
223.399277 80.0
223.85466 176.0
225.19371 112.0
225.450638 56.0
226.830414 136.0
228.328659 108.0
229.096207 144.0
229.59053 144.0
232.330917 60.0
233.828949 48.0
233.975052 204.0
235.533325 104.0
236.297577 68.0
236.334305 132.0
237.09024 940.0
238.094727 176.0
238.809937 68.0
238.99144 100.0
239.082306 440.0
240.100403 160.0
240.402725 72.0
242.493347 112.0
243.81546 40.0
243.855865 84.0
245.325058 88.0
245.939575 104.0
245.97702 108.0
246.273651 80.0
246.829941 44.0
247.543396 208.0
248.32373 56.0
250.306732 52.0
252.806839 96.0
253.139236 104.0
254.117065 752.0
255.03006 104.0
255.119934 176.0
256.117584 536.0
259.063446 76.0
260.243652 92.0
260.323914 100.0
261.098419 32.0
265.208466 64.0
265.54892 92.0
266.032379 68.0
266.903107 108.0
267.833862 44.0
268.678162 88.0
269.135071 88.0
269.4617 52.0
270.544189 52.0
272.972168 68.0
273.245148 40.0
278.481354 60.0
278.607574 108.0
285.284698 72.0
286.358093 116.0
291.197968 36.0
292.820282 156.0
294.296875 48.0
294.928864 92.0
296.355896 28.0
297.453339 112.0
299.561249 84.0
300.257507 60.0
301.808014 52.0
302.863525 132.0
303.962524 40.0
306.305786 84.0
306.344086 64.0
307.767029 80.0
310.040802 112.0
310.359772 116.0
311.707672 96.0
312.213867 64.0
315.860809 64.0
320.5401 104.0
323.91275 40.0
325.846344 36.0
327.875793 68.0
328.387756 132.0
330.515564 28.0
331.609192 52.0
332.722809 48.0
334.926514 112.0
336.556641 64.0
337.236145 88.0
337.901672 104.0
339.894867 84.0
348.516846 108.0
350.261627 108.0
352.111633 128.0
355.443359 96.0
360.394836 40.0
364.487061 108.0
365.810577 44.0
366.74762 64.0
368.965485 52.0
371.550568 64.0
374.953552 88.0
375.196411 52.0
377.613647 52.0
381.296814 88.0
382.198975 92.0
383.133392 80.0
383.811554 116.0
389.219208 88.0
389.847717 100.0
393.649139 100.0
398.274933 60.0
399.403778 104.0
399.578827 56.0
399.734009 68.0
401.686218 100.0
403.027649 68.0
405.620972 60.0
408.850189 40.0
410.417175 72.0
419.229767 72.0
419.409088 52.0
421.277985 80.0
424.007141 104.0
424.671326 120.0
433.481506 108.0
433.597565 76.0
435.173859 44.0
440.918213 56.0
450.768768 68.0
453.812134 72.0
453.98175 32.0
455.377991 144.0
461.035767 76.0
463.494843 84.0
471.829041 72.0
473.066284 52.0
475.888611 64.0
480.733337 60.0
489.394989 76.0
489.650391 40.0
489.879425 84.0
491.696045 28.0
494.427277 48.0
496.236938 104.0
497.641022 88.0
500.406494 68.0
503.206421 152.0
507.111633 80.0
508.852142 84.0
516.572021 96.0
518.926941 52.0
523.534485 96.0
527.316589 96.0
529.352356 100.0
530.630737 48.0
532.544312 108.0
545.779846 68.0
549.683289 64.0
553.001404 52.0
556.803711 40.0
558.260559 136.0
561.958191 48.0
568.844055 64.0
569.285583 56.0
570.335571 28.0
582.45813 100.0
584.188599 48.0
586.630127 60.0
592.017395 140.0
593.325623 72.0
602.176514 120.0
603.64801 68.0
607.885254 132.0
608.336792 68.0
611.40387 152.0
635.640747 72.0
663.544067 60.0
665.006042 52.0
665.18573 100.0
672.613586 96.0
682.524353 72.0
686.544434 164.0
688.48053 72.0
695.328308 44.0
695.685242 160.0
710.318481 84.0
712.128479 76.0
713.031677 272.0
716.367859 64.0
719.19397 148.0
721.608582 60.0
722.662231 204.0
727.96344 88.0
734.04187 176.0
734.459473 172.0
734.615906 148.0
739.01355 68.0
739.305786 156.0
740.052795 72.0
740.702637 52.0
744.086548 128.0
749.634583 164.0
753.197266 68.0
762.061157 64.0
766.721924 148.0
773.16687 164.0
773.38269 44.0
775.17157 196.0
782.692749 136.0
783.561584 196.0
785.027527 184.0
786.572998 184.0
786.684631 64.0
786.88562 164.0
788.421692 160.0
790.390137 52.0
790.46283 72.0
793.554749 160.0
795.529541 228.0
795.714783 216.0
797.394348 184.0
797.607971 156.0
804.000549 232.0
808.131226 100.0
809.082031 92.0
810.1297 140.0
810.265686 128.0
814.139771 132.0
818.3078 112.0
819.179138 144.0
819.788757 136.0
820.170593 184.0
824.308289 36.0
825.251404 132.0
825.811829 148.0
826.120728 132.0
828.548035 176.0
828.868896 116.0
830.720764 80.0
830.869873 252.0
830.96167 176.0
831.128052 64.0
831.294495 72.0
831.759399 64.0
835.718994 100.0
840.120605 160.0
840.634155 156.0
841.499939 132.0
842.325745 56.0
843.909241 48.0
845.864624 136.0
846.188843 64.0
852.586914 184.0
854.598877 184.0
856.479187 68.0
858.052612 48.0
859.528259 40.0
861.963257 100.0
862.080078 76.0
864.940063 156.0
867.306519 136.0
869.042358 152.0
874.684082 52.0
875.443604 164.0
878.414124 80.0
879.080811 132.0
880.450439 196.0
881.348328 48.0
881.566956 144.0
882.134338 188.0
883.044922 124.0
883.358398 176.0
884.388 144.0
885.566284 168.0
887.871765 188.0
888.174255 196.0
891.356384 228.0
896.021118 52.0
899.115845 156.0
899.479919 112.0
900.602478 152.0
900.853394 84.0
901.056458 116.0
902.431152 192.0
902.62677 144.0
906.609253 164.0
909.608154 144.0
910.815063 140.0
910.887146 180.0
911.824463 180.0
912.125 88.0
913.941223 128.0
915.301575 32.0
916.054443 180.0
917.500732 348.0
917.965027 224.0
920.239807 104.0
920.294128 168.0
920.439026 36.0
921.332947 92.0
921.955322 156.0
924.05957 72.0
924.271362 56.0
925.687805 44.0
929.452087 140.0
930.629639 196.0
931.734985 180.0
932.810608 124.0
935.073303 52.0
935.974243 140.0
937.564209 148.0
937.875 288.0
938.838318 120.0
939.124939 120.0
941.95105 164.0
942.299316 136.0
942.849243 200.0
942.953125 136.0
943.912903 172.0
946.397156 168.0
946.59314 144.0
946.709473 136.0
946.978943 232.0
947.616028 68.0
948.308472 164.0
949.252563 48.0
951.131836 192.0
951.553528 136.0
952.014038 96.0
952.394836 164.0
952.585266 56.0
952.935425 168.0
953.052185 116.0
954.859497 180.0
955.228516 120.0
956.51825 76.0
957.795349 224.0
958.017151 140.0
958.110474 128.0
960.138245 156.0
961.105957 180.0
961.232117 188.0
961.352783 180.0
961.488525 192.0
961.612 104.0
961.729248 184.0
962.148987 128.0
962.673828 180.0
962.933228 148.0
963.396484 172.0
966.326904 204.0
966.87146 148.0
967.626648 176.0
969.584045 108.0
971.679871 216.0
974.088562 188.0
974.492371 132.0
977.869019 232.0
978.329651 200.0
978.535095 168.0
978.634705 152.0
981.257751 48.0
981.787781 192.0
982.124573 144.0
983.016724 144.0
984.152771 208.0
985.614319 132.0
985.770569 132.0
986.845703 148.0
987.308411 192.0
989.266846 164.0
989.341919 160.0
990.030701 136.0
991.026672 44.0
991.665894 44.0
991.935425 140.0
991.998108 184.0
992.637573 68.0
994.626404 136.0
995.367188 112.0
995.737732 192.0
996.918823 204.0
997.101074 88.0
997.966919 204.0
998.326965 232.0
998.603699 148.0
999.59137 92.0
1001.40448 156.0
1003.351562 152.0
1003.446167 184.0
1003.559631 56.0
1004.12085 184.0
1005.067139 216.0
1005.414185 132.0
1005.89386 140.0
1006.588379 144.0
1009.242249 168.0
1010.007446 144.0
1010.690735 200.0
1010.848938 176.0
1011.754028 104.0
1013.48938 176.0
1013.616089 192.0
1013.996338 80.0
1014.180176 136.0
1014.452698 148.0
1014.731689 180.0
1014.845764 124.0
1015.803406 40.0
1016.08252 164.0
1016.291931 176.0
1017.707336 56.0
1018.012146 36.0
1018.571045 240.0
1018.844177 144.0
1019.606689 152.0
1019.695679 48.0
1020.197815 132.0
1020.483215 144.0
1020.878174 120.0
1021.482361 132.0
1022.201294 132.0
1022.310181 152.0
1022.907776 168.0
1023.888306 188.0
1024.907471 164.0
1025.411011 200.0
1026.469238 184.0
1027.65564 120.0
1027.72583 120.0
1027.981079 196.0
1028.944824 84.0
1029.283203 176.0
1029.417358 116.0
1029.781372 56.0
1030.982422 152.0
1031.519287 144.0
1032.695801 84.0
1032.906982 336.0
1033.341919 136.0
1034.308228 176.0
1034.7052 156.0
1035.275024 188.0
1035.537598 184.0
1036.998413 164.0
1037.408691 204.0
1038.517944 160.0
1038.845093 136.0
1039.589355 40.0
1039.993652 108.0
1040.187378 120.0
1040.943848 112.0
1041.83667 80.0
1042.331421 172.0
1042.466309 204.0
1043.147583 144.0
1045.089844 128.0
1045.4823 92.0
1045.771973 188.0
1046.18396 156.0
1046.518677 132.0
1048.013062 200.0
1049.803711 160.0
1050.062988 208.0
1050.662842 176.0
1050.772461 76.0
1050.888672 156.0
1051.701782 128.0
1052.063232 256.0
1052.309814 188.0
1052.418335 196.0
1053.122192 36.0
1053.535645 116.0
1053.723022 120.0
1053.800537 136.0
1053.91687 144.0
1054.407959 140.0
1054.88623 144.0
1055.028442 196.0
1056.418823 72.0
1056.708252 196.0
1056.800537 152.0
1057.0271 196.0
1057.842529 124.0
1058.185669 184.0
1058.269775 136.0
1058.328125 204.0
1058.742554 124.0
1059.364258 40.0
1059.513306 164.0
1059.986328 136.0
1060.216797 192.0
1061.295654 152.0
1061.503174 188.0
1061.606934 76.0
1062.261963 140.0
1062.592773 40.0
1063.176758 196.0
1063.507812 76.0
1064.169922 136.0
1064.749756 204.0
1064.936279 268.0
1065.046631 164.0
1066.37207 92.0
1066.534668 112.0
1066.755615 128.0
1066.866089 112.0
1067.054688 172.0
1067.282227 124.0
1067.327759 180.0
1067.639893 144.0
1067.77002 76.0
1068.810791 116.0
1070.021362 156.0
1070.385986 84.0
1071.949341 172.0
1072.138428 192.0
1072.275269 184.0
1072.327393 188.0
1072.444702 240.0
1073.200928 44.0
1073.591064 148.0
1073.689941 72.0
1074.224854 200.0
1074.583618 200.0
1074.69458 180.0
1075.027344 188.0
1075.751831 52.0
1075.804077 156.0
1076.202271 216.0
1076.613647 124.0
1077.064331 108.0
1077.586914 120.0
1077.815674 144.0
1078.135864 164.0
1078.51123 144.0
1079.574097 160.0
1079.659058 168.0
1080.175781 104.0
1080.568237 136.0
1081.405884 60.0
1084.412109 136.0
1084.582642 48.0
1085.179077 188.0
1085.251221 176.0
1086.025146 92.0
1086.543335 216.0
1088.046265 68.0
1088.22998 132.0
1088.394165 204.0
1088.512329 68.0
1089.964111 152.0
1091.495605 276.0
1092.212524 72.0
1093.752197 204.0
1093.870728 156.0
1094.04187 168.0
1094.180054 164.0
1096.136353 184.0
1096.485596 168.0
1096.624023 192.0
1097.698608 96.0
1098.226196 148.0
1099.202515 160.0
1099.565552 64.0
1099.618286 200.0
1099.9021 136.0
1099.948364 104.0
1101.216064 176.0
1101.731323 144.0
1101.962524 136.0
1102.58374 184.0
1103.244629 176.0
1103.502563 164.0
1104.051392 48.0
1104.924438 212.0
1106.579102 176.0
1106.737915 192.0
1106.871216 152.0
1107.857178 92.0
1108.109009 96.0
1109.16272 188.0
1109.547241 204.0
1110.760742 116.0
1110.966309 204.0
1111.019409 124.0
1111.161621 100.0
1111.278198 168.0
1111.384399 32.0
1111.842896 180.0
1112.63208 128.0
1112.811401 148.0
1112.997314 156.0
1113.16333 72.0
1114.352295 240.0
1114.511719 152.0
1115.355713 172.0
1116.053711 76.0
1116.399536 128.0
1116.492676 184.0
1116.71875 168.0
1117.064697 148.0
1117.124512 212.0
1117.317383 192.0
1119.314209 132.0
1120.4198 108.0
1120.48645 148.0
1121.692627 112.0
1122.686035 136.0
1123.65332 184.0
1124.968018 204.0
1125.074829 208.0
1125.602295 120.0
1126.523926 148.0
1127.773438 152.0
1128.187866 148.0
1128.876587 116.0
1129.411621 168.0
1130.903687 64.0
1131.144653 140.0
1131.291992 192.0
1131.941406 172.0
1132.537476 88.0
1132.832153 176.0
1133.689819 56.0
1134.943359 128.0
1135.003662 108.0
1136.137085 164.0
1136.351807 196.0
1137.150391 140.0
1137.391968 180.0
1137.512817 148.0
1137.573242 200.0
1138.976685 224.0
1140.069824 96.0
1140.286865 184.0
1140.683472 108.0
1141.127075 168.0
1141.886963 80.0
1142.157593 172.0
1142.411621 100.0
1142.613525 180.0
1142.694214 212.0
1142.909546 152.0
1142.999756 148.0
1143.077759 160.0
1143.643066 108.0
1144.161377 228.0
1144.471069 172.0
1144.625977 232.0
1144.908813 168.0
1145.845093 160.0
1146.168457 80.0
1146.316772 116.0
1146.822144 92.0
1147.873901 180.0
1149.870728 152.0
1150.120483 112.0
1150.255493 236.0
1150.48938 136.0
1150.991333 172.0
1151.139893 156.0
1151.383057 136.0
1152.369263 152.0
1153.930542 148.0
1154.626953 64.0
1155.039551 204.0
1155.09375 96.0
1155.154541 176.0
1155.458984 236.0
1155.705688 212.0
1155.810791 36.0
1156.101196 212.0
1156.731201 196.0
1156.981689 44.0
1157.394775 228.0
1157.848389 248.0
1157.936523 124.0
1158.525757 120.0
1159.033936 196.0
1159.14917 48.0
1159.5354 152.0
1159.969238 196.0
1160.96582 144.0
1161.372803 72.0
1161.508423 216.0
1161.834106 108.0
1162.146118 104.0
1162.279785 240.0
1162.349731 80.0
1162.763672 148.0
1162.845093 172.0
1162.972656 172.0
1163.204834 124.0
1163.680298 144.0
1163.734375 76.0
1163.93811 144.0
1164.012817 144.0
1164.216553 136.0
1165.310059 128.0
1165.357666 176.0
1166.288696 156.0
1167.009277 144.0
1167.356079 156.0
1168.804932 176.0
1169.635254 136.0
1169.923828 176.0
1169.97168 116.0
1170.329712 88.0
1170.404541 44.0
1170.894897 108.0
1171.378418 188.0
1171.766724 160.0
1172.039307 208.0
1172.291382 188.0
1172.359619 152.0
1172.550415 204.0
1172.897949 152.0
1172.952515 160.0
1173.0802 180.0
1173.354736 200.0
1173.941162 176.0
1174.302612 176.0
1175.30542 172.0
1176.199463 120.0
1177.011841 148.0
1177.389038 196.0
1177.811279 216.0
1177.958984 216.0
1178.213867 196.0
1178.610229 124.0
1179.259399 116.0
1180.455811 192.0
1181.126099 136.0
1181.303711 132.0
1181.440674 168.0
1181.63916 200.0
1182.268677 128.0
1183.247437 104.0
1183.403076 180.0
1183.473389 144.0
1183.719849 148.0
1184.411621 152.0
1184.822632 68.0
1185.425537 252.0
1185.521484 196.0
1186.261719 96.0
1186.974731 76.0
1187.077637 172.0
1187.633179 192.0
1188.151245 116.0
1188.209351 248.0
1188.430908 124.0
1188.572998 172.0
1188.799438 188.0
1189.403442 144.0
1189.46521 108.0
1189.712402 156.0
1189.904541 176.0
1190.357788 200.0
1190.982666 148.0
1191.697144 232.0
1191.745239 172.0
1192.333008 160.0
1193.030518 172.0
1194.749756 180.0
1194.80481 192.0
1194.907959 172.0
1195.671753 96.0
1196.057129 344.0
1196.33252 68.0
1196.635498 144.0
1196.731812 48.0
1196.780029 152.0
1197.94397 148.0
1198.040405 116.0
1198.171265 144.0
1198.439941 140.0
1198.715576 220.0
1199.073975 52.0
1199.26001 92.0
1199.501343 140.0
1199.901123 112.0
1200.363159 132.0
1200.556152 112.0
1201.018311 192.0
1201.266602 160.0
1202.060059 168.0
1202.156616 124.0
1202.349854 176.0
1202.474121 148.0
1202.550049 144.0
1202.984863 224.0
1203.32312 68.0
1203.495728 60.0
1203.567749 172.0
1204.096558 32.0
1205.422974 68.0
1205.747803 192.0
1206.072632 60.0
1206.252319 188.0
1206.418213 192.0
1206.473511 148.0
1207.483032 56.0
1207.614502 92.0
1207.676758 152.0
1207.808105 152.0
1207.925781 196.0
1208.915161 188.0
1209.164307 172.0
1209.302734 104.0
1209.68689 148.0
1210.915894 264.0
1211.469971 124.0
1211.670898 164.0
1212.010376 184.0
1212.232178 132.0
1212.786621 196.0
1212.966797 96.0
1213.320312 184.0
1213.368896 88.0
1213.542236 208.0
1214.395142 192.0
1215.061157 168.0
1215.137451 176.0
1215.761963 172.0
1215.900757 184.0
1216.102051 128.0
1216.358887 152.0
1216.935059 156.0
1217.608643 152.0
1217.754517 212.0
1217.928101 180.0
1218.087891 216.0
1218.365723 148.0
1218.504639 112.0
1218.740967 80.0
1218.879883 112.0
1219.164795 144.0
1219.699951 180.0
1219.991943 204.0
1220.082275 176.0
1220.165771 128.0
1220.450806 132.0
1221.104492 168.0
1221.292236 60.0
1221.946167 156.0
1222.001831 176.0
1222.238403 84.0
1222.760376 264.0
1222.81604 160.0
1222.88562 152.0
1223.707031 136.0
1223.776611 184.0
1224.201416 96.0
1224.438232 36.0
1225.413452 176.0
1225.873291 132.0
1226.166016 164.0
1226.34021 228.0
1226.437744 144.0
1226.584229 124.0
1226.911865 148.0
1227.009399 212.0
1227.762451 172.0
1227.964722 200.0
1228.87854 148.0
1229.220459 60.0
1229.42981 168.0
1229.834595 132.0
1229.953247 84.0
1230.106812 116.0
1230.20459 192.0
1230.490845 136.0
1231.070312 140.0
1231.189087 156.0
1231.339355 128.0
1231.48938 168.0
1231.629028 116.0
1231.950439 168.0
1232.203857 156.0
1232.481445 168.0
1232.565186 124.0
1232.746948 332.0
1233.259277 164.0
1233.564697 196.0
1233.88623 172.0
1234.49292 232.0
1234.998047 160.0
1235.718628 144.0
1236.222412 88.0
1236.278442 208.0
1236.901367 80.0
1237.090332 160.0
1237.139282 172.0
1237.43335 172.0
1237.59436 192.0
1237.664429 96.0
1237.923462 112.0
1238.182617 48.0
1238.413086 156.0
1238.560791 188.0
1238.68689 112.0
1238.80603 92.0
1238.960083 168.0
1239.072266 200.0
1240.172363 40.0
1240.270508 128.0
1240.438721 160.0
1240.564941 252.0
1240.852417 208.0
1241.048706 156.0
1241.480103 136.0
1241.581665 168.0
1242.272095 84.0
1242.318115 208.0
1242.507568 136.0
1242.816284 120.0
1242.907471 188.0
1243.11792 164.0
1243.882935 192.0
1244.662231 180.0
1245.104736 172.0
1245.293701 196.0
1245.561157 180.0
1246.397217 64.0
1246.692383 176.0
1246.783691 164.0
1247.198364 224.0
1248.147461 156.0
1248.217773 232.0
1248.597534 152.0
1249.33606 160.0
1249.680908 208.0
1249.96228 184.0
1250.053833 120.0
1250.229736 104.0
1250.293091 192.0
1250.391602 180.0
1251.010986 132.0
1251.144775 108.0
1251.331055 180.0
1251.560181 120.0
1251.715088 160.0
1253.039185 176.0
1253.151978 160.0
1253.419678 208.0
1253.624023 76.0
1253.948242 180.0
1254.505127 88.0
1254.674316 56.0
1255.322998 160.0
1255.859009 116.0
1256.268066 160.0
1256.945435 136.0
1257.171265 136.0
1257.48877 120.0
1257.72876 168.0
1258.088745 100.0
1258.244141 172.0
1258.533569 168.0
1258.667725 108.0
1258.7948 228.0
1258.964355 156.0
1259.239746 180.0
1259.345703 164.0
1259.783691 164.0
1260.278198 232.0
1260.490112 132.0
1260.589111 108.0
1260.857666 48.0
1261.260498 120.0
1261.380615 316.0
1261.557373 192.0
1261.689697 176.0
1261.790649 216.0
1262.335083 108.0
1262.441162 216.0
1263.014038 140.0
1263.113159 160.0
1263.317993 140.0
1263.463745 256.0
1264.153198 136.0
1264.492798 172.0
1265.476807 156.0
1266.311768 164.0
1266.751587 136.0
1266.999512 168.0
1267.105835 124.0
1267.197876 168.0
1268.126221 120.0
1269.105103 184.0
1269.288818 212.0
1269.380981 112.0
1269.799438 180.0
1270.047607 60.0
1270.295898 348.0
1270.345581 108.0
1270.75708 100.0
1270.828003 40.0
1271.047974 176.0
1271.665405 64.0
1272.041626 164.0
1272.403687 144.0
1272.453369 148.0
1272.510132 344.0
1272.64502 164.0
1272.858032 204.0
1273.328491 216.0
1273.383545 216.0
1273.816895 156.0
1274.044189 104.0
1274.171997 172.0
1274.363892 56.0
1274.828979 168.0
1275.28772 148.0
1275.529419 132.0
1275.614624 140.0
1276.026978 140.0
1276.503418 140.0
1276.787842 144.0
1277.171875 140.0
1277.55603 56.0
1277.819458 184.0
1278.473877 212.0
1278.566406 148.0
1278.658936 136.0
1279.043335 148.0
1279.199829 196.0
1279.256836 148.0
1279.377808 244.0
1279.790771 148.0
1279.95874 200.0
1280.054199 196.0
1280.225098 104.0
1280.431641 144.0
1280.559937 172.0
1280.759277 140.0
1281.051392 88.0
1281.400635 184.0
1282.775879 144.0
1283.246338 176.0
1283.538696 88.0
1283.980835 144.0
1284.544312 132.0
1284.993774 296.0
1286.178345 180.0
1286.642456 168.0
1286.74231 192.0
1286.842285 84.0
1287.663452 144.0
1287.72583 236.0
1287.980225 164.0
1288.120605 148.0
1288.383301 120.0
1288.477783 120.0
1288.642212 108.0
1288.835083 120.0
1289.142334 72.0
1289.399658 148.0
1289.492554 160.0
1289.571167 132.0
1289.628296 64.0
1289.799805 116.0
1290.135864 152.0
1290.286011 120.0
1290.829346 268.0
1291.151123 148.0
1291.251343 100.0
1291.644653 192.0
1291.723389 128.0
1292.181885 184.0
1292.296021 152.0
1292.51709 152.0
1292.610474 144.0
1293.276123 80.0
1293.333374 152.0
1293.56958 224.0
1293.630371 148.0
1293.92749 104.0
1293.977661 108.0
1294.614868 124.0
1294.729492 180.0
1294.808228 172.0
1295.15918 164.0
1295.359741 196.0
1295.510254 172.0
1295.603394 100.0
1295.817017 164.0
1296.506226 144.0
1297.452271 160.0
1297.674561 192.0
1297.983154 204.0
1298.040283 208.0
1298.133545 76.0
1298.276855 72.0
1298.635498 188.0
1299.266724 160.0
1299.367188 164.0
1299.467651 256.0
1299.525024 96.0
1299.912476 84.0
1300.127808 112.0
1300.379028 136.0
1300.483887 140.0
1300.60144 120.0
1300.744995 172.0
1301.075317 140.0
1301.147095 144.0
1301.312134 228.0
1301.369629 68.0
1301.696655 172.0
1301.901001 240.0
1302.432495 148.0
1302.535034 160.0
1302.784424 168.0
1303.316162 196.0
1303.402344 192.0
1303.577026 140.0
1303.639526 108.0
1303.73291 132.0
1304.178467 140.0
1304.782349 136.0
1305.084351 156.0
1305.27124 164.0
1305.371948 184.0
1305.976074 144.0
1306.127075 152.0
1307.033569 224.0
1307.091064 216.0
1307.343018 168.0
1307.441406 136.0
1307.522949 188.0
1308.285889 68.0
1308.362183 152.0
1308.609863 180.0
1308.746704 80.0
1309.027466 176.0
1309.51001 164.0
1309.574829 128.0
1309.654053 188.0
1310.093506 168.0
1310.316772 156.0
1310.967773 208.0
1311.383301 184.0
1311.44812 164.0
1311.671631 180.0
1312.096924 136.0
1312.169067 140.0
1312.226685 196.0
1312.385376 164.0
1313.034302 168.0
1313.149658 164.0
1313.661865 132.0
1313.762817 80.0
1313.834961 136.0
1314.325562 196.0
1314.563721 136.0
1314.708008 180.0
1315.538086 184.0
1315.661621 136.0
1315.740234 180.0
1315.920776 132.0
1316.606689 176.0
1317.249512 172.0
1317.711914 196.0
1317.993652 136.0
1318.188721 120.0
1318.268311 100.0
1318.542847 96.0
1318.687378 216.0
1319.590942 216.0
1319.945312 240.0
1320.545898 148.0
1321.254395 316.0
1321.637939 176.0
1322.148804 168.0
1322.462891 172.0
1322.88269 56.0
1323.143311 160.0
1323.259155 168.0
1323.431885 140.0
1323.498169 180.0
1323.848999 184.0
1324.606201 160.0
1324.865601 164.0
1325.291504 140.0
1325.598755 160.0
1325.656738 168.0
1326.142334 172.0
1326.38147 216.0
1326.788696 200.0
1327.04126 128.0
1327.21521 108.0
1327.679321 176.0
1327.889648 216.0
1327.998413 56.0
1328.056396 120.0
1328.150757 120.0
1328.965942 236.0
1329.144653 340.0
1329.405884 212.0
1329.558228 200.0
1329.834106 108.0
1330.14624 92.0
1330.334961 196.0
1330.559937 204.0
1330.777832 120.0
1330.995605 84.0
1331.19165 164.0
1331.518433 204.0
1331.772705 176.0
1331.87439 200.0
1332.105347 168.0
1332.397339 164.0
1332.564453 152.0
1332.637207 184.0
1332.876953 156.0
1333.342041 156.0
1333.538208 120.0
1333.603638 96.0
1333.661865 212.0
1333.93042 172.0
1334.512329 180.0
1334.999512 164.0
1335.217773 136.0
1335.334106 172.0
1335.486816 180.0
1335.574097 148.0
1336.054199 180.0
1336.207031 88.0
1336.476196 144.0
1336.54895 132.0
1336.665405 128.0
1336.978271 112.0
1337.029175 180.0
1337.866333 56.0
1337.931763 28.0
1338.587158 180.0
1338.747314 180.0
1338.86377 168.0
1339.104126 228.0
1339.399658 216.0
1339.628662 124.0
1339.776245 148.0
1339.861694 168.0
1340.051147 128.0
1340.517456 112.0
1340.757935 128.0
1340.94751 108.0
1340.998535 116.0
1341.079834 168.0
1341.479614 184.0
1341.916992 168.0
1342.172241 192.0
1342.245117 164.0
1342.300903 184.0
1342.398193 132.0
1342.500366 216.0
1342.624268 88.0
1342.72644 168.0
1342.84314 188.0
1343.105713 168.0
1343.258911 228.0
1343.915405 204.0
1344.083252 168.0
1344.221924 60.0
1344.404297 128.0
1344.521118 192.0
1344.579468 152.0
1344.630615 92.0
1345.243652 120.0
1345.367432 148.0
1346.222046 168.0
1346.36084 52.0
1346.455811 132.0
1346.901367 128.0
1347.324951 172.0
1347.785278 156.0
1347.851074 96.0
1347.982544 200.0
1348.04834 176.0
1348.179932 152.0
1348.32605 148.0
1348.728027 204.0
1348.913086 188.0
1349.078979 164.0
1349.130127 160.0
1349.356689 152.0
1349.832031 200.0
1349.897827 240.0
1350.197632 120.0
1350.334595 188.0
1350.446289 160.0
1350.819336 176.0
1350.921753 148.0
1351.104614 120.0
1351.353394 160.0
1351.660767 136.0
1351.748535 196.0
1352.04126 104.0
1352.121704 188.0
1352.180298 28.0
1352.305054 180.0
1352.882935 180.0
1353.527344 200.0
1354.212891 236.0
1354.537964 184.0
1354.6698 160.0
1354.735718 124.0
1354.940918 192.0
1355.145996 148.0
1355.768921 100.0
1355.900757 132.0
1356.135254 96.0
1356.573242 172.0
1356.663086 216.0
1357.102783 168.0
1357.24231 136.0
1357.330322 232.0
1357.667603 168.0
1357.821655 204.0
1357.925293 88.0
1357.98291 152.0
1358.437744 80.0
1358.540405 160.0
1358.716553 488.0
1358.995361 156.0
1359.332886 188.0
1359.508911 164.0
1359.574951 176.0
1359.831909 132.0
1360.125488 164.0
1360.235596 36.0
1360.507202 184.0
1360.66687 256.0
1360.858521 160.0
1360.898193 184.0
1360.999146 252.0
1361.513184 180.0
1361.792236 124.0
1361.953857 92.0
1362.019897 120.0
1362.210938 72.0
1362.482666 184.0
1362.879395 192.0
1362.974976 108.0
1363.070435 212.0
1363.18811 72.0
1363.25415 44.0
1363.320312 164.0
1363.643677 160.0
1363.827515 128.0
1363.922974 160.0
1364.489014 216.0
1364.592041 96.0
1364.937622 220.0
1365.253784 76.0
1365.349365 160.0
1365.614136 184.0
1365.695068 100.0
1365.827393 164.0
1366.026001 180.0
1366.129028 200.0
1366.458496 220.0
1366.56311 72.0
1367.210693 144.0
1367.365234 88.0
1367.422852 160.0
1367.563965 224.0
1368.049805 72.0
1368.450806 164.0
1368.565063 204.0
1368.719727 232.0
1368.962769 240.0
1369.360474 152.0
1370.119141 68.0
1370.634888 152.0
1371.305542 172.0
1371.452881 196.0
1371.821533 204.0
1372.308105 176.0
1372.526367 348.0
1372.684082 236.0
1373.524902 156.0
1373.591309 184.0
1373.641724 180.0
1373.73877 208.0
1373.842041 28.0
1374.159546 160.0
1374.388062 220.0
1374.469238 136.0
1374.941528 176.0
1375.000488 216.0
1375.192383 176.0
1375.260864 100.0
1375.716553 196.0
1375.952759 188.0
1376.077148 156.0
1376.144653 136.0
1376.639404 256.0
1376.838867 124.0
1377.171143 104.0
1377.61438 92.0
1377.799072 104.0
1377.998535 152.0
1378.592773 236.0
1378.87793 148.0
1379.313965 40.0
1379.897949 72.0
1380.038452 216.0
1380.23999 124.0
1380.304688 136.0
1381.309204 168.0
1381.46582 164.0
1381.562012 172.0
1381.961548 208.0
1382.457275 120.0
1382.58313 124.0
1382.671875 112.0
1382.858032 80.0
1382.891724 172.0
1382.90979 200.0
1383.09375 36.0
1383.404663 184.0
1383.471313 156.0
1383.671143 128.0
1383.819214 144.0
1384.697998 180.0
1385.062378 180.0
1385.159668 140.0
1385.307861 172.0
1385.737549 132.0
1385.848633 196.0
1385.900513 180.0
1386.026489 108.0
1386.11084 72.0
1386.471191 176.0
1386.908447 48.0
1387.451416 204.0
1387.835083 180.0
1387.894409 128.0
1388.235474 104.0
1388.739868 248.0
1388.9104 204.0
1389.2146 168.0
1389.371704 128.0
1389.470093 136.0
1389.659668 44.0
1389.743164 160.0
1389.934204 200.0
1390.676392 168.0
1390.891602 208.0
1391.031616 152.0
1391.173706 152.0
1391.789917 144.0
1391.908691 164.0
1392.072021 144.0
1392.376587 148.0
1392.889038 164.0
1393.126709 116.0
1393.216675 148.0
1393.334717 48.0
1393.944336 188.0
1394.033203 112.0
1394.109741 148.0
1394.270996 160.0
1394.35376 220.0
1394.44751 192.0
1395.051514 156.0
1395.203979 156.0
1395.460327 224.0
1395.735474 140.0
1395.943726 128.0
1396.062622 144.0
1396.189087 120.0
1396.583252 152.0
1397.230469 132.0
1397.36438 228.0
1397.818237 156.0
1397.937256 64.0
1398.026611 188.0
1398.354004 120.0
1398.473145 228.0
1398.621948 132.0
1398.822998 184.0
1398.979248 84.0
1399.090942 100.0
1399.589844 168.0
1399.686646 108.0
1399.969604 108.0
1400.312134 156.0
1400.56543 124.0
1401.146484 52.0
1401.220947 184.0
1401.504028 140.0
1402.104248 176.0
1402.212036 204.0
1402.517578 124.0
1402.770996 144.0
1402.838135 36.0
1403.509155 116.0
1404.150391 160.0
1404.232544 116.0
1404.340088 168.0
1404.471191 152.0
1404.553223 284.0
1405.17981 204.0
1405.314209 120.0
1405.403687 192.0
1405.500732 128.0
1405.560425 112.0
1405.612671 240.0
1405.754395 144.0
1406.620117 156.0
1406.821655 132.0
1406.941162 128.0
1407.307007 176.0
1407.448853 212.0
1407.583252 116.0
1407.994019 228.0
1408.083618 108.0
1408.344971 192.0
1408.499023 180.0
1408.688599 116.0
1408.800659 196.0
1408.897827 112.0
1409.017334 160.0
1409.121948 232.0
1409.667358 112.0
1409.776001 128.0
1409.98877 124.0
1410.14563 172.0
1410.424438 200.0
1410.567017 172.0
1410.646484 168.0
1410.751099 144.0
1410.885742 120.0
1411.057617 144.0
1411.132446 144.0
1411.685791 120.0
1411.969971 192.0
1412.190552 168.0
1412.328979 236.0
1412.605713 144.0
1412.73291 172.0
1412.785278 192.0
1413.024658 136.0
1413.301514 188.0
1413.593262 164.0
1414.061157 156.0
1414.386597 124.0
1414.521362 184.0
1414.813354 124.0
1414.970459 84.0
1415.621704 144.0
1416.288452 108.0
1416.42334 216.0
1416.490723 176.0
1416.588135 52.0
1416.648071 172.0
1416.767944 152.0
1417.243042 128.0
1417.359741 168.0
1417.536133 232.0
1417.891846 164.0
1417.996826 180.0
1418.22168 128.0
1418.386475 124.0
1418.734863 200.0
1419.233643 176.0
1419.488647 196.0
1419.541138 76.0
1419.661133 104.0
1419.781128 80.0
1420.081055 64.0
1420.193604 160.0
1420.306152 128.0
1420.686768 244.0
1420.868774 168.0
1421.258911 188.0
1421.416504 160.0
1421.626587 192.0
1421.881714 140.0
1421.954956 292.0
1422.076904 160.0
1422.256958 232.0
1422.489746 196.0
1422.8125 160.0
1423.000244 196.0
1423.418335 164.0
1423.533325 72.0
1423.773682 156.0
1423.931274 204.0
1424.141602 96.0
1424.306885 144.0
1424.472168 104.0
1424.998047 60.0
1425.118408 152.0
1425.193359 156.0
1425.406006 164.0
1425.508911 76.0
1425.584106 184.0
1425.674316 108.0
1425.734375 108.0
1425.877197 144.0
1426.057617 168.0
1426.200439 172.0
1426.470947 172.0
1426.561157 144.0
1426.734131 284.0
1426.997192 176.0
1427.297974 156.0
1427.470947 152.0
1427.869507 196.0
1427.959717 136.0
1428.04248 204.0
1428.230591 156.0
1428.523926 152.0
1429.140869 244.0
1429.366577 64.0
1429.569702 64.0
1430.119141 84.0
1430.24707 160.0
1430.691162 176.0
1430.743896 192.0
1431.165527 48.0
1431.22583 156.0
1431.338745 164.0
1431.594727 52.0
1431.873413 200.0
1432.234863 76.0
1432.400635 192.0
1432.521118 80.0
1432.912964 144.0
1432.973145 48.0
1433.102539 120.0
1433.372559 224.0
1433.553345 164.0
1433.862305 136.0
1434.050781 196.0
1434.608521 236.0
1434.796997 140.0
1434.864868 212.0
1435.181519 48.0
1435.355103 204.0
1435.732056 216.0
1435.997925 176.0
1436.521606 212.0
1436.795532 152.0
1436.855957 208.0
1437.029419 140.0
1437.240723 144.0
1437.316162 128.0
1437.384155 148.0
1438.055786 140.0
1438.742676 136.0
1439.114136 184.0
1439.482666 176.0
1439.814941 192.0
1440.268066 160.0
1440.540039 100.0
1441.635498 104.0
1441.771118 140.0
1442.005859 152.0
1442.225098 104.0
1442.557617 96.0
1442.640747 208.0
1442.776855 148.0
1442.905396 156.0
1443.026367 96.0
1443.563232 192.0
1443.722046 128.0
1444.569092 172.0
1444.659668 148.0
1444.743164 208.0
1445.265137 160.0
1445.664429 236.0
1446.143066 112.0
1446.468506 176.0
1446.665283 164.0
1447.01355 212.0
1447.127075 68.0
1447.287964 144.0
1447.579834 128.0
1447.748047 136.0
1448.013062 168.0
1448.369141 128.0
1448.422119 140.0
1448.762939 88.0
1449.187256 200.0
1449.641846 160.0
1450.020874 96.0
1450.157227 168.0
1450.217896 140.0
1450.991089 96.0
1451.165527 168.0
1451.574951 96.0
1451.863037 44.0
1452.029907 48.0
1452.146118 200.0
1452.439453 160.0
1452.538086 168.0
1453.046387 132.0
1453.228516 132.0
1453.334717 148.0
1453.436279 208.0
1453.55481 140.0
1453.623047 148.0
1453.828003 152.0
1453.994873 188.0
1454.123901 216.0
1454.186523 160.0
1454.313721 132.0
1454.536865 196.0
1454.751465 200.0
1454.875366 180.0
1455.095581 148.0
1455.323364 180.0
1455.505615 172.0
1455.740967 136.0
1455.892822 160.0
1455.953613 252.0
1456.379272 160.0
1456.652344 192.0
1456.804321 152.0
1456.868408 192.0
1457.024658 120.0
1457.108154 184.0
1457.191772 156.0
1457.298096 152.0
1457.412109 216.0
1457.54126 188.0
1457.678101 104.0
1457.890869 136.0
1458.035156 164.0
1458.096069 56.0
1458.202393 48.0
1458.391357 144.0
1458.521606 156.0
1458.780151 124.0
1459.205811 196.0
1459.312256 180.0
1459.760864 164.0
1459.935791 164.0
1460.049927 180.0
1460.506226 112.0
1460.810425 152.0
1460.871338 140.0
1461.099609 56.0
1461.152832 144.0
1461.363037 120.0
1461.890869 148.0
1461.951782 108.0
1462.416016 124.0
1462.492065 196.0
1462.636719 92.0
1462.735718 140.0
1463.032593 176.0
1463.161987 184.0
1463.392334 124.0
1463.519897 152.0
1463.694946 180.0
1463.908203 80.0
1464.159546 216.0
1464.47937 212.0
1464.723145 128.0
1465.073486 188.0
1465.515381 164.0
1465.881226 164.0
1465.990601 136.0
1466.231689 80.0
1466.300293 104.0
1466.366089 180.0
1466.559448 52.0
1466.75 112.0
1467.009155 152.0
1467.085449 100.0
1467.359863 56.0
1467.514648 160.0
1467.695312 160.0
1467.870728 136.0
1468.137695 328.0
1468.503662 104.0
1468.66394 144.0
1468.793579 108.0
1468.907959 132.0
1469.144409 192.0
1469.273315 144.0
1469.377441 148.0
1469.617432 232.0
1469.724243 260.0
1469.831177 168.0
1470.054321 188.0
1470.31958 72.0
1470.459839 144.0
1470.563721 120.0
1470.647705 172.0
1470.846191 120.0
1470.953003 176.0
1471.165039 208.0
1471.296509 136.0
1471.655396 84.0
1472.396118 208.0
1472.552124 120.0
1472.709229 64.0
1472.831421 152.0
1472.891357 104.0
1473.259277 148.0
1473.389038 236.0
1473.457886 132.0
1473.534302 100.0
1473.633545 96.0
1473.763428 192.0
1474.137939 96.0
1474.30603 136.0
1474.394043 212.0
1474.683838 212.0
1474.764038 112.0
1475.081055 204.0
1475.162109 172.0
1475.276733 132.0
1475.406738 176.0
1475.58252 108.0
1476.052856 116.0
1476.316528 96.0
1476.437256 160.0
1476.479492 176.0
1476.591919 144.0
1476.660767 124.0
1476.966675 180.0
1477.276855 144.0
1477.509033 116.0
1477.877075 152.0
1478.167847 132.0
1478.248169 144.0
1478.335571 272.0
1478.596313 172.0
1478.764771 128.0
1479.063232 104.0
1479.155151 72.0
1479.348145 204.0
1479.415405 60.0
1479.721558 212.0
1479.835327 260.0
1479.951294 128.0
1480.045654 148.0
1480.632812 216.0
1480.750977 160.0
1480.81665 156.0
1480.91626 308.0
1481.919678 180.0
1482.019287 140.0
1483.743774 88.0
1483.828125 176.0
1483.958496 184.0
1484.119507 168.0
1484.533569 56.0
1484.702271 152.0
1484.993774 136.0
1485.227051 192.0
1485.484619 104.0
1485.967896 132.0
1486.19812 176.0
1486.374634 84.0
1487.080688 212.0
1487.410645 136.0
1487.825195 88.0
1488.101562 168.0
1488.170654 116.0
1488.30127 196.0
1488.378052 144.0
1489.399414 184.0
1489.514648 192.0
1489.622192 152.0
1490.023926 200.0
1490.305908 68.0
1490.750977 136.0
1490.882324 48.0
1491.02063 136.0
1491.466797 132.0
1491.735474 96.0
1491.966064 216.0
1492.150513 136.0
1492.342773 204.0
1492.45813 132.0
1492.588867 116.0
1492.788696 120.0
1493.35022 236.0
1493.588623 36.0
1493.742432 152.0
1494.188599 168.0
1494.319458 200.0
1494.68103 184.0
1494.911865 200.0
1495.495117 136.0
1495.56604 152.0
1495.920166 164.0
1496.043335 196.0
1496.258911 112.0
1496.720825 64.0
1496.813232 112.0
1497.121338 188.0
1497.236816 136.0
1497.960815 184.0
1498.168823 188.0
1498.307495 32.0
1498.490479 188.0
1498.777466 148.0
1498.854492 236.0
1498.939331 164.0
1499.090576 140.0
1499.339966 160.0
1499.401611 100.0
1499.525024 104.0
1499.702271 68.0
1499.879517 64.0
1500.172485 184.0
1500.22644 80.0
1500.380615 160.0
1500.480835 192.0
1500.54248 116.0
1500.681274 116.0
1500.889404 348.0
1501.021118 168.0
1501.12854 148.0
1501.437012 196.0
1501.830322 192.0
1501.938354 164.0
1502.061768 148.0
1502.200562 124.0
1502.501465 72.0
1502.856323 216.0
1503.126343 152.0
1503.342529 152.0
1503.404175 152.0
1503.612549 140.0
1503.790039 164.0
1503.844849 120.0
1504.098877 124.0
1504.176025 132.0
1504.46936 156.0
1504.535889 172.0
1504.716431 120.0
1504.770508 152.0
1504.832275 192.0
1504.894043 44.0
1505.040649 148.0
