>compound MLS000563148-01!
>formula C18H14O8
>ionization [M+H]+
>parentmass 359.077
#inchi InChI=1S/C18H14O8/c1-7-4-11(20)10(6-19)15-13(7)18(23)26-14-8(2)12(24-3)5-9(17(21)22)16(14)25-15/h4-6,20H,1-3H3,(H,21,22)
#inchikey FUCWJKJZOHOLEO
#Ion_Source LC-ESI
#Instrument qTof
#Compound_Source NIH Natural Product Library
#PI Dorrestein
#Data_Collector VVP/LMS
#Scan -1
#Precursor_MZ 359.077
#ExactMass 358.069
#Charge 1
#CAS_Number N/A
#Pubmed_ID N/A
#Smiles COc1cc(C(=O)O)c2Oc3c(C=O)c(O)cc(C)c3C(=O)Oc2c1C
#INCHI_AUX N/A
#Library_Class 1
#SpectrumID CCMSLIB00000079978
#IonMode Positive
#UpdateWorkflowName UPDATE-SINGLE-ANNOTATED-GOLD
#LibraryQualityString Gold
#TaskID b1d8e8f6646f4e71acdff9ca3d919d08
##Scan# 2252
#SpectrumFile p2-E02_GE2_01_18026.mzXML
#LibraryName NIH_Natural_Products_Library.mgf
#MQScore -1
#Organism NIH_Natural_Products_Library
#TIC_Query 0
#RT_Query -1
#MZErrorPPM -1
#SharedPeaks 0
#MassDiff 0
#LibMZ -1
#SpecMZ 359.077
#SpecCharge 0
#internalFilename spec-00000.mgf

>collision 10
95.035393 56.0
96.521339 160.0
96.866035 128.0
96.950287 88.0
97.370117 124.0
97.680672 224.0
97.838097 116.0
98.04689 84.0
99.25473 132.0
99.377701 56.0
99.482887 60.0
100.370232 168.0
100.515846 196.0
100.889343 204.0
100.993324 120.0
101.055336 84.0
101.40377 120.0
101.64241 76.0
102.223145 112.0
102.561485 80.0
104.058479 148.0
104.668457 96.0
105.033012 312.0
105.519287 172.0
106.041275 156.0
106.074066 160.0
106.875015 120.0
106.938812 216.0
107.023216 212.0
107.047928 208.0
107.13649 40.0
107.604645 56.0
108.517052 228.0
108.546082 128.0
109.031845 148.0
109.066818 184.0
109.31675 216.0
109.577026 132.0
109.641624 136.0
109.693726 156.0
110.037949 160.0
110.642151 168.0
112.112473 176.0
112.152519 48.0
113.166527 228.0
114.696098 100.0
114.847488 136.0
115.05378 184.0
115.48185 128.0
116.057907 156.0
116.609612 64.0
116.863358 140.0
117.451477 172.0
117.602516 60.0
117.937302 204.0
118.03891 64.0
118.092979 164.0
118.173019 168.0
118.495613 176.0
119.505203 124.0
121.491158 112.0
121.868774 132.0
122.00724 56.0
122.564072 192.0
123.159721 144.0
124.009354 128.0
124.047035 120.0
124.069206 144.0
124.564072 140.0
125.064369 204.0
125.498779 152.0
126.403412 156.0
126.954117 124.0
127.04644 136.0
127.403389 96.0
127.500008 244.0
128.062866 720.0
128.107513 128.0
129.072739 568.0
129.365356 48.0
129.455917 48.0
129.630341 204.0
129.868393 124.0
130.075531 164.0
130.733994 120.0
130.868286 228.0
131.048218 200.0
131.536255 128.0
132.052643 112.0
132.091522 148.0
132.132706 28.0
132.306641 112.0
133.032455 144.0
133.058609 152.0
133.492874 108.0
133.520462 76.0
134.031281 204.0
135.041458 172.0
136.049347 160.0
136.72702 112.0
136.780563 196.0
137.022751 184.0
137.05304 268.0
137.318787 56.0
137.584808 112.0
137.645508 36.0
138.18544 52.0
138.335205 184.0
138.487411 184.0
138.656097 100.0
139.181564 32.0
139.533997 180.0
140.061676 544.0
140.910385 184.0
141.069763 308.0
142.077728 172.0
142.120255 72.0
142.645111 100.0
142.737823 196.0
143.05188 160.0
143.085144 160.0
143.795563 72.0
144.057373 140.0
144.089264 152.0
144.237427 136.0
144.512451 132.0
144.596191 212.0
144.917084 128.0
145.015335 28.0
145.065659 192.0
145.807343 124.0
146.068909 484.0
146.100693 136.0
146.288391 60.0
146.736481 156.0
146.811234 156.0
147.03801 152.0
147.071793 180.0
147.791962 200.0
147.862137 236.0
148.329605 96.0
148.419296 180.0
148.489624 228.0
148.625473 244.0
148.712845 204.0
149.024948 296.0
150.756165 156.0
150.805054 84.0
151.040329 284.0
151.066681 164.0
151.299164 128.0
151.379959 128.0
151.480377 128.0
151.875031 220.0
152.061493 216.0
152.437241 36.0
153.020172 36.0
153.070374 344.0
153.404495 312.0
153.939896 188.0
154.421799 208.0
154.708832 92.0
155.028351 140.0
155.090118 172.0
155.248978 184.0
155.273788 164.0
155.410217 128.0
155.844727 164.0
156.055984 180.0
157.022171 160.0
157.065353 552.0
157.456436 216.0
158.071732 808.0
158.108948 96.0
158.264145 184.0
158.384354 220.0
158.868149 104.0
159.076431 224.0
160.039322 188.0
160.082123 132.0
160.530685 160.0
161.055618 260.0
161.096039 172.0
161.196686 120.0
161.690231 156.0
162.027008 132.0
162.09996 172.0
162.963196 160.0
163.03273 128.0
163.380142 32.0
164.047028 188.0
165.017471 148.0
165.053909 324.0
165.065582 236.0
165.069305 164.0
166.022369 196.0
166.480591 152.0
166.876297 88.0
167.051178 176.0
167.736145 144.0
168.019821 76.0
168.056458 368.0
168.275314 220.0
168.691254 192.0
168.724854 100.0
168.748123 168.0
169.062653 532.0
169.125809 172.0
170.045929 108.0
170.070114 176.0
170.386093 28.0
170.749283 72.0
170.874863 60.0
171.045715 168.0
171.07782 340.0
171.116898 44.0
171.611923 76.0
171.737106 68.0
172.050018 320.0
172.085129 228.0
172.478653 52.0
173.037292 176.0
173.060242 332.0
173.098694 472.0
173.172012 148.0
173.371124 188.0
174.067154 180.0
174.973404 176.0
175.054611 176.0
175.074463 200.0
175.455521 56.0
176.051834 216.0
176.079437 192.0
176.276382 144.0
176.831741 160.0
176.97998 124.0
177.018524 732.0
177.054993 472.0
177.157425 164.0
177.650497 76.0
178.015579 300.0
178.633377 156.0
178.856903 180.0
179.032379 1108.0
179.728363 240.0
180.041473 176.0
180.08609 196.0
181.06282 572.0
181.247116 196.0
182.076035 128.0
182.60817 108.0
182.643127 204.0
182.726532 92.0
182.861069 84.0
183.044632 196.0
183.507584 136.0
183.71254 228.0
184.051407 772.0
184.836487 96.0
184.858124 160.0
185.026001 204.0
185.059952 496.0
185.681686 108.0
185.996414 168.0
186.064499 852.0
186.118591 84.0
187.074265 436.0
187.135483 124.0
187.217178 64.0
187.715866 184.0
187.849503 156.0
188.079971 144.0
188.106598 148.0
188.201569 76.0
189.02359 180.0
189.052277 292.0
189.090057 632.0
189.155685 40.0
189.599396 48.0
189.752884 116.0
190.024414 140.0
190.061722 100.0
190.092072 200.0
190.189056 136.0
191.043655 180.0
191.10968 108.0
191.225266 104.0
191.420715 120.0
191.541901 92.0
191.616287 236.0
192.02977 112.0
192.173203 140.0
192.755814 128.0
193.048874 332.0
193.087555 200.0
193.353134 116.0
193.810059 228.0
193.929214 220.0
194.050201 380.0
194.145462 84.0
194.275833 64.0
194.669952 244.0
195.038345 220.0
195.236862 108.0
195.373154 44.0
195.98288 76.0
196.016312 140.0
196.052017 272.0
196.077621 116.0
196.16124 160.0
197.061386 1320.0
198.066772 320.0
198.633179 216.0
198.781876 208.0
199.037888 216.0
199.070786 592.0
199.132797 88.0
199.807434 204.0
199.829941 124.0
200.045242 348.0
200.080414 460.0
200.100128 80.0
200.336685 448.0
200.390213 160.0
201.056305 912.0
201.086548 408.0
201.12059 116.0
201.174225 128.0
201.490524 200.0
202.062683 168.0
202.093323 228.0
202.171967 124.0
202.531525 124.0
202.667511 136.0
203.060974 356.0
203.072205 284.0
203.243103 152.0
203.367966 200.0
203.402023 180.0
203.609283 172.0
204.040634 180.0
204.171997 156.0
205.054565 204.0
205.781967 124.0
206.259048 228.0
206.510651 176.0
206.562149 140.0
207.037445 256.0
207.063034 188.0
207.988297 164.0
208.049576 144.0
208.761978 80.0
209.059616 276.0
210.066696 132.0
211.039948 200.0
211.075989 336.0
212.045853 496.0
212.07695 144.0
212.984497 168.0
213.009506 248.0
213.056839 460.0
213.095535 128.0
213.327393 164.0
213.516388 132.0
213.914993 168.0
213.973221 80.0
214.062592 2428.0
214.261551 36.0
214.34021 76.0
214.395584 68.0
214.67543 72.0
214.72551 196.0
214.859192 36.0
215.035202 384.0
215.065002 556.0
215.451828 112.0
215.513184 84.0
215.688522 48.0
215.937057 148.0
216.040985 988.0
216.077927 272.0
216.61026 52.0
216.674713 132.0
216.824142 156.0
217.043732 232.0
217.085266 1376.0
217.164246 196.0
217.240509 80.0
217.451767 96.0
217.492859 192.0
217.809982 56.0
217.965683 120.0
218.059723 140.0
218.089401 288.0
218.421371 68.0
218.659698 212.0
219.06604 164.0
219.09549 176.0
219.186829 84.0
219.219238 60.0
219.690994 120.0
219.72049 64.0
220.996826 132.0
221.047638 576.0
221.390518 72.0
221.65712 60.0
222.047333 148.0
222.170395 176.0
222.259064 124.0
222.478683 48.0
223.072815 152.0
224.045929 124.0
225.055389 604.0
225.086838 248.0
225.511047 68.0
226.059402 492.0
226.594299 132.0
226.666214 88.0
226.980957 92.0
227.037292 380.0
227.070511 1732.0
227.424957 60.0
227.722198 68.0
227.77626 76.0
228.044434 536.0
228.076752 360.0
228.109802 88.0
228.892029 140.0
229.003464 136.0
229.046494 952.0
229.084 144.0
229.181198 80.0
229.244476 56.0
229.506714 40.0
230.057327 1420.0
230.94722 48.0
231.031921 128.0
231.063461 384.0
231.091888 180.0
231.703995 200.0
231.792175 76.0
232.063538 172.0
232.638046 92.0
232.723053 56.0
233.041977 184.0
234.040497 68.0
234.722137 56.0
235.037018 140.0
235.347656 84.0
235.674469 96.0
236.487915 164.0
236.830841 68.0
236.996277 172.0
237.054489 184.0
238.054733 120.0
238.662933 92.0
239.035126 92.0
239.059738 160.0
239.090515 100.0
239.164383 172.0
240.043823 244.0
240.17366 144.0
240.202789 164.0
240.240662 72.0
240.758347 108.0
241.049561 552.0
241.086838 144.0
241.444412 44.0
241.834244 68.0
242.007599 244.0
242.056122 5944.0
242.11908 88.0
242.599335 96.0
242.636536 76.0
242.959076 60.0
243.062683 2620.0
243.142136 36.0
243.219727 104.0
243.275604 60.0
243.542648 64.0
243.778763 48.0
243.980789 224.0
244.035172 352.0
244.073425 1036.0
244.164246 68.0
244.462906 108.0
244.540695 124.0
244.56871 44.0
244.627853 112.0
244.783524 120.0
244.876953 64.0
245.038284 172.0
245.079208 352.0
245.132416 48.0
245.690521 60.0
246.036926 88.0
247.015045 172.0
247.061966 100.0
248.208282 188.0
248.506256 136.0
248.625504 136.0
248.78244 116.0
249.039917 192.0
251.040558 456.0
251.798935 36.0
252.039429 284.0
253.048859 1736.0
253.120804 56.0
253.158798 136.0
253.358337 128.0
253.396362 48.0
253.478745 60.0
253.691086 176.0
253.868637 184.0
254.058029 1032.0
255.065659 1236.0
255.138702 68.0
255.20546 68.0
255.396271 40.0
255.644424 212.0
255.873596 208.0
255.90863 220.0
256.066864 364.0
256.096497 212.0
256.606384 68.0
256.800903 32.0
257.042908 592.0
257.080261 1280.0
258.0495 800.0
258.083679 432.0
258.314911 84.0
258.406647 184.0
258.903839 112.0
259.025543 132.0
259.057953 472.0
259.088165 124.0
259.102203 56.0
259.109772 216.0
259.358795 40.0
259.496643 64.0
259.769226 256.0
259.907166 36.0
260.036316 200.0
260.096527 92.0
262.235443 148.0
262.780426 128.0
264.940033 44.0
264.965973 164.0
265.053436 224.0
265.092316 136.0
265.163635 180.0
265.935547 152.0
266.172516 116.0
267.030457 96.0
267.652954 96.0
268.029846 152.0
269.04184 732.0
269.081146 376.0
269.253143 80.0
269.308685 132.0
269.720367 64.0
269.874023 188.0
270.052856 3608.0
270.132385 92.0
270.505432 72.0
270.580719 152.0
270.824615 160.0
271.059814 2496.0
271.11792 28.0
271.25885 108.0
271.895142 84.0
272.019867 136.0
272.06958 892.0
272.331818 72.0
272.975952 148.0
273.028564 136.0
273.075867 3976.0
273.252228 48.0
273.390442 52.0
273.528656 52.0
273.594513 196.0
273.676819 48.0
273.772308 120.0
274.07901 1040.0
274.424744 44.0
274.761139 64.0
274.912933 32.0
275.06662 168.0
275.421356 176.0
276.006317 104.0
276.088989 152.0
277.022339 88.0
277.303986 68.0
278.289215 104.0
280.021729 132.0
280.674896 116.0
281.050262 292.0
281.288757 36.0
282.049835 156.0
283.026337 164.0
283.059174 424.0
283.141083 208.0
283.184631 64.0
283.254944 72.0
283.811279 128.0
284.032623 124.0
284.062897 284.0
284.193634 52.0
284.358093 44.0
284.693787 96.0
285.034607 396.0
285.075226 5380.0
285.490234 84.0
285.54068 68.0
285.706757 96.0
285.786255 32.0
286.043365 344.0
286.081451 1140.0
286.12619 128.0
286.368622 48.0
286.631409 176.0
286.840363 152.0
287.090851 528.0
287.535156 96.0
287.909912 160.0
288.105804 176.0
289.022034 132.0
289.077026 192.0
289.092896 196.0
289.390961 52.0
290.075317 128.0
290.16684 52.0
290.807953 76.0
295.059174 160.0
295.141235 40.0
295.982971 168.0
297.028229 176.0
297.074738 260.0
298.045471 1240.0
299.059784 476.0
300.063171 440.0
300.509705 108.0
300.571808 56.0
301.061676 172.0
302.037506 128.0
302.058105 212.0
303.050964 76.0
310.360107 172.0
311.056213 272.0
312.04541 164.0
313.069702 2076.0
313.175018 116.0
313.211121 64.0
313.393433 84.0
313.690216 56.0
313.858673 68.0
314.031494 80.0
314.073578 116.0
314.204315 108.0
314.891144 196.0
315.012756 72.0
315.086731 2492.0
315.161133 116.0
315.189392 44.0
315.21991 124.0
315.260071 56.0
315.30954 76.0
315.458008 76.0
315.740845 84.0
315.790375 56.0
316.09375 484.0
316.161835 80.0
317.086182 104.0
326.040649 104.0
328.561127 120.0
330.827026 160.0
331.091248 328.0
332.086121 200.0
335.199921 80.0
335.444122 260.0
341.050446 176.0
342.064545 168.0
377.965576 48.0
393.029175 104.0
420.301727 44.0
460.535034 108.0
466.813538 64.0
472.463745 152.0
479.354248 96.0
480.056061 80.0
488.117737 68.0
493.236237 56.0
532.744629 48.0
554.807434 88.0
597.416931 56.0
613.809814 124.0
615.408508 128.0
636.706726 56.0
662.961121 28.0
729.495117 84.0
875.294128 68.0
955.753662 88.0
957.070801 44.0
961.015503 92.0
1018.495728 92.0
1034.110474 220.0
1078.338013 40.0
1145.054932 216.0
1217.146362 72.0
1227.821045 168.0
1237.723022 196.0
1239.481079 164.0
1252.252441 168.0
1281.4375 40.0
1329.260986 216.0
1358.129028 152.0
1372.764282 220.0
1389.109253 192.0
1399.520996 136.0
1405.580811 188.0
1501.200806 128.0
