>compound MLS001148200-01!Ketotifen fumarate salt
>formula C19H19NOS
>ionization [M+H]+
>parentmass 310.125977
#inchi InChI=1S/C19H19NOS/c1-20-9-6-13(7-10-20)18-15-5-3-2-4-14(15)12-17(21)19-16(18)8-11-22-19/h2-5,8,11H,6-7,9-10,12H2,1H3
#inchikey ZCVMWBYGMWKGHF
#origInchi InChI=1S/C19H19NOS.C4H4O4/c1-20-9-6-13(7-10-20)18-15-5-3-2-4-14(15)12-17(21)19-16(18)8-11-22-19;5-3(6)1-2-4(7)8/h2-5,8,11H,6-7,9-10,12H2,1H3;1-2H,(H,5,6)(H,7,8)/b;2-1+
#Ion_Source LC-ESI
#Instrument qTof
#Compound_Source NIH Pharmacologically Active Library
#PI Dorrestein
#Data_Collector VP/LMS
#Scan -1
#Precursor_MZ 310.129
#ExactMass 309.119
#Charge 1
#CAS_Number N/A
#Pubmed_ID N/A
#Smiles CN1CCC(=C2c3ccsc3C(=O)Cc4ccccc24)CC1.OC(=O)/C=C/C(=O)O
#INCHI_AUX N/A
#Library_Class 1
#SpectrumID CCMSLIB00000084947
#IonMode Positive
#UpdateWorkflowName UPDATE-SINGLE-ANNOTATED-GOLD
#LibraryQualityString Gold
#TaskID d252d724072548979f1f6f1ced849daf
##Scan# 1531
#SpectrumFile p3-C11_GC11_01_18256.mzXML
#LibraryName Pharm_Active_Library.mgf
#MQScore -1
#Organism Pharm_Active_Library
#TIC_Query 0
#RT_Query -1
#MZErrorPPM -1
#SharedPeaks 0
#MassDiff 0
#LibMZ -1
#SpecMZ 310.129
#SpecCharge 0
#internalFilename spec-00000.mgf

>collision 10
44.917061 204.0
44.99728 184.0
45.0853 176.0
45.12207 228.0
45.177563 224.0
45.228416 192.0
45.344948 180.0
45.354328 112.0
45.413326 60.0
45.555618 128.0
45.765434 124.0
45.815266 108.0
45.83952 180.0
45.867825 208.0
46.008125 172.0
46.113491 40.0
46.19104 252.0
46.221684 60.0
46.259579 212.0
46.313747 236.0
46.400219 272.0
46.513077 188.0
46.65844 44.0
46.688354 88.0
46.780884 124.0
46.881676 148.0
46.912323 132.0
46.97303 224.0
47.139606 100.0
47.160069 152.0
47.429764 244.0
47.523022 100.0
47.716686 104.0
47.837753 184.0
47.868717 172.0
47.890083 44.0
47.921768 108.0
48.14386 204.0
48.18668 92.0
48.204643 172.0
48.22123 152.0
48.297276 128.0
48.345703 136.0
48.370548 164.0
48.389999 200.0
48.502216 124.0
48.585423 180.0
48.618725 156.0
48.772896 136.0
48.834076 64.0
48.871639 168.0
48.931488 152.0
48.996948 96.0
49.085747 164.0
49.176842 168.0
49.211742 188.0
49.266212 248.0
49.371044 156.0
49.424206 144.0
49.46479 152.0
49.578247 140.0
49.59927 144.0
49.679203 172.0
49.690426 136.0
49.752182 196.0
49.774334 224.0
49.986912 172.0
50.085468 232.0
50.134281 192.0
50.164379 208.0
50.20668 160.0
50.480656 40.0
50.52026 116.0
50.603764 152.0
50.613674 148.0
50.662018 152.0
50.756176 128.0
50.80257 204.0
50.853268 228.0
50.888481 164.0
50.972565 140.0
51.013783 108.0
51.157467 188.0
51.260582 228.0
51.493504 224.0
51.588299 180.0
51.635487 192.0
51.651222 136.0
51.666958 224.0
51.724201 148.0
51.780045 40.0
51.85598 132.0
51.894688 144.0
51.939144 172.0
51.993668 192.0
52.042477 236.0
52.061142 140.0
52.071198 32.0
52.099926 124.0
52.11142 144.0
52.173222 112.0
52.26815 52.0
52.283981 164.0
52.353085 164.0
52.371136 168.0
52.433994 252.0
52.48999 112.0
52.500084 52.0
52.530373 188.0
52.59964 176.0
52.614079 184.0
52.634293 176.0
52.648731 36.0
52.689178 64.0
52.839542 128.0
52.909012 196.0
53.026348 132.0
53.100292 148.0
53.201866 96.0
53.24688 224.0
53.281746 244.0
53.331154 236.0
53.350052 192.0
53.42131 112.0
53.534843 212.0
53.631001 184.0
53.718494 128.0
53.731625 144.0
53.830883 188.0
53.946312 108.0
54.019428 220.0
54.053082 176.0
54.123344 184.0
54.379898 180.0
54.423943 156.0
54.456249 92.0
54.482517 136.0
54.525372 172.0
54.657661 188.0
54.667961 140.0
54.679733 80.0
55.132511 124.0
55.162071 204.0
55.579735 148.0
55.59309 156.0
55.73119 108.0
55.789154 132.0
55.876904 184.0
56.073467 184.0
56.110737 216.0
56.124153 216.0
56.191883 192.0
56.24052 204.0
56.45866 40.0
56.479599 56.0
56.517002 116.0
56.590347 152.0
56.612808 192.0
56.623291 36.0
56.79866 228.0
56.824165 176.0
56.837669 112.0
56.884193 204.0
56.973572 148.0
57.208912 160.0
57.4259 144.0
57.440987 92.0
57.462105 80.0
57.492287 52.0
57.516434 144.0
57.641792 252.0
57.829323 120.0
57.874741 192.0
57.888371 96.0
57.929264 148.0
57.968658 184.0
58.22049 200.0
58.335968 132.0
58.422653 228.0
58.495701 156.0
58.539856 180.0
58.635834 148.0
58.673943 212.0
58.795975 236.0
58.852455 148.0
58.968559 72.0
58.979259 140.0
59.009834 148.0
59.052654 184.0
59.080189 136.0
59.107731 152.0
59.124561 168.0
59.191921 140.0
59.274643 132.0
59.300179 212.0
59.478626 124.0
59.560009 144.0
59.636837 160.0
59.647598 156.0
59.755249 104.0
59.819016 172.0
59.867619 188.0
59.892262 144.0
59.987801 224.0
60.052567 176.0
60.064907 180.0
60.077248 260.0
60.137428 120.0
60.20845 124.0
60.248611 164.0
60.359898 148.0
60.380001 116.0
60.455811 168.0
60.556442 180.0
60.588974 148.0
60.692329 164.0
60.751759 188.0
60.94075 132.0
60.994011 212.0
61.01733 128.0
61.091984 108.0
61.18536 168.0
61.313091 228.0
61.479866 192.0
61.497135 140.0
61.617378 160.0
61.653316 124.0
61.750252 68.0
61.898926 168.0
61.967846 160.0
61.989784 152.0
62.046211 184.0
62.082275 148.0
62.140316 180.0
62.218792 180.0
62.426201 172.0
62.64183 192.0
62.745846 148.0
62.842056 212.0
62.860992 68.0
62.876774 208.0
62.890976 176.0
63.167637 148.0
63.214973 184.0
63.25296 232.0
63.264042 132.0
63.30521 168.0
63.317879 192.0
63.390755 124.0
63.4716 104.0
63.592171 124.0
63.62233 196.0
63.696968 124.0
63.767372 208.0
63.877991 160.0
63.987999 212.0
64.007103 136.0
64.054886 160.0
64.128181 100.0
64.338753 192.0
64.359505 184.0
64.380264 176.0
64.48571 92.0
64.589645 176.0
64.786545 164.0
64.879501 80.0
64.905151 116.0
64.988831 48.0
65.003006 120.0
65.017448 64.0
65.067207 236.0
65.105743 136.0
65.17643 148.0
65.264839 120.0
65.296997 120.0
65.36618 324.0
65.401581 160.0
65.432167 156.0
65.570702 156.0
65.604553 240.0
65.72068 168.0
65.890213 124.0
65.932228 88.0
66.006592 132.0
66.106888 216.0
66.168396 184.0
66.21122 232.0
66.250992 140.0
66.371338 176.0
66.457016 164.0
66.474747 136.0
66.499092 160.0
66.664749 164.0
66.767166 220.0
67.030899 112.0
67.200478 76.0
67.231483 200.0
67.26413 104.0
67.33107 148.0
67.367004 152.0
67.422562 68.0
67.535667 204.0
67.622093 148.0
67.736717 172.0
67.825203 136.0
67.985939 160.0
68.069664 132.0
68.155075 160.0
68.207672 168.0
68.250412 152.0
68.288239 156.0
68.312912 96.0
68.427216 248.0
68.487404 196.0
68.538475 140.0
68.578026 184.0
68.632431 128.0
68.659622 188.0
68.672012 104.0
68.946083 172.0
68.997322 164.0
69.080009 172.0
69.222351 216.0
69.326721 136.0
69.345604 212.0
69.394684 128.0
69.421211 156.0
69.472633 184.0
69.48922 72.0
69.553947 204.0
69.666862 152.0
69.711731 164.0
69.743309 216.0
69.766579 252.0
69.922935 112.0
70.002853 160.0
70.058968 156.0
70.211166 96.0
70.364685 52.0
70.575211 132.0
70.647125 176.0
70.760933 116.0
70.82122 140.0
70.888237 152.0
70.935165 164.0
71.034103 140.0
71.071014 144.0
71.223785 132.0
71.275612 156.0
71.341423 196.0
71.386818 180.0
71.486069 124.0
71.528145 140.0
71.558449 84.0
71.570236 256.0
71.630867 172.0
71.755577 176.0
71.785927 108.0
71.831467 176.0
71.842308 160.0
71.929344 196.0
72.018837 108.0
72.066139 184.0
72.113457 120.0
72.230125 156.0
72.284271 168.0
72.311348 248.0
72.519676 212.0
72.643463 136.0
72.762314 120.0
72.903244 172.0
72.925667 184.0
73.102211 160.0
73.340652 132.0
73.371384 152.0
73.384979 80.0
73.427612 80.0
73.49585 192.0
73.541924 184.0
73.58596 176.0
73.623878 152.0
73.66658 144.0
73.697334 160.0
73.724327 180.0
73.837509 132.0
73.904221 76.0
74.169678 212.0
74.251976 144.0
74.32756 140.0
74.432167 92.0
74.447128 156.0
74.463081 136.0
74.494003 180.0
74.578201 136.0
74.645248 216.0
74.793213 124.0
74.834061 220.0
74.874138 140.0
74.939598 176.0
74.994743 208.0
75.046463 184.0
75.067154 64.0
75.111992 132.0
75.158577 120.0
75.175049 168.0
75.194817 128.0
75.251785 164.0
75.277687 192.0
75.301865 144.0
75.319138 196.0
75.453934 160.0
75.505806 128.0
75.690979 144.0
75.853836 144.0
75.93013 156.0
75.996048 64.0
76.041168 164.0
76.100189 168.0
76.282608 216.0
76.486137 112.0
76.529663 144.0
76.649323 212.0
76.691673 160.0
76.7649 276.0
76.785828 168.0
76.951607 120.0
77.042427 220.0
77.147278 148.0
77.169174 144.0
77.201485 84.0
77.227722 180.0
77.27845 60.0
77.32045 224.0
77.362457 352.0
77.393974 32.0
77.441261 44.0
77.493813 104.0
77.577934 188.0
77.608467 164.0
77.634048 80.0
77.699692 208.0
77.716492 128.0
77.84288 152.0
78.004517 172.0
78.127617 148.0
78.286034 144.0
78.358253 136.0
78.508087 184.0
78.559235 76.0
78.665115 160.0
78.730446 152.0
78.75164 184.0
78.764008 96.0
78.786972 128.0
78.804642 132.0
78.817009 96.0
78.90715 136.0
78.921295 128.0
79.04158 116.0
79.076973 140.0
79.100037 148.0
79.124687 180.0
79.151329 224.0
79.2966 196.0
79.337364 152.0
79.355095 152.0
79.605293 44.0
79.681671 152.0
79.722542 96.0
79.905685 136.0
79.960854 144.0
80.030373 148.0
80.048088 216.0
80.12468 184.0
80.144279 188.0
80.160316 72.0
80.347534 200.0
80.426056 160.0
80.456398 88.0
80.476036 204.0
80.504608 168.0
80.5439 276.0
80.579636 176.0
80.710114 172.0
80.724419 208.0
80.796532 152.0
80.865753 172.0
80.90155 160.0
81.077087 168.0
81.091431 172.0
81.15538 232.0
81.274345 160.0
81.328186 180.0
81.382042 180.0
81.396408 236.0
81.471848 96.0
81.565292 160.0
81.612038 176.0
81.678581 172.0
81.707359 72.0
81.842354 148.0
81.865761 148.0
81.963036 196.0
82.139725 160.0
82.159569 108.0
82.304855 156.0
82.340073 140.0
82.387039 88.0
82.406914 136.0
82.509933 176.0
82.569603 148.0
82.60759 156.0
82.772293 136.0
82.967972 176.0
83.00061 176.0
83.024185 156.0
83.044136 200.0
83.062271 180.0
83.098557 136.0
83.169334 176.0
83.334595 136.0
83.403648 160.0
83.44001 72.0
83.523659 180.0
83.554588 116.0
83.581879 136.0
83.660141 56.0
83.820427 128.0
83.855049 220.0
83.933441 92.0
83.965263 168.0
83.991798 196.0
84.039001 188.0
84.059303 188.0
84.276459 104.0
84.309494 204.0
84.437469 128.0
84.479538 104.0
84.74501 176.0
84.950348 184.0
85.009064 184.0
85.159607 44.0
85.350731 204.0
85.5476 160.0
85.619408 220.0
85.919868 108.0
85.967842 204.0
86.049637 128.0
86.055122 252.0
86.100761 132.0
86.172806 152.0
86.335472 112.0
86.363213 100.0
86.492744 232.0
86.715012 172.0
86.818832 80.0
86.86335 156.0
86.898598 204.0
86.911583 120.0
86.92643 228.0
86.985825 60.0
87.100952 148.0
87.158546 176.0
87.264496 200.0
87.348183 108.0
87.68222 120.0
87.722481 164.0
87.77655 80.0
87.795197 136.0
87.823174 132.0
87.843689 140.0
87.897797 152.0
88.133072 220.0
88.146156 240.0
88.220917 112.0
88.55587 120.0
88.5746 124.0
88.589584 176.0
88.606445 152.0
88.627052 112.0
88.872688 140.0
88.962776 124.0
89.069809 204.0
89.129929 92.0
89.218269 284.0
89.316055 148.0
89.530624 100.0
89.59655 156.0
89.624809 164.0
89.712395 144.0
89.732246 144.0
89.775955 88.0
89.805794 104.0
89.84729 112.0
89.871819 88.0
89.915222 208.0
89.966187 160.0
90.026611 204.0
90.058716 112.0
90.149399 132.0
90.200432 144.0
90.310104 176.0
90.348206 172.0
90.543503 140.0
90.637627 96.0
90.65847 112.0
90.671738 184.0
90.803352 248.0
90.908798 140.0
90.980919 216.0
91.054024 552.0
91.149963 48.0
91.186073 68.0
91.205078 248.0
91.309654 176.0
91.4851 216.0
91.517082 160.0
91.530411 132.0
91.555161 196.0
91.610405 204.0
91.656128 48.0
91.730453 212.0
91.781937 128.0
91.913551 180.0
91.928818 192.0
92.209053 168.0
92.257339 164.0
92.358696 180.0
92.460098 92.0
92.530922 152.0
92.563477 144.0
92.582626 76.0
92.666908 124.0
92.730148 184.0
92.774239 128.0
92.837509 220.0
92.86628 156.0
92.937256 140.0
92.975639 344.0
93.040901 148.0
93.058182 96.0
93.094635 228.0
93.225296 96.0
93.326141 168.0
93.421417 224.0
93.598557 144.0
93.62545 116.0
93.658188 128.0
93.671677 192.0
93.86248 100.0
93.875977 132.0
94.022598 120.0
94.064827 2460.0
94.113327 60.0
94.155807 56.0
94.26786 256.0
94.291054 196.0
94.323906 188.0
94.407051 168.0
94.461769 232.0
94.478615 252.0
94.494095 228.0
94.546341 256.0
94.586983 116.0
94.61129 212.0
94.639259 200.0
94.665703 140.0
94.974525 136.0
95.006035 180.0
95.038544 72.0
95.064232 220.0
95.096764 64.0
95.110352 56.0
95.555382 64.0
95.638916 216.0
95.713036 148.0
95.799782 208.0
95.870827 108.0
95.981941 196.0
96.030693 192.0
96.081108 27404.0
96.144798 64.0
96.188751 36.0
96.272705 80.0
96.292236 72.0
96.399681 44.0
96.43486 144.0
96.479347 184.0
96.526749 80.0
96.565079 144.0
96.651939 104.0
96.73243 160.0
96.767418 108.0
96.787003 40.0
96.881012 136.0
96.920197 176.0
96.935875 116.0
96.986832 104.0
97.01001 1524.0
97.031921 180.0
97.085976 1644.0
97.151085 168.0
97.234795 208.0
97.257515 72.0
97.349792 128.0
97.396927 64.0
97.489273 140.0
97.506958 36.0
97.628853 200.0
97.660316 124.0
97.678024 64.0
97.852318 88.0
97.898888 72.0
98.01712 188.0
98.057823 216.0
98.098152 164.0
98.101921 216.0
98.13887 80.0
98.162529 100.0
98.182251 160.0
98.271019 124.0
98.361801 120.0
98.455917 64.0
98.588936 212.0
98.713478 152.0
98.766884 164.0
98.784683 120.0
98.800507 176.0
98.873177 204.0
99.004387 348.0
99.095505 164.0
99.133888 108.0
99.168831 164.0
99.42865 36.0
99.44651 152.0
99.732529 172.0
99.88166 204.0
100.355644 176.0
100.403503 156.0
100.457359 148.0
100.568359 208.0
100.657494 160.0
100.842743 156.0
100.982697 216.0
101.029465 180.0
101.084732 200.0
101.162788 192.0
101.182808 176.0
101.204834 168.0
101.300964 120.0
101.333023 196.0
101.443245 128.0
101.549522 160.0
101.645813 208.0
101.790344 204.0
101.830513 52.0
101.858635 88.0
101.965126 204.0
102.001465 100.0
102.047546 204.0
102.212479 172.0
102.252731 180.0
102.297012 144.0
102.407761 40.0
102.484314 144.0
102.538719 168.0
102.56694 188.0
102.607262 128.0
102.716156 204.0
102.79081 132.0
102.883652 252.0
103.053223 516.0
103.241295 92.0
103.306023 164.0
103.328278 32.0
103.401802 204.0
103.546898 188.0
103.561073 52.0
103.589432 156.0
103.715065 108.0
103.828606 156.0
103.859032 252.0
104.059937 136.0
104.096489 172.0
104.165543 164.0
104.206177 128.0
104.248848 260.0
104.30899 108.0
104.726959 76.0
104.860641 196.0
104.932777 304.0
105.067917 604.0
105.106155 148.0
105.20208 148.0
105.312347 40.0
105.443108 256.0
105.469681 144.0
105.500343 52.0
105.666 92.0
105.725342 128.0
105.741714 180.0
105.758087 240.0
105.973114 112.0
106.071487 180.0
106.113647 176.0
106.204765 172.0
106.286827 232.0
106.672813 124.0
106.792213 132.0
106.934181 220.0
107.071182 168.0
107.135979 96.0
107.24073 196.0
107.296722 164.0
107.379211 104.0
107.478233 128.0
107.532959 92.0
107.672279 124.0
107.730118 108.0
108.017456 44.0
108.081024 424.0
108.21199 172.0
108.367332 76.0
108.433647 156.0
108.555962 124.0
108.655525 160.0
108.794571 88.0
108.869316 180.0
108.973183 72.0
109.009308 400.0
109.091644 192.0
109.276741 72.0
109.434921 148.0
109.530724 252.0
109.641151 176.0
109.757889 160.0
109.835052 236.0
109.962334 184.0
110.098038 240.0
110.116837 160.0
110.158607 184.0
110.181587 184.0
110.215019 156.0
110.229645 208.0
110.258904 104.0
110.495193 72.0
110.550995 240.0
110.595642 96.0
110.705452 212.0
110.740112 212.0
110.786194 108.0
110.926605 152.0
110.987823 1304.0
111.02758 716.0
111.197182 164.0
111.283249 240.0
111.520638 224.0
111.749855 100.0
111.775108 180.0
111.909821 120.0
112.028427 152.0
112.077415 144.0
112.18792 52.0
112.362968 112.0
112.445129 192.0
112.965057 144.0
113.001945 120.0
113.006645 140.0
113.01738 280.0
113.020462 344.0
113.241661 160.0
113.276245 184.0
113.418213 184.0
113.435173 160.0
113.638771 124.0
113.744881 148.0
113.772476 136.0
113.931755 96.0
113.955124 132.0
114.210228 92.0
114.365555 96.0
114.469879 156.0
114.883888 164.0
114.985794 128.0
115.002869 220.0
115.026344 148.0
115.054153 2000.0
115.201454 136.0
115.219238 136.0
115.252731 136.0
115.785393 200.0
115.802528 128.0
115.961075 120.0
116.058899 500.0
116.117592 100.0
116.310699 104.0
116.785561 192.0
116.811378 84.0
116.843643 144.0
116.873764 224.0
116.893135 156.0
117.037354 136.0
117.068077 2180.0
117.131195 168.0
117.198898 104.0
117.244156 136.0
117.384277 192.0
117.46273 96.0
117.878616 160.0
117.90023 172.0
118.069504 268.0
118.131584 192.0
118.250313 184.0
118.31546 120.0
118.402145 132.0
118.467125 120.0
118.612312 80.0
118.67952 124.0
118.887772 140.0
118.968079 152.0
119.015846 184.0
119.033211 108.0
119.05188 148.0
119.074478 164.0
119.11792 156.0
119.428757 84.0
119.463562 192.0
119.513603 176.0
119.570183 240.0
119.979691 204.0
120.101807 184.0
120.202164 188.0
120.466354 192.0
120.564674 252.0
120.726448 172.0
120.74176 188.0
120.905846 136.0
121.012062 520.0
121.256256 192.0
121.308868 152.0
121.396568 124.0
121.530373 120.0
121.800407 116.0
121.829926 128.0
121.857521 140.0
121.897079 96.0
121.998184 176.0
122.247894 120.0
122.262566 140.0
122.460274 152.0
122.70974 176.0
122.894562 136.0
123.026054 2992.0
123.055626 156.0
123.062714 152.0
123.069313 184.0
123.102058 76.0
123.192612 124.0
123.347298 152.0
123.433525 304.0
123.47554 52.0
123.533051 156.0
123.607857 168.0
123.665817 100.0
123.725586 164.0
123.798653 140.0
123.814156 108.0
123.878387 120.0
123.898331 156.0
124.02301 60.0
124.038269 376.0
124.075966 160.0
124.266365 144.0
124.367241 200.0
124.406181 188.0
124.530533 132.0
124.708282 200.0
124.906174 80.0
124.96624 196.0
125.005692 348.0
125.045448 216.0
125.093094 56.0
125.47628 160.0
125.529793 112.0
125.62793 148.0
125.81897 164.0
125.886841 228.0
126.009689 224.0
126.09684 148.0
126.161667 100.0
126.264526 160.0
126.327156 88.0
126.472603 204.0
126.698776 164.0
126.761513 64.0
126.824265 128.0
126.88031 188.0
127.054268 572.0
127.237022 232.0
127.279686 140.0
127.569511 168.0
127.785416 120.0
127.807915 144.0
128.061264 2212.0
128.102432 352.0
128.292145 188.0
128.31694 128.0
128.531219 80.0
128.600845 184.0
128.72084 136.0
128.830307 180.0
128.910583 140.0
128.953537 152.0
129.023605 84.0
129.069 5288.0
129.095505 120.0
129.124084 196.0
129.238464 192.0
129.356155 100.0
129.485214 48.0
129.564499 108.0
129.621674 208.0
129.88414 96.0
129.947662 124.0
129.965805 120.0
130.071854 604.0
130.115601 144.0
130.329102 136.0
130.34729 84.0
130.579483 124.0
130.713211 156.0
130.881836 164.0
130.98204 120.0
131.049988 240.0
131.098236 128.0
131.152939 104.0
131.28653 196.0
131.307983 52.0
131.935928 104.0
132.047974 120.0
132.087875 144.0
132.185242 180.0
132.20813 132.0
132.228714 160.0
132.414169 60.0
132.439362 132.0
132.519547 80.0
132.624954 88.0
132.691437 216.0
132.753357 204.0
132.838211 168.0
133.024094 192.0
133.062073 172.0
133.235367 152.0
133.373245 232.0
133.442215 140.0
133.496368 160.0
133.702148 136.0
133.741272 148.0
133.831055 172.0
133.932388 180.0
133.96463 128.0
134.010712 120.0
134.109238 128.0
134.328857 84.0
134.425766 124.0
134.46962 140.0
134.989426 152.0
135.025314 2012.0
135.143417 188.0
135.149323 216.0
135.173065 196.0
135.230026 40.0
135.308731 212.0
135.433777 188.0
135.563522 204.0
135.651596 232.0
135.716507 156.0
135.79303 168.0
135.837112 80.0
135.860306 140.0
135.922943 124.0
135.973999 236.0
136.032257 168.0
136.159744 152.0
136.213165 160.0
136.287506 52.0
136.310745 76.0
136.373489 176.0
136.608337 84.0
136.689774 104.0
136.70607 112.0
136.738647 136.0
136.759598 148.0
136.913254 168.0
136.955185 200.0
137.004654 888.0
137.035416 236.0
137.204529 120.0
137.307129 156.0
137.372437 124.0
137.453995 188.0
137.500763 232.0
137.533447 68.0
137.782974 56.0
137.960922 124.0
138.005341 116.0
138.077835 156.0
138.22522 216.0
138.339905 144.0
138.480392 140.0
138.556839 164.0
138.599884 236.0
138.649094 168.0
138.721756 224.0
138.923431 136.0
139.018784 428.0
139.054825 48.0
139.216812 240.0
139.414154 60.0
139.463516 52.0
139.522278 64.0
139.599869 176.0
139.719833 124.0
139.96225 216.0
140.030273 140.0
140.045425 248.0
140.077652 180.0
140.115356 188.0
140.144562 220.0
140.280319 160.0
140.557419 236.0
140.721481 132.0
140.943512 156.0
140.978958 96.0
141.069275 6372.0
141.157303 172.0
141.189362 140.0
141.331299 104.0
141.388092 136.0
141.487503 152.0
141.584595 188.0
141.639069 72.0
141.72673 152.0
141.759903 104.0
141.793076 168.0
141.845215 132.0
141.994598 224.0
142.074509 984.0
142.09462 172.0
142.174911 204.0
142.345825 176.0
142.364822 164.0
142.3862 140.0
142.550125 160.0
142.745041 160.0
142.818771 212.0
142.930588 44.0
143.009125 148.0
143.071014 100.0
143.089539 260.0
143.156738 84.0
143.22818 56.0
143.502243 112.0
143.538498 216.0
143.650101 164.0
144.058319 184.0
144.103714 164.0
144.385773 116.0
144.414474 160.0
144.502991 60.0
144.608276 92.0
144.634613 40.0
144.658554 192.0
145.065247 652.0
145.106537 164.0
145.231247 268.0
145.303207 196.0
145.922852 76.0
146.019043 140.0
146.06955 152.0
146.1297 156.0
146.360764 124.0
146.486008 116.0
146.50528 144.0
146.804153 144.0
146.869278 148.0
146.92717 152.0
146.944061 108.0
147.026459 712.0
147.0961 176.0
147.265121 188.0
147.318268 72.0
147.400406 148.0
147.448746 216.0
147.547852 200.0
147.925247 96.0
147.963974 192.0
147.982269 184.0
148.032349 340.0
148.077789 84.0
148.249802 160.0
148.278885 160.0
148.565002 104.0
148.75914 128.0
148.785843 232.0
149.005783 156.0
149.079758 160.0
149.186691 96.0
149.211426 140.0
149.252335 40.0
149.361786 144.0
149.507767 136.0
149.681793 112.0
149.790207 188.0
150.009521 140.0
150.038773 516.0
150.070465 136.0
150.131424 120.0
150.202164 196.0
150.372955 60.0
150.485245 164.0
150.636658 168.0
150.96907 128.0
151.0233 276.0
151.051483 368.0
151.360611 284.0
151.451218 168.0
151.703613 152.0
151.779617 204.0
152.019836 172.0
152.061874 2032.0
152.108368 84.0
152.20166 148.0
152.388336 164.0
152.465683 152.0
152.675934 88.0
152.835831 212.0
152.990891 200.0
153.069962 2848.0
153.100006 204.0
153.155304 172.0
153.21254 88.0
153.47757 180.0
153.508316 164.0
153.582306 80.0
153.725403 140.0
153.787094 208.0
153.863617 164.0
153.92041 188.0
154.07811 812.0
154.140259 148.0
154.225708 152.0
154.323166 236.0
154.350372 92.0
154.387451 212.0
154.434448 164.0
154.451767 224.0
154.476501 160.0
154.610107 68.0
154.66951 176.0
154.756165 168.0
154.798248 180.0
154.823013 92.0
154.904755 152.0
154.981552 176.0
155.013763 92.0
155.060608 480.0
155.085938 4804.0
155.130264 160.0
155.179138 108.0
155.232605 156.0
155.259201 200.0
155.360886 188.0
155.472549 136.0
155.596664 52.0
155.70343 112.0
155.725784 148.0
155.7854 48.0
155.845566 188.0
155.862427 200.0
155.982986 164.0
156.08754 548.0
156.153275 56.0
156.235367 228.0
156.310013 168.0
156.369736 120.0
156.519104 108.0
156.733322 48.0
156.803101 104.0
157.067078 248.0
157.085327 184.0
157.11322 68.0
157.17717 160.0
157.446777 84.0
157.496735 96.0
157.571671 208.0
157.659134 72.0
157.852524 88.0
157.88913 132.0
157.959167 160.0
158.085831 128.0
158.119293 120.0
158.35965 124.0
158.492432 220.0
158.557587 196.0
158.600189 60.0
158.825867 200.0
158.878387 220.0
159.022934 168.0
159.091858 176.0
159.240005 120.0
159.435974 208.0
159.541534 160.0
159.777939 144.0
159.810654 120.0
159.871048 152.0
159.969208 156.0
160.094193 156.0
160.131973 268.0
160.158066 68.0
160.188293 120.0
160.246231 84.0
160.266266 164.0
160.306702 224.0
160.367188 164.0
160.445328 132.0
160.470551 176.0
160.768188 88.0
160.803528 156.0
160.844238 248.0
160.919647 116.0
161.042526 516.0
161.129272 152.0
161.177277 192.0
161.328934 96.0
161.366852 96.0
161.618088 204.0
161.728607 72.0
161.814667 140.0
161.855179 196.0
162.040085 124.0
162.100891 116.0
162.440643 108.0
162.656326 132.0
162.68425 140.0
162.702026 160.0
162.872162 168.0
162.912811 164.0
163.024612 204.0
163.055099 208.0
163.154236 52.0
163.192368 104.0
163.665634 136.0
163.836273 156.0
164.058273 180.0
164.129379 104.0
164.609116 128.0
164.636276 224.0
164.798126 352.0
165.005157 136.0
165.023056 52.0
165.070358 6084.0
165.148361 48.0
165.18161 52.0
165.227661 184.0
165.319778 164.0
165.404236 76.0
165.468231 92.0
165.678238 104.0
165.752548 76.0
165.821732 84.0
165.937088 136.0
166.008881 176.0
166.075012 1440.0
166.149689 148.0
166.158646 240.0
166.429718 184.0
166.529236 160.0
166.586334 200.0
166.848511 224.0
167.029251 352.0
167.085419 1704.0
167.146866 272.0
167.3116 76.0
167.530502 160.0
167.615158 196.0
167.883621 160.0
167.919724 160.0
167.958405 168.0
168.08577 272.0
168.221619 164.0
168.443695 192.0
168.469528 48.0
168.59613 44.0
168.818466 224.0
168.953934 160.0
169.065506 332.0
169.095947 140.0
169.15741 92.0
169.288803 252.0
169.312759 128.0
169.543335 36.0
169.589981 140.0
169.613312 80.0
169.766281 152.0
169.862244 184.0
169.929688 68.0
170.017914 168.0
170.103577 68.0
170.16069 128.0
170.184052 68.0
170.220398 148.0
170.883224 108.0
170.946838 152.0
171.02536 588.0
171.070602 64.0
171.088821 160.0
171.114853 144.0
171.755936 132.0
172.027023 184.0
172.0952 132.0
172.189209 176.0
172.421738 200.0
172.973618 148.0
173.041428 80.0
173.151276 268.0
173.280014 164.0
173.49231 212.0
173.728333 108.0
173.938263 160.0
174.089127 152.0
174.2061 140.0
174.350327 164.0
174.531998 204.0
174.592484 164.0
174.71611 68.0
175.019852 448.0
175.097794 172.0
175.150467 188.0
175.485153 160.0
175.66713 192.0
176.025894 112.0
176.054474 312.0
176.245316 148.0
176.462051 136.0
176.517578 108.0
176.67363 108.0
176.967407 156.0
177.02095 180.0
177.066437 372.0
177.19783 44.0
177.46817 224.0
177.555679 168.0
177.765259 224.0
177.823654 64.0
177.850189 172.0
177.953506 196.0
177.990891 116.0
178.014801 156.0
178.077637 7376.0
178.142288 84.0
178.167267 208.0
178.21402 40.0
178.277786 156.0
178.373474 60.0
178.801697 144.0
178.937454 160.0
179.006683 88.0
179.08461 3100.0
179.241104 156.0
179.409012 44.0
179.582336 80.0
179.611679 140.0
179.793121 188.0
179.833145 100.0
179.929245 68.0
180.090057 1092.0
180.150909 184.0
180.201035 204.0
180.316574 76.0
180.681641 160.0
180.765854 172.0
180.784592 224.0
181.00946 144.0
181.066315 420.0
181.096161 184.0
181.138016 88.0
181.513229 92.0
181.913879 220.0
181.96936 160.0
181.99353 196.0
182.057251 220.0
182.06691 160.0
182.103638 152.0
182.153061 120.0
182.264816 172.0
182.294388 200.0
182.377701 116.0
182.405548 176.0
182.722977 120.0
182.824158 184.0
182.888748 184.0
182.918365 168.0
182.974899 44.0
183.022736 208.0
183.078705 904.0
183.105301 112.0
183.109787 152.0
183.202423 164.0
183.54071 108.0
183.813156 180.0
184.034058 7140.0
184.075027 348.0
184.112183 400.0
184.150604 128.0
184.16951 60.0
184.3181 140.0
184.339722 84.0
184.445129 152.0
184.710129 52.0
184.753403 108.0
184.885986 132.0
184.961777 108.0
184.980728 116.0
185.041473 9380.0
185.12059 568.0
185.148087 128.0
185.183807 44.0
185.251526 124.0
185.300293 56.0
185.484573 52.0
185.587585 72.0
185.643051 44.0
185.726959 132.0
185.761154 92.0
185.785568 92.0
185.834412 128.0
186.044296 1404.0
186.080612 196.0
186.124832 168.0
186.205322 144.0
186.266068 100.0
186.309525 160.0
186.436356 124.0
186.497025 184.0
186.540512 132.0
186.65802 200.0
186.782532 48.0
186.812454 100.0
186.907684 140.0
186.940338 232.0
187.036865 684.0
187.068253 116.0
187.209839 176.0
187.299713 108.0
187.419586 80.0
187.501343 48.0
187.561493 120.0
187.643082 60.0
187.690628 184.0
187.801254 88.0
188.037125 348.0
188.060455 172.0
188.081543 144.0
188.117783 152.0
188.295258 84.0
188.360809 76.0
188.43457 32.0
188.705902 148.0
189.068314 2304.0
189.208572 204.0
189.227737 172.0
189.246902 52.0
189.435867 192.0
189.507095 116.0
189.567383 140.0
189.622192 144.0
189.646866 140.0
189.888138 120.0
189.997864 144.0
190.04451 188.0
190.077576 5580.0
190.138626 52.0
190.189957 148.0
190.217407 32.0
190.286041 192.0
190.336929 120.0
190.398621 124.0
190.456299 60.0
190.481018 68.0
190.516724 36.0
190.544205 132.0
190.602341 188.0
190.705551 140.0
190.992294 60.0
191.0849 5028.0
191.275711 236.0
191.294983 324.0
191.471207 40.0
191.57312 40.0
191.653015 68.0
191.727417 76.0
192.032135 84.0
192.041214 44.0
192.051743 120.0
192.092987 1836.0
192.145004 100.0
192.212769 160.0
192.287277 132.0
192.317642 156.0
192.527466 124.0
192.550919 204.0
192.607559 56.0
192.687668 144.0
192.773331 156.0
192.842422 112.0
192.867294 124.0
192.903229 116.0
192.980637 200.0
193.029266 48.0
193.061615 316.0
193.097672 1324.0
193.343018 36.0
193.428818 76.0
193.459274 172.0
193.658646 44.0
193.689102 112.0
193.736206 116.0
193.833176 60.0
193.885818 52.0
193.908005 108.0
193.974518 156.0
194.069397 472.0
194.103607 372.0
194.37944 192.0
194.415527 176.0
194.807022 164.0
194.995972 148.0
195.026535 192.0
195.06546 164.0
195.091965 148.0
195.134949 76.0
195.301804 168.0
195.688629 200.0
195.819504 28.0
195.987778 200.0
196.035889 300.0
196.109726 124.0
196.415985 140.0
196.516418 172.0
196.700607 180.0
196.870926 208.0
196.915176 156.0
196.95192 212.0
197.042282 11908.0
197.094391 76.0
197.118088 344.0
197.172638 132.0
197.220154 48.0
197.341965 192.0
197.362732 72.0
197.399078 140.0
197.443832 372.0
197.486359 96.0
197.564102 56.0
197.592087 112.0
197.869156 76.0
197.923248 216.0
197.958755 180.0
198.04689 3548.0
198.098801 176.0
198.129852 464.0
198.222076 48.0
198.524826 140.0
198.59494 156.0
198.684708 56.0
198.775925 232.0
199.045822 784.0
199.243393 196.0
199.487885 52.0
199.622849 72.0
199.740967 96.0
200.02063 180.0
200.053146 256.0
200.115265 152.0
200.213821 188.0
200.478638 184.0
200.52655 128.0
200.650574 112.0
200.718948 192.0
200.867722 80.0
201.04628 168.0
201.389923 124.0
201.514206 60.0
201.567902 180.0
201.836441 172.0
201.92128 64.0
202.008957 144.0
202.034424 76.0
202.078018 2988.0
202.204193 36.0
202.226837 84.0
202.291946 104.0
202.357056 40.0
202.413681 164.0
202.725296 200.0
202.875504 32.0
202.918976 180.0
202.937881 236.0
203.055313 172.0
203.085587 4860.0
203.148865 184.0
203.261246 48.0
203.283936 136.0
203.329346 100.0
203.471283 184.0
203.817795 48.0
203.883148 48.0
204.043488 164.0
204.091965 3280.0
204.181656 156.0
204.289749 156.0
204.400711 52.0
204.426315 60.0
204.549606 88.0
204.648346 112.0
204.668274 124.0
204.746475 148.0
204.782196 32.0
204.933167 232.0
205.027206 124.0
205.064316 472.0
205.101028 12828.0
205.169724 100.0
205.202469 72.0
205.300888 84.0
205.346527 52.0
205.428268 140.0
205.569839 144.0
205.600433 100.0
205.674652 36.0
205.740295 100.0
205.925903 64.0
205.985886 216.0
206.008743 284.0
206.071838 436.0
206.105652 2792.0
206.177322 88.0
206.206711 72.0
206.263077 96.0
206.354553 220.0
206.474655 96.0
206.549011 40.0
206.631973 36.0
206.792221 72.0
206.955399 60.0
206.978302 64.0
207.001221 200.0
207.021637 60.0
207.074203 432.0
207.111725 804.0
207.247559 156.0
207.293411 40.0
207.336395 128.0
207.494049 136.0
207.514114 104.0
207.628815 80.0
207.763626 60.0
207.901352 80.0
207.944412 144.0
207.997589 144.0
208.032379 2036.0
208.085968 188.0
208.110596 112.0
208.162598 36.0
208.194183 180.0
208.33493 124.0
208.375153 176.0
208.441238 164.0
208.469971 144.0
208.530807 72.0
208.682678 136.0
208.859665 96.0
208.955917 104.0
208.996796 196.0
209.041107 5016.0
209.092453 152.0
209.127655 212.0
209.361771 144.0
209.387695 192.0
209.520203 164.0
209.652969 156.0
209.687332 32.0
209.739212 84.0
209.871826 108.0
209.924423 180.0
209.962128 140.0
210.04866 4716.0
210.083237 384.0
210.171799 28.0
210.192001 28.0
210.225754 184.0
210.258377 156.0
210.344955 84.0
210.391144 104.0
210.477768 72.0
210.529739 96.0
210.610611 128.0
210.689911 176.0
210.700394 52.0
210.70903 120.0
210.835968 96.0
210.856201 156.0
210.893784 152.0
210.974716 108.0
211.058044 4096.0
211.269699 44.0
211.292831 84.0
211.333344 144.0
211.388321 68.0
211.434631 80.0
211.521454 56.0
211.559082 44.0
211.677795 156.0
211.831299 92.0
211.878433 172.0
212.059036 568.0
212.107666 240.0
212.559021 104.0
212.59697 104.0
212.701233 144.0
212.852203 56.0
212.892853 76.0
212.918991 168.0
212.973145 136.0
213.037125 20756.0
213.112976 252.0
213.207764 80.0
213.247299 80.0
213.267639 76.0
213.317062 60.0
213.454971 92.0
213.577148 72.0
213.582565 104.0
213.762054 100.0
213.788239 64.0
213.893021 72.0
213.925034 140.0
213.959976 236.0
214.039978 2684.0
214.108475 88.0
214.12886 148.0
214.15654 64.0
214.308807 276.0
214.393982 196.0
214.44899 128.0
214.603867 152.0
214.743835 180.0
214.88678 152.0
215.035339 880.0
215.086212 4488.0
215.248718 144.0
215.298355 60.0
215.333405 160.0
215.366989 156.0
215.42688 36.0
215.473618 40.0
215.549591 152.0
215.616806 100.0
215.640182 136.0
215.698639 112.0
215.742493 108.0
215.801666 184.0
215.94133 40.0
215.991043 108.0
216.034454 148.0
216.091934 2640.0
216.166595 56.0
216.207565 56.0
216.245605 40.0
216.350983 124.0
216.465179 120.0
216.535461 48.0
216.595505 36.0
216.635056 84.0
216.878265 84.0
216.904648 168.0
216.977936 144.0
217.004318 208.0
217.096375 944.0
217.162674 80.0
217.217194 68.0
217.306412 68.0
217.708557 56.0
217.735001 136.0
217.967072 188.0
218.070786 576.0
218.103149 244.0
218.178696 136.0
218.213974 204.0
218.381592 148.0
218.602234 60.0
218.918564 100.0
219.006882 136.0
219.083557 796.0
219.141083 168.0
219.258957 76.0
219.621613 32.0
219.680603 148.0
219.84288 68.0
219.881256 100.0
219.978653 160.0
220.034744 120.0
220.077606 732.0
220.143997 172.0
220.197159 72.0
220.430542 144.0
220.460083 152.0
220.959808 120.0
221.041977 8416.0
221.094055 300.0
221.13736 76.0
221.171631 96.0
221.211349 48.0
221.338654 76.0
221.403809 48.0
221.439346 292.0
221.507477 32.0
221.673386 56.0
221.919418 104.0
221.981125 236.0
222.049652 5076.0
222.09877 316.0
222.13591 128.0
222.27832 80.0
222.45343 52.0
222.566254 36.0
222.643463 76.0
222.711777 100.0
222.732559 156.0
222.800888 40.0
222.863281 76.0
223.05719 4540.0
223.130814 292.0
223.255661 156.0
223.353806 76.0
223.457306 228.0
223.505539 180.0
223.603745 96.0
223.85083 100.0
224.035309 324.0
224.063248 2404.0
224.109985 152.0
224.136932 84.0
224.192505 92.0
224.229187 64.0
224.250046 72.0
224.291779 80.0
224.473633 44.0
224.530304 80.0
224.700317 48.0
224.739105 116.0
224.977875 156.0
225.035019 1100.0
225.069305 1496.0
225.138016 76.0
225.192871 84.0
225.222733 148.0
225.246643 48.0
225.443832 48.0
225.684418 156.0
225.805573 36.0
225.883347 156.0
226.046967 524.0
226.127655 184.0
226.182571 128.0
226.242447 68.0
226.323288 88.0
226.425095 156.0
226.44606 44.0
226.523941 188.0
226.616806 80.0
226.782837 120.0
226.967499 148.0
227.050461 356.0
227.080444 264.0
227.219452 160.0
227.408493 68.0
227.5616 184.0
227.61264 96.0
227.709961 116.0
227.742218 108.0
227.828888 212.0
227.894989 64.0
228.093842 284.0
228.403046 148.0
228.791245 212.0
229.053238 176.0
229.095413 132.0
229.227982 172.0
229.541489 148.0
230.101868 204.0
230.439621 36.0
230.942795 96.0
231.086258 408.0
231.136414 116.0
231.590515 56.0
231.808655 104.0
232.024429 148.0
232.083572 212.0
232.109131 192.0
232.327118 56.0
232.421173 156.0
232.821884 160.0
232.975037 208.0
233.040787 340.0
233.095444 1380.0
233.274597 168.0
233.443542 156.0
233.526978 172.0
233.630402 172.0
233.660828 148.0
233.87384 64.0
233.943863 76.0
233.980392 168.0
234.049362 9832.0
234.100082 604.0
234.135162 260.0
234.199646 32.0
234.257523 128.0
234.400085 108.0
234.449478 76.0
234.543961 64.0
234.789978 180.0
234.839722 120.0
234.876328 232.0
235.003693 120.0
235.05423 3428.0
235.113586 136.0
235.139816 260.0
235.178406 76.0
235.346298 48.0
235.370728 64.0
235.544205 60.0
235.593689 152.0
235.74646 32.0
236.012405 64.0
236.061066 1012.0
236.13472 168.0
236.174484 92.0
236.495758 120.0
236.581467 112.0
236.710068 56.0
236.808075 76.0
236.955109 188.0
237.036331 2704.0
237.075211 1244.0
237.172684 44.0
237.233994 60.0
237.284531 156.0
237.421036 200.0
237.465836 72.0
237.500778 64.0
237.583603 60.0
237.614273 120.0
237.684845 72.0
237.721664 108.0
237.789185 140.0
237.893555 164.0
238.04097 1372.0
238.073929 1040.0
238.14534 116.0
238.17218 76.0
238.440292 44.0
238.550949 104.0
238.615509 72.0
238.802353 184.0
238.852295 48.0
239.053513 1652.0
239.088745 1144.0
239.132294 88.0
239.276978 44.0
239.587662 148.0
239.618835 148.0
239.646576 48.0
239.74826 84.0
240.053253 572.0
240.092499 608.0
240.167557 204.0
240.227188 156.0
240.32489 64.0
240.352661 148.0
240.581055 68.0
240.942383 152.0
241.065094 180.0
241.086243 72.0
241.092606 188.0
241.115433 44.0
241.402939 188.0
242.532974 108.0
242.82132 156.0
243.128464 136.0
243.824127 104.0
244.105469 132.0
244.334091 152.0
245.040161 368.0
245.112442 152.0
246.038696 156.0
246.059189 200.0
246.347992 140.0
246.457352 160.0
246.857452 100.0
247.057571 580.0
247.129593 124.0
247.164017 108.0
247.245377 84.0
247.373703 48.0
247.677444 204.0
247.799622 224.0
247.928101 160.0
248.012711 200.0
248.062775 996.0
248.137405 180.0
248.21022 128.0
248.420364 92.0
248.486237 128.0
248.709045 48.0
248.872299 40.0
248.994766 40.0
249.073685 3724.0
249.129837 32.0
249.176956 40.0
249.327789 72.0
249.40007 104.0
249.544678 108.0
249.635864 36.0
249.736908 64.0
249.80571 148.0
249.956726 120.0
250.00708 32.0
250.044296 3520.0
250.118149 416.0
250.161301 116.0
250.291016 60.0
250.397461 80.0
250.668396 68.0
250.740875 84.0
250.895325 56.0
251.050705 1976.0
251.172836 176.0
251.393677 28.0
251.507309 48.0
251.974091 88.0
252.056152 556.0
252.129501 144.0
252.186401 180.0
252.546844 92.0
253.066513 668.0
253.525146 132.0
253.845322 92.0
254.068008 436.0
254.308517 64.0
254.797546 48.0
255.0168 92.0
255.296585 36.0
255.404709 36.0
256.07312 84.0
256.873169 152.0
257.125244 212.0
257.447693 196.0
257.524323 180.0
257.562653 208.0
257.990875 72.0
258.130402 212.0
258.28186 140.0
259.05777 236.0
259.091766 164.0
259.131531 244.0
259.700806 136.0
260.063416 352.0
260.137207 164.0
260.223907 68.0
261.071991 340.0
261.899353 60.0
262.036133 140.0
262.053467 192.0
262.082977 128.0
262.117249 164.0
262.182861 96.0
262.505249 84.0
262.585876 196.0
262.747162 152.0
263.043701 328.0
263.071411 468.0
263.715912 100.0
264.06131 612.0
264.142731 260.0
264.2883 176.0
264.926117 52.0
265.067383 1536.0
265.214508 68.0
266.061737 256.0
266.091827 108.0
266.785645 52.0
266.857147 148.0
266.980713 96.0
267.07782 688.0
268.101868 104.0
268.984497 112.0
269.088959 136.0
270.295074 68.0
270.985962 92.0
271.592407 152.0
272.163452 96.0
272.79425 112.0
273.985565 44.0
274.06134 188.0
275.054016 176.0
275.074738 128.0
275.141479 160.0
275.169556 88.0
275.291718 68.0
275.681519 96.0
276.082581 348.0
276.127472 144.0
276.79303 184.0
277.048035 148.0
277.081146 256.0
277.705139 52.0
277.810516 132.0
277.873566 148.0
278.102539 116.0
278.142365 240.0
278.467743 84.0
278.726868 36.0
279.075165 396.0
279.095825 172.0
279.215546 172.0
279.689117 72.0
279.957703 88.0
280.11554 328.0
280.174194 108.0
280.267487 56.0
281.067749 168.0
281.099518 84.0
281.131134 132.0
281.748871 28.0
282.12915 236.0
283.093475 112.0
283.123627 144.0
283.566803 156.0
285.24411 108.0
285.291168 56.0
286.920593 60.0
290.067902 136.0
290.100037 360.0
291.23175 76.0
291.979492 116.0
292.115967 1668.0
292.752014 40.0
292.966583 132.0
293.126709 260.0
293.18808 60.0
293.491455 104.0
293.890533 44.0
294.100769 156.0
294.194275 92.0
295.106476 188.0
296.030365 60.0
296.153656 68.0
297.123779 156.0
297.909943 132.0
298.009583 56.0
298.404816 140.0
300.078094 64.0
301.127136 60.0
301.26532 156.0
301.714569 156.0
302.918884 220.0
303.431763 60.0
305.960999 52.0
308.001007 80.0
308.063904 136.0
308.116302 124.0
308.266541 124.0
308.937866 44.0
308.979828 168.0
309.110992 132.0
309.420807 116.0
309.686951 132.0
309.865601 76.0
309.935669 148.0
309.981232 360.0
310.023285 64.0
310.063965 188.0
310.125977 22004.0
310.216064 168.0
310.324738 28.0
310.391357 112.0
310.58075 104.0
310.628143 80.0
310.685974 76.0
310.768799 92.0
310.850891 40.0
310.893005 116.0
311.035828 132.0
311.08252 156.0
311.129303 4028.0
311.191345 72.0
311.22998 128.0
311.441895 136.0
311.570679 32.0
311.658508 44.0
311.759064 104.0
311.848267 100.0
311.939667 184.0
311.978333 60.0
312.125793 736.0
312.171722 44.0
312.467163 60.0
312.630157 88.0
312.667755 68.0
312.988098 108.0
313.128082 232.0
313.22757 36.0
313.255768 116.0
313.372009 120.0
313.400208 96.0
313.978333 48.0
314.384033 36.0
314.412262 84.0
314.500488 48.0
314.952454 48.0
315.563812 188.0
315.673431 88.0
316.105011 52.0
316.303192 84.0
318.903168 36.0
319.948975 36.0
320.864594 80.0
322.975067 140.0
323.275604 92.0
325.62381 76.0
327.235626 88.0
328.442078 64.0
328.799255 108.0
332.34198 64.0
332.686768 40.0
333.017212 56.0
333.478638 84.0
334.304199 116.0
334.624512 36.0
337.920258 52.0
339.095734 112.0
339.990601 184.0
341.250549 88.0
341.725006 96.0
345.617676 120.0
346.424774 144.0
347.22168 108.0
347.934143 108.0
348.71048 52.0
357.187103 104.0
357.386505 124.0
360.414276 80.0
361.836395 48.0
363.929291 52.0
365.092072 52.0
366.580536 60.0
368.251526 192.0
373.271942 52.0
373.437317 100.0
376.11908 108.0
378.074768 52.0
382.14917 112.0
383.773376 56.0
394.792114 104.0
395.06897 76.0
398.828186 48.0
399.388824 32.0
403.492279 76.0
407.174774 100.0
411.043457 36.0
412.004425 100.0
413.848663 108.0
417.439758 152.0
424.500336 84.0
425.661621 52.0
432.145416 56.0
435.528198 44.0
438.04895 96.0
438.198944 80.0
440.389008 68.0
442.664093 52.0
447.690796 64.0
447.863464 80.0
450.11554 64.0
450.529449 40.0
458.719788 56.0
460.541809 36.0
467.814392 56.0
468.80072 48.0
469.123993 48.0
472.544403 56.0
475.391235 40.0
477.059113 148.0
479.344116 100.0
483.295837 104.0
489.625946 64.0
490.692291 40.0
502.333832 96.0
507.077942 64.0
507.185516 156.0
522.207947 32.0
528.375305 80.0
533.902588 76.0
539.694397 44.0
546.229004 32.0
554.170166 84.0
557.027222 120.0
559.533752 56.0
568.585876 68.0
572.246155 52.0
572.27948 52.0
575.889465 144.0
579.510803 68.0
582.634155 100.0
593.663452 56.0
595.337708 48.0
603.445984 72.0
610.162842 36.0
611.19574 36.0
611.505737 108.0
621.507996 132.0
624.508606 104.0
638.679016 84.0
646.595398 80.0
647.025635 208.0
649.691406 112.0
651.224365 76.0
656.75708 20.0
681.676208 84.0
702.684082 60.0
725.972168 228.0
742.800171 200.0
757.162476 84.0
764.23291 44.0
767.17218 192.0
785.451599 92.0
791.369873 160.0
799.402344 160.0
802.737244 180.0
804.215393 44.0
806.921265 124.0
809.031494 152.0
826.493225 196.0
833.080811 160.0
834.966125 180.0
835.823242 116.0
839.509949 180.0
862.338257 176.0
865.936462 224.0
867.026184 240.0
873.196594 152.0
873.361328 188.0
874.049622 120.0
875.703857 56.0
880.959595 104.0
881.987793 136.0
882.194702 64.0
884.418823 64.0
885.336548 76.0
894.032898 148.0
909.975891 236.0
911.285217 180.0
913.106628 168.0
915.140625 40.0
921.171509 156.0
921.286255 124.0
923.740601 44.0
926.628357 196.0
928.634888 124.0
931.694275 196.0
932.429504 208.0
933.481201 200.0
933.602844 104.0
935.555969 48.0
935.805603 108.0
937.151672 84.0
937.907349 140.0
943.896484 236.0
945.860413 156.0
947.072754 152.0
948.745667 224.0
953.343018 132.0
955.292114 84.0
957.347839 100.0
958.080811 232.0
959.393494 160.0
960.34314 112.0
965.147705 172.0
965.388916 52.0
969.177246 176.0
970.472717 244.0
971.043213 136.0
972.336609 172.0
974.277222 28.0
977.186829 140.0
977.460632 152.0
979.110352 156.0
981.197754 196.0
982.420105 76.0
983.131409 164.0
983.699402 228.0
984.11145 164.0
984.273804 212.0
984.336243 196.0
985.110718 144.0
990.177246 164.0
990.227295 168.0
993.524475 224.0
995.696289 180.0
995.796814 196.0
998.08429 180.0
998.587402 176.0
999.12207 176.0
1000.387024 160.0
1001.022949 116.0
1007.1026 172.0
1010.459351 216.0
1010.661804 140.0
1013.200684 100.0
1013.637878 224.0
1014.220947 164.0
1015.152954 76.0
1017.405396 120.0
1017.468872 140.0
1017.646667 148.0
1021.873291 144.0
1022.305969 180.0
1026.000366 176.0
1026.15332 48.0
1026.873901 208.0
1028.456299 144.0
1028.63501 148.0
1030.423096 224.0
1031.311401 176.0
1031.989014 84.0
1032.398315 160.0
1040.683716 160.0
1041.807617 172.0
1043.285767 200.0
1043.922241 124.0
1048.003296 144.0
1049.047363 168.0
1052.957642 156.0
1060.456299 160.0
1060.894531 172.0
1063.374878 204.0
1069.360962 240.0
1069.699341 144.0
1070.369995 164.0
1072.422119 160.0
1072.6698 180.0
1073.745728 164.0
1074.815552 132.0
1078.662354 208.0
1080.041992 164.0
1080.885986 208.0
1081.640015 172.0
1082.607666 160.0
1083.17749 88.0
1084.310913 132.0
1088.60144 152.0
1088.811646 204.0
1089.915283 144.0
1090.782715 192.0
1091.815063 76.0
1094.897827 164.0
1095.072876 208.0
1096.588257 200.0
1098.850098 160.0
1104.683594 204.0
1111.594116 156.0
1112.636108 196.0
1113.140747 64.0
1113.705322 120.0
1115.505981 140.0
1116.842529 80.0
1118.40625 144.0
1122.383545 156.0
1123.303833 216.0
1123.650757 264.0
1123.710815 44.0
1125.098999 160.0
1125.386108 156.0
1126.802002 124.0
1127.022583 164.0
1127.136108 112.0
1130.559937 132.0
1130.847778 64.0
1131.162354 52.0
1131.724731 84.0
1132.608765 76.0
1132.689087 160.0
1132.82312 176.0
1133.077637 152.0
1134.625854 128.0
1135.195679 128.0
1138.94751 52.0
1139.303467 32.0
1139.511719 152.0
1139.760376 148.0
1140.365234 84.0
1141.0979 160.0
1143.196533 176.0
1143.889771 192.0
1145.04126 224.0
1146.644653 212.0
1147.197388 168.0
1148.626953 120.0
1149.848267 156.0
1150.307251 176.0
1150.482788 140.0
1153.076538 228.0
1153.495728 172.0
1154.347534 144.0
1154.428711 160.0
1155.490723 72.0
1157.643188 40.0
1158.564331 208.0
1158.970825 148.0
1159.302856 140.0
1159.994141 132.0
1160.984131 164.0
1165.083862 76.0
1166.572144 128.0
1168.041016 144.0
1168.217896 176.0
1173.414185 216.0
1174.000488 220.0
1175.044189 204.0
1176.859741 200.0
1177.064575 112.0
1177.658691 156.0
1177.795288 116.0
1179.476196 176.0
1180.412842 148.0
1183.898926 152.0
1184.587891 128.0
1185.615601 152.0
1185.732178 132.0
1185.800659 208.0
1187.514771 136.0
1188.928101 60.0
1189.731201 128.0
1190.740601 192.0
1192.849976 144.0
1197.046875 124.0
1198.707031 180.0
1200.326904 196.0
1200.851074 156.0
1204.488647 124.0
1205.359131 168.0
1205.462769 176.0
1208.048706 156.0
1208.934326 108.0
1210.436523 172.0
1210.519531 236.0
1211.627808 164.0
1212.112793 200.0
1212.327637 44.0
1215.14978 108.0
1215.205322 76.0
1215.468994 64.0
1216.905762 140.0
1218.086426 160.0
1218.2323 116.0
1218.71167 92.0
1218.954834 160.0
1219.469116 88.0
1220.518921 172.0
1221.735962 188.0
1222.028198 176.0
1225.091553 176.0
1225.432861 216.0
1227.579834 112.0
1230.40564 136.0
1231.488037 216.0
1231.83728 176.0
1232.382202 124.0
1233.206909 144.0
1234.199585 116.0
1235.892334 220.0
1237.635132 196.0
1238.083374 144.0
1238.888794 132.0
1238.986938 140.0
1239.176025 192.0
1239.70166 224.0
1239.911865 224.0
1240.872192 152.0
1242.429199 128.0
1242.822021 92.0
1243.165894 148.0
1243.25708 188.0
1248.793335 36.0
1248.94104 160.0
1248.990356 172.0
1250.76355 92.0
1250.819824 160.0
1251.080322 72.0
1251.216797 92.0
1251.699829 164.0
1251.840698 180.0
1252.918335 124.0
1254.493164 200.0
1255.519409 136.0
1255.744995 136.0
1256.175293 152.0
1256.344604 200.0
1257.304199 132.0
1258.271362 136.0
1262.525146 160.0
1265.759033 168.0
1266.991455 156.0
1269.826904 220.0
1273.66687 120.0
1276.033325 140.0
1276.253662 148.0
1276.673218 72.0
1278.885864 188.0
1279.441162 64.0
1279.505249 132.0
1280.822632 164.0
1282.254761 184.0
1282.604004 244.0
1284.244019 220.0
1284.764771 204.0
1285.578125 156.0
1286.092041 104.0
1286.377563 188.0
1291.13623 124.0
1292.338013 192.0
1293.619019 172.0
1294.356567 260.0
1295.079834 180.0
1297.322754 140.0
1297.623779 156.0
1297.924927 140.0
1298.068359 176.0
1298.55603 196.0
1298.850098 184.0
1298.929688 188.0
1300.651245 192.0
1303.603027 188.0
1304.523071 124.0
1305.88208 172.0
1307.177002 148.0
1307.529663 160.0
1307.651978 128.0
1308.933472 196.0
1309.878906 240.0
1311.375732 88.0
1312.096558 200.0
1312.572388 72.0
1313.005127 68.0
1313.473877 172.0
1314.577759 188.0
1315.010864 124.0
1316.591919 164.0
1317.025269 144.0
1318.434204 144.0
1318.687134 96.0
1318.867798 156.0
1319.301514 96.0
1320.263184 144.0
1320.870728 148.0
1321.297607 140.0
1322.332397 180.0
1322.498779 148.0
1322.925903 164.0
1324.511719 164.0
1326.120361 144.0
1327.461548 100.0
1328.201294 188.0
1328.252075 236.0
1328.658325 52.0
1328.890503 188.0
1329.035645 192.0
1329.122681 164.0
1330.066162 144.0
1331.126099 148.0
1331.925049 184.0
1332.266479 92.0
1333.937866 176.0
1334.883057 184.0
1334.941284 216.0
1335.654053 144.0
1336.38147 40.0
1336.526978 180.0
1336.832642 172.0
1337.174683 172.0
1337.786133 132.0
1338.128296 64.0
1339.446411 216.0
1339.898071 48.0
1340.721558 152.0
1340.772461 124.0
1340.983887 188.0
1341.916992 212.0
1342.157593 232.0
1343.134888 72.0
1344.557617 180.0
1346.674927 116.0
1348.216431 156.0
1348.757324 148.0
1349.130127 92.0
1351.009644 124.0
1352.026733 56.0
1353.761719 72.0
1354.413574 148.0
1354.582031 252.0
1355.234131 68.0
1355.59314 116.0
1356.567993 156.0
1357.293823 220.0
1360.044922 136.0
1360.456055 176.0
1360.815796 92.0
1362.850342 176.0
1362.982544 136.0
1363.210327 192.0
1363.467529 180.0
1364.342285 180.0
1365.967529 156.0
1367.255127 172.0
1369.24292 260.0
1369.832153 92.0
1370.171021 192.0
1370.598389 160.0
1371.047852 172.0
1371.438477 184.0
1372.227295 260.0
1375.14856 184.0
1375.591431 200.0
1376.388794 180.0
1379.73584 136.0
1380.630493 48.0
1380.844971 120.0
1381.503296 184.0
1381.606812 196.0
1383.279297 164.0
1383.434814 156.0
1385.404663 180.0
1385.738037 188.0
1385.901123 136.0
1387.272217 136.0
1388.29541 156.0
1389.022217 172.0
1389.096436 184.0
1390.877319 180.0
1391.21875 184.0
1391.677246 148.0
1393.23877 196.0
1393.372559 176.0
1395.022339 156.0
1395.758423 220.0
1397.141846 160.0
1397.283203 144.0
1397.476562 164.0
1397.751953 196.0
1398.042114 140.0
1398.659912 156.0
1399.508545 164.0
1399.642578 92.0
1400.461792 100.0
1401.676147 224.0
1401.862427 144.0
1401.944458 152.0
1402.153076 196.0
1402.980469 180.0
1403.069946 220.0
1404.255615 136.0
1404.695679 136.0
1405.098511 208.0
1406.411987 144.0
1406.785156 196.0
1407.053955 220.0
1409.608398 124.0
1410.393188 84.0
1410.639771 100.0
1412.666382 180.0
1414.634521 152.0
1415.383179 148.0
1416.072144 144.0
1416.926147 172.0
1417.570557 144.0
1417.810303 76.0
1418.237549 160.0
1419.369629 212.0
1420.952271 144.0
1421.027222 148.0
1421.585693 196.0
1421.710083 160.0
1421.897705 48.0
1422.625854 160.0
1422.918579 192.0
1423.016235 116.0
1424.638428 176.0
1425.945923 172.0
1426.33667 64.0
1426.592285 60.0
1426.644897 120.0
1427.404297 208.0
1428.562622 264.0
1429.036499 212.0
1429.367676 184.0
1431.008545 212.0
1431.076294 168.0
1431.716309 232.0
1432.725708 180.0
1435.024414 144.0
1435.687988 172.0
1436.230957 128.0
1436.434692 160.0
1436.796753 84.0
1437.422974 224.0
1439.144043 228.0
1440.624268 188.0
1442.921753 188.0
1445.064453 168.0
1445.463135 152.0
1445.720459 184.0
1446.447021 164.0
1447.083008 184.0
1447.310181 108.0
1447.658447 120.0
1448.309814 84.0
1448.590088 180.0
1449.673584 88.0
1449.953979 160.0
1450.317749 152.0
1451.606567 152.0
1454.3302 196.0
1455.134888 64.0
1455.347534 152.0
1455.468994 148.0
1455.901855 36.0
1456.722168 132.0
1457.284302 148.0
1458.416626 108.0
1459.595093 92.0
1460.849976 188.0
1462.531738 68.0
1463.140625 156.0
1464.82373 148.0
1466.568604 180.0
1468.512939 216.0
1469.420654 212.0
1470.107422 200.0
1470.626465 172.0
1472.351929 196.0
1472.871338 144.0
1474.338257 96.0
1474.827393 136.0
1475.729492 168.0
1477.295532 128.0
1477.580322 120.0
1477.756348 160.0
1479.003784 32.0
1479.547241 112.0
1479.608521 172.0
1481.117065 272.0
1481.737671 96.0
1482.281616 188.0
1483.025024 200.0
1483.239624 180.0
1483.829956 128.0
1484.49707 152.0
1485.202637 172.0
1485.670532 252.0
1487.865479 80.0
1488.9021 140.0
1489.408936 128.0
1490.645874 168.0
1490.954102 196.0
1491.499023 188.0
1491.944824 104.0
1494.144409 212.0
1494.521362 236.0
1494.921509 136.0
1495.390991 128.0
1496.08374 204.0
1496.407104 208.0
1497.377441 156.0
1497.577637 164.0
1497.878052 180.0
1498.009033 224.0
1498.124512 80.0
1498.586792 144.0
1498.871948 252.0
1499.449951 180.0
1500.197632 208.0
1501.724365 128.0
1502.866089 156.0
1503.591431 172.0
1504.417358 156.0
1504.75708 36.0
1504.842041 244.0
