>compound MLS001158650-01!(2R)-3-(1H-indol-3-yl)-2-[[(2S)-4-methyl-2-[(3-oxo-2,4-dihydroquinoxaline-1-carbonyl)amino]pentanoyl]amino]propanoic acid
>formula C26H29N5O5
>ionization [M+H]+
>parentmass 492.225
#inchi InChI=1S/C26H29N5O5/c1-15(2)11-20(30-26(36)31-14-23(32)28-19-9-5-6-10-22(19)31)24(33)29-21(25(34)35)12-16-13-27-18-8-4-3-7-17(16)18/h3-10,13,15,20-21,27H,11-12,14H2,1-2H3,(H,28,32)(H,29,33)(H,30,36)(H,34,35)/t20-,21+/m0/s1
#inchikey CXOIAIBSUNQVID
#Ion_Source LC-ESI
#Instrument qTof
#Compound_Source NIH Natural Product Library
#PI Dorrestein
#Data_Collector VVP/LMS
#Scan -1
#Precursor_MZ 492.225
#ExactMass 491.217
#Charge 1
#CAS_Number N/A
#Pubmed_ID N/A
#Smiles CC(C)C[C@H](NC(=O)N1CC(=O)Nc2ccccc12)C(=O)N[C@H](Cc3c[nH]c4ccccc34)C(=O)O
#INCHI_AUX N/A
#Library_Class 1
#SpectrumID CCMSLIB00000079753
#IonMode Positive
#UpdateWorkflowName UPDATE-SINGLE-ANNOTATED-GOLD
#LibraryQualityString Gold
#TaskID b1d8e8f6646f4e71acdff9ca3d919d08
##Scan# 1954
#SpectrumFile p1-F10_GF10_01_17942.mzXML
#LibraryName NIH_Natural_Products_Library.mgf
#MQScore -1
#Organism NIH_Natural_Products_Library
#TIC_Query 0
#RT_Query -1
#MZErrorPPM -1
#SharedPeaks 0
#MassDiff 0
#LibMZ -1
#SpecMZ 492.225
#SpecCharge 0
#internalFilename spec-00000.mgf

>collision 10
95.011597 244.0
95.273682 108.0
95.347519 168.0
95.411659 216.0
95.499168 164.0
95.567253 140.0
95.670403 192.0
95.974335 128.0
96.00943 176.0
96.022163 152.0
96.085503 168.0
96.247505 216.0
96.487823 152.0
96.593422 116.0
96.851799 172.0
96.924286 168.0
97.043854 212.0
97.22998 176.0
97.475677 140.0
97.57592 200.0
97.627037 104.0
97.808044 220.0
97.908455 148.0
98.056213 156.0
98.071983 164.0
98.092926 192.0
98.150841 180.0
98.421165 180.0
98.444862 36.0
98.468559 256.0
98.541649 184.0
98.596977 196.0
98.657875 188.0
98.812508 192.0
98.915413 180.0
98.98867 144.0
99.143188 168.0
99.277992 204.0
99.375183 236.0
99.418839 144.0
99.496254 220.0
99.7724 192.0
99.875801 128.0
99.913597 196.0
99.997169 152.0
100.118614 160.0
100.315628 148.0
100.343781 132.0
100.417557 152.0
100.511322 164.0
100.64106 196.0
100.734924 184.0
101.16687 172.0
101.389198 132.0
101.463364 240.0
101.629829 120.0
101.690269 168.0
102.351425 336.0
102.720238 156.0
102.872269 188.0
103.061424 160.0
103.459854 160.0
103.587135 188.0
103.678612 156.0
104.037621 208.0
104.059959 128.0
104.151337 60.0
104.220413 248.0
104.26004 144.0
104.549835 184.0
104.772118 236.0
104.953163 188.0
105.110229 80.0
105.187782 140.0
105.349106 184.0
105.4758 124.0
105.882957 232.0
105.950554 144.0
106.151421 216.0
106.204742 180.0
106.344261 48.0
106.662628 188.0
106.75515 116.0
107.00824 52.0
107.131805 204.0
107.344093 72.0
107.492615 64.0
107.566292 132.0
107.573959 224.0
107.699066 144.0
107.864586 156.0
108.105324 40.0
108.136536 172.0
108.27404 212.0
108.487457 144.0
108.501968 164.0
108.570396 144.0
108.836014 192.0
109.068542 168.0
109.230881 172.0
109.24752 168.0
109.438988 128.0
109.782806 208.0
109.878754 156.0
110.014404 120.0
110.054077 128.0
110.085396 188.0
110.129257 152.0
110.166855 52.0
110.18148 248.0
110.624825 188.0
110.920189 124.0
111.205444 148.0
111.375519 156.0
111.636124 144.0
111.745506 176.0
111.913887 96.0
111.958107 132.0
112.075523 576.0
112.099243 204.0
112.22361 360.0
112.27211 152.0
112.337494 28.0
112.43528 144.0
112.53376 124.0
112.66893 172.0
112.698509 124.0
112.814751 128.0
112.91201 160.0
112.937393 40.0
112.981812 180.0
113.127831 212.0
113.21888 208.0
113.629814 148.0
113.819 32.0
114.339821 140.0
114.384514 128.0
115.052765 560.0
115.184151 208.0
115.239693 108.0
115.318756 212.0
115.389305 144.0
115.665268 116.0
115.802299 52.0
116.048737 148.0
116.308311 128.0
116.329781 112.0
116.426399 168.0
116.490837 148.0
116.553139 88.0
116.62191 132.0
116.68425 128.0
117.059448 236.0
117.110321 88.0
117.192184 148.0
117.323647 40.0
117.399117 128.0
117.414207 172.0
117.53933 156.0
117.569542 216.0
117.677467 128.0
117.874023 196.0
117.93454 136.0
117.96048 204.0
118.063591 864.0
118.278267 216.0
118.417023 120.0
118.456017 212.0
118.627205 56.0
118.752968 148.0
118.828896 180.0
118.859268 176.0
119.059937 5612.0
119.104591 144.0
119.135002 36.0
119.324074 128.0
119.347992 188.0
119.369736 180.0
119.528526 176.0
119.565521 168.0
119.602524 60.0
119.670006 40.0
119.970657 148.0
120.062943 1016.0
120.160393 104.0
120.210579 236.0
120.466026 208.0
120.511909 88.0
120.568726 244.0
120.603691 144.0
120.704254 80.0
120.83577 156.0
120.912079 164.0
120.940529 232.0
120.960228 92.0
121.034668 144.0
121.074905 3964.0
121.106934 172.0
121.126648 68.0
121.152939 56.0
121.42746 116.0
121.464218 184.0
121.894531 124.0
121.98024 104.0
122.001091 144.0
122.033005 84.0
122.07901 816.0
122.112167 88.0
122.173759 64.0
122.244164 260.0
122.283783 164.0
122.54583 128.0
122.658218 188.0
122.704514 184.0
122.90081 204.0
122.973633 128.0
123.776123 160.0
123.838127 224.0
124.257088 176.0
124.303688 188.0
124.370262 128.0
124.592323 208.0
124.759003 72.0
124.836823 160.0
125.090462 128.0
125.306473 144.0
125.38224 124.0
125.408981 156.0
125.799339 164.0
125.884178 196.0
125.919907 200.0
125.984863 256.0
126.040543 216.0
126.407257 152.0
126.906761 156.0
126.95385 104.0
126.971794 480.0
127.048058 168.0
127.122101 60.0
127.142296 248.0
127.184937 176.0
127.211876 164.0
127.245552 204.0
127.393768 148.0
127.5196 36.0
127.539833 220.0
127.71521 20.0
128.046066 164.0
128.142929 160.0
128.239822 204.0
128.715836 164.0
128.810684 156.0
129.613846 164.0
129.663696 124.0
129.940338 168.0
130.040192 164.0
130.065384 3676.0
130.146881 116.0
130.23999 68.0
130.385406 60.0
130.462006 148.0
130.678741 96.0
130.719696 120.0
130.913193 92.0
130.981522 152.0
131.011124 48.0
131.065781 796.0
131.095428 136.0
131.191162 40.0
131.209396 40.0
131.37587 176.0
131.435196 132.0
131.494522 176.0
131.58812 100.0
131.650726 96.0
131.737701 104.0
131.809677 164.0
131.864517 132.0
131.912521 104.0
131.965103 196.0
132.045059 184.0
132.079376 1680.0
132.331177 84.0
132.409027 72.0
132.624405 164.0
133.050522 172.0
133.081543 236.0
133.1521 140.0
133.414047 124.0
133.575012 196.0
133.685455 136.0
133.844284 152.0
134.099991 208.0
134.295975 104.0
134.339798 68.0
134.579819 148.0
134.626007 172.0
134.68605 52.0
134.750732 148.0
134.792328 116.0
135.025818 232.0
135.058197 116.0
135.143784 164.0
135.456329 164.0
135.472534 28.0
135.602295 84.0
135.72052 132.0
136.129776 304.0
136.193954 156.0
136.226471 240.0
136.249695 164.0
136.365891 136.0
136.444916 164.0
136.675171 384.0
136.733353 180.0
136.756622 164.0
136.963852 192.0
137.075684 152.0
137.3228 152.0
137.500107 196.0
137.848068 208.0
137.957275 160.0
138.107574 168.0
138.149689 112.0
138.379028 124.0
138.683563 108.0
138.725754 184.0
138.969666 176.0
139.103439 112.0
139.270157 80.0
139.43103 188.0
140.069885 220.0
140.093445 196.0
140.338547 96.0
140.380997 132.0
140.435242 132.0
140.579147 164.0
141.032593 152.0
141.913406 216.0
142.065323 816.0
142.247742 60.0
142.307098 144.0
142.359329 32.0
142.470062 168.0
142.604034 36.0
142.689606 168.0
142.775208 128.0
143.012177 188.0
143.044067 100.0
143.074966 200.0
143.158356 120.0
143.451416 148.0
143.53009 60.0
143.823532 148.0
143.988266 168.0
144.040817 132.0
144.078308 988.0
144.110092 112.0
144.153107 124.0
144.210464 180.0
144.364532 192.0
144.684097 180.0
144.949951 248.0
144.971512 140.0
145.081284 804.0
145.156097 72.0
145.405594 256.0
145.720154 128.0
145.864349 140.0
145.958115 164.0
146.059143 3104.0
146.244385 168.0
146.275681 84.0
146.3479 132.0
146.416397 136.0
146.504456 80.0
146.54541 240.0
146.674789 180.0
146.70929 184.0
146.764648 96.0
146.788849 124.0
146.811829 164.0
146.845551 164.0
146.873322 200.0
146.931168 120.0
146.979858 220.0
147.009781 148.0
147.055008 55992.0
147.113876 140.0
147.135086 80.0
147.158905 44.0
147.198883 52.0
147.207779 120.0
147.251221 52.0
147.32901 128.0
147.363327 36.0
147.452072 124.0
147.545074 60.0
147.571182 44.0
147.594055 104.0
147.699356 96.0
147.776764 108.0
147.837265 104.0
147.854202 80.0
147.955856 40.0
147.972809 124.0
148.057449 3964.0
148.114639 52.0
148.147171 152.0
148.202896 52.0
148.219864 180.0
148.287231 80.0
148.296204 64.0
148.391953 184.0
148.417252 120.0
148.476822 76.0
148.709732 108.0
148.765564 132.0
148.826248 96.0
148.887421 212.0
148.940399 156.0
148.96225 116.0
148.986542 68.0
149.027847 140.0
149.06543 1148.0
149.098328 92.0
149.156647 68.0
149.183395 88.0
149.244171 104.0
149.27092 40.0
149.293839 104.0
149.336578 312.0
149.404587 100.0
149.47525 36.0
149.553131 176.0
149.762527 68.0
149.884323 56.0
150.020813 68.0
150.064697 128.0
150.142731 52.0
150.174438 140.0
150.376938 188.0
150.474579 68.0
150.691956 40.0
150.723709 72.0
150.77504 56.0
150.829224 228.0
151.234833 96.0
151.364594 80.0
151.766434 264.0
152.082901 32.0
152.178635 104.0
152.279312 68.0
152.775848 196.0
152.921021 152.0
153.10434 164.0
153.297821 168.0
153.381622 68.0
153.487625 112.0
153.660278 160.0
153.852783 160.0
153.907104 124.0
154.492844 176.0
155.057404 128.0
155.087143 156.0
155.1987 116.0
155.347504 36.0
155.36734 140.0
155.630432 236.0
156.003082 100.0
156.09259 152.0
156.164719 168.0
156.219437 112.0
156.463318 132.0
156.572876 144.0
156.640137 56.0
156.747253 184.0
156.804581 140.0
157.004028 84.0
157.071945 216.0
157.241028 132.0
157.285965 160.0
157.737625 132.0
158.05867 256.0
158.078659 1100.0
158.298508 156.0
158.346085 148.0
158.366119 64.0
158.621704 140.0
158.757095 216.0
158.947739 244.0
159.020508 72.0
159.091568 3564.0
159.136581 188.0
159.161102 48.0
159.641052 156.0
159.794479 148.0
159.852356 160.0
160.073563 164.0
160.095657 676.0
160.772156 196.0
160.863022 84.0
161.067551 160.0
161.224197 200.0
161.332886 160.0
161.466904 76.0
161.980713 92.0
162.000977 116.0
162.485184 164.0
162.916763 104.0
163.448135 180.0
163.478668 216.0
164.072723 192.0
164.158829 236.0
164.429245 136.0
164.485397 104.0
165.042343 60.0
165.64888 144.0
165.961548 176.0
166.330978 128.0
166.739349 168.0
167.061035 232.0
167.707092 132.0
168.062973 164.0
168.083603 132.0
168.910339 212.0
169.074509 632.0
169.573181 208.0
169.671692 184.0
169.889526 108.0
169.907684 192.0
170.059586 1624.0
170.102859 132.0
170.317841 72.0
170.447739 56.0
171.063797 184.0
171.091354 440.0
171.173477 136.0
171.371429 220.0
171.407913 64.0
171.699875 176.0
171.913803 84.0
172.065186 76.0
172.104355 180.0
172.180084 88.0
172.454407 176.0
172.830994 64.0
172.906876 56.0
173.070877 240.0
173.305618 208.0
173.372711 144.0
173.768982 244.0
173.884445 144.0
174.062958 352.0
174.083954 36.0
174.110214 92.0
174.34404 220.0
174.396591 192.0
174.620087 84.0
174.768188 160.0
174.9095 136.0
174.930557 144.0
175.004272 164.0
175.049713 30832.0
175.106979 44.0
175.149124 124.0
175.175461 36.0
175.231903 76.0
175.294632 176.0
175.338303 84.0
175.39418 48.0
175.502258 84.0
175.523361 48.0
175.576935 88.0
175.625183 72.0
175.652588 76.0
175.681595 84.0
175.897995 76.0
176.014145 48.0
176.051956 2904.0
176.082047 348.0
176.185822 36.0
176.222946 80.0
176.360229 68.0
176.43425 160.0
177.029572 36.0
177.051392 1016.0
177.121353 120.0
177.141983 100.0
177.161224 216.0
177.233536 104.0
177.27594 96.0
177.368698 100.0
177.405289 80.0
177.458832 72.0
177.533081 68.0
177.61795 220.0
177.755905 96.0
178.252472 144.0
178.555527 68.0
178.587448 100.0
178.755051 40.0
178.999954 120.0
179.237015 176.0
179.82193 144.0
181.005325 252.0
181.075363 308.0
181.093628 152.0
181.589539 148.0
181.919571 140.0
182.03772 136.0
182.080719 196.0
182.263351 52.0
182.717743 164.0
182.782318 160.0
183.011108 108.0
183.046112 68.0
183.175385 180.0
183.272369 120.0
183.366684 76.0
183.647079 44.0
183.800858 132.0
184.022186 36.0
184.100494 120.0
184.262558 184.0
184.727539 68.0
184.746475 204.0
185.069504 2680.0
185.100952 128.0
185.138947 104.0
185.241867 76.0
185.293335 164.0
185.876282 128.0
186.07309 124.0
186.275391 128.0
186.925171 160.0
187.066071 156.0
187.456177 64.0
187.543854 116.0
187.584274 136.0
187.837875 172.0
188.026138 92.0
188.069916 6312.0
188.252716 160.0
188.331924 152.0
188.484909 68.0
188.523163 100.0
189.034546 144.0
189.071747 1032.0
189.138046 832.0
189.19603 60.0
189.352097 72.0
189.675415 160.0
190.070786 196.0
190.099915 180.0
190.137268 144.0
190.25148 72.0
190.605774 72.0
190.688217 112.0
190.965912 72.0
191.186005 52.0
192.075104 608.0
192.556198 124.0
192.840759 100.0
192.904343 76.0
193.056412 312.0
194.064331 148.0
194.105927 148.0
194.227951 80.0
194.913681 152.0
194.997055 52.0
195.096848 168.0
195.138824 36.0
195.745392 172.0
196.068542 168.0
196.1633 92.0
196.484009 144.0
196.556549 196.0
197.064728 176.0
197.089874 168.0
197.394547 148.0
197.688278 136.0
198.085846 156.0
198.130661 176.0
199.083267 116.0
199.123642 148.0
200.206406 228.0
201.067535 168.0
201.09729 160.0
201.289261 64.0
201.54631 220.0
201.679138 148.0
202.066544 124.0
202.174072 224.0
202.947388 52.0
203.079895 232.0
203.231033 132.0
203.333191 72.0
203.673889 48.0
203.813095 52.0
203.85289 140.0
203.999771 100.0
204.075531 4140.0
204.142838 112.0
204.245224 108.0
204.498459 140.0
204.54599 212.0
204.646484 88.0
204.899963 52.0
204.962646 156.0
205.081116 504.0
205.901184 32.0
205.944016 68.0
206.104279 160.0
206.20401 44.0
206.501358 108.0
206.564285 76.0
206.670135 96.0
206.724503 52.0
206.919144 52.0
207.109055 200.0
207.744507 80.0
208.01712 212.0
208.087326 176.0
208.571503 112.0
208.63475 144.0
209.092102 136.0
209.35408 68.0
210.123672 212.0
210.311249 124.0
210.357437 60.0
210.510452 164.0
211.128876 152.0
211.788757 108.0
211.982864 56.0
212.1064 160.0
212.142273 148.0
212.310455 72.0
212.887955 152.0
213.219131 204.0
214.150146 144.0
214.803055 180.0
215.045242 148.0
215.078552 96.0
215.118179 376.0
216.065048 100.0
216.088455 172.0
216.571472 76.0
217.044357 220.0
217.130524 1416.0
217.166473 192.0
217.477478 128.0
217.715286 80.0
217.956161 84.0
218.08992 352.0
218.133698 440.0
218.455963 92.0
218.826782 76.0
218.962234 116.0
219.094788 208.0
219.991287 220.0
220.398865 88.0
220.493423 88.0
221.010925 156.0
221.070099 152.0
221.404617 140.0
221.926147 156.0
222.124847 140.0
224.077988 128.0
224.33429 164.0
224.420746 148.0
225.147766 184.0
226.141434 148.0
226.183334 140.0
227.130005 176.0
227.150772 176.0
227.349228 60.0
228.100098 136.0
228.1539 172.0
228.846176 80.0
229.575378 196.0
230.037003 92.0
230.178909 236.0
231.079636 224.0
231.618484 88.0
231.86087 180.0
231.897247 88.0
232.106415 116.0
232.143219 3028.0
232.467392 44.0
233.143051 512.0
233.433395 200.0
234.142807 220.0
234.565964 44.0
235.527145 180.0
235.606567 28.0
236.48111 228.0
236.554581 96.0
236.58519 132.0
236.775024 128.0
236.915924 136.0
237.137146 1016.0
237.363403 32.0
237.84201 56.0
237.977081 60.0
238.146606 240.0
238.520844 184.0
239.074448 284.0
239.163712 152.0
241.088226 92.0
241.137665 116.0
241.196396 132.0
241.542709 60.0
242.09053 188.0
242.124588 132.0
242.604858 108.0
243.102112 128.0
246.526642 48.0
246.920547 120.0
248.835144 160.0
249.526337 132.0
249.711868 40.0
250.048508 136.0
250.394821 136.0
251.965683 88.0
252.635895 32.0
252.9207 36.0
253.130264 164.0
253.256332 80.0
253.737991 56.0
254.155731 260.0
255.142212 220.0
255.389267 120.0
256.138245 180.0
256.16275 96.0
256.661438 172.0
256.873627 88.0
257.122498 112.0
257.355499 72.0
257.642944 204.0
257.917786 96.0
258.096802 164.0
258.493439 168.0
258.589447 84.0
258.77832 80.0
259.140228 120.0
259.403015 224.0
259.476746 68.0
259.733307 136.0
259.861633 172.0
259.887299 248.0
259.93222 96.0
260.028473 128.0
260.07663 124.0
260.139038 24380.0
260.257019 64.0
260.330261 52.0
260.35733 84.0
260.411285 80.0
260.436249 148.0
260.47937 216.0
260.519043 140.0
260.596863 36.0
260.636108 76.0
260.802551 52.0
260.905396 88.0
261.053314 116.0
261.101532 188.0
261.141296 4208.0
261.267578 52.0
261.413605 72.0
261.452454 52.0
261.654999 56.0
261.690399 56.0
261.758759 88.0
262.051147 52.0
262.142822 556.0
262.366974 124.0
262.403076 80.0
262.443237 80.0
262.64679 88.0
262.770111 120.0
262.970184 36.0
263.012146 40.0
263.144501 124.0
263.167114 92.0
263.457764 32.0
263.538544 64.0
263.852051 92.0
264.359863 88.0
264.897308 88.0
265.09494 164.0
266.655945 60.0
268.201965 140.0
269.082764 84.0
270.112152 120.0
270.413177 52.0
271.071442 108.0
271.143524 140.0
272.442902 36.0
273.343781 60.0
274.565948 72.0
275.258942 52.0
275.632202 132.0
276.343079 100.0
278.152527 172.0
279.545105 156.0
280.087769 68.0
280.142426 108.0
280.444305 72.0
281.129333 120.0
282.969757 56.0
285.56369 100.0
285.845154 96.0
288.136932 588.0
289.129242 216.0
291.401672 108.0
292.60907 108.0
293.051819 180.0
293.123383 148.0
293.644958 84.0
294.238708 100.0
296.283844 132.0
297.401733 80.0
297.624878 128.0
298.154205 4752.0
298.238739 80.0
298.590515 52.0
298.772797 128.0
298.845062 48.0
298.931091 28.0
299.157196 1304.0
299.213318 48.0
299.264954 72.0
299.943634 48.0
299.967773 28.0
300.175201 296.0
300.374664 152.0
300.564423 132.0
300.602356 80.0
300.778381 72.0
301.1651 96.0
305.724213 40.0
308.560028 76.0
311.142059 100.0
312.080139 84.0
315.291443 80.0
322.438477 96.0
325.393677 32.0
326.154022 220.0
326.492615 116.0
327.146759 184.0
327.825195 52.0
336.111206 148.0
337.130005 116.0
344.146027 88.0
345.199127 80.0
346.739166 48.0
349.654572 72.0
354.38208 80.0
357.886414 96.0
362.104523 184.0
363.143005 92.0
367.929962 44.0
380.139313 68.0
394.47467 100.0
395.146973 52.0
396.639923 68.0
398.449493 96.0
401.08786 128.0
401.522461 232.0
419.368073 120.0
423.224457 128.0
428.621765 88.0
435.792419 124.0
446.5737 68.0
449.7211 40.0
456.848419 76.0
474.208954 136.0
486.001373 104.0
489.429169 136.0
492.159149 80.0
501.29248 84.0
515.391602 68.0
515.789246 112.0
526.534851 52.0
533.591553 68.0
563.950439 104.0
577.917542 100.0
592.152405 96.0
613.93042 40.0
652.184998 80.0
661.320068 68.0
676.31366 124.0
679.236023 112.0
778.071167 44.0
820.288879 200.0
822.878906 188.0
836.72467 172.0
843.081116 56.0
889.092102 80.0
948.735535 44.0
970.666748 124.0
971.224915 124.0
971.913513 72.0
977.418762 44.0
978.041138 176.0
980.875305 132.0
981.511169 136.0
993.387939 160.0
1011.011108 96.0
1014.196777 128.0
1027.423462 100.0
1035.759277 72.0
1042.483032 60.0
1051.899292 228.0
1051.950928 240.0
1054.644531 160.0
1065.530518 208.0
1066.596924 60.0
1080.853394 164.0
1088.982422 248.0
1092.485962 60.0
1094.065308 216.0
1101.318848 252.0
1103.975708 156.0
1112.947876 156.0
1115.286255 108.0
1115.744995 136.0
1118.612183 188.0
1128.438965 168.0
1134.108887 200.0
1145.43103 176.0
1153.900269 156.0
1159.281372 84.0
1160.176025 108.0
1162.93689 36.0
1164.437378 68.0
1173.283203 184.0
1190.670166 112.0
1200.111328 36.0
1203.671753 140.0
1207.804565 156.0
1207.956787 76.0
1211.307129 216.0
1214.849365 136.0
1231.241211 196.0
1233.763672 180.0
1237.4646 64.0
1237.821655 124.0
1238.585083 196.0
1240.708374 160.0
1242.258179 60.0
1242.398438 140.0
1249.958496 192.0
1250.704468 76.0
1256.024292 204.0
1257.32959 152.0
1257.774292 160.0
1258.303711 168.0
1263.851929 172.0
1268.093872 152.0
1268.96582 200.0
1270.28479 120.0
1272.662354 184.0
1274.459351 148.0
1277.495117 216.0
1281.211182 168.0
1281.346436 248.0
1281.945068 164.0
1282.337036 204.0
1283.7771 136.0
1292.491821 64.0
1292.821045 168.0
1293.579712 168.0
1297.950073 200.0
1299.750366 120.0
1304.677368 92.0
1309.772217 124.0
1313.751343 108.0
1315.064575 72.0
1315.548218 184.0
1316.876831 208.0
1317.050171 64.0
1317.144043 148.0
1317.815918 224.0
1319.507324 184.0
1321.40918 200.0
1324.927734 68.0
1325.224854 244.0
1326.007446 180.0
1326.456787 160.0
1332.378418 132.0
1333.439331 120.0
1335.729614 156.0
1336.55896 180.0
1337.767212 172.0
1337.963745 220.0
1342.262451 128.0
1342.568726 144.0
1342.896851 100.0
1344.691772 140.0
1345.056641 212.0
1345.144287 188.0
1350.14917 160.0
1352.26355 232.0
1356.548462 96.0
1358.682495 184.0
1363.528809 164.0
1364.249146 164.0
1364.918213 120.0
1368.935913 152.0
1371.064941 100.0
1372.347534 148.0
1375.822388 160.0
1376.693726 160.0
1377.188477 52.0
1377.580078 164.0
1378.355835 152.0
1380.950562 156.0
1382.430298 160.0
1384.784546 160.0
1385.873413 128.0
1386.103149 84.0
1388.134155 212.0
1389.395142 100.0
1389.988647 72.0
1393.931641 240.0
1400.202881 224.0
1401.238281 188.0
1401.819458 156.0
1401.908936 116.0
1403.049316 216.0
1404.026123 124.0
1407.070557 136.0
1408.24292 172.0
1408.653687 156.0
1412.151855 220.0
1412.35376 136.0
1412.555664 192.0
1412.750244 200.0
1414.418945 240.0
1415.062744 136.0
1415.744141 180.0
1416.62793 84.0
1416.695312 160.0
1417.406494 224.0
1420.075928 108.0
1421.081177 200.0
1421.178711 92.0
1424.399414 200.0
1429.293579 160.0
1430.911865 172.0
1433.578247 168.0
1438.193848 156.0
1445.676025 120.0
1446.190674 148.0
1446.66748 236.0
1452.135254 196.0
1452.547852 136.0
1454.900391 220.0
1455.430542 172.0
1457.588989 156.0
1459.398071 136.0
1460.699463 160.0
1461.795654 180.0
1462.859619 96.0
1464.976562 148.0
1465.151855 124.0
1466.775024 176.0
1467.140869 236.0
1467.201904 52.0
1467.659302 128.0
1468.13208 92.0
1468.879517 192.0
1471.397827 224.0
1471.64978 144.0
1472.29126 200.0
1474.01001 156.0
1475.156494 152.0
1476.058594 40.0
1476.395142 48.0
1478.039795 184.0
1478.445312 208.0
1480.627197 176.0
1482.856689 60.0
1483.89917 108.0
1485.022583 176.0
1488.25708 92.0
1490.838135 184.0
1494.829224 160.0
1495.106201 124.0
1495.991333 200.0
1500.490479 156.0
1502.973999 108.0
1503.560425 68.0
