>compound MLS001333175-01!5-hydroxy-2-(3-hydroxy-4-methoxyphenyl)-7-[3,4,5-trihydroxy-6-[(3,4,5-trihydroxy-6-methyloxan-2-yl)oxymethyl]oxan-2-yl]oxychromen-4-one
>formula C28H32O15
>ionization [M+H]+
>parentmass 609.182
#inchi InChI=1S/C28H32O15/c1-10-21(32)23(34)25(36)27(40-10)39-9-19-22(33)24(35)26(37)28(43-19)41-12-6-14(30)20-15(31)8-17(42-18(20)7-12)11-3-4-16(38-2)13(29)5-11/h3-8,10,19,21-30,32-37H,9H2,1-2H3
#inchikey GZSOSUNBTXMUFQ
#Ion_Source LC-ESI
#Instrument qTof
#Compound_Source NIH Natural Product Library
#PI Dorrestein
#Data_Collector VVP/LMS
#Scan -1
#Precursor_MZ 609.182
#ExactMass 608.174
#Charge 1
#CAS_Number N/A
#Pubmed_ID N/A
#Smiles COc1ccc(cc1O)c2cc(=O)c3c(O)cc(OC4OC(COC5OC(C)C(O)C(O)C5O)C(O)C(O)C4O)cc3o2
#INCHI_AUX N/A
#Library_Class 1
#SpectrumID CCMSLIB00000079955
#IonMode Positive
#UpdateWorkflowName UPDATE-SINGLE-ANNOTATED-GOLD
#LibraryQualityString Gold
#TaskID b1d8e8f6646f4e71acdff9ca3d919d08
##Scan# 1564
#SpectrumFile p2-C02_GC2_01_18002.mzXML
#LibraryName NIH_Natural_Products_Library.mgf
#MQScore -1
#Organism NIH_Natural_Products_Library
#TIC_Query 0
#RT_Query -1
#MZErrorPPM -1
#SharedPeaks 0
#MassDiff 0
#LibMZ -1
#SpecMZ 609.182
#SpecCharge 0
#internalFilename spec-00000.mgf

>collision 10
95.191788 60.0
95.325821 160.0
95.514412 84.0
95.596123 160.0
96.557892 156.0
96.78685 168.0
97.02784 192.0
97.817558 160.0
97.996773 188.0
98.835922 168.0
99.523712 176.0
99.636917 52.0
100.379326 116.0
100.578835 160.0
100.708618 88.0
100.832489 124.0
101.138504 180.0
101.184547 140.0
101.583344 172.0
101.607414 168.0
101.796089 40.0
102.119652 76.0
103.724869 148.0
104.047417 188.0
104.531158 112.0
105.171089 132.0
105.745422 224.0
107.018166 64.0
108.348236 100.0
108.377235 176.0
108.50367 124.0
108.802414 180.0
109.091171 132.0
109.388641 156.0
110.224968 168.0
110.588852 148.0
110.808731 136.0
113.875931 40.0
113.92691 148.0
114.162842 92.0
114.271317 136.0
114.422424 168.0
116.151253 192.0
116.352974 140.0
116.748329 220.0
117.114204 92.0
117.571274 156.0
117.748299 204.0
117.766823 108.0
118.217422 48.0
118.540077 164.0
118.847984 168.0
119.049858 196.0
119.101982 152.0
120.481102 196.0
121.900673 136.0
122.074333 40.0
124.571869 148.0
126.598885 216.0
126.895073 164.0
127.090202 172.0
127.263031 176.0
128.426483 176.0
128.446777 88.0
128.920914 144.0
129.054276 192.0
129.538589 192.0
129.976151 176.0
130.57132 176.0
130.814789 132.0
130.858032 164.0
131.051636 144.0
131.081253 164.0
132.683487 68.0
132.974808 208.0
133.271042 236.0
134.650879 160.0
134.678604 132.0
135.91716 132.0
136.253815 124.0
136.379288 72.0
136.462982 172.0
137.618622 136.0
137.943359 140.0
137.990112 140.0
139.890366 184.0
140.015152 232.0
142.482269 180.0
142.627228 148.0
142.841232 48.0
143.162537 188.0
143.257812 196.0
143.388855 204.0
143.44606 164.0
143.465134 124.0
143.968582 240.0
144.537506 128.0
144.609299 120.0
144.67392 172.0
144.978119 48.0
145.412201 152.0
145.597061 144.0
145.880569 144.0
145.993958 208.0
146.053711 72.0
147.0681 232.0
148.854767 192.0
149.061249 168.0
149.328659 180.0
149.727798 128.0
151.253784 156.0
151.464371 112.0
151.606461 192.0
152.271317 148.0
152.376938 164.0
153.014816 196.0
153.129654 188.0
153.54863 48.0
154.128754 184.0
154.650558 140.0
156.756561 96.0
158.125076 136.0
158.43808 136.0
159.313614 176.0
159.356323 140.0
159.78624 152.0
160.047989 148.0
160.400696 212.0
161.054214 184.0
161.155273 144.0
162.167496 132.0
162.357635 64.0
162.532669 136.0
162.908417 172.0
162.969391 268.0
163.735077 172.0
163.780914 116.0
163.819122 184.0
163.852249 128.0
164.275436 76.0
164.525513 76.0
164.558701 136.0
164.58934 56.0
164.747696 128.0
165.0186 140.0
165.435867 232.0
166.030045 108.0
166.769455 188.0
167.39975 172.0
167.87648 136.0
169.603241 152.0
169.912109 124.0
170.615891 108.0
171.030914 168.0
171.472275 164.0
171.860825 124.0
171.957382 116.0
172.333405 108.0
172.474533 136.0
174.133057 156.0
175.035065 132.0
175.599014 168.0
176.023895 192.0
176.594727 168.0
176.655563 140.0
176.676727 184.0
176.801086 176.0
176.864609 196.0
177.026093 156.0
177.052582 172.0
177.171768 80.0
177.885117 100.0
178.105515 144.0
178.155991 172.0
178.570648 136.0
178.756866 132.0
179.662766 220.0
180.589661 160.0
181.234818 60.0
181.556488 120.0
181.575256 72.0
182.173813 180.0
182.469437 96.0
183.802673 96.0
184.132019 96.0
185.224716 232.0
185.465881 128.0
185.522797 244.0
186.10881 140.0
187.485229 116.0
187.547913 132.0
187.806946 192.0
187.839676 120.0
187.85878 80.0
188.049774 200.0
188.235413 92.0
188.634308 192.0
188.987091 116.0
189.189621 176.0
189.219727 40.0
191.141037 204.0
191.454849 84.0
191.562271 44.0
191.857132 256.0
193.600601 112.0
194.982178 164.0
195.672012 164.0
195.761108 116.0
196.452332 168.0
197.259354 196.0
197.323654 144.0
197.561371 84.0
198.426727 148.0
198.743668 156.0
199.263077 212.0
199.32489 180.0
199.420441 144.0
200.890274 204.0
201.090622 124.0
201.437912 128.0
202.003265 140.0
203.212952 180.0
203.939926 160.0
204.130402 136.0
204.668198 80.0
204.784958 184.0
205.77446 160.0
206.100067 52.0
207.118515 172.0
207.525452 156.0
207.598053 200.0
208.082047 224.0
208.145218 188.0
208.607773 164.0
209.214752 140.0
210.09082 268.0
210.454468 180.0
210.480453 148.0
211.509659 152.0
212.002014 108.0
212.45723 112.0
213.540695 196.0
213.709412 64.0
213.811264 172.0
213.831635 224.0
213.886932 120.0
213.92186 212.0
214.233459 160.0
214.38205 220.0
214.449081 36.0
215.344788 144.0
215.607727 108.0
215.835739 220.0
216.444366 212.0
218.110733 144.0
218.157761 120.0
218.790253 112.0
219.149551 188.0
220.474472 168.0
220.506973 100.0
220.666595 148.0
221.196136 168.0
221.483368 204.0
221.966431 140.0
222.34021 156.0
222.571747 200.0
223.874191 156.0
223.930771 124.0
224.029068 208.0
224.327072 168.0
224.44632 108.0
224.732666 148.0
224.926636 176.0
225.165497 136.0
225.787125 148.0
226.118973 232.0
226.658234 108.0
226.679214 84.0
226.700195 176.0
226.775116 144.0
226.925003 176.0
227.19191 136.0
227.606094 124.0
229.047943 152.0
229.353989 220.0
229.568039 172.0
229.785217 156.0
230.062866 148.0
230.355774 148.0
230.452454 132.0
230.721436 156.0
231.06015 132.0
232.365921 148.0
233.076401 180.0
233.228348 140.0
233.3013 148.0
233.39859 168.0
234.930542 208.0
235.101395 108.0
235.950546 132.0
236.011688 120.0
236.324112 140.0
237.064682 196.0
237.812988 164.0
238.086227 148.0
238.132294 172.0
238.596008 220.0
239.454788 148.0
239.87999 196.0
240.040314 176.0
240.197601 132.0
240.342606 132.0
240.398148 184.0
240.586426 84.0
240.777863 104.0
241.040436 152.0
241.164047 56.0
242.141739 176.0
242.256348 132.0
243.341782 172.0
243.897842 236.0
243.950684 168.0
244.358078 260.0
244.533478 132.0
244.806305 108.0
245.086655 184.0
245.797577 180.0
245.888077 96.0
246.000443 156.0
246.194016 136.0
246.675171 180.0
247.041046 156.0
247.357101 104.0
247.892654 100.0
248.12146 140.0
248.457031 100.0
248.551147 232.0
248.764572 164.0
248.839905 152.0
249.858185 184.0
250.591736 140.0
251.036179 188.0
251.885162 120.0
252.412949 104.0
253.12175 80.0
253.352966 160.0
254.088455 116.0
254.174469 160.0
254.377243 120.0
254.596313 128.0
254.980728 148.0
255.263657 136.0
255.304993 84.0
255.479935 176.0
255.559738 184.0
255.750397 240.0
255.775864 176.0
255.859695 240.0
255.973251 212.0
256.129303 136.0
256.243988 136.0
257.044281 60.0
257.401794 96.0
257.868225 92.0
258.00885 192.0
258.05307 1448.0
258.328644 80.0
258.843933 148.0
259.051849 360.0
259.401398 232.0
259.455902 244.0
259.818268 168.0
259.949829 148.0
260.071777 168.0
260.433167 172.0
260.861969 104.0
261.624359 84.0
261.666229 84.0
261.7789 164.0
262.165466 44.0
262.732971 156.0
263.320435 216.0
263.743683 148.0
264.054077 208.0
264.779022 140.0
265.145111 132.0
265.842346 64.0
266.569733 128.0
267.434814 60.0
267.613861 224.0
267.815765 156.0
267.877655 76.0
268.894958 152.0
269.077759 52.0
269.825897 44.0
270.470337 212.0
270.493256 168.0
270.532532 148.0
271.036896 176.0
271.528625 124.0
271.876373 192.0
272.345856 120.0
273.111694 200.0
274.511383 180.0
274.550262 252.0
274.653198 136.0
275.290161 196.0
275.458588 184.0
275.551086 188.0
276.036957 192.0
277.02655 180.0
277.16571 148.0
277.38443 180.0
278.157318 52.0
278.997772 240.0
279.10083 184.0
279.673035 172.0
280.127869 184.0
280.488586 132.0
280.562439 144.0
280.679108 60.0
280.902557 208.0
281.286316 116.0
281.583466 152.0
281.643585 88.0
281.880798 128.0
281.987732 132.0
282.057922 220.0
282.285248 60.0
282.318695 96.0
282.616394 156.0
282.690033 88.0
283.4133 168.0
283.845673 200.0
283.929535 104.0
284.89621 188.0
285.175079 132.0
285.27594 200.0
285.595367 80.0
285.945282 192.0
286.048645 9040.0
286.244904 48.0
286.275208 116.0
286.298035 240.0
286.345917 80.0
286.503876 76.0
286.692932 184.0
286.716522 48.0
286.86145 168.0
287.052277 1836.0
287.117706 204.0
287.144684 72.0
287.3302 128.0
287.426636 48.0
287.633911 92.0
287.795959 120.0
287.93103 192.0
288.05423 152.0
288.255341 148.0
288.573059 56.0
288.704926 124.0
289.083801 68.0
289.161652 76.0
289.723724 180.0
289.954132 212.0
290.561096 100.0
290.954773 160.0
291.151703 180.0
291.882324 84.0
292.453857 36.0
292.678528 96.0
293.329254 152.0
293.438324 152.0
293.52356 172.0
294.038696 112.0
294.991638 152.0
295.17627 196.0
295.4841 52.0
296.148163 92.0
296.422241 148.0
296.665588 160.0
296.75473 52.0
297.001617 108.0
297.485443 112.0
297.547241 156.0
298.138031 160.0
298.258331 176.0
298.516174 72.0
298.54715 148.0
298.633118 156.0
298.760376 136.0
299.063202 84.0
299.197449 160.0
299.354248 96.0
299.538361 52.0
299.689941 184.0
299.903595 244.0
299.977417 124.0
300.036224 220.0
300.138031 184.0
300.172516 100.0
300.200104 152.0
300.291107 216.0
300.355286 112.0
300.427734 188.0
300.482941 112.0
300.551941 132.0
300.620941 108.0
300.755554 64.0
300.808044 56.0
300.872925 160.0
300.8992 240.0
300.967621 212.0
301.022034 392.0
301.073578 76500.0
301.136841 172.0
301.175323 156.0
301.213562 92.0
301.27005 52.0
301.309906 204.0
301.412994 100.0
301.439362 52.0
301.469116 104.0
301.518829 104.0
301.548096 60.0
301.614166 96.0
301.642059 52.0
301.74292 184.0
301.79538 44.0
301.831879 100.0
301.904572 132.0
301.964813 88.0
302.076569 14692.0
302.142639 88.0
302.199188 180.0
302.248474 68.0
302.292664 120.0
302.324371 56.0
302.384583 196.0
302.414581 60.0
302.485931 112.0
302.634979 72.0
302.688782 60.0
302.795105 80.0
302.845337 136.0
302.89743 36.0
302.951294 68.0
302.975555 228.0
303.01712 44.0
303.075775 1868.0
303.127563 92.0
303.16394 120.0
303.207703 48.0
303.248474 144.0
303.315155 72.0
303.374084 44.0
303.478088 120.0
303.571716 48.0
303.599457 56.0
303.686157 40.0
303.76593 40.0
303.82663 136.0
303.903259 144.0
303.916595 84.0
303.958008 112.0
304.038544 136.0
304.06723 184.0
304.109436 76.0
304.137207 72.0
304.188751 108.0
304.198425 164.0
304.216309 76.0
304.249786 120.0
304.31427 48.0
304.414948 60.0
304.543457 52.0
304.706726 36.0
304.800537 104.0
304.890869 68.0
305.088989 188.0
305.196777 60.0
305.235016 156.0
305.294128 76.0
305.318481 88.0
305.346313 104.0
305.412384 68.0
305.614166 100.0
305.715057 68.0
305.778503 52.0
305.941315 68.0
306.247742 60.0
307.178375 48.0
307.230713 56.0
307.492401 88.0
307.810089 48.0
308.232758 60.0
308.655701 40.0
309.376434 36.0
309.849213 100.0
309.971832 96.0
311.512024 52.0
312.193878 64.0
313.605652 52.0
314.081635 116.0
314.134552 64.0
314.97467 144.0
316.159088 180.0
316.661804 80.0
316.778687 28.0
319.732788 104.0
319.910767 44.0
320.79776 100.0
323.133362 116.0
324.02124 132.0
326.156403 96.0
326.192352 48.0
328.078644 116.0
330.795166 44.0
339.011993 144.0
340.020508 168.0
342.715942 32.0
343.077118 100.0
345.026337 184.0
352.956909 128.0
353.431946 116.0
354.98645 196.0
356.487976 76.0
357.018036 204.0
364.962799 48.0
365.1073 208.0
367.08728 188.0
368.045258 72.0
369.099854 116.0
369.822906 92.0
370.094696 128.0
389.529785 176.0
392.733826 120.0
397.35022 56.0
407.117615 76.0
410.046356 104.0
411.102966 92.0
416.08963 84.0
428.102844 172.0
433.050415 64.0
441.344238 96.0
442.553436 84.0
447.133148 156.0
451.88028 52.0
452.129944 68.0
458.581177 80.0
462.06134 148.0
463.12442 1596.0
463.59848 152.0
464.124939 172.0
465.048065 76.0
471.815247 72.0
477.965363 60.0
480.728027 56.0
481.443939 52.0
491.139008 112.0
499.915619 92.0
523.214111 196.0
535.218933 96.0
537.897461 68.0
541.031616 136.0
542.940613 64.0
557.957336 100.0
560.197388 144.0
584.695862 96.0
590.770569 140.0
593.376038 120.0
604.050781 64.0
605.195923 140.0
607.479736 44.0
609.345215 152.0
609.900513 100.0
610.161011 124.0
610.298706 56.0
610.33313 144.0
611.334351 168.0
613.153748 116.0
629.889526 92.0
654.078857 64.0
663.355103 100.0
666.141479 120.0
683.226807 80.0
686.581177 72.0
701.192383 56.0
720.181396 76.0
744.172546 68.0
780.860168 160.0
794.635193 132.0
818.521545 76.0
822.546509 76.0
851.026733 76.0
928.730835 76.0
959.607056 48.0
961.716736 72.0
977.905823 52.0
1121.44812 108.0
1146.311401 64.0
1168.601685 136.0
1185.357422 56.0
1268.32959 84.0
1274.880249 48.0
1340.578613 84.0
1351.165649 60.0
1352.94397 48.0
