>compound MLS001140855-01!(2S)-3-(5-hydroxy-1H-indol-3-yl)-2-[2-(8-methoxy-4-methyl-6-oxobenzo[c]chromen-3-yl)oxypropanoylamino]propanoic acid
>formula C29H26N2O8
>ionization [M+H]+
>parentmass 531.177
#inchi InChI=1S/C29H26N2O8/c1-14-25(9-7-20-19-6-5-18(37-3)12-22(19)29(36)39-26(14)20)38-15(2)27(33)31-24(28(34)35)10-16-13-30-23-8-4-17(32)11-21(16)23/h4-9,11-13,15,24,30,32H,10H2,1-3H3,(H,31,33)(H,34,35)/t15?,24-/m0/s1
#inchikey XNBXGCIVUNNXBI
#Ion_Source LC-ESI
#Instrument qTof
#Compound_Source NIH Natural Product Library
#PI Dorrestein
#Data_Collector VVP/LMS
#Scan -1
#Precursor_MZ 531.177
#ExactMass 530.169
#Charge 1
#CAS_Number N/A
#Pubmed_ID N/A
#Smiles COc1ccc2c(c1)c(=O)oc3c(C)c(OC(C)C(=O)N[C@@H](Cc4c[nH]c5ccc(O)cc45)C(=O)O)ccc23
#INCHI_AUX N/A
#Library_Class 1
#SpectrumID CCMSLIB00000080584
#IonMode Positive
#UpdateWorkflowName UPDATE-SINGLE-ANNOTATED-GOLD
#LibraryQualityString Gold
#TaskID b1d8e8f6646f4e71acdff9ca3d919d08
##Scan# 2092
#SpectrumFile p2-A11_GA11_01_17987.mzXML
#LibraryName NIH_Natural_Products_Library.mgf
#MQScore -1
#Organism NIH_Natural_Products_Library
#TIC_Query 0
#RT_Query -1
#MZErrorPPM -1
#SharedPeaks 0
#MassDiff 0
#LibMZ -1
#SpecMZ 531.177
#SpecCharge 0
#internalFilename spec-00000.mgf

>collision 10
95.013069 176.0
95.051697 176.0
95.374092 128.0
95.502419 156.0
95.523819 156.0
95.558838 88.0
95.732071 192.0
95.79245 108.0
95.835312 132.0
95.901573 196.0
95.928864 100.0
96.534126 128.0
96.602585 100.0
96.805504 124.0
96.968742 144.0
97.158951 152.0
97.251175 168.0
97.302216 172.0
97.453453 204.0
97.535988 180.0
97.565475 164.0
97.813347 128.0
97.890129 172.0
98.004379 180.0
98.098976 180.0
98.248856 100.0
98.485741 152.0
98.554878 136.0
98.663589 112.0
98.72686 184.0
98.750595 44.0
98.902946 212.0
98.944519 124.0
98.992035 52.0
99.0158 168.0
99.063339 180.0
99.430161 200.0
99.537361 120.0
99.569138 64.0
99.690323 184.0
99.799652 220.0
99.863289 160.0
99.883179 168.0
100.167831 76.0
100.217636 176.0
100.263474 176.0
100.562637 76.0
100.836266 104.0
101.034225 228.0
101.068237 100.0
101.086243 180.0
101.190331 148.0
101.242393 100.0
101.33654 224.0
101.398659 192.0
101.413849 180.0
101.4608 176.0
101.775803 180.0
101.982719 160.0
102.056984 196.0
102.226074 88.0
102.326714 136.0
102.669273 232.0
102.684731 180.0
102.752769 192.0
102.842781 188.0
102.877098 172.0
102.912163 184.0
102.940819 100.0
103.054527 140.0
103.192268 168.0
103.218552 160.0
103.386452 156.0
103.467422 120.0
103.572723 164.0
103.629448 132.0
103.954201 128.0
104.064461 136.0
104.108162 164.0
104.146751 192.0
104.28492 180.0
104.32354 244.0
104.506584 108.0
104.612411 208.0
104.663307 116.0
104.687744 56.0
104.7407 224.0
104.824234 136.0
104.854805 216.0
104.873146 100.0
105.230141 108.0
105.283234 104.0
105.324081 220.0
105.403763 108.0
105.501862 168.0
105.628654 104.0
105.855835 148.0
105.923424 180.0
106.061569 172.0
106.183731 176.0
106.228859 184.0
106.265785 60.0
106.483383 116.0
106.723816 192.0
106.81636 80.0
107.063347 172.0
107.123085 164.0
107.191071 64.0
107.209618 124.0
107.273514 152.0
107.366302 172.0
108.029327 152.0
108.052086 264.0
108.101746 120.0
108.238365 132.0
108.373001 232.0
108.635017 176.0
108.800255 256.0
108.889542 172.0
109.047836 128.0
109.438538 200.0
109.932556 184.0
110.007698 184.0
110.052109 220.0
110.333595 36.0
110.465347 108.0
110.772926 176.0
110.97216 140.0
111.056755 308.0
111.125275 172.0
111.314186 64.0
111.345688 160.0
111.364586 144.0
111.381393 184.0
111.457024 160.0
111.473831 160.0
111.633598 140.0
111.81031 144.0
111.949257 380.0
112.208435 212.0
112.537575 148.0
112.581917 44.0
112.605148 156.0
112.769951 56.0
112.930641 232.0
113.133781 224.0
113.150719 52.0
113.347694 192.0
113.771896 124.0
113.856827 180.0
113.938805 196.0
114.003418 40.0
114.062927 216.0
114.220284 104.0
114.369225 124.0
114.776138 108.0
114.882782 228.0
115.053596 548.0
115.151733 80.0
115.254272 120.0
115.29274 140.0
115.376099 156.0
115.476601 132.0
115.50441 148.0
115.70343 196.0
115.909042 72.0
115.975479 152.0
116.053246 132.0
116.057701 308.0
116.242317 240.0
116.295074 136.0
116.353027 88.0
116.514107 132.0
116.550629 188.0
116.688187 188.0
117.059822 540.0
117.157356 208.0
117.275879 152.0
117.318993 152.0
117.355644 136.0
117.482887 200.0
117.575668 244.0
117.627472 88.0
117.767822 176.0
118.064201 124.0
118.436188 108.0
118.473015 52.0
118.58786 152.0
118.717941 140.0
118.93232 192.0
119.067345 132.0
119.139023 124.0
119.173294 136.0
119.291145 184.0
119.531578 124.0
119.593498 132.0
119.904488 148.0
119.961632 208.0
120.055916 164.0
120.082413 172.0
120.258286 168.0
120.372963 144.0
120.627434 192.0
120.719261 132.0
120.769562 180.0
121.052383 88.0
121.064224 164.0
121.067535 192.0
121.374008 132.0
121.409096 112.0
121.582405 148.0
121.738274 212.0
121.940392 140.0
121.957977 236.0
122.061142 264.0
122.087692 100.0
122.140167 140.0
122.193275 196.0
122.345131 44.0
122.433212 160.0
122.726288 84.0
122.825531 232.0
122.860825 164.0
122.940262 152.0
122.982193 160.0
123.050629 160.0
123.06794 176.0
123.118401 144.0
123.238365 300.0
123.30024 240.0
123.59214 148.0
123.683144 164.0
123.81794 148.0
123.894943 204.0
123.926483 60.0
124.063889 120.0
124.114883 88.0
124.212471 196.0
124.554314 60.0
124.792099 152.0
124.849915 148.0
124.881058 76.0
125.419891 48.0
125.497917 144.0
125.662964 212.0
126.06266 164.0
126.192307 164.0
126.357811 68.0
126.568207 188.0
126.648827 196.0
126.971581 144.0
126.99176 164.0
127.157791 196.0
127.274529 88.0
127.458717 128.0
127.487999 136.0
127.523888 168.0
127.643417 168.0
127.910767 140.0
128.050201 196.0
128.115692 212.0
128.133713 184.0
128.153992 180.0
128.498962 148.0
128.58696 192.0
128.821793 188.0
128.869232 172.0
129.050064 168.0
129.072662 144.0
129.459625 116.0
129.475479 276.0
129.516251 36.0
129.677124 88.0
129.722458 172.0
129.770065 136.0
129.817673 204.0
129.946976 152.0
130.067383 600.0
130.114929 68.0
130.262863 136.0
130.306778 84.0
130.519348 224.0
130.612595 160.0
130.744293 168.0
130.815125 164.0
130.933517 104.0
130.965408 136.0
131.049194 880.0
131.0849 148.0
131.222916 148.0
131.259399 72.0
132.017548 104.0
132.054138 204.0
132.080963 360.0
132.266937 108.0
132.491348 192.0
132.805664 144.0
133.052094 1080.0
133.096405 132.0
133.142792 148.0
133.253052 72.0
133.381744 124.0
133.496689 144.0
133.66922 160.0
133.735962 120.0
133.97084 160.0
134.059952 3276.0
134.092545 152.0
134.120621 68.0
134.28894 136.0
134.577408 44.0
134.632828 80.0
134.863861 180.0
135.013229 132.0
135.061203 484.0
135.151703 60.0
135.302277 216.0
135.315567 152.0
135.365906 124.0
135.42569 220.0
135.460861 172.0
136.001144 272.0
136.063766 184.0
136.112579 140.0
136.193863 132.0
136.279816 80.0
136.42392 192.0
136.556458 148.0
137.13475 200.0
137.404373 124.0
137.462708 116.0
137.92981 192.0
137.992935 216.0
138.201096 156.0
138.414093 128.0
138.585083 176.0
138.624924 172.0
138.699921 160.0
138.80542 132.0
138.847641 56.0
139.058792 152.0
139.246613 132.0
139.286545 140.0
139.366425 400.0
139.519196 188.0
139.657928 172.0
139.919144 128.0
140.062317 676.0
140.138184 120.0
140.175873 132.0
140.317307 120.0
140.477661 132.0
140.645203 176.0
141.061096 124.0
141.373154 124.0
141.62648 136.0
141.863449 40.0
141.941681 140.0
142.048416 200.0
142.073715 168.0
142.1884 172.0
142.734787 40.0
143.058365 116.0
143.075027 420.0
143.222672 60.0
143.515793 84.0
143.604034 152.0
143.768646 208.0
143.821152 44.0
143.852188 160.0
143.888 200.0
144.033676 132.0
144.057449 164.0
144.076675 152.0
144.193756 228.0
144.308502 60.0
144.501968 216.0
144.602737 124.0
144.71286 68.0
144.892487 220.0
145.056793 184.0
145.100983 148.0
145.201706 184.0
145.280853 188.0
145.408035 168.0
145.585693 148.0
145.717804 164.0
145.869202 44.0
145.92691 200.0
145.951767 188.0
146.020691 260.0
146.060944 27516.0
146.126526 124.0
146.186691 52.0
146.234818 64.0
146.262299 96.0
146.290176 100.0
146.410858 260.0
146.42984 32.0
146.47319 104.0
146.494873 220.0
146.573456 168.0
146.667526 264.0
146.676163 172.0
146.711761 164.0
146.78952 208.0
146.822678 160.0
146.964996 180.0
147.01445 140.0
147.064484 2984.0
147.093338 204.0
147.18306 164.0
147.259521 48.0
147.481812 164.0
147.573669 52.0
147.60994 164.0
147.989838 108.0
148.076691 2692.0
148.186584 144.0
148.256287 124.0
148.382339 140.0
148.445374 104.0
148.792358 44.0
148.925919 104.0
149.010941 36.0
149.080017 392.0
149.989227 96.0
150.133087 108.0
150.22821 196.0
151.320648 128.0
151.602325 216.0
151.854858 200.0
151.970154 96.0
152.054306 136.0
152.166504 188.0
152.22052 140.0
152.429321 104.0
152.576797 160.0
152.756317 80.0
153.066284 140.0
153.175613 180.0
153.204346 112.0
153.394104 160.0
153.638245 208.0
154.067322 144.0
154.092514 188.0
154.493011 132.0
154.653854 256.0
154.73555 172.0
155.068604 192.0
155.089798 220.0
155.122025 200.0
155.327835 196.0
155.815781 188.0
156.049561 416.0
156.078964 336.0
156.184814 188.0
156.368927 164.0
157.054779 424.0
157.094025 376.0
157.430984 196.0
157.698303 184.0
157.980865 200.0
158.06041 4068.0
158.095657 532.0
158.203583 80.0
158.246155 84.0
158.271179 64.0
158.376373 100.0
158.880234 100.0
159.013229 136.0
159.071899 1100.0
159.374847 80.0
159.420074 128.0
159.558319 228.0
159.668961 92.0
159.726807 112.0
159.847565 76.0
159.935654 200.0
159.998306 212.0
160.040756 300.0
160.079132 2312.0
160.110428 144.0
160.177383 68.0
160.287231 180.0
160.328568 184.0
160.53804 148.0
160.557983 176.0
160.699234 208.0
160.850662 172.0
160.918823 48.0
161.024887 180.0
161.049622 136.0
161.07814 428.0
161.219421 64.0
161.373611 136.0
161.722717 196.0
161.854355 168.0
161.970856 84.0
162.011383 228.0
162.05545 6800.0
162.091919 476.0
162.172806 108.0
162.344666 164.0
162.444885 104.0
162.475327 128.0
162.622498 84.0
162.688492 208.0
162.714401 256.0
162.75705 184.0
162.934845 180.0
162.993286 80.0
163.057617 620.0
163.107651 124.0
163.181366 32.0
163.387375 176.0
163.453522 40.0
163.62915 72.0
163.743744 52.0
163.764114 164.0
163.929718 112.0
164.059708 144.0
164.113251 148.0
164.184799 140.0
164.217804 144.0
164.366852 160.0
164.485718 220.0
164.955734 80.0
165.069138 216.0
165.726074 208.0
165.815765 188.0
165.982391 180.0
166.071976 112.0
166.231216 188.0
166.356979 100.0
166.477661 128.0
166.652328 88.0
166.950516 156.0
166.973663 104.0
167.078751 444.0
167.135727 168.0
167.176895 172.0
167.280701 188.0
167.354507 124.0
167.406021 112.0
167.466217 224.0
167.939499 144.0
168.058533 1288.0
168.086685 168.0
168.293045 152.0
168.473846 160.0
168.6082 140.0
168.915894 104.0
168.965042 164.0
169.064346 316.0
169.097061 192.0
169.241974 176.0
169.353333 100.0
169.384415 80.0
170.060165 1568.0
170.734085 152.0
170.775696 60.0
170.843338 132.0
170.892761 88.0
171.070663 1276.0
171.121811 48.0
171.212952 56.0
171.395294 36.0
171.483902 56.0
171.700302 68.0
171.773331 52.0
171.833328 176.0
171.854202 96.0
172.075989 624.0
172.303268 116.0
172.786942 132.0
172.810486 180.0
172.881134 44.0
172.977982 116.0
173.081726 2080.0
173.180222 168.0
173.204956 112.0
173.22937 164.0
173.250336 120.0
173.370865 36.0
173.625153 144.0
173.690735 260.0
173.725845 124.0
173.774673 128.0
173.850769 172.0
174.025986 144.0
174.081039 7668.0
174.273544 68.0
174.45488 80.0
174.546906 84.0
174.688934 108.0
174.78627 60.0
175.086761 5840.0
175.17067 56.0
175.218079 48.0
175.278687 92.0
175.44043 184.0
175.484283 160.0
175.508011 84.0
175.576569 216.0
175.595032 76.0
175.740112 60.0
175.806091 100.0
175.87735 32.0
175.903748 108.0
176.019913 136.0
176.066315 308.0
176.091797 716.0
176.178391 108.0
176.218018 60.0
176.310501 40.0
176.339569 72.0
176.368652 192.0
176.469101 116.0
176.828873 40.0
176.865921 44.0
176.905624 80.0
176.987701 56.0
177.053909 192.0
177.093628 152.0
177.614029 72.0
177.634079 220.0
177.652939 156.0
177.951309 188.0
178.061035 204.0
178.076523 360.0
178.346008 180.0
178.415115 116.0
178.859375 152.0
179.024445 164.0
179.086243 252.0
179.112335 200.0
179.240219 32.0
179.477448 132.0
179.642807 136.0
179.736176 88.0
180.056519 204.0
180.102844 404.0
180.355621 152.0
180.414581 28.0
180.489441 56.0
180.516174 256.0
180.566986 160.0
180.66864 96.0
180.815811 172.0
180.834549 136.0
180.992493 56.0
181.013916 168.0
181.065262 528.0
181.100311 216.0
182.072372 388.0
182.102737 116.0
182.564987 152.0
182.605331 156.0
182.721008 152.0
183.003601 108.0
183.071487 528.0
183.1194 164.0
183.456223 184.0
183.949127 128.0
184.003876 164.0
184.028183 136.0
184.048477 224.0
184.076172 5564.0
184.109955 168.0
184.182114 48.0
184.217224 64.0
184.584808 200.0
184.638885 164.0
184.684875 68.0
184.741669 76.0
184.787659 36.0
184.844482 40.0
184.871552 148.0
185.047592 1032.0
185.078552 1152.0
185.200302 224.0
185.242477 124.0
185.272141 76.0
185.367111 48.0
185.427155 228.0
185.511444 108.0
185.602936 148.0
185.88028 180.0
185.999039 232.0
186.055557 6132.0
186.09198 7132.0
186.138657 140.0
186.226303 40.0
186.324905 108.0
186.54776 272.0
186.602127 144.0
186.961182 32.0
187.0569 1052.0
187.094803 556.0
187.230713 108.0
187.481339 188.0
187.764877 124.0
187.805786 108.0
187.835785 52.0
188.074631 136.0
188.093353 184.0
188.264297 116.0
188.665253 140.0
188.675629 104.0
188.686386 196.0
188.830017 140.0
188.871048 52.0
188.901138 100.0
188.980484 160.0
189.070786 180.0
189.098145 136.0
189.71312 152.0
190.084732 124.0
190.260391 144.0
190.488327 168.0
190.526794 40.0
190.818115 188.0
191.079391 164.0
191.684631 192.0
192.065613 108.0
192.140091 124.0
192.275299 52.0
192.36087 52.0
192.457489 60.0
193.095856 128.0
193.272903 200.0
193.364212 64.0
193.405731 80.0
194.072189 164.0
194.162125 148.0
194.508942 220.0
194.744965 104.0
194.939438 116.0
195.080536 476.0
195.220215 196.0
195.684891 120.0
195.785141 64.0
196.055878 456.0
196.08844 1012.0
196.141769 44.0
196.342529 116.0
196.694077 144.0
196.906281 56.0
196.967728 48.0
197.045486 168.0
197.054016 140.0
197.093384 568.0
197.146545 192.0
197.235977 36.0
197.437286 44.0
197.725449 72.0
198.063293 584.0
198.089905 192.0
198.307999 180.0
198.468796 56.0
198.770447 196.0
198.826859 152.0
198.908264 180.0
199.028625 160.0
199.072891 276.0
199.110016 304.0
199.248062 144.0
199.358139 200.0
199.821594 40.0
199.872238 232.0
200.068863 656.0
200.142456 192.0
200.700104 172.0
200.849838 192.0
201.063934 1256.0
201.105255 2124.0
201.163467 136.0
201.191284 36.0
201.626282 120.0
201.659134 192.0
201.696945 56.0
202.05481 372.0
202.086365 340.0
202.107849 532.0
202.197571 84.0
202.268326 72.0
202.307968 52.0
202.551498 100.0
202.795181 136.0
202.820679 96.0
202.88588 172.0
203.013474 248.0
203.057785 1064.0
203.118637 1372.0
203.156891 156.0
203.481659 192.0
203.544128 52.0
203.578201 116.0
203.612289 92.0
203.720917 212.0
203.7742 52.0
203.939026 144.0
204.065567 11072.0
204.118591 416.0
204.248947 64.0
204.274551 40.0
204.399734 80.0
204.451569 112.0
204.50827 76.0
204.570511 60.0
204.697678 120.0
204.843887 168.0
204.980637 40.0
205.068619 1552.0
205.131699 88.0
205.251434 88.0
205.319885 96.0
205.493881 148.0
205.573776 60.0
205.679382 100.0
205.866638 68.0
205.973495 152.0
206.079605 256.0
206.222076 48.0
206.310699 48.0
206.473679 156.0
206.81987 64.0
207.04892 144.0
207.070923 188.0
207.321091 104.0
207.447205 132.0
208.058243 144.0
208.144379 44.0
209.056595 180.0
209.068497 60.0
209.097443 1028.0
209.179398 212.0
209.801636 228.0
210.069305 108.0
210.100525 300.0
210.292023 176.0
210.343979 68.0
210.987289 144.0
211.019989 176.0
211.076904 12508.0
211.11055 664.0
211.209885 60.0
211.303421 40.0
211.358398 56.0
211.384995 84.0
211.485733 92.0
211.560989 44.0
211.618896 96.0
211.865067 108.0
212.038925 148.0
212.079514 1864.0
212.140381 100.0
212.177078 92.0
212.44487 128.0
212.473877 192.0
212.659607 184.0
212.723465 76.0
212.749588 44.0
212.796036 120.0
212.827972 148.0
213.085098 1108.0
213.225952 48.0
213.257919 84.0
213.310242 248.0
213.364594 144.0
213.441071 88.0
213.813431 192.0
214.084198 712.0
214.195755 104.0
214.328873 76.0
214.529968 216.0
214.827423 52.0
214.973312 128.0
215.081619 2672.0
215.16011 104.0
215.291519 52.0
215.326553 104.0
215.347 120.0
215.756104 76.0
215.95787 140.0
216.083054 384.0
216.139252 92.0
216.543243 52.0
216.880188 128.0
217.08902 192.0
217.433548 144.0
217.466812 52.0
217.516708 96.0
217.584229 116.0
217.886734 180.0
217.955307 140.0
218.289413 188.0
218.595337 84.0
218.742493 68.0
219.082626 180.0
219.104721 144.0
219.476089 52.0
220.67485 136.0
221.097916 368.0
221.133377 136.0
221.192566 56.0
221.239929 44.0
221.260666 100.0
221.31987 56.0
222.067596 272.0
222.096329 164.0
222.401947 108.0
222.485062 60.0
222.645401 160.0
223.082336 148.0
223.674149 68.0
223.968933 112.0
224.083099 1324.0
224.266891 84.0
224.344406 36.0
224.794769 172.0
224.869385 136.0
225.057602 180.0
225.089066 272.0
225.490616 88.0
225.616165 112.0
225.65802 80.0
225.852402 44.0
226.0289 36.0
226.063507 120.0
226.103714 48.0
226.406097 28.0
226.846542 48.0
227.067841 516.0
227.107101 1664.0
227.653641 56.0
228.047211 184.0
228.091431 208.0
228.102859 88.0
228.114365 224.0
228.326813 112.0
229.09848 1372.0
229.178726 164.0
229.35051 104.0
229.513306 128.0
229.53743 92.0
229.950729 104.0
230.01712 80.0
230.105957 2916.0
230.282837 96.0
230.325119 120.0
230.406693 88.0
230.55777 72.0
230.63031 112.0
230.899399 56.0
231.062744 116.0
231.107925 1036.0
231.15654 64.0
231.695496 44.0
231.828812 60.0
232.077377 160.0
232.117279 148.0
232.702408 104.0
233.124619 112.0
233.237076 144.0
233.349548 156.0
233.459015 36.0
234.536804 32.0
234.722778 112.0
234.960678 128.0
235.244492 104.0
235.540695 48.0
235.913513 196.0
237.088974 652.0
237.557983 128.0
237.729813 272.0
237.840302 104.0
238.098755 132.0
238.239075 148.0
238.359314 212.0
238.436142 52.0
238.580612 216.0
238.974289 144.0
239.071304 1564.0
239.110168 744.0
239.442184 204.0
239.811905 152.0
239.87355 52.0
239.950623 60.0
240.078293 2884.0
240.672607 152.0
240.715836 56.0
240.765244 72.0
240.956757 36.0
241.050659 3404.0
241.083923 2020.0
241.408035 124.0
241.581253 144.0
241.791656 124.0
242.055054 396.0
242.080566 740.0
242.339752 80.0
242.473007 152.0
242.773727 80.0
242.950516 116.0
243.064468 504.0
243.360199 44.0
243.397461 160.0
243.422302 92.0
243.669159 84.0
243.745361 76.0
244.407669 76.0
245.036621 52.0
245.366974 92.0
245.43869 108.0
246.065826 148.0
246.275055 48.0
246.556244 92.0
247.059662 124.0
247.106827 812.0
247.887848 100.0
248.039825 180.0
248.107681 168.0
249.515289 56.0
251.079315 240.0
251.184341 172.0
251.222198 144.0
251.310532 112.0
251.405197 128.0
252.087982 228.0
252.472992 84.0
252.602844 76.0
253.032913 84.0
253.056137 112.0
253.082321 196.0
253.863235 228.0
254.015472 132.0
254.061966 504.0
254.121368 212.0
254.253448 68.0
254.624893 68.0
254.798691 160.0
254.996613 88.0
255.066422 3316.0
255.10289 2300.0
255.190521 80.0
255.231857 108.0
255.397232 80.0
255.66449 56.0
255.814087 152.0
256.008301 144.0
256.07373 5720.0
256.154816 40.0
256.202606 84.0
256.250397 68.0
256.333221 68.0
256.372772 88.0
256.399323 136.0
256.467072 64.0
256.521271 60.0
256.562714 80.0
256.785919 88.0
257.03476 76.0
257.079803 1452.0
257.223053 76.0
257.38269 116.0
257.526398 64.0
257.551941 76.0
257.647797 48.0
257.682922 124.0
257.909821 28.0
258.062805 84.0
258.093994 164.0
258.229553 56.0
258.523895 100.0
258.850403 60.0
259.074615 176.0
259.154694 36.0
259.542542 60.0
259.940308 68.0
260.07962 248.0
260.347992 48.0
261.241547 168.0
261.885315 232.0
262.094635 344.0
263.941071 56.0
264.144806 64.0
264.58493 72.0
264.80188 236.0
265.086609 1336.0
266.090973 148.0
266.79422 48.0
267.082153 208.0
267.119415 180.0
268.073151 700.0
268.100067 212.0
268.451538 72.0
268.927856 56.0
269.08075 148.0
271.017548 128.0
271.084625 508.0
271.607635 172.0
273.098328 164.0
273.710999 84.0
274.10553 176.0
275.105713 148.0
276.104248 124.0
277.109802 156.0
277.136322 124.0
278.772217 116.0
279.031464 160.0
279.46051 92.0
280.739624 56.0
280.913086 104.0
281.083099 104.0
281.994934 228.0
282.095215 216.0
282.573456 56.0
282.807678 76.0
282.911469 52.0
282.985107 48.0
283.097839 11068.0
283.224365 100.0
283.244781 96.0
283.328583 72.0
283.464111 72.0
283.903259 64.0
284.015808 64.0
284.101318 1952.0
284.198425 68.0
284.275604 100.0
284.957245 84.0
285.098694 172.0
285.286591 72.0
285.46817 92.0
285.538788 100.0
285.683411 52.0
285.774261 140.0
285.939148 120.0
286.181519 76.0
286.538544 184.0
287.079834 328.0
287.121674 64.0
287.310577 100.0
287.816833 44.0
288.090424 168.0
288.225555 36.0
289.105011 160.0
291.325653 44.0
292.083679 124.0
292.681946 96.0
293.064148 180.0
293.091156 152.0
293.510681 140.0
294.965057 116.0
295.095856 300.0
296.07782 176.0
297.067627 120.0
299.088135 236.0
302.955719 84.0
304.169403 232.0
305.096924 168.0
307.092224 176.0
308.097534 176.0
309.106781 240.0
310.074554 232.0
310.111267 100.0
311.099365 372.0
311.664215 72.0
312.100525 160.0
313.046631 140.0
316.082428 244.0
316.117828 128.0
320.082947 152.0
328.12085 340.0
328.81955 128.0
329.126373 368.0
329.469482 204.0
330.120087 160.0
336.292694 60.0
338.09082 120.0
338.121246 140.0
338.427612 144.0
339.119965 160.0
340.15802 64.0
347.019989 64.0
347.361176 60.0
351.125305 108.0
352.132996 124.0
355.100983 104.0
363.206696 92.0
364.474701 96.0
364.991638 48.0
365.101929 116.0
367.021179 116.0
369.503815 136.0
373.220367 136.0
376.210114 84.0
381.121063 216.0
381.222107 100.0
382.754761 72.0
385.114166 148.0
386.14209 132.0
386.169464 136.0
387.147888 156.0
387.190979 100.0
390.106293 104.0
392.645966 84.0
393.09964 76.0
396.080658 108.0
396.623505 32.0
398.099426 100.0
399.123352 176.0
400.115326 172.0
405.291595 88.0
408.11734 172.0
410.537415 52.0
411.247498 124.0
412.12381 124.0
413.115143 276.0
413.145264 304.0
414.127655 492.0
415.136017 420.0
415.188141 96.0
415.691193 112.0
416.129547 104.0
417.563995 40.0
419.249451 92.0
421.857605 144.0
422.111115 112.0
423.101257 124.0
426.423859 52.0
427.089935 100.0
428.815094 188.0
430.960968 104.0
437.143494 188.0
438.993103 60.0
441.151703 168.0
441.252045 56.0
444.376465 100.0
446.148773 104.0
451.947968 28.0
452.735321 100.0
453.964264 60.0
456.627045 44.0
467.149658 96.0
482.401367 184.0
485.170441 456.0
486.175903 576.0
487.322968 92.0
490.822205 148.0
497.139069 184.0
500.922729 120.0
503.246246 44.0
505.315613 76.0
509.076324 112.0
509.606354 60.0
529.365845 140.0
531.217468 76.0
532.34198 204.0
533.247009 156.0
533.320557 128.0
534.824585 188.0
547.599182 60.0
575.910156 36.0
581.713684 64.0
589.327759 112.0
595.431396 136.0
598.120178 112.0
605.311584 80.0
620.819763 64.0
640.013733 84.0
640.230286 136.0
655.478394 48.0
655.952393 64.0
657.390686 100.0
665.750366 120.0
669.504517 84.0
671.390686 68.0
713.467407 120.0
725.007446 52.0
759.595886 32.0
785.333923 196.0
790.009338 84.0
790.982971 84.0
805.824036 100.0
839.95282 48.0
851.203735 196.0
922.764343 184.0
941.406433 92.0
976.623352 200.0
986.000366 92.0
997.646423 228.0
998.904114 184.0
1015.30072 128.0
1020.774719 108.0
1024.835693 224.0
1032.20166 76.0
1048.700684 84.0
1049.893311 124.0
1058.656372 204.0
1060.943481 96.0
1063.804321 180.0
1069.205688 168.0
1079.074951 152.0
1089.055176 188.0
1108.749268 112.0
1112.423828 200.0
1121.763306 160.0
1136.604004 212.0
1137.697998 180.0
1146.327271 236.0
1150.988403 204.0
1153.724731 128.0
1160.562744 232.0
1168.135132 148.0
1175.622925 100.0
1179.645752 124.0
1185.956787 112.0
1186.745239 120.0
1188.549072 100.0
1191.315918 84.0
1207.278931 212.0
1208.41333 236.0
1213.503906 112.0
1230.298462 144.0
1240.077271 128.0
1245.381592 176.0
1247.78479 80.0
1253.225342 208.0
1254.641846 88.0
1269.171021 212.0
1270.468872 104.0
1275.35437 168.0
1280.071045 132.0
1282.978027 200.0
1283.248901 68.0
1284.083252 164.0
1285.602783 160.0
1285.795532 224.0
1287.758911 196.0
1292.877808 164.0
1292.942139 168.0
1293.808228 152.0
1299.907715 76.0
1301.393555 156.0
1304.065796 172.0
1312.993286 164.0
1313.765015 124.0
1313.981445 156.0
1315.265991 128.0
1317.771851 160.0
1319.224487 148.0
1320.518799 184.0
1325.195068 112.0
1326.260376 196.0
1331.396973 148.0
1335.707031 228.0
1354.056274 136.0
1354.510376 160.0
1355.616699 180.0
1357.091187 124.0
1357.955322 80.0
1359.547363 212.0
1360.237183 168.0
1361.118286 164.0
1362.998657 152.0
1364.828857 128.0
1366.586792 64.0
1369.965942 108.0
1373.73291 176.0
1379.684937 196.0
1380.209961 136.0
1382.103516 112.0
1382.91748 152.0
1384.524048 176.0
1388.288696 116.0
1389.527466 172.0
1390.477173 208.0
1390.922485 64.0
1391.612915 128.0
1393.217163 68.0
1395.520996 148.0
1395.811035 88.0
1397.253906 224.0
1397.77478 108.0
1398.675293 132.0
1399.397339 56.0
1399.672852 64.0
1402.272705 212.0
1407.016846 236.0
1407.38269 168.0
1410.004639 188.0
1410.684814 152.0
1412.464478 188.0
1413.721436 56.0
1417.435669 216.0
1422.167725 152.0
1424.352783 152.0
1431.603027 160.0
1432.122681 172.0
1432.936157 188.0
1433.207397 36.0
1435.891113 104.0
1436.79541 192.0
1436.841431 228.0
1439.196289 108.0
1450.976318 112.0
1451.272095 100.0
1456.029907 192.0
1461.069458 208.0
1461.168335 264.0
1461.91394 160.0
1465.485107 160.0
1467.99292 72.0
1468.595459 168.0
1472.159424 240.0
1473.221069 144.0
1476.821411 64.0
1476.989624 120.0
1477.157959 132.0
1478.772461 136.0
1480.985107 156.0
1485.814453 128.0
1490.835938 156.0
1497.752563 152.0
1498.314941 144.0
1498.546021 132.0
1498.623047 140.0
1498.861938 252.0
1499.054565 224.0
1500.827393 128.0
1502.832886 120.0
