>compound MLS001304703-01!
>formula C14H13N5O5S2
>ionization [M+H]+
>parentmass 396.0430869680905
#inchi InChI=1S/C14H13N5O5S2/c1-2-5-3-25-12-8(11(21)19(12)9(5)13(22)23)17-10(20)7(18-24)6-4-26-14(15)16-6/h2,4,8,12,24H,1,3H2,(H2,15,16)(H,17,20)(H,22,23)/t8-,12-/m1/s1
#inchikey RTXOFQZKPXMALH
#Ion_Source LC-ESI
#Instrument qTof
#Compound_Source NIH Pharmacologically Active Library
#PI Dorrestein
#Data_Collector VP/LMS
#Scan -1
#Precursor_MZ 396.049
#ExactMass 395.036
#Charge 1
#CAS_Number N/A
#Pubmed_ID N/A
#Smiles Nc1nc(cs1)C(=NO)C(=O)N[C@H]2[C@H]3SCC(=C(N3C2=O)C(=O)O)C=C
#INCHI_AUX N/A
#Library_Class 1
#SpectrumID CCMSLIB00000085626
#IonMode Positive
#UpdateWorkflowName UPDATE-SINGLE-ANNOTATED-GOLD
#LibraryQualityString Gold
#TaskID d252d724072548979f1f6f1ced849daf
##Scan# 1199
#SpectrumFile p4-D07_GD7_01_18367.mzXML
#LibraryName Pharm_Active_Library.mgf
#MQScore -1
#Organism Pharm_Active_Library
#TIC_Query 0
#RT_Query -1
#MZErrorPPM -1
#SharedPeaks 0
#MassDiff 0
#LibMZ -1
#SpecMZ 396.049
#SpecCharge 0
#internalFilename spec-00000.mgf

>collision 10
44.974926 204.0
45.020317 180.0
45.040352 128.0
45.152626 124.0
45.374908 148.0
45.570862 180.0
45.638065 216.0
45.784744 160.0
45.795517 84.0
45.818417 176.0
45.82785 80.0
45.846714 172.0
46.124752 76.0
46.205891 196.0
46.304707 200.0
46.334507 188.0
46.368385 108.0
46.812626 152.0
46.882103 232.0
47.003468 224.0
47.858803 196.0
47.992455 84.0
48.310108 176.0
48.639915 216.0
48.667679 120.0
48.812191 152.0
48.84557 196.0
48.984772 180.0
49.115803 196.0
49.160446 108.0
49.245609 136.0
49.328053 176.0
49.472137 176.0
49.518345 144.0
49.549164 72.0
49.717426 236.0
49.891602 240.0
49.959103 64.0
49.995686 144.0
50.530479 192.0
50.541798 156.0
50.669228 220.0
50.897579 240.0
50.952972 144.0
51.109371 192.0
51.578579 188.0
51.588585 244.0
51.816135 68.0
51.935459 184.0
52.533516 200.0
52.807964 100.0
53.392452 192.0
53.437546 100.0
53.606453 176.0
53.698299 164.0
53.711426 124.0
53.890991 152.0
54.256886 136.0
54.280346 56.0
54.378639 172.0
54.654915 208.0
54.755016 72.0
55.150433 168.0
55.504257 180.0
55.597713 184.0
55.729874 200.0
56.069157 136.0
56.410965 132.0
56.469826 132.0
56.503685 208.0
56.6474 148.0
56.70134 180.0
56.816803 152.0
56.878326 204.0
57.157867 116.0
57.237644 208.0
57.415466 196.0
57.821869 64.0
58.29047 176.0
58.536903 200.0
58.918217 40.0
59.184341 132.0
59.251732 36.0
59.528515 180.0
59.612312 172.0
59.726082 192.0
59.813789 96.0
59.984776 60.0
60.462044 40.0
60.699059 48.0
61.174484 124.0
61.277271 212.0
61.637703 228.0
61.668957 208.0
61.744003 180.0
61.903629 116.0
62.124626 192.0
62.207798 220.0
62.660725 124.0
62.791557 124.0
62.813641 200.0
63.015713 160.0
63.654045 168.0
63.809761 60.0
63.865417 132.0
63.940197 120.0
64.13929 176.0
64.378609 148.0
64.407364 252.0
64.476067 180.0
64.93074 156.0
65.004539 108.0
65.023796 152.0
65.411156 232.0
65.477173 88.0
65.70607 192.0
66.12944 132.0
66.226593 216.0
66.249268 208.0
66.26223 168.0
66.377312 120.0
66.528198 116.0
66.628891 72.0
66.866295 176.0
66.947693 168.0
67.102783 156.0
67.250938 120.0
67.347275 208.0
67.392555 156.0
67.581047 164.0
67.703819 176.0
67.94313 168.0
67.962822 132.0
68.002205 136.0
68.064583 220.0
68.107285 260.0
68.279861 128.0
68.469124 124.0
68.551498 160.0
68.888077 152.0
69.187408 200.0
69.232109 212.0
69.281807 164.0
69.748108 160.0
69.792992 172.0
70.089279 136.0
70.182617 168.0
70.379509 188.0
70.494766 184.0
70.826035 220.0
70.975189 140.0
71.18998 204.0
71.344559 144.0
71.450508 144.0
71.541382 168.0
71.804245 148.0
71.851479 192.0
71.912224 244.0
72.030418 164.0
72.05407 192.0
72.070969 184.0
72.197746 192.0
72.300941 160.0
72.709381 100.0
73.013481 100.0
73.037292 212.0
73.057709 136.0
73.088333 212.0
73.238144 144.0
73.265404 112.0
73.761993 140.0
73.787636 152.0
73.85775 128.0
74.553841 92.0
74.792015 192.0
74.953072 124.0
74.990982 172.0
75.232475 96.0
75.24456 168.0
75.260101 160.0
75.424225 128.0
75.447258 160.0
75.57814 152.0
75.675064 200.0
75.922859 140.0
75.940201 128.0
76.350082 128.0
76.423141 144.0
76.809898 200.0
77.169655 128.0
77.187134 192.0
77.208122 172.0
77.765259 68.0
77.891678 52.0
78.032272 196.0
78.093819 220.0
78.396637 124.0
78.576485 68.0
78.910812 312.0
78.931511 256.0
79.466431 180.0
79.485947 148.0
79.555161 156.0
79.963989 132.0
80.04232 160.0
80.430977 168.0
80.491676 212.0
80.522034 160.0
80.541687 104.0
81.184212 240.0
81.816689 144.0
81.958969 144.0
81.975189 116.0
82.538383 132.0
82.674057 132.0
83.386795 176.0
83.430428 172.0
83.499519 188.0
83.619598 176.0
83.982178 168.0
84.119507 168.0
84.283394 104.0
84.67305 136.0
85.090355 252.0
85.326294 204.0
85.418243 160.0
85.987595 168.0
86.018974 108.0
86.151932 152.0
86.175949 112.0
86.231384 136.0
86.338615 164.0
86.512543 148.0
86.801575 104.0
86.912872 140.0
87.052094 148.0
87.423889 156.0
87.57283 188.0
87.716301 180.0
87.802071 176.0
87.880417 52.0
88.050285 64.0
88.252106 68.0
88.507851 224.0
88.547775 184.0
88.65831 132.0
88.988449 72.0
89.315437 124.0
89.377525 132.0
89.616653 156.0
90.167664 160.0
90.320816 260.0
90.695732 192.0
90.822769 260.0
91.022041 148.0
91.596405 228.0
91.792709 100.0
92.000679 152.0
92.014038 156.0
92.044594 164.0
92.061775 136.0
92.124809 160.0
93.055573 140.0
93.480362 120.0
93.576607 180.0
93.736473 104.0
94.019958 212.0
94.035278 132.0
94.066925 228.0
94.101028 40.0
94.124199 232.0
94.388924 96.0
94.47403 156.0
94.516594 112.0
94.911736 212.0
95.022293 160.0
95.06498 204.0
95.218353 120.0
95.356293 100.0
95.395164 204.0
95.601334 180.0
95.994904 132.0
96.020195 168.0
96.056091 336.0
96.410652 144.0
96.53772 184.0
96.698143 164.0
96.803856 56.0
96.850861 176.0
97.008606 188.0
97.040955 212.0
97.217491 196.0
97.335274 224.0
97.533699 44.0
97.628067 188.0
97.681175 108.0
97.718552 160.0
97.840576 136.0
97.897675 100.0
97.960701 108.0
98.006363 280.0
98.031631 128.0
98.145966 160.0
98.16568 208.0
98.252464 92.0
98.26825 184.0
98.520958 164.0
98.596039 76.0
98.708725 196.0
98.732452 132.0
98.928337 48.0
98.961998 204.0
99.00071 1800.0
99.146217 84.0
99.169998 40.0
99.209648 68.0
99.358566 128.0
99.431801 136.0
99.447678 96.0
99.569138 252.0
99.695938 72.0
99.954453 128.0
99.985146 564.0
100.010704 120.0
100.314941 192.0
100.502411 148.0
100.867882 176.0
100.996742 316.0
101.37825 56.0
101.883888 228.0
102.000092 420.0
102.882774 156.0
102.925171 132.0
103.218163 100.0
103.406303 152.0
103.442741 148.0
103.475128 152.0
103.868279 124.0
103.996109 164.0
104.04705 284.0
104.378036 164.0
104.923706 52.0
105.057297 364.0
105.197075 140.0
105.333885 248.0
105.43605 116.0
105.698753 232.0
105.771477 168.0
106.029572 420.0
106.05204 588.0
106.234596 212.0
106.427513 64.0
106.610336 148.0
106.793724 60.0
106.867371 188.0
107.032036 128.0
107.059975 360.0
107.454567 164.0
107.675438 148.0
107.700226 92.0
108.041458 392.0
108.054672 256.0
108.337349 132.0
108.401573 156.0
108.540459 40.0
108.67321 172.0
108.872482 328.0
109.011238 384.0
109.055313 224.0
109.074768 388.0
109.246613 132.0
109.50264 200.0
110.001961 332.0
110.056694 140.0
110.324203 160.0
110.389595 64.0
110.4356 160.0
110.497055 180.0
110.533928 156.0
110.680389 140.0
110.835457 196.0
110.921379 168.0
111.001053 172.0
111.027412 196.0
111.261223 184.0
111.385124 112.0
111.5196 192.0
111.704636 176.0
111.820366 148.0
111.862457 56.0
112.009453 144.0
112.058311 172.0
112.079384 188.0
112.153145 152.0
112.330269 192.0
113.016121 300.0
113.639816 184.0
114.022041 220.0
114.045425 180.0
114.149597 184.0
114.556114 152.0
114.649864 212.0
114.809753 264.0
114.835342 76.0
114.999863 220.0
115.029518 120.0
115.349937 140.0
115.45256 144.0
115.996399 140.0
116.043564 160.0
116.086449 168.0
116.223732 180.0
116.247337 144.0
116.397598 144.0
116.472763 148.0
117.042862 492.0
117.098671 112.0
117.24086 140.0
117.277504 152.0
117.357262 188.0
117.432739 172.0
117.510399 216.0
117.76297 188.0
117.84938 76.0
118.059608 140.0
118.478966 164.0
118.4963 48.0
118.611153 136.0
118.775948 64.0
118.984276 128.0
119.059204 1600.0
119.086342 68.0
119.127609 44.0
119.21669 204.0
119.260162 136.0
119.386261 152.0
119.643013 136.0
119.828133 140.0
119.873886 72.0
120.039932 164.0
120.063911 540.0
120.122437 60.0
120.170433 136.0
120.712135 272.0
120.860878 160.0
121.027229 128.0
121.042557 392.0
121.067299 160.0
121.235329 180.0
121.257248 116.0
121.590607 104.0
121.764046 112.0
121.869492 160.0
121.895859 136.0
122.054123 168.0
122.293922 56.0
122.860237 156.0
122.941872 116.0
123.012825 388.0
123.052238 152.0
123.200211 144.0
123.432281 148.0
123.660141 128.0
123.702202 176.0
123.870491 160.0
123.990143 192.0
124.015266 1128.0
124.050415 2884.0
124.183029 60.0
124.216301 120.0
124.278419 64.0
124.360527 128.0
124.431564 80.0
124.871544 204.0
124.93383 240.0
125.004471 3984.0
125.055656 732.0
125.098503 44.0
125.116318 48.0
125.154167 196.0
125.196472 176.0
125.689117 72.0
125.722595 44.0
125.796249 176.0
125.820808 168.0
125.859589 108.0
125.933983 164.0
125.97538 324.0
126.012123 19548.0
126.082146 56.0
126.122375 60.0
126.169319 112.0
126.207329 116.0
126.238632 260.0
126.285599 68.0
126.305733 64.0
126.339287 96.0
126.36837 48.0
126.392982 52.0
126.486977 156.0
126.502647 68.0
126.545181 52.0
126.63028 64.0
126.787109 56.0
126.854347 68.0
126.892456 48.0
127.015503 1964.0
127.082375 148.0
127.136955 44.0
127.285118 96.0
127.538979 124.0
127.741356 40.0
127.883118 64.0
127.903374 104.0
127.959656 384.0
128.007706 1068.0
128.07225 104.0
128.099274 76.0
128.146591 36.0
128.381012 76.0
128.516357 80.0
129.013 180.0
129.049408 176.0
129.065903 140.0
129.200928 84.0
129.286911 140.0
129.370667 172.0
129.563156 124.0
129.974792 160.0
130.00531 52.0
130.24823 176.0
130.821274 128.0
131.055862 172.0
131.165253 164.0
131.539337 168.0
131.943695 184.0
131.98024 448.0
132.202164 176.0
132.451721 80.0
133.038803 480.0
133.282211 144.0
133.977051 196.0
134.000076 68.0
134.050552 148.0
134.216736 176.0
134.507431 148.0
134.604401 48.0
135.056335 768.0
135.302658 172.0
135.346649 80.0
135.374435 108.0
135.77536 216.0
135.937744 56.0
135.972565 152.0
136.020523 1360.0
136.067734 160.0
136.944397 208.0
136.976456 200.0
137.022232 512.0
137.704758 180.0
137.858948 144.0
138.011047 648.0
138.035034 352.0
138.54216 184.0
138.734329 240.0
138.837494 76.0
138.912552 232.0
138.950089 104.0
138.998337 300.0
139.019287 412.0
139.060379 196.0
139.079147 84.0
139.119064 140.0
139.57486 52.0
139.80304 36.0
139.845398 64.0
139.897186 136.0
139.950729 156.0
140.004227 168.0
140.024399 132.0
140.241089 112.0
140.325958 120.0
140.809708 116.0
140.871109 128.0
140.967987 52.0
141.012039 356.0
141.396027 48.0
141.632797 48.0
141.725189 128.0
141.944763 196.0
141.981842 104.0
142.006973 7704.0
142.332413 56.0
142.387024 72.0
142.415527 36.0
142.449799 56.0
142.505798 56.0
142.527191 60.0
142.546204 248.0
142.700699 88.0
142.973694 632.0
143.012314 356.0
143.067078 32.0
143.090881 156.0
143.371964 68.0
143.77739 92.0
143.930161 176.0
143.994553 228.0
144.010391 288.0
144.133194 44.0
144.264648 108.0
144.362671 148.0
144.986984 180.0
145.011475 156.0
145.86116 144.0
145.918854 136.0
145.969345 184.0
146.010223 136.0
146.041489 180.0
146.079987 116.0
146.571121 192.0
146.995529 128.0
147.056442 1168.0
147.548645 184.0
147.7155 136.0
148.018036 164.0
148.039825 200.0
148.061798 400.0
148.582779 164.0
148.641006 172.0
148.791489 132.0
148.83519 160.0
149.04184 164.0
149.072144 176.0
150.045074 196.0
150.451843 132.0
150.666748 168.0
151.003677 208.0
151.035187 128.0
151.044189 212.0
151.065231 144.0
151.126389 200.0
151.204697 160.0
151.846588 176.0
151.920181 156.0
152.017365 6984.0
152.202423 52.0
152.22699 72.0
152.349792 84.0
152.416122 44.0
152.516891 88.0
152.563599 168.0
152.809525 92.0
152.927643 44.0
152.947342 44.0
152.971954 124.0
153.018814 924.0
153.220688 168.0
153.242859 164.0
153.839691 116.0
153.879181 60.0
154.021988 448.0
154.064407 104.0
154.081711 72.0
154.202789 80.0
154.281891 120.0
154.487137 104.0
154.77919 104.0
154.848526 68.0
154.972992 212.0
155.017365 352.0
155.0616 168.0
155.314499 48.0
155.433578 44.0
155.696716 188.0
156.022171 612.0
156.11174 84.0
156.763962 84.0
157.005768 412.0
157.210342 228.0
157.973541 148.0
158.02243 144.0
158.075424 200.0
158.969589 152.0
159.137756 164.0
159.743439 40.0
159.984009 180.0
160.083206 32.0
160.357819 116.0
161.023499 208.0
161.420654 132.0
162.028122 128.0
162.451477 36.0
163.010056 160.0
163.036072 248.0
163.923599 120.0
164.019318 624.0
164.043381 208.0
164.196365 224.0
164.798813 144.0
164.908691 116.0
164.98027 40.0
165.021957 380.0
165.064636 180.0
165.504761 76.0
165.689163 152.0
165.901871 100.0
165.935196 148.0
166.030167 2612.0
166.209641 64.0
166.281494 172.0
166.313797 232.0
166.841461 36.0
166.964966 124.0
167.034897 712.0
167.178421 172.0
167.956497 232.0
167.988098 488.0
168.029251 336.0
168.12677 64.0
168.537354 200.0
168.956207 136.0
168.996536 332.0
169.067459 136.0
169.225372 164.0
169.305634 48.0
169.354843 108.0
169.831772 136.0
169.999435 696.0
170.027145 1036.0
170.061264 216.0
170.161331 52.0
170.252213 144.0
170.974243 136.0
170.995758 132.0
171.031372 316.0
171.388977 84.0
171.980972 156.0
172.012299 168.0
172.069717 100.0
172.388382 168.0
172.934982 200.0
172.9664 100.0
172.984711 168.0
173.027817 208.0
173.199432 148.0
173.946762 164.0
174.030762 196.0
174.193588 228.0
174.451126 204.0
174.798294 116.0
174.961487 124.0
174.985184 128.0
176.031967 124.0
176.430939 128.0
176.825058 116.0
176.891235 160.0
176.978607 108.0
177.002426 208.0
177.023621 120.0
177.097778 76.0
178.012741 140.0
178.052582 56.0
179.028839 712.0
179.282761 68.0
179.628281 120.0
179.943176 120.0
180.022614 2572.0
180.098068 68.0
180.138138 68.0
180.448135 68.0
180.801224 72.0
180.953812 120.0
181.020111 1032.0
181.071625 196.0
181.610352 44.0
181.634491 212.0
181.757904 148.0
181.854507 116.0
181.986176 184.0
182.025421 2684.0
182.11496 72.0
182.1633 76.0
182.21434 88.0
182.418594 76.0
182.577225 28.0
182.964691 128.0
182.987854 196.0
183.03363 2656.0
183.158585 80.0
183.376831 140.0
183.536804 176.0
184.000839 560.0
184.027222 368.0
184.041229 152.0
184.986572 160.0
185.029007 352.0
185.992661 144.0
186.041214 112.0
186.619904 52.0
186.774918 128.0
187.036133 204.0
187.790878 128.0
187.897263 52.0
187.992767 116.0
188.033707 184.0
188.088287 176.0
188.555344 200.0
189.035507 152.0
189.214569 80.0
189.499405 176.0
190.984558 100.0
191.901596 60.0
192.009369 152.0
192.031204 140.0
192.05603 152.0
192.704758 180.0
193.017792 676.0
193.138779 148.0
193.221771 140.0
194.022186 744.0
194.06929 176.0
194.751968 136.0
195.037231 388.0
195.063171 72.0
195.975937 168.0
196.001572 136.0
196.034515 156.0
196.976334 240.0
197.542206 120.0
198.001526 260.0
198.085281 28.0
198.679581 216.0
198.904068 124.0
198.987137 340.0
199.028397 524.0
199.051407 180.0
199.311295 80.0
199.988983 356.0
200.067871 156.0
200.994537 168.0
201.029785 160.0
201.127792 84.0
201.986786 140.0
202.039032 132.0
203.0858 48.0
203.105652 132.0
203.542709 136.0
203.710281 188.0
204.000137 232.0
204.165039 96.0
205.455353 192.0
205.749298 120.0
206.083466 124.0
207.020004 228.0
207.348282 192.0
207.692337 72.0
208.030945 300.0
209.011124 1292.0
209.25853 28.0
209.408279 84.0
209.524597 32.0
209.581116 60.0
209.97316 164.0
210.019409 1432.0
210.689011 80.0
210.862396 76.0
210.949112 144.0
210.992462 192.0
211.028976 2420.0
211.174637 60.0
211.218033 56.0
211.252747 120.0
211.362686 60.0
211.70137 116.0
211.964981 160.0
211.994522 764.0
212.018463 412.0
212.063507 48.0
212.228745 204.0
212.582642 176.0
212.864212 64.0
213.002502 3048.0
213.090775 28.0
213.226288 56.0
213.29129 80.0
213.899231 68.0
214.000946 352.0
214.306946 76.0
214.948441 40.0
215.0009 392.0
215.196533 36.0
215.836426 196.0
216.008987 140.0
216.035828 156.0
216.916748 88.0
218.052658 64.0
219.000046 124.0
219.223953 56.0
219.353638 92.0
220.046906 128.0
222.011688 132.0
223.318451 100.0
224.984482 140.0
225.124512 140.0
225.238007 160.0
225.99762 1564.0
226.05719 56.0
226.081131 164.0
227.014374 1344.0
227.129776 72.0
227.504868 76.0
227.573929 116.0
228.003799 260.0
228.017075 192.0
228.998001 156.0
229.032776 196.0
229.593048 52.0
230.036591 124.0
230.0858 132.0
231.070145 204.0
232.023834 160.0
232.0345 144.0
232.066589 148.0
232.828247 164.0
233.049988 48.0
233.935013 88.0
234.020248 168.0
234.969467 160.0
237.105515 56.0
237.59613 44.0
237.979767 92.0
238.323776 108.0
239.532837 112.0
239.988953 160.0
240.995163 184.0
242.381363 88.0
242.657211 220.0
243.001923 596.0
243.377045 104.0
243.681427 64.0
243.992218 224.0
244.051285 184.0
244.132141 56.0
244.994171 296.0
245.060822 172.0
245.203079 68.0
246.016434 116.0
247.561768 68.0
248.016052 204.0
248.070374 224.0
248.398605 48.0
248.982407 120.0
249.017609 200.0
252.005615 164.0
252.985825 408.0
253.018524 160.0
253.988434 356.0
256.03595 160.0
257.046082 180.0
258.054962 128.0
258.999023 104.0
259.05484 112.0
259.117554 216.0
261.036987 212.0
262.834412 120.0
263.031281 204.0
264.026398 152.0
264.049042 144.0
264.259308 60.0
265.383209 52.0
268.019257 144.0
268.042053 136.0
270.040009 56.0
270.128296 148.0
270.999146 128.0
271.038452 108.0
271.362946 144.0
271.996094 68.0
272.685852 40.0
273.057373 104.0
274.002106 308.0
274.028473 92.0
274.084473 184.0
274.978149 140.0
275.024353 80.0
277.333069 68.0
278.009644 184.0
287.046906 208.0
290.033997 172.0
291.038177 92.0
292.030487 120.0
293.021088 116.0
298.006104 156.0
301.998077 116.0
304.528259 56.0
310.10379 128.0
330.508331 140.0
340.04541 48.0
345.428711 44.0
352.82547 148.0
361.362946 84.0
363.556915 76.0
374.81897 88.0
385.752258 64.0
397.22345 72.0
411.369781 120.0
415.006866 248.0
418.411591 140.0
424.844208 120.0
430.317871 92.0
445.229828 104.0
462.974518 40.0
463.047333 56.0
490.351898 48.0
492.407837 156.0
520.793274 64.0
571.754395 88.0
612.996338 92.0
647.332703 68.0
681.128662 100.0
734.009155 56.0
762.146423 204.0
776.51062 60.0
777.609131 84.0
783.542358 196.0
809.662842 116.0
862.130493 140.0
874.946899 76.0
878.276306 200.0
902.602478 184.0
909.312073 156.0
933.63562 196.0
976.915344 208.0
980.184021 160.0
997.206299 40.0
997.552002 128.0
1009.714966 176.0
1018.976135 280.0
1021.722656 132.0
1022.575317 168.0
1022.899902 36.0
1023.670288 80.0
1025.52417 184.0
1037.253418 68.0
1058.313843 152.0
1059.337158 72.0
1061.547241 208.0
1066.396851 68.0
1067.911743 120.0
1072.42395 132.0
1077.010864 176.0
1084.699341 196.0
1087.821899 160.0
1088.635986 152.0
1101.010254 184.0
1108.266968 156.0
1115.447754 236.0
1116.39856 112.0
1125.46106 224.0
1125.895142 160.0
1126.416138 252.0
1126.917114 52.0
1127.004028 236.0
1133.192993 176.0
1137.43811 44.0
1138.035522 192.0
1147.165039 188.0
1151.63208 248.0
1156.744019 164.0
1160.727783 168.0
1170.764771 160.0
1171.248291 144.0
1173.776733 152.0
1174.09729 60.0
1174.247314 168.0
1176.649292 172.0
1178.001465 240.0
1178.506958 132.0
1178.964844 72.0
1182.918213 64.0
1187.262207 140.0
1187.858887 180.0
1191.048706 68.0
1191.772095 188.0
1193.215454 44.0
1193.442383 180.0
1194.240112 164.0
1199.183716 240.0
1202.742676 152.0
1204.987061 112.0
1206.770264 108.0
1208.464844 104.0
1211.427979 176.0
1212.522705 92.0
1215.490845 164.0
1216.372192 168.0
1224.890503 108.0
1227.329712 244.0
1232.047852 156.0
1236.047119 100.0
1237.096924 156.0
1237.755127 152.0
1252.489502 164.0
1252.75708 152.0
1254.349731 92.0
1259.062866 32.0
1260.581787 104.0
1263.424072 208.0
1263.975952 152.0
1265.773926 160.0
1267.693604 184.0
1267.835449 124.0
1273.3479 236.0
1277.150391 216.0
1278.979004 204.0
1281.407471 104.0
1281.842041 192.0
1286.578003 84.0
1287.242065 236.0
1292.918213 160.0
1293.11145 48.0
1294.908447 148.0
1305.169678 160.0
1306.745728 124.0
1306.803345 76.0
1306.940063 156.0
1308.854614 208.0
1311.974365 152.0
1313.67627 164.0
1316.787354 116.0
1318.159912 164.0
1318.600708 184.0
1318.651367 144.0
1319.099487 160.0
1320.061035 172.0
1321.992554 136.0
1322.137329 88.0
1323.128906 184.0
1324.359985 172.0
1325.403198 112.0
1325.787231 52.0
1328.9198 232.0
1330.291504 200.0
1330.574585 164.0
1332.491943 116.0
1332.724487 140.0
1336.803833 96.0
1338.019287 148.0
1338.194092 176.0
1339.70166 172.0
1341.997437 192.0
1343.062134 64.0
1343.120483 204.0
1343.543579 200.0
1344.820557 208.0
1346.989136 104.0
1348.163818 152.0
1350.69519 176.0
1353.769165 108.0
1354.252563 152.0
1357.543213 148.0
1358.23999 140.0
1359.472534 124.0
1360.30188 168.0
1360.610229 216.0
1361.116821 180.0
1361.204956 144.0
1363.45105 76.0
1363.548462 80.0
1365.052734 52.0
1365.467407 176.0
1366.394165 192.0
1368.5802 184.0
1371.777588 128.0
1374.144897 112.0
1376.523438 164.0
1377.96936 180.0
1379.720337 204.0
1380.356812 192.0
1380.578735 84.0
1386.508667 148.0
1390.268555 172.0
1391.419189 176.0
1393.684448 68.0
1394.561401 152.0
1395.334473 196.0
1399.136108 196.0
1402.279663 176.0
1403.576782 124.0
1405.202759 124.0
1408.188721 56.0
1411.005859 232.0
1414.55188 76.0
1415.158325 132.0
1415.630005 196.0
1416.244141 184.0
1417.397827 200.0
1423.218628 188.0
1423.654175 40.0
1424.209839 192.0
1424.502808 240.0
1426.02063 236.0
1428.705078 184.0
1430.180054 56.0
1430.390747 136.0
1433.041748 144.0
1433.486206 136.0
1434.405762 212.0
1434.888184 172.0
1436.238037 136.0
1441.281128 232.0
1442.271118 136.0
1442.656616 88.0
1444.116089 220.0
1446.363281 100.0
1446.969971 148.0
1447.438354 164.0
1450.42334 176.0
1452.683105 172.0
1453.282471 156.0
1457.564941 52.0
1462.805054 132.0
1464.90686 136.0
1465.165894 148.0
1465.630615 160.0
1466.796631 144.0
1469.450562 200.0
1470.266968 132.0
1472.817139 156.0
1473.107422 196.0
1473.420654 180.0
1474.589722 148.0
1476.179932 124.0
1478.834595 220.0
1479.592407 188.0
1479.98291 180.0
1480.534302 224.0
1484.330688 176.0
1484.93335 144.0
1485.05603 204.0
1485.454956 200.0
1487.442383 208.0
1488.325317 192.0
1489.938232 140.0
1495.043823 152.0
1495.813477 104.0
1496.706543 136.0
1498.454956 112.0
1498.686035 236.0
1498.917236 120.0
1501.453491 132.0
