>compound MLS001076354-01!
>formula C15H14FN3O3
>ionization [M+H]+
>parentmass 304.10919598009053
#inchi InChI=1S/C15H14FN3O3/c1-3-22-15(21)13-12-7-18(2)14(20)10-6-9(16)4-5-11(10)19(12)8-17-13/h4-6,8H,3,7H2,1-2H3
#inchikey OFBIFZUFASYYRE
#Ion_Source LC-ESI
#Instrument qTof
#Compound_Source NIH Pharmacologically Active Library
#PI Dorrestein
#Data_Collector VP/LMS
#Scan -1
#Precursor_MZ 304.109
#ExactMass 303.102
#Charge 1
#CAS_Number N/A
#Pubmed_ID N/A
#Smiles CCOC(=O)c1ncn-2c1CN(C)C(=O)c3cc(F)ccc32
#INCHI_AUX N/A
#Library_Class 1
#SpectrumID CCMSLIB00000085014
#IonMode Positive
#UpdateWorkflowName UPDATE-SINGLE-ANNOTATED-GOLD
#LibraryQualityString Gold
#TaskID d252d724072548979f1f6f1ced849daf
##Scan# 1608
#SpectrumFile p3-D09_GD9_01_18266.mzXML
#LibraryName Pharm_Active_Library.mgf
#MQScore -1
#Organism Pharm_Active_Library
#TIC_Query 0
#RT_Query -1
#MZErrorPPM -1
#SharedPeaks 0
#MassDiff 0
#LibMZ -1
#SpecMZ 304.109
#SpecCharge 0
#internalFilename spec-00000.mgf

>collision 10
44.948723 144.0
45.216011 204.0
45.29501 192.0
45.325825 140.0
45.344589 208.0
45.443825 184.0
45.47588 140.0
45.568699 180.0
45.587509 180.0
45.712578 144.0
45.739498 152.0
45.882301 108.0
45.905224 136.0
46.075298 160.0
46.117775 164.0
46.26329 152.0
46.443523 208.0
46.484528 236.0
46.771004 236.0
46.790066 180.0
46.907227 160.0
46.956318 152.0
46.976776 56.0
47.006359 176.0
47.051838 160.0
47.087345 164.0
47.402008 144.0
47.575428 220.0
47.731472 148.0
47.973801 156.0
48.197399 124.0
48.207382 180.0
48.312157 88.0
48.386894 108.0
48.680862 184.0
48.819836 184.0
48.894306 296.0
48.913059 168.0
48.925587 232.0
49.050968 164.0
49.098377 152.0
49.321781 120.0
49.464466 104.0
49.528881 112.0
49.650822 204.0
49.786961 176.0
49.806622 124.0
49.926094 220.0
50.329132 232.0
50.50116 144.0
50.611938 92.0
50.637432 144.0
50.65443 224.0
50.691269 192.0
50.83308 140.0
51.067501 128.0
51.194172 56.0
51.526535 196.0
51.56226 68.0
51.789761 236.0
51.814114 164.0
51.85997 268.0
51.964661 152.0
52.290871 136.0
52.681652 132.0
52.696098 220.0
52.888443 176.0
52.928982 84.0
53.052139 152.0
53.065186 124.0
53.165279 48.0
53.301788 184.0
53.352661 56.0
53.431198 168.0
53.452015 196.0
53.57679 224.0
53.623421 176.0
53.677361 84.0
53.764893 116.0
54.109344 120.0
54.143555 160.0
54.293045 224.0
54.42659 176.0
54.629417 196.0
54.758953 184.0
54.854733 88.0
55.19136 108.0
55.308239 208.0
55.469704 164.0
55.505287 236.0
55.794147 88.0
55.9049 168.0
55.997208 156.0
56.03743 172.0
56.187794 188.0
56.310425 136.0
56.491295 120.0
56.585583 108.0
56.663467 152.0
56.816395 204.0
57.010098 132.0
57.113838 132.0
57.202621 180.0
57.256828 60.0
57.303528 160.0
57.363811 132.0
57.384918 172.0
57.464367 196.0
57.640018 208.0
57.910828 176.0
58.056328 132.0
58.10487 180.0
58.12611 184.0
58.157982 168.0
58.4011 140.0
58.425442 224.0
58.489357 192.0
58.6493 240.0
58.786564 152.0
58.867477 196.0
59.266731 188.0
59.329575 144.0
59.515224 180.0
59.538261 132.0
59.581272 204.0
59.671951 120.0
59.727314 172.0
59.742699 152.0
59.981396 144.0
60.080093 180.0
60.20821 96.0
60.324097 124.0
60.370483 112.0
60.399872 120.0
60.430813 200.0
60.449383 264.0
60.50201 168.0
60.630577 120.0
60.692585 160.0
60.762383 196.0
60.818077 180.0
60.860168 156.0
60.917835 156.0
61.548424 160.0
61.62809 44.0
61.712494 148.0
61.848602 224.0
61.887741 64.0
62.020908 76.0
62.162064 96.0
62.253113 164.0
62.325375 148.0
62.459011 188.0
62.50621 104.0
62.599087 164.0
62.630589 160.0
62.674702 136.0
62.85762 228.0
62.968132 148.0
63.013943 164.0
63.229004 220.0
63.327171 264.0
63.349346 152.0
63.373932 176.0
63.536419 188.0
63.653877 124.0
63.726311 160.0
63.862076 224.0
64.06424 152.0
64.100883 212.0
64.182182 152.0
64.458344 152.0
64.643845 136.0
64.70787 204.0
64.810379 192.0
64.840828 44.0
64.866478 152.0
64.909767 68.0
64.959488 164.0
64.993179 116.0
65.020462 132.0
65.107155 244.0
65.179451 144.0
65.304848 128.0
65.568901 144.0
65.580185 152.0
65.751152 120.0
65.765678 72.0
65.799576 156.0
65.822182 104.0
65.885178 200.0
66.145546 220.0
66.203835 140.0
66.224892 112.0
66.263771 228.0
66.291313 124.0
66.442116 212.0
66.568718 164.0
66.802773 48.0
66.836945 236.0
66.872742 72.0
66.893906 164.0
66.975327 272.0
66.986732 88.0
67.108963 244.0
67.223152 248.0
67.3358 188.0
67.383171 160.0
67.533569 200.0
67.612106 156.0
67.657936 216.0
67.686226 188.0
67.774231 108.0
67.856178 56.0
67.907021 168.0
68.087555 80.0
68.10891 184.0
68.302879 132.0
68.480652 144.0
68.536667 116.0
68.61908 124.0
68.810471 76.0
68.833588 160.0
68.853401 44.0
68.993858 72.0
69.24704 152.0
69.278511 124.0
69.295082 140.0
69.306679 140.0
69.500687 124.0
69.586998 140.0
69.626846 172.0
69.719887 204.0
69.753128 140.0
69.83461 68.0
69.999374 136.0
70.361198 76.0
70.571724 164.0
70.611855 152.0
70.894798 200.0
71.01384 156.0
71.216934 204.0
71.228691 72.0
71.400475 180.0
71.512863 160.0
71.620628 128.0
71.652634 196.0
71.711617 80.0
71.753967 196.0
71.811096 168.0
71.93438 128.0
72.130234 180.0
72.189407 212.0
72.253685 116.0
72.301064 140.0
72.316879 232.0
72.367233 224.0
72.446686 212.0
72.524635 136.0
72.723091 52.0
72.807983 144.0
72.848755 228.0
72.95752 188.0
73.015327 204.0
73.044243 228.0
73.124222 216.0
73.24852 216.0
73.294525 192.0
73.545227 152.0
73.743362 112.0
73.782677 152.0
73.900696 148.0
73.929787 128.0
74.065041 184.0
74.097595 44.0
74.142143 168.0
74.154144 208.0
74.179855 156.0
74.240395 208.0
74.258736 132.0
74.502487 212.0
74.567787 204.0
74.669228 128.0
74.707069 228.0
74.741478 168.0
75.12397 112.0
75.17746 124.0
75.34668 216.0
75.358772 140.0
75.419266 216.0
75.441734 48.0
75.460754 180.0
75.593948 180.0
75.671837 100.0
75.708206 128.0
75.869347 220.0
76.035873 84.0
76.153938 244.0
76.273834 120.0
76.411224 240.0
76.468651 264.0
76.484314 204.0
76.560921 172.0
76.592278 180.0
76.775284 192.0
76.815399 100.0
76.881706 152.0
77.049339 128.0
77.124481 184.0
77.162941 188.0
77.196159 116.0
77.224144 212.0
77.285378 200.0
77.330879 164.0
77.418419 156.0
77.430679 148.0
77.477974 204.0
77.541054 188.0
77.586761 164.0
77.655022 188.0
77.786621 172.0
77.848076 176.0
77.953484 180.0
77.981598 40.0
78.002693 172.0
78.168022 172.0
78.331764 176.0
78.449837 92.0
78.645638 124.0
78.709198 188.0
78.769249 128.0
78.804581 88.0
78.914169 200.0
78.986679 228.0
79.046829 188.0
79.543098 104.0
79.763367 216.0
79.88607 44.0
79.943008 236.0
79.991066 60.0
80.083664 144.0
80.201263 156.0
80.408165 128.0
80.601036 156.0
80.7369 72.0
80.83078 160.0
80.885406 36.0
80.958817 216.0
80.989265 164.0
81.191795 60.0
81.252785 152.0
81.394585 96.0
81.459244 104.0
81.935982 244.0
81.977425 132.0
82.0532 228.0
82.211868 176.0
82.320183 164.0
82.338249 148.0
82.388824 180.0
82.502678 156.0
82.52076 228.0
82.559219 224.0
82.641945 56.0
82.670898 148.0
82.717583 96.0
82.839287 200.0
82.913582 112.0
83.034187 172.0
83.3255 140.0
83.414551 196.0
83.540024 204.0
83.60553 136.0
83.63829 84.0
83.683807 64.0
83.696548 120.0
83.813126 172.0
84.446617 80.0
84.486862 204.0
84.574699 140.0
85.116386 116.0
85.238617 68.0
85.37281 132.0
85.426155 200.0
85.56234 148.0
85.604691 156.0
86.141418 112.0
86.165985 188.0
86.248596 120.0
86.268982 140.0
86.333702 128.0
86.359543 128.0
86.703918 156.0
86.855957 180.0
86.917183 172.0
86.950584 136.0
87.052696 128.0
87.998634 140.0
88.03038 144.0
88.058388 128.0
88.084541 200.0
88.396324 180.0
88.501602 144.0
88.685196 212.0
88.778946 160.0
89.0755 220.0
89.178848 180.0
89.540092 156.0
89.883202 160.0
89.901527 152.0
89.922836 124.0
90.000237 172.0
90.13813 128.0
90.226967 128.0
90.287476 92.0
90.354721 132.0
90.385849 108.0
90.455872 136.0
90.552444 136.0
90.594116 160.0
90.611168 128.0
90.73436 272.0
90.998085 184.0
91.189949 188.0
91.21656 156.0
91.292618 164.0
91.351578 220.0
91.460045 48.0
91.545723 100.0
91.583817 164.0
91.690514 160.0
91.730537 124.0
91.844955 100.0
91.904091 152.0
92.030075 96.0
92.056808 140.0
92.339653 148.0
92.590378 204.0
92.632515 96.0
92.722572 148.0
92.739342 144.0
92.875961 152.0
92.962303 72.0
93.050598 132.0
93.100525 148.0
93.497543 220.0
93.612068 124.0
93.646736 172.0
93.843307 212.0
93.945518 124.0
94.018845 132.0
94.103783 144.0
94.126953 192.0
94.327888 184.0
94.364616 144.0
94.651184 200.0
94.666481 76.0
95.02874 208.0
95.056129 108.0
95.075539 172.0
95.201729 208.0
95.265823 200.0
95.291084 108.0
95.376587 220.0
95.466026 180.0
95.481583 144.0
95.628685 224.0
95.71122 128.0
95.791069 212.0
95.876801 124.0
95.929428 108.0
95.987923 168.0
96.121094 164.0
96.253311 136.0
96.397865 92.0
96.536659 184.0
96.614899 196.0
96.652077 124.0
96.700188 192.0
96.791054 168.0
97.024223 44.0
97.059509 184.0
97.106583 160.0
97.192902 152.0
97.461906 148.0
97.699814 132.0
97.855293 256.0
97.938004 172.0
98.12719 196.0
98.241577 148.0
98.879822 144.0
99.040199 128.0
99.168999 160.0
99.285973 204.0
99.516167 84.0
99.911674 48.0
100.020973 208.0
100.041039 132.0
100.056961 116.0
100.098778 156.0
100.788971 156.0
101.00489 260.0
101.038902 228.0
101.301155 172.0
101.533669 164.0
101.774483 180.0
101.864861 132.0
102.021606 92.0
102.17244 36.0
102.341507 140.0
102.44825 232.0
102.551025 204.0
102.595367 128.0
102.781151 184.0
102.974731 196.0
103.16468 124.0
103.185791 176.0
103.252663 172.0
103.541039 160.0
103.645844 196.0
103.703125 204.0
103.731506 120.0
103.899826 144.0
103.942436 184.0
103.993172 168.0
104.127174 136.0
104.141396 56.0
104.305984 60.0
104.366974 164.0
104.39138 160.0
104.480873 120.0
104.539879 152.0
104.617226 200.0
104.947289 136.0
105.063545 120.0
105.130432 164.0
105.414742 136.0
105.576241 96.0
105.602829 140.0
105.645782 180.0
105.836128 148.0
105.905754 168.0
105.959023 196.0
105.979507 136.0
106.206131 148.0
106.214149 80.0
106.319916 232.0
106.334282 188.0
106.43898 144.0
106.535515 112.0
106.574554 152.0
106.704041 108.0
106.782181 152.0
106.848007 152.0
107.02932 548.0
107.047668 264.0
107.169205 228.0
107.486748 116.0
107.544533 112.0
107.689072 204.0
107.763443 148.0
107.889511 104.0
108.017731 156.0
108.083939 84.0
108.348564 188.0
108.404907 208.0
108.684853 148.0
108.779648 136.0
108.894524 160.0
109.045036 428.0
109.181335 168.0
109.523201 192.0
109.589348 176.0
109.618515 188.0
109.852036 168.0
109.906052 180.0
109.94593 120.0
110.037743 344.0
110.175621 176.0
110.198601 144.0
110.221588 136.0
110.242485 144.0
110.315643 132.0
110.44529 236.0
110.49131 176.0
110.788597 200.0
110.874512 120.0
110.929008 80.0
111.025459 172.0
111.424286 176.0
111.504135 156.0
111.590324 124.0
111.628014 156.0
111.67865 148.0
112.03019 144.0
112.401268 100.0
112.777199 164.0
112.811333 188.0
112.868103 148.0
113.037331 144.0
113.05426 120.0
113.079659 144.0
113.174919 80.0
113.380402 208.0
113.395241 196.0
113.743095 180.0
114.034096 160.0
114.168037 244.0
114.250999 144.0
114.427643 164.0
114.627869 156.0
114.647049 140.0
114.689674 120.0
114.725914 88.0
115.34713 88.0
115.40271 212.0
115.455849 160.0
115.488258 52.0
115.503227 112.0
115.59951 188.0
115.745071 168.0
116.489304 108.0
116.543015 164.0
116.652626 112.0
116.805305 92.0
116.852631 196.0
116.899971 192.0
117.072662 184.0
117.27256 196.0
117.337227 208.0
117.395447 132.0
117.475258 112.0
117.514091 160.0
117.626617 140.0
117.764503 152.0
118.129814 132.0
118.688599 212.0
118.794876 164.0
118.8144 104.0
118.853455 120.0
118.875153 176.0
118.966316 56.0
119.087914 60.0
119.20089 120.0
119.585831 228.0
119.625015 128.0
119.666992 184.0
119.807945 200.0
119.86895 44.0
119.946442 208.0
120.020699 280.0
120.106598 68.0
120.193863 148.0
120.429642 136.0
120.761871 68.0
121.046402 448.0
121.195335 244.0
121.440872 128.0
121.662498 124.0
121.734962 164.0
121.884338 176.0
121.970047 220.0
122.005692 168.0
122.040146 2936.0
122.115173 108.0
122.218567 136.0
122.259071 256.0
122.355026 236.0
122.423286 112.0
122.456322 124.0
122.484955 152.0
122.665649 160.0
122.738411 72.0
122.775902 200.0
122.857513 260.0
122.921501 124.0
123.041939 400.0
123.100304 100.0
123.146683 48.0
123.206329 168.0
123.478218 136.0
123.615379 92.0
123.646362 248.0
123.688416 92.0
123.770332 196.0
124.273491 148.0
124.306778 128.0
124.346725 140.0
124.442177 152.0
124.504356 228.0
124.926682 224.0
124.986755 180.0
125.035713 148.0
125.360863 184.0
125.581581 148.0
125.974442 164.0
126.030296 184.0
126.074501 200.0
126.544746 160.0
126.607445 72.0
126.634315 180.0
126.714081 112.0
127.033318 136.0
127.264481 164.0
127.289185 108.0
127.435188 204.0
127.516083 116.0
127.680206 132.0
127.844437 164.0
127.92997 228.0
128.056076 232.0
128.403168 124.0
128.436996 120.0
128.529495 128.0
128.624283 96.0
128.791382 176.0
128.852371 76.0
128.899826 180.0
128.954071 172.0
128.999268 192.0
129.044495 64.0
129.082932 188.0
129.241272 48.0
129.368011 176.0
129.438202 152.0
129.458588 128.0
129.771286 148.0
130.09346 172.0
130.11615 140.0
130.170654 148.0
130.361465 232.0
130.586548 240.0
130.618652 140.0
130.695541 136.0
130.74353 156.0
130.884674 156.0
130.91655 48.0
131.057785 52.0
131.153503 80.0
131.253815 128.0
131.338196 164.0
131.54129 160.0
131.8405 176.0
131.916016 196.0
132.023987 1196.0
132.144623 48.0
132.183533 104.0
132.330017 108.0
132.483475 172.0
132.575119 84.0
132.630188 164.0
132.648468 164.0
132.666809 136.0
132.866333 76.0
133.026855 164.0
133.045654 348.0
133.07518 188.0
133.300293 200.0
133.350861 136.0
133.60704 200.0
133.767197 236.0
133.787903 136.0
133.882309 80.0
133.92218 168.0
133.944504 192.0
134.039185 6444.0
134.096573 36.0
134.140381 52.0
134.193405 140.0
134.343307 148.0
134.470215 68.0
134.500229 136.0
134.541779 132.0
134.733459 140.0
134.858246 224.0
134.892929 196.0
135.043076 1024.0
135.170471 248.0
135.274612 168.0
135.367233 180.0
135.420502 184.0
135.49231 172.0
135.552551 240.0
135.724091 152.0
135.795975 132.0
135.923569 96.0
135.990875 100.0
136.007126 104.0
136.052017 352.0
136.165009 164.0
136.188232 188.0
136.427582 220.0
136.448517 44.0
136.511292 200.0
136.571762 128.0
136.59967 124.0
136.674118 32.0
136.790497 76.0
136.929062 164.0
137.039688 160.0
137.135239 124.0
137.340424 148.0
137.436066 132.0
137.739578 124.0
138.041351 232.0
138.062119 132.0
138.112137 228.0
138.132294 136.0
138.232895 112.0
138.338226 80.0
138.420166 156.0
138.478714 172.0
138.628662 132.0
138.863098 104.0
139.151733 232.0
139.217484 144.0
139.240967 160.0
139.438324 100.0
139.633469 260.0
139.672043 188.0
140.052429 208.0
140.092468 156.0
140.48616 132.0
140.764679 196.0
140.878052 68.0
140.908768 152.0
141.097839 152.0
141.138031 140.0
141.268112 144.0
141.317795 156.0
141.533188 196.0
141.777191 132.0
141.899231 172.0
142.073578 176.0
142.251572 80.0
142.363159 200.0
142.542877 148.0
142.729126 184.0
142.909897 116.0
143.012222 64.0
143.181274 124.0
143.288467 176.0
143.393311 140.0
143.538742 152.0
143.881073 144.0
144.023224 160.0
144.078156 168.0
144.460663 128.0
144.563553 108.0
144.755066 148.0
145.203217 196.0
146.038925 1460.0
146.262817 92.0
146.310974 48.0
146.530136 32.0
146.665085 144.0
146.694016 104.0
146.710892 44.0
146.739822 264.0
146.860397 236.0
146.993088 136.0
147.041031 320.0
147.072815 120.0
147.11377 216.0
147.2659 144.0
147.285217 160.0
147.326279 116.0
147.408432 172.0
147.551041 176.0
147.570389 212.0
147.688889 200.0
147.713074 136.0
147.78566 68.0
147.870346 132.0
147.892136 120.0
147.930862 136.0
147.981705 108.0
148.018585 2368.0
148.055435 9444.0
148.102798 36.0
148.130325 132.0
148.169617 120.0
148.253006 68.0
148.301483 64.0
148.461502 128.0
148.490601 156.0
148.514862 128.0
148.582779 124.0
148.599762 100.0
148.699249 64.0
148.794281 216.0
148.878922 84.0
148.905624 52.0
149.024414 180.0
149.059601 712.0
149.292053 116.0
149.355286 36.0
149.473373 176.0
149.541885 168.0
149.686279 96.0
149.769089 136.0
149.834869 156.0
149.864105 184.0
149.94696 192.0
149.998138 52.0
150.036652 216.0
150.061523 184.0
150.09079 40.0
150.111603 56.0
150.232254 120.0
150.351807 136.0
150.405502 180.0
150.644821 128.0
150.752319 160.0
150.800415 208.0
150.8452 136.0
151.034866 164.0
151.070175 188.0
151.128891 84.0
151.510849 180.0
151.596603 72.0
151.694641 236.0
151.716705 68.0
151.773102 136.0
151.790268 188.0
151.93988 80.0
151.966873 36.0
152.054016 676.0
152.089569 144.0
152.106766 132.0
152.472733 132.0
152.804703 196.0
153.045914 88.0
153.220779 152.0
153.28978 180.0
153.35878 216.0
153.504242 124.0
153.58316 180.0
153.657166 108.0
153.756775 208.0
153.790436 212.0
154.042297 148.0
154.096649 96.0
154.383392 196.0
154.541702 136.0
154.581299 124.0
154.744659 196.0
155.060684 796.0
155.118744 72.0
155.211578 100.0
155.230316 68.0
155.304718 76.0
155.58017 48.0
155.776352 152.0
155.883194 128.0
156.042282 168.0
156.060318 316.0
156.291 124.0
156.330826 156.0
156.465225 172.0
156.524994 120.0
156.766617 192.0
156.78656 40.0
156.946106 180.0
157.060822 44.0
157.128174 152.0
157.422714 128.0
157.975098 128.0
158.040024 888.0
158.098953 72.0
158.190308 108.0
158.242889 192.0
158.296844 152.0
158.328018 52.0
158.458282 160.0
158.62117 260.0
158.653458 160.0
158.691376 180.0
158.801712 88.0
159.009964 180.0
159.035889 556.0
159.492203 228.0
159.693359 180.0
159.775696 152.0
159.859406 112.0
160.019104 388.0
160.051941 164.0
160.088486 52.0
160.118713 108.0
160.567322 160.0
160.612732 212.0
160.70607 144.0
160.726257 120.0
160.743927 188.0
160.91304 148.0
160.964172 128.0
161.049728 460.0
161.370346 128.0
161.441147 124.0
161.709335 256.0
161.734634 144.0
161.765015 140.0
161.792862 220.0
161.840973 172.0
161.977722 180.0
162.034622 16140.0
162.110779 172.0
162.162704 68.0
162.195557 164.0
162.211792 76.0
162.380264 104.0
162.418793 32.0
162.436554 136.0
162.466995 80.0
162.497437 80.0
162.555801 120.0
162.664932 140.0
162.767654 96.0
162.929047 40.0
163.03569 1632.0
163.160309 40.0
163.28746 32.0
163.343414 68.0
163.361221 56.0
163.394302 148.0
163.422287 120.0
163.526627 148.0
163.684464 56.0
163.833496 156.0
164.013123 128.0
164.048065 304.0
164.071747 216.0
164.0896 176.0
164.120193 84.0
164.183945 76.0
164.204346 216.0
164.339554 60.0
164.362518 148.0
164.410995 96.0
164.488037 264.0
164.584595 40.0
164.616013 220.0
164.668869 124.0
164.75827 208.0
164.906479 80.0
164.976349 132.0
165.046188 176.0
165.113571 172.0
165.164719 204.0
165.182632 144.0
165.722824 92.0
165.843277 160.0
165.894547 140.0
166.002228 188.0
166.140732 108.0
166.207443 164.0
166.269028 136.0
166.631104 148.0
166.800446 196.0
166.944702 216.0
167.045013 236.0
167.137634 144.0
167.253433 84.0
167.338394 176.0
167.456848 264.0
167.544434 172.0
167.585663 168.0
167.820206 88.0
167.998169 124.0
168.080734 156.0
168.209778 172.0
168.238174 124.0
168.28981 156.0
168.395691 152.0
169.01355 144.0
169.207672 180.0
169.33197 160.0
169.482224 152.0
169.523682 204.0
169.591064 156.0
169.616989 72.0
169.764771 136.0
169.793304 56.0
170.03717 180.0
170.247467 104.0
170.486465 120.0
170.574844 104.0
170.75946 212.0
170.811478 176.0
171.038116 392.0
171.087326 120.0
171.196686 196.0
171.303482 104.0
171.567703 240.0
172.016724 180.0
172.039795 216.0
172.109375 76.0
172.127655 116.0
172.182495 144.0
172.796783 168.0
172.822464 172.0
173.0103 172.0
173.050446 12200.0
173.139709 268.0
173.188904 204.0
173.226135 52.0
173.257568 116.0
173.344788 80.0
173.365005 96.0
173.443634 56.0
173.469849 56.0
173.506546 68.0
173.684875 56.0
173.757202 112.0
173.907898 60.0
173.949814 108.0
173.989288 44.0
174.055649 3072.0
174.144211 84.0
174.162598 64.0
174.225647 72.0
174.441132 116.0
174.509491 80.0
174.543671 208.0
174.567337 144.0
174.704117 64.0
174.855011 184.0
174.881561 120.0
174.93306 152.0
174.990982 248.0
175.032669 392.0
175.06601 2660.0
175.151627 40.0
175.19632 120.0
175.226791 212.0
175.246475 124.0
175.278091 128.0
175.299164 36.0
175.351883 36.0
175.512695 100.0
175.692047 36.0
175.776474 28.0
175.794952 192.0
176.02153 100.0
176.049789 2616.0
176.238571 76.0
176.336349 172.0
176.447372 176.0
176.608688 168.0
176.754196 148.0
176.838882 120.0
176.860046 136.0
177.052719 560.0
177.084702 128.0
177.111603 84.0
177.310318 64.0
177.353775 200.0
177.455948 196.0
177.51445 164.0
177.5728 152.0
177.596664 120.0
177.623184 184.0
177.657684 196.0
177.803619 44.0
177.85405 64.0
177.87793 204.0
178.034592 212.0
179.021225 104.0
179.061096 1364.0
179.127762 32.0
179.178375 48.0
179.215683 88.0
179.407578 168.0
179.756973 56.0
179.794342 64.0
179.951843 160.0
179.983871 108.0
180.045013 336.0
180.144119 228.0
180.186874 72.0
180.250992 204.0
180.352554 156.0
180.406021 60.0
180.780472 156.0
180.844711 32.0
181.050171 184.0
181.407227 160.0
181.54129 160.0
181.627121 140.0
181.763947 60.0
181.898148 176.0
181.984055 156.0
182.059235 212.0
182.379883 176.0
182.419281 260.0
182.456924 160.0
182.48111 48.0
182.57254 160.0
182.725861 148.0
182.941162 100.0
183.049789 320.0
183.207779 228.0
183.525818 124.0
183.579742 148.0
184.033081 92.0
184.065475 132.0
184.162704 76.0
184.449127 132.0
184.549149 136.0
184.665436 152.0
184.884583 104.0
184.990143 208.0
185.049637 440.0
185.166153 48.0
185.279922 236.0
185.347656 152.0
185.738052 152.0
185.900848 144.0
185.946976 216.0
185.984985 72.0
186.048416 216.0
186.059021 160.0
186.065063 200.0
186.256516 100.0
186.433121 132.0
186.539124 76.0
186.650589 80.0
186.816498 116.0
186.920288 136.0
187.028992 2596.0
187.063217 336.0
187.102264 196.0
187.191086 96.0
187.238403 64.0
187.279266 188.0
187.320114 128.0
187.437271 40.0
187.726227 156.0
187.745316 448.0
187.889893 172.0
187.925354 156.0
187.963562 76.0
188.014481 776.0
188.054092 420.0
188.217422 140.0
188.375824 76.0
188.416809 100.0
188.493317 212.0
188.56163 260.0
188.588959 36.0
188.660034 144.0
188.760635 216.0
188.794022 144.0
188.843246 60.0
188.87059 168.0
188.903427 96.0
188.97879 212.0
189.045471 22084.0
189.096924 140.0
189.13472 76.0
189.186432 124.0
189.24826 56.0
189.292068 72.0
189.312286 148.0
189.44545 144.0
189.801834 136.0
189.980026 124.0
190.046387 3908.0
190.114487 104.0
190.276428 184.0
190.295654 40.0
190.323105 64.0
190.342331 36.0
190.399994 68.0
190.420486 104.0
190.509872 104.0
190.584412 60.0
190.70314 240.0
190.847916 52.0
190.922165 124.0
191.052994 440.0
191.10257 100.0
191.334915 76.0
191.494629 76.0
191.557297 192.0
191.921783 40.0
192.047058 212.0
192.081741 92.0
192.170029 80.0
192.39357 48.0
192.415665 124.0
192.487457 72.0
192.608978 132.0
192.65593 152.0
192.697372 168.0
192.860428 200.0
192.904648 180.0
193.018005 112.0
193.084381 100.0
193.197784 192.0
193.427475 204.0
193.499451 180.0
193.543747 184.0
193.878937 132.0
194.006439 144.0
194.060883 268.0
194.355911 52.0
194.60849 84.0
194.841797 172.0
195.039108 168.0
195.078018 176.0
195.130844 240.0
195.461838 132.0
195.665024 224.0
196.057785 128.0
196.14418 44.0
196.219452 44.0
196.317047 104.0
196.972946 100.0
197.014847 144.0
197.146179 220.0
197.34465 112.0
197.422943 120.0
197.487259 120.0
197.634415 160.0
197.753067 72.0
198.478653 84.0
198.660965 160.0
198.686218 44.0
198.95282 184.0
199.053909 180.0
199.191528 168.0
199.21962 156.0
199.916931 184.0
200.059952 128.0
200.381531 152.0
200.573166 52.0
200.621094 160.0
200.660568 188.0
200.725418 228.0
200.90181 196.0
201.045532 12188.0
201.145798 56.0
201.205078 116.0
201.282684 140.0
201.303909 76.0
201.349091 76.0
201.38298 244.0
201.515762 68.0
201.583038 172.0
201.640091 176.0
201.79335 148.0
201.860611 92.0
201.942612 160.0
202.049911 1692.0
202.076492 1776.0
202.129333 100.0
202.173859 132.0
202.290665 152.0
202.514359 36.0
202.596512 52.0
202.624847 64.0
202.717041 240.0
202.758026 144.0
202.785599 164.0
202.860062 188.0
202.92244 144.0
202.987656 180.0
203.012497 152.0
203.023346 116.0
203.060272 12568.0
203.108505 160.0
203.180527 32.0
203.206055 48.0
203.225922 76.0
203.29686 60.0
203.370651 56.0
203.418915 76.0
203.560867 68.0
203.609146 56.0
203.657425 156.0
203.768219 36.0
203.842102 200.0
203.936691 172.0
204.063599 1412.0
204.109299 84.0
204.180405 80.0
204.244568 172.0
204.280869 92.0
204.331955 72.0
204.362457 88.0
204.410828 108.0
204.467743 104.0
204.52182 140.0
204.641388 64.0
204.772385 160.0
204.965714 176.0
205.048096 172.0
205.105759 92.0
205.131409 112.0
205.214096 120.0
205.283142 92.0
205.483185 196.0
205.572769 264.0
205.656265 100.0
206.027496 140.0
206.056061 172.0
206.128067 180.0
206.250397 64.0
206.43544 136.0
206.456253 108.0
206.49057 160.0
206.567795 32.0
206.60498 200.0
206.833923 100.0
206.911209 92.0
207.051041 304.0
207.349487 304.0
207.386749 80.0
208.316452 160.0
208.425629 148.0
208.520477 136.0
208.764847 56.0
208.793594 132.0
209.035248 168.0
209.706284 60.0
210.060944 200.0
210.190781 172.0
210.450562 164.0
210.470779 220.0
210.657211 172.0
210.953262 124.0
211.219315 140.0
211.421844 64.0
211.534729 68.0
211.667908 156.0
212.059006 124.0
212.0793 168.0
212.20105 104.0
212.398254 144.0
212.482391 100.0
212.714554 100.0
212.853912 172.0
213.048294 436.0
213.147293 216.0
213.269363 236.0
213.798691 180.0
214.047501 164.0
214.287903 68.0
214.352005 116.0
214.518127 172.0
214.538544 28.0
214.742661 132.0
214.778244 100.0
214.800995 96.0
215.023529 3968.0
215.061432 288.0
215.17746 168.0
215.221252 56.0
215.244614 180.0
215.282578 52.0
215.60231 172.0
215.630234 44.0
215.720856 140.0
215.855347 112.0
215.949646 180.0
215.984955 140.0
216.029053 760.0
216.223953 136.0
216.266556 304.0
216.297134 88.0
216.320541 172.0
216.41423 148.0
216.46402 100.0
216.589951 176.0
216.815552 180.0
216.953186 512.0
216.988739 148.0
217.040558 41420.0
217.102859 284.0
217.141144 144.0
217.190842 60.0
217.22438 56.0
217.27005 260.0
217.318634 108.0
217.358078 64.0
217.414139 192.0
217.527786 104.0
217.640625 216.0
217.752365 168.0
217.838165 100.0
217.867004 60.0
217.921936 152.0
217.955139 144.0
218.044113 3780.0
218.127563 140.0
218.209885 136.0
218.43985 60.0
218.472656 108.0
218.633469 44.0
218.701157 60.0
218.779648 60.0
218.851303 68.0
218.910187 64.0
219.042618 400.0
219.149963 60.0
219.231293 108.0
219.274719 180.0
219.355087 80.0
219.449432 40.0
219.508392 100.0
219.549683 120.0
219.642151 160.0
219.688309 116.0
219.806335 44.0
219.93959 104.0
219.962753 76.0
220.060181 80.0
220.299408 196.0
220.432358 76.0
220.497849 148.0
220.727966 28.0
221.074463 124.0
221.103668 84.0
221.597443 120.0
221.873825 96.0
221.950912 92.0
222.229736 192.0
222.283142 128.0
222.428574 48.0
223.456818 32.0
223.650253 136.0
223.706818 128.0
223.891418 132.0
224.347305 132.0
225.075302 188.0
225.341141 40.0
225.481583 48.0
225.520447 140.0
225.729721 140.0
225.789536 104.0
225.885239 148.0
226.229034 104.0
226.340164 52.0
226.669662 124.0
226.702637 84.0
226.735596 152.0
226.849915 200.0
227.236374 156.0
227.551514 152.0
227.644592 168.0
227.743713 64.0
227.794769 156.0
227.932983 64.0
228.008102 224.0
228.029144 120.0
228.060471 180.0
228.167419 60.0
228.21553 40.0
228.371902 188.0
228.486221 104.0
228.668579 180.0
228.835342 192.0
228.855972 160.0
228.981705 192.0
229.040115 15092.0
229.119125 36.0
229.142548 148.0
229.163651 80.0
229.188751 48.0
229.21788 56.0
229.251038 52.0
229.28418 32.0
229.334412 40.0
229.422836 132.0
229.574829 184.0
229.615814 120.0
229.652008 188.0
229.739487 76.0
229.763626 64.0
229.787766 40.0
229.878281 64.0
229.926575 64.0
230.07077 5504.0
230.147278 180.0
230.242508 68.0
230.527542 52.0
230.603104 40.0
230.633331 48.0
230.681702 92.0
230.950821 56.0
231.008286 68.0
231.057724 1856.0
231.108139 212.0
231.135361 32.0
231.223129 36.0
231.244308 40.0
231.304855 88.0
231.5289 84.0
231.655014 164.0
231.68338 48.0
231.707626 316.0
231.823364 116.0
231.859131 124.0
232.074722 160.0
232.289688 212.0
232.365524 44.0
232.492981 44.0
232.75708 76.0
232.815735 128.0
232.902863 92.0
232.945389 52.0
232.997025 80.0
233.034286 3936.0
233.085144 40.0
233.313095 44.0
233.386063 168.0
233.477295 56.0
233.522919 40.0
233.617218 72.0
233.723709 48.0
233.881958 140.0
234.036575 488.0
234.168167 104.0
234.222992 76.0
235.046707 292.0
235.641571 84.0
235.668304 256.0
235.983887 44.0
236.406006 84.0
236.874466 48.0
237.88028 108.0
238.062439 256.0
238.350189 60.0
238.571487 128.0
239.042084 188.0
239.926071 128.0
240.056992 244.0
240.160431 44.0
240.268402 44.0
240.431931 32.0
240.728302 96.0
240.90744 116.0
241.039551 2288.0
241.111374 28.0
241.615402 32.0
241.832016 80.0
241.996094 100.0
242.045059 344.0
242.123047 148.0
242.172607 164.0
242.318207 152.0
242.671539 204.0
242.873108 40.0
243.042084 184.0
243.624329 84.0
243.882248 144.0
243.952972 76.0
244.395386 84.0
244.824966 80.0
245.058594 108.0
245.161423 128.0
245.441986 96.0
245.819427 200.0
246.40332 100.0
247.053696 124.0
248.052902 200.0
248.419464 240.0
250.16568 132.0
250.223404 124.0
250.377686 104.0
250.93544 116.0
251.765335 164.0
251.992767 204.0
254.606125 48.0
255.954468 144.0
256.046814 172.0
256.136017 220.0
256.492889 144.0
256.850037 96.0
257.07019 120.0
257.127625 168.0
257.159546 128.0
257.194641 136.0
257.271271 92.0
257.309845 144.0
257.408569 152.0
257.541473 104.0
257.593201 196.0
257.740753 128.0
257.801483 164.0
257.868591 208.0
257.924103 132.0
257.967682 52.0
258.066711 30600.0
258.170715 80.0
258.197906 100.0
258.24588 188.0
258.311127 48.0
258.332611 72.0
258.377502 56.0
258.438904 48.0
258.4534 60.0
258.489014 40.0
258.519653 56.0
258.543427 92.0
258.591431 28.0
258.620239 60.0
258.67099 112.0
258.691315 96.0
258.729065 184.0
258.757904 184.0
258.921204 60.0
259.069214 3876.0
259.164673 168.0
259.211395 96.0
259.337708 72.0
259.507629 56.0
259.623047 60.0
259.658325 112.0
259.68399 60.0
259.921387 56.0
260.073395 416.0
260.19101 76.0
260.300171 92.0
260.386871 88.0
260.518585 84.0
260.644287 96.0
260.888153 104.0
260.915283 140.0
260.949249 64.0
260.987823 104.0
261.052124 232.0
261.122894 132.0
261.148621 48.0
261.278656 236.0
261.905029 92.0
262.130554 116.0
262.859314 228.0
263.043304 72.0
263.149841 48.0
263.327423 60.0
263.624664 48.0
263.653748 100.0
263.821838 68.0
264.34903 100.0
264.404053 232.0
264.980438 28.0
265.26889 36.0
266.219543 212.0
268.660736 148.0
269.316864 44.0
270.929565 44.0
271.857513 216.0
272.533936 132.0
272.836334 108.0
274.103516 160.0
274.495789 220.0
274.631012 240.0
275.274567 92.0
275.392151 140.0
275.479004 200.0
275.67099 144.0
275.700714 128.0
275.756897 192.0
275.884399 112.0
275.996552 156.0
276.021393 208.0
276.077209 24460.0
276.192932 60.0
276.259064 88.0
276.34024 60.0
276.363647 168.0
276.461365 64.0
276.541962 56.0
276.59375 64.0
276.619812 32.0
276.726166 52.0
276.85199 108.0
276.908295 80.0
277.077118 2648.0
277.29895 44.0
277.382111 100.0
277.445099 88.0
277.527985 36.0
277.707092 52.0
277.828644 56.0
278.080353 220.0
278.151703 44.0
278.184906 104.0
278.228729 100.0
278.311066 52.0
278.437256 100.0
278.729584 136.0
278.759491 88.0
278.819336 72.0
278.849243 56.0
278.88913 68.0
279.018188 116.0
279.058655 84.0
279.089569 160.0
279.211639 92.0
279.474426 60.0
279.652588 108.0
281.638062 136.0
282.216187 88.0
284.991516 44.0
288.885559 52.0
289.921661 48.0
290.457367 44.0
291.03772 96.0
292.560883 52.0
292.652802 124.0
292.768585 76.0
293.992462 40.0
295.783417 108.0
296.711792 44.0
299.808838 100.0
301.230408 48.0
304.106842 340.0
315.270203 80.0
319.32608 148.0
323.848297 48.0
324.346344 112.0
325.860779 44.0
330.327576 44.0
334.657257 148.0
336.378052 44.0
338.879547 40.0
340.240234 68.0
341.920105 124.0
342.97348 80.0
344.102325 108.0
348.216461 164.0
359.572388 84.0
361.477081 88.0
361.704163 160.0
362.950623 68.0
363.496857 64.0
365.735352 108.0
367.026855 96.0
367.709717 84.0
378.082947 60.0
388.522003 56.0
388.733887 44.0
389.369843 36.0
390.938477 40.0
402.44223 92.0
417.473206 92.0
422.674347 92.0
424.940216 64.0
427.549561 48.0
443.8638 80.0
450.133728 56.0
456.860229 52.0
459.096405 124.0
467.549042 56.0
468.763489 88.0
476.834717 100.0
489.702606 64.0
494.475403 68.0
504.170898 28.0
504.863861 52.0
517.218994 112.0
519.371338 52.0
529.88385 40.0
539.387085 72.0
555.663757 68.0
556.409973 44.0
566.677734 72.0
566.971497 116.0
567.502441 40.0
571.787292 68.0
583.059998 112.0
591.200745 108.0
593.91394 60.0
604.138855 72.0
606.072815 112.0
607.798767 140.0
609.340515 80.0
622.931519 64.0
629.660828 76.0
638.375977 64.0
656.414307 72.0
664.029236 36.0
668.843689 44.0
678.654358 112.0
714.796265 48.0
716.979675 120.0
719.9245 228.0
720.805969 72.0
725.087219 96.0
725.189026 56.0
748.223572 88.0
748.506714 44.0
790.200439 128.0
791.941406 52.0
795.417908 112.0
796.170288 72.0
802.500916 100.0
839.568542 72.0
848.925598 76.0
854.275024 44.0
856.63269 44.0
859.582886 172.0
863.906494 96.0
865.849854 56.0
871.781067 108.0
874.757202 80.0
875.157532 96.0
890.949219 152.0
892.839417 40.0
910.920471 140.0
921.632507 156.0
942.187195 140.0
944.987366 48.0
950.802734 104.0
963.147705 40.0
979.580017 168.0
983.496033 56.0
987.000793 140.0
987.150879 64.0
995.196655 144.0
1006.354004 116.0
1006.625488 104.0
1011.728027 48.0
1013.647217 48.0
1015.764771 128.0
1018.678528 120.0
1028.108398 92.0
1035.973022 168.0
1044.099243 152.0
1049.115234 136.0
1060.453369 48.0
1062.580322 160.0
1063.209717 160.0
1069.462158 188.0
1092.503052 108.0
1102.895752 148.0
1112.61377 76.0
1116.454468 44.0
1117.771606 160.0
1119.626953 248.0
1133.430542 132.0
1140.329468 124.0
1143.665527 192.0
1148.240479 224.0
1150.116211 112.0
1153.513916 128.0
1168.624146 132.0
1173.323608 120.0
1174.960449 100.0
1175.110596 148.0
1176.673584 184.0
1178.012085 172.0
1182.196533 52.0
1182.319702 136.0
1182.655151 44.0
1186.114258 156.0
1191.865479 200.0
1194.079102 100.0
1196.990234 64.0
1197.114136 204.0
1203.851685 160.0
1206.034912 220.0
1211.349243 56.0
1226.386353 220.0
1232.003784 108.0
1244.631836 160.0
1252.163574 236.0
1257.324463 192.0
1263.330566 80.0
1264.229126 136.0
1268.358276 164.0
1274.738892 124.0
1275.442505 248.0
1279.048828 140.0
1279.704712 156.0
1282.874268 176.0
1285.798706 244.0
1288.855225 172.0
1291.550415 144.0
1293.861938 136.0
1294.86438 120.0
1295.086426 188.0
1295.903076 188.0
1296.254272 152.0
1301.785034 260.0
1303.925903 164.0
1305.032959 192.0
1306.320435 120.0
1311.065308 72.0
1315.068237 116.0
1321.796509 124.0
1322.38269 240.0
1324.866455 136.0
1326.757935 104.0
1331.394653 132.0
1335.021118 132.0
1335.282959 72.0
1336.868896 224.0
1341.078491 220.0
1345.323975 240.0
1347.098511 228.0
1354.45752 176.0
1354.670044 80.0
1356.128174 212.0
1357.697144 188.0
1358.151978 120.0
1364.202759 188.0
1366.04126 172.0
1374.100952 108.0
1375.458862 168.0
1375.56958 160.0
1377.03894 252.0
1377.807129 152.0
1379.691772 148.0
1379.972656 208.0
1385.293945 68.0
1385.990356 228.0
1386.731445 236.0
1393.566162 196.0
1394.889038 224.0
1395.595337 140.0
1398.928467 108.0
1399.4198 60.0
1411.11145 132.0
1416.140381 64.0
1418.650635 160.0
1418.973022 164.0
1419.977783 128.0
1420.983032 172.0
1421.568237 152.0
1422.964478 160.0
1423.903076 164.0
1426.83374 128.0
1429.669556 204.0
1430.595337 132.0
1431.897949 172.0
1433.984985 156.0
1434.173462 212.0
1434.226196 76.0
1434.384521 96.0
1437.401367 124.0
1437.718262 128.0
1441.940063 140.0
1442.915283 124.0
1444.291626 208.0
1448.485107 232.0
1449.303345 212.0
1452.533081 60.0
1453.079224 200.0
1453.276489 80.0
1459.930908 160.0
1463.54541 88.0
1463.659668 108.0
1465.990723 140.0
1466.585205 136.0
1474.943481 188.0
1477.589478 132.0
1478.561279 172.0
1478.775513 60.0
1480.888794 68.0
1482.827271 144.0
1482.988159 108.0
1483.954102 236.0
1484.843628 156.0
1491.785034 200.0
1493.684448 200.0
1497.186523 180.0
1497.964478 180.0
1500.769775 32.0
1502.674927 96.0
