>compound Picrotin - Picrotoxinin
>formula C15H18O7
>ionization [M+H]+
>parentmass 311.113
#inchi InChI=1S/C15H18O7/c1-12(2,18)6-7-10(16)20-8(6)9-13(3)14(7,19)4-5-15(13,22-5)11(17)21-9/h5-9,18-19H,4H2,1-3H3/t5-,6+,7-,8-,9-,13-,14-,15+/m1/s1
#inchikey RYEFFICCPKWYML
#Ion_Source LC-ESI
#Instrument qTof
#Compound_Source Commercial
#PI Dorrestein
#Data_Collector Garg_Neha
#Scan -1
#Precursor_MZ 311.113
#ExactMass 310.105
#Charge 1
#CAS_Number N/A
#Pubmed_ID N/A
#Smiles CC(C)(O)[C@@H]1[C@H]2OC(=O)[C@@H]1[C@]3(O)C[C@H]4O[C@]45C(=O)O[C@H]2[C@@]53C
#INCHI_AUX N/A
#Library_Class 1
#SpectrumID CCMSLIB00000079151
#IonMode Positive
#UpdateWorkflowName UPDATE-SINGLE-ANNOTATED-GOLD
#LibraryQualityString Gold
#TaskID 278b19f5865741e282cec7349aa7e7a1
##Scan# 1104
#SpectrumFile NCP003592_A2_B11_BD8_01_15734.mzXML
#LibraryName NIHcollectionI_05062014.mgf
#MQScore -1
#Organism NIHcollectionI_05062014
#TIC_Query 0
#RT_Query -1
#MZErrorPPM -1
#SharedPeaks 0
#MassDiff 0
#LibMZ -1
#SpecMZ 311.113
#SpecCharge 0
#internalFilename spec-00000.mgf

>collision 10
46.621109 180.0
49.977673 168.0
51.61459 228.0
52.795212 184.0
53.100792 152.0
59.322445 156.0
60.157757 164.0
61.828686 228.0
78.588875 200.0
79.165123 140.0
83.497681 148.0
87.73114 148.0
91.054207 160.0
92.059937 196.0
93.759453 180.0
95.053169 168.0
95.082283 172.0
97.282066 156.0
100.236969 180.0
103.058205 168.0
105.068802 324.0
105.0886 156.0
106.071236 120.0
107.050797 280.0
107.087303 316.0
109.113152 156.0
110.100822 188.0
110.556564 192.0
111.002518 156.0
111.048897 512.0
113.985481 152.0
114.15979 144.0
115.056816 284.0
116.060631 208.0
117.04435 192.0
117.068039 196.0
117.205894 152.0
119.04882 164.0
119.086617 600.0
121.026688 264.0
121.059532 296.0
123.00972 140.0
123.044167 292.0
124.63752 144.0
125.055222 172.0
128.060928 300.0
128.664658 160.0
129.069778 416.0
130.077011 160.0
131.055817 192.0
131.081604 204.0
132.057312 200.0
132.17627 188.0
133.038025 256.0
133.065155 180.0
133.1008 376.0
135.045273 812.0
135.079788 496.0
136.046051 180.0
137.022797 164.0
137.057587 412.0
139.034927 168.0
139.072647 144.0
141.068451 164.0
142.080338 488.0
143.08223 280.0
144.053284 136.0
144.086868 156.0
145.065506 1312.0
145.101562 956.0
146.069641 512.0
146.105423 176.0
146.840149 160.0
146.922165 164.0
147.038818 132.0
147.080261 448.0
147.116806 492.0
148.084198 268.0
148.127106 144.0
149.026062 184.0
149.062515 164.0
149.094238 332.0
149.132065 360.0
151.041306 380.0
151.071518 172.0
151.108215 156.0
152.115433 164.0
153.052307 304.0
155.010925 196.0
155.075348 240.0
157.10112 1048.0
158.076538 136.0
159.082458 680.0
159.118881 444.0
159.189301 184.0
160.086411 180.0
161.057175 1192.0
161.095032 396.0
162.063522 300.0
163.07402 804.0
163.116333 204.0
164.110931 144.0
165.093857 124.0
166.099167 212.0
167.083542 144.0
168.076385 144.0
168.983292 148.0
169.058701 168.0
169.10083 120.0
171.045563 304.0
171.077637 144.0
172.085434 120.0
172.460129 140.0
172.528091 212.0
173.058487 608.0
173.094894 428.0
173.211075 160.0
174.062469 120.0
174.100464 120.0
174.504852 184.0
175.072266 228.0
175.112076 1784.0
176.115799 140.0
177.056519 184.0
177.093307 184.0
177.125061 172.0
178.122818 148.0
179.034546 136.0
179.067795 412.0
181.024506 188.0
181.043243 188.0
183.043701 164.0
183.073029 152.0
184.016541 428.0
184.084686 192.0
185.028336 148.0
185.093842 812.0
186.008148 272.0
186.063339 176.0
186.101959 212.0
187.018082 144.0
187.073547 660.0
187.11293 1060.0
187.151474 244.0
187.720963 144.0
188.075638 140.0
188.116577 144.0
189.054855 1208.0
189.0905 392.0
191.071243 948.0
191.106873 968.0
193.084763 304.0
193.121231 564.0
194.095154 204.0
194.124039 288.0
197.039597 160.0
197.104141 148.0
201.088211 364.0
202.088867 156.0
202.984512 152.0
203.072418 172.0
203.106903 1648.0
204.111481 304.0
205.089569 148.0
205.122803 552.0
206.107544 148.0
206.129944 480.0
207.064896 524.0
207.106537 164.0
208.069595 172.0
209.080322 544.0
211.078323 432.0
212.078674 264.0
213.089798 288.0
215.030792 220.0
219.101791 244.0
220.105286 276.0
220.774368 164.0
221.116806 548.0
221.760223 144.0
223.072464 168.0
224.295593 168.0
229.062897 180.0
229.085297 832.0
230.088333 160.0
230.47493 140.0
231.103638 612.0
232.107727 396.0
233.085968 140.0
234.074097 164.0
235.064423 536.0
237.109756 288.0
239.046677 192.0
241.08194 160.0
245.178345 140.0
247.09668 1552.0
248.098419 464.0
249.112549 1040.0
250.117783 168.0
251.090485 192.0
252.099289 172.0
253.070572 288.0
257.079407 868.0
260.654419 172.0
265.106171 1484.0
266.110687 296.0
267.12381 152.0
271.084137 140.0
275.094025 552.0
275.97641 116.0
276.210297 180.0
283.12323 152.0
292.962616 160.0
293.101349 2180.0
294.107635 416.0
294.15625 116.0
294.193756 156.0
295.104218 160.0
309.131165 108.0
309.166656 156.0
309.206329 180.0
309.917175 180.0
310.132812 1200.0
310.190552 196.0
311.115997 648.0
312.129242 516.0
312.157837 480.0
312.269165 148.0
1156.424805 184.0
1224.602539 156.0
1314.610107 140.0
1493.697021 168.0
1580.117676 144.0
1697.179077 200.0
1721.643188 180.0
1780.817749 188.0
1829.932861 176.0
1852.932861 156.0
1949.425903 216.0
