>compound MLS002153381-01!SKF-83959 hydrobromide80751-85-5
>formula C18H20ClNO2
>ionization [M+H]+
>parentmass 318.12677
#inchi InChI=1S/C18H20ClNO2/c1-11-4-3-5-12(8-11)15-10-20(2)7-6-13-14(15)9-16(21)18(22)17(13)19/h3-5,8-9,15,21-22H,6-7,10H2,1-2H3
#inchikey JXMYTVOBSFOHAF
#origInchi InChI=1S/C18H20ClNO2.BrH/c1-11-4-3-5-12(8-11)15-10-20(2)7-6-13-14(15)9-16(21)18(22)17(13)19;/h3-5,8-9,15,21-22H,6-7,10H2,1-2H3;1H
#Ion_Source LC-ESI
#Instrument qTof
#Compound_Source NIH Pharmacologically Active Library
#PI Dorrestein
#Data_Collector VP/LMS
#Scan -1
#Precursor_MZ 318.132
#ExactMass 317.118
#Charge 1
#CAS_Number N/A
#Pubmed_ID N/A
#Smiles CN1CCc2c(Cl)c(O)c(O)cc2C(C1)c3cccc(C)c3.Br
#INCHI_AUX N/A
#Library_Class 1
#SpectrumID CCMSLIB00000086111
#IonMode Positive
#UpdateWorkflowName UPDATE-SINGLE-ANNOTATED-GOLD
#LibraryQualityString Gold
#TaskID d252d724072548979f1f6f1ced849daf
##Scan# 1384
#SpectrumFile p5-E05_GE5_01_18462.mzXML
#LibraryName Pharm_Active_Library.mgf
#MQScore -1
#Organism Pharm_Active_Library
#TIC_Query 0
#RT_Query -1
#MZErrorPPM -1
#SharedPeaks 0
#MassDiff 0
#LibMZ -1
#SpecMZ 318.132
#SpecCharge 0
#internalFilename spec-00000.mgf

>collision 10
45.004166 136.0
45.042896 96.0
45.163193 132.0
45.172558 192.0
45.218048 48.0
45.232773 128.0
45.38818 72.0
45.429756 160.0
45.529079 56.0
45.705177 156.0
45.729401 104.0
45.777866 44.0
45.920719 136.0
45.988274 168.0
46.025978 180.0
46.043533 140.0
46.081356 128.0
46.114555 176.0
46.169216 200.0
46.220619 108.0
46.240074 240.0
46.419739 164.0
46.450935 156.0
46.554085 200.0
46.600266 188.0
46.658707 160.0
46.691341 188.0
46.786587 228.0
46.845146 128.0
46.911919 76.0
46.931004 188.0
46.954185 32.0
46.993744 112.0
47.115593 80.0
47.246494 116.0
47.301231 140.0
47.346413 68.0
47.40258 176.0
47.423138 144.0
47.590878 216.0
47.712772 220.0
47.858612 48.0
48.028114 100.0
48.068123 176.0
48.098488 248.0
48.237999 144.0
48.276714 164.0
48.318207 180.0
48.327892 168.0
48.35371 128.0
48.387405 96.0
48.636932 196.0
48.768883 220.0
48.839794 156.0
48.867615 216.0
48.935814 92.0
49.011028 128.0
49.24958 208.0
49.271931 176.0
49.362782 152.0
49.466984 208.0
49.635834 124.0
49.712986 216.0
49.764133 192.0
49.785984 140.0
49.882931 112.0
49.972935 136.0
50.006706 192.0
50.079216 184.0
50.177155 44.0
50.206764 64.0
50.270245 152.0
50.303074 184.0
50.374725 116.0
50.398743 168.0
50.40863 208.0
50.477898 92.0
50.650558 144.0
50.668976 168.0
50.737 140.0
50.768837 212.0
51.036572 180.0
51.166042 160.0
51.218731 204.0
51.232975 172.0
51.402641 92.0
51.639786 148.0
51.916191 244.0
51.973568 40.0
51.992226 132.0
52.024288 312.0
52.140144 192.0
52.239357 156.0
52.337219 180.0
52.484188 140.0
52.523129 180.0
52.67469 156.0
52.686245 128.0
52.696358 172.0
52.713699 188.0
52.75272 140.0
52.88435 108.0
53.024837 116.0
53.082047 112.0
53.132137 188.0
53.187283 164.0
53.316544 124.0
53.358696 176.0
53.374691 120.0
53.469246 196.0
53.488167 152.0
53.510345 136.0
53.546406 188.0
53.575539 216.0
53.585739 84.0
53.629456 96.0
53.641117 172.0
53.677563 124.0
53.705273 52.0
53.731529 148.0
53.762173 232.0
53.794281 148.0
53.897976 92.0
54.025173 184.0
54.079311 196.0
54.14666 136.0
54.170094 160.0
54.184746 176.0
54.206722 152.0
54.227238 200.0
54.29908 36.0
54.337215 240.0
54.372433 176.0
54.410599 180.0
54.450245 92.0
54.503128 104.0
54.591324 148.0
54.650162 144.0
54.776768 76.0
54.800339 176.0
54.837181 176.0
54.853088 192.0
54.916798 148.0
54.946301 220.0
55.086544 144.0
55.108833 136.0
55.194431 124.0
55.218369 192.0
55.24028 96.0
55.269867 140.0
55.346836 168.0
55.39423 176.0
55.518726 84.0
55.552841 136.0
55.652275 224.0
55.670094 172.0
55.736938 84.0
55.793419 60.0
55.833565 168.0
55.864799 152.0
55.912415 180.0
56.022594 132.0
56.097103 136.0
56.141834 180.0
56.211945 28.0
56.229855 168.0
56.361267 160.0
56.373219 56.0
56.552685 332.0
56.653008 144.0
57.019123 136.0
57.100307 256.0
57.14819 212.0
57.183056 172.0
57.231228 100.0
57.285442 136.0
57.33215 132.0
57.344208 120.0
57.396969 196.0
57.431656 100.0
57.77964 188.0
57.810291 148.0
57.878983 192.0
58.006245 192.0
58.05476 148.0
58.283974 176.0
58.30069 164.0
58.394947 112.0
58.464928 212.0
58.512115 152.0
58.691898 148.0
58.70715 52.0
58.723804 152.0
58.746803 208.0
58.779202 188.0
58.840286 188.0
58.863155 188.0
58.896397 240.0
58.911671 236.0
58.965149 172.0
59.18084 108.0
59.467503 164.0
59.553482 136.0
59.585743 240.0
59.668732 132.0
59.992023 172.0
60.030571 136.0
60.072212 120.0
60.098438 148.0
60.152454 148.0
60.17561 200.0
60.245106 40.0
60.303825 180.0
60.515755 108.0
60.647427 204.0
60.673779 180.0
60.723534 184.0
60.825195 236.0
60.911953 192.0
60.993561 164.0
61.066639 172.0
61.212925 152.0
61.248745 68.0
61.334446 156.0
61.627834 140.0
61.771664 204.0
61.868687 140.0
61.884342 48.0
61.906261 204.0
61.948551 148.0
62.111572 148.0
62.125145 276.0
62.153931 148.0
62.168056 148.0
62.516922 204.0
62.531086 144.0
62.623978 60.0
62.713783 144.0
62.737431 140.0
62.784733 68.0
62.805511 160.0
62.830475 168.0
63.244823 244.0
63.26823 52.0
63.5313 132.0
63.758354 52.0
63.89669 224.0
63.944427 196.0
63.961937 160.0
64.012886 184.0
64.090935 116.0
64.160202 164.0
64.231224 140.0
64.552238 168.0
64.643417 164.0
64.742668 192.0
64.910934 244.0
64.926971 172.0
65.056931 132.0
65.116341 208.0
65.223991 228.0
65.264183 212.0
65.281876 188.0
65.495926 208.0
65.533501 208.0
65.587769 172.0
65.602272 204.0
65.749054 44.0
65.778107 208.0
65.810394 156.0
65.874992 252.0
65.942856 212.0
66.113297 164.0
66.318352 68.0
66.345909 184.0
66.46106 156.0
66.490265 224.0
66.534096 160.0
66.59742 184.0
66.832458 152.0
66.865685 148.0
66.916145 156.0
66.992691 72.0
67.022018 168.0
67.054611 212.0
67.074165 164.0
67.134491 164.0
67.152428 220.0
67.251953 200.0
67.291138 168.0
67.402199 120.0
67.444695 208.0
67.483925 96.0
67.580421 176.0
67.663895 180.0
67.686813 204.0
67.737587 180.0
67.79493 164.0
67.939217 136.0
67.960548 136.0
67.986801 188.0
68.003212 40.0
68.100082 180.0
68.20195 72.0
68.40921 180.0
68.483307 172.0
68.547554 152.0
68.573921 28.0
68.608543 40.0
68.629974 140.0
68.644814 124.0
68.821365 148.0
68.995384 208.0
69.042793 68.0
69.057678 172.0
69.1884 184.0
69.216553 136.0
69.322563 188.0
69.352394 56.0
69.375603 104.0
69.514923 56.0
69.654381 168.0
69.777359 56.0
69.818924 184.0
70.059105 160.0
70.105263 208.0
70.120262 116.0
70.231964 188.0
70.360535 204.0
70.415565 40.0
70.4757 120.0
70.644554 220.0
70.703117 156.0
70.871979 208.0
70.880013 132.0
70.88427 160.0
71.002998 172.0
71.034866 196.0
71.177521 128.0
71.270523 184.0
71.427933 144.0
71.446434 136.0
71.665298 164.0
71.692261 212.0
71.712074 212.0
71.77655 188.0
71.791725 184.0
71.827141 236.0
71.847382 216.0
71.892944 140.0
71.952019 200.0
72.054977 232.0
72.249458 128.0
72.627205 304.0
72.817299 148.0
73.048462 168.0
73.072273 216.0
73.12928 40.0
73.213554 168.0
73.354973 108.0
73.373726 164.0
73.431702 168.0
73.556259 120.0
73.588692 44.0
73.634796 212.0
73.67408 180.0
73.71167 128.0
73.995598 40.0
74.024704 160.0
74.038406 144.0
74.228622 244.0
74.245773 124.0
74.279076 160.0
74.305809 172.0
74.56517 172.0
74.752037 164.0
74.771469 164.0
74.786964 164.0
74.881653 172.0
74.988472 144.0
75.012604 128.0
75.069504 84.0
75.090195 124.0
75.114342 72.0
75.155746 84.0
75.316299 88.0
75.331848 168.0
75.662148 192.0
75.715828 160.0
75.729683 228.0
75.752197 116.0
75.767792 104.0
75.890839 220.0
75.941772 240.0
75.994911 164.0
76.033081 400.0
76.08342 192.0
76.290146 44.0
76.389267 168.0
76.509346 168.0
76.629517 204.0
76.86557 212.0
76.885841 164.0
76.952171 216.0
77.009796 272.0
77.112877 176.0
77.144341 116.0
77.247955 200.0
77.426041 252.0
77.597984 224.0
77.645111 100.0
77.666153 124.0
77.729309 36.0
77.938263 160.0
77.962868 180.0
78.003288 136.0
78.091202 48.0
78.210846 140.0
78.27877 204.0
78.42926 136.0
78.457466 144.0
78.574448 108.0
78.632088 68.0
78.669159 76.0
78.708 176.0
78.776878 140.0
78.798073 240.0
78.821045 120.0
78.836945 176.0
79.105789 124.0
79.118179 164.0
79.181923 132.0
79.279358 188.0
79.440704 176.0
79.469093 96.0
79.603989 120.0
79.627075 148.0
79.639511 280.0
79.651352 192.0
79.78344 48.0
79.904373 140.0
79.939301 148.0
80.036087 164.0
80.050331 148.0
80.175026 220.0
80.321228 140.0
80.369392 72.0
80.442566 288.0
80.463989 128.0
80.483627 120.0
80.519341 184.0
80.608665 84.0
80.698036 104.0
80.835762 52.0
80.867973 100.0
81.136971 216.0
81.21019 96.0
81.323227 156.0
81.412987 140.0
81.438133 280.0
81.70237 188.0
81.718498 196.0
81.819351 140.0
81.932808 100.0
81.988663 136.0
82.073387 172.0
82.179802 172.0
82.208672 168.0
82.371162 160.0
82.426926 208.0
82.444023 184.0
82.475967 200.0
82.490425 224.0
82.506699 148.0
82.526588 148.0
82.562752 136.0
82.577217 96.0
82.669479 112.0
82.741882 176.0
82.781532 156.0
82.85598 172.0
82.884972 164.0
82.942963 184.0
82.96109 124.0
83.051567 192.0
83.139877 204.0
83.331314 112.0
83.365837 164.0
83.695076 152.0
83.837166 140.0
83.860855 184.0
83.879082 180.0
84.043213 140.0
84.072411 44.0
84.183769 92.0
84.242119 156.0
84.333572 144.0
84.596977 112.0
84.629929 212.0
84.75631 124.0
84.807625 72.0
84.825958 200.0
84.935974 128.0
84.956154 136.0
85.009361 184.0
85.091957 176.0
85.240738 180.0
85.360214 144.0
85.378609 160.0
85.479782 116.0
85.54052 144.0
85.599434 144.0
85.640755 176.0
85.673103 328.0
85.711792 84.0
85.752335 184.0
85.80764 160.0
85.855583 168.0
85.909065 128.0
85.931206 168.0
86.033295 216.0
86.139816 212.0
86.454124 152.0
86.546684 172.0
86.895126 112.0
86.913681 188.0
87.001457 164.0
87.025047 120.0
87.101189 172.0
87.156921 80.0
87.216385 76.0
87.251709 168.0
87.559296 132.0
87.705917 204.0
87.738434 180.0
87.782356 180.0
87.88868 48.0
88.086571 120.0
88.183731 236.0
88.330994 184.0
88.353714 168.0
88.415642 124.0
88.526093 152.0
88.675964 184.0
88.812836 192.0
88.878494 52.0
88.944176 80.0
88.974213 124.0
89.002373 88.0
89.038719 464.0
89.175201 124.0
89.225952 132.0
89.321861 212.0
89.351959 200.0
89.395233 172.0
89.474289 212.0
89.560913 112.0
89.679611 164.0
89.741821 56.0
89.819138 132.0
89.930466 236.0
89.994652 152.0
90.0513 164.0
90.123085 156.0
90.579018 32.0
90.643425 212.0
90.749573 172.0
90.850212 180.0
90.973434 152.0
91.054207 1612.0
91.121567 80.0
91.255814 164.0
91.364914 212.0
91.410576 60.0
91.498131 200.0
91.864029 188.0
91.888527 176.0
91.92601 156.0
91.940346 64.0
92.024338 136.0
92.060616 164.0
92.180962 168.0
92.316681 36.0
92.348969 136.0
92.370239 176.0
92.575027 280.0
92.653648 164.0
92.766617 128.0
92.820305 172.0
93.067856 316.0
93.100471 100.0
93.269539 204.0
93.319519 200.0
93.629326 208.0
93.733353 232.0
93.787315 176.0
93.806587 212.0
93.83165 208.0
93.999451 192.0
94.018753 136.0
94.043839 172.0
94.065071 216.0
94.208168 192.0
94.33358 172.0
94.43219 196.0
94.474747 44.0
94.540085 140.0
94.561821 88.0
94.726402 200.0
94.803902 208.0
94.852348 184.0
94.935722 140.0
95.075394 236.0
95.088982 192.0
95.145271 176.0
95.285103 208.0
95.403648 152.0
95.506714 120.0
95.635124 92.0
95.693527 180.0
95.724678 120.0
96.067711 164.0
96.163315 152.0
96.331238 132.0
96.356445 164.0
96.42112 200.0
96.45182 220.0
96.495399 132.0
96.603325 172.0
96.706665 60.0
96.737984 208.0
96.856476 180.0
96.976952 156.0
97.029877 196.0
97.084778 112.0
97.114197 132.0
97.24958 132.0
97.318283 212.0
97.675957 100.0
97.707428 60.0
98.168327 156.0
98.193962 152.0
98.278786 192.0
98.33799 180.0
98.486069 164.0
98.665894 140.0
98.687637 52.0
98.720749 248.0
98.834007 168.0
98.935333 184.0
98.962662 224.0
98.9785 224.0
99.001198 380.0
99.244011 124.0
99.259872 172.0
99.404678 116.0
99.424522 132.0
99.774109 76.0
99.788025 212.0
99.94117 168.0
100.046822 188.0
100.082489 224.0
100.255791 180.0
100.269745 204.0
100.299637 188.0
100.357452 188.0
100.379387 168.0
100.451073 140.0
100.49707 172.0
100.578888 100.0
100.666733 156.0
100.680717 104.0
100.718658 136.0
100.996048 164.0
101.041618 152.0
101.075386 220.0
101.398926 188.0
101.512749 124.0
101.545288 92.0
101.613487 148.0
101.766022 176.0
101.88652 152.0
101.970917 160.0
102.046288 560.0
102.111244 176.0
102.182251 124.0
102.290726 236.0
102.308846 148.0
102.629181 92.0
102.66951 200.0
102.721954 48.0
102.764313 64.0
102.887428 40.0
102.968941 108.0
103.055 3172.0
103.115677 160.0
103.137497 264.0
103.319908 196.0
103.334068 220.0
103.540535 160.0
103.600739 72.0
103.619537 136.0
103.651253 168.0
103.670456 184.0
103.757347 124.0
103.814117 52.0
103.966263 172.0
104.019035 168.0
104.058449 564.0
104.179459 48.0
104.232285 184.0
104.258698 268.0
104.69812 68.0
104.716454 36.0
104.840729 164.0
104.867218 164.0
105.01606 144.0
105.036499 184.0
105.070251 14624.0
105.118065 48.0
105.154449 236.0
105.232361 40.0
105.297707 68.0
105.335838 152.0
105.401894 32.0
105.42028 156.0
105.461159 40.0
105.490425 176.0
105.606323 176.0
105.655418 168.0
105.69429 176.0
105.83757 52.0
105.890816 160.0
105.911293 48.0
106.074203 568.0
106.099823 140.0
106.154533 216.0
106.263893 140.0
106.358292 220.0
106.405502 156.0
106.462997 76.0
106.480164 212.0
106.55954 180.0
106.596519 212.0
106.693123 164.0
106.746582 76.0
106.765091 136.0
106.791824 128.0
106.855591 136.0
106.901886 88.0
106.974953 48.0
107.048553 1568.0
107.084564 628.0
107.109787 96.0
107.232422 56.0
107.257156 136.0
107.316788 264.0
107.37262 120.0
107.444809 156.0
107.521156 172.0
107.601662 188.0
107.789612 136.0
107.878487 192.0
107.90123 40.0
107.938446 120.0
107.967392 200.0
108.055771 336.0
108.09565 196.0
108.114273 164.0
108.279892 156.0
108.447716 168.0
108.489174 196.0
108.538933 36.0
108.553444 148.0
108.660645 152.0
108.78997 200.0
108.835648 176.0
108.881332 40.0
109.028831 188.0
109.061363 344.0
109.15564 156.0
109.30957 136.0
109.432373 120.0
109.493088 204.0
109.54483 72.0
109.603165 196.0
109.702499 224.0
109.870033 260.0
109.918022 52.0
110.034615 648.0
110.087105 156.0
110.214531 68.0
110.392204 80.0
110.411026 168.0
110.46331 124.0
110.500969 64.0
110.890457 184.0
111.001564 188.0
111.041191 192.0
111.184067 160.0
111.253334 180.0
111.387733 196.0
111.404533 176.0
111.681999 168.0
111.772461 176.0
111.818764 60.0
111.856644 108.0
111.919807 164.0
111.999832 172.0
112.628387 244.0
112.877769 48.0
112.981407 200.0
113.006798 64.0
113.035866 304.0
113.188828 152.0
113.260826 36.0
113.423981 140.0
113.451538 148.0
113.523628 132.0
113.546959 64.0
113.684853 228.0
114.007645 128.0
114.046761 192.0
114.092659 172.0
114.203232 116.0
114.260666 160.0
114.313866 180.0
114.548058 188.0
114.635414 204.0
114.699348 132.0
114.748375 152.0
114.837944 124.0
114.997955 164.0
115.018562 208.0
115.02668 152.0
115.036285 180.0
115.054779 1180.0
115.073593 352.0
115.158089 200.0
115.192261 172.0
115.220032 48.0
115.412392 112.0
115.433769 160.0
115.599449 160.0
115.733337 140.0
115.821136 180.0
115.97541 160.0
116.061478 716.0
116.08046 48.0
116.35939 196.0
116.398041 148.0
116.46032 136.0
116.780571 68.0
116.950546 52.0
117.032425 304.0
117.06958 2064.0
117.106102 176.0
117.196045 152.0
117.254227 160.0
117.26931 128.0
117.390038 48.0
117.47847 140.0
117.573402 168.0
117.724518 132.0
117.858444 140.0
117.913208 128.0
117.975151 40.0
118.016228 156.0
118.040611 360.0
118.07576 948.0
118.107056 324.0
118.154648 112.0
118.18277 148.0
118.215225 204.0
118.273666 228.0
118.499519 284.0
118.54438 112.0
118.568947 276.0
118.592056 164.0
118.61554 240.0
118.652756 184.0
118.698288 152.0
118.713463 160.0
118.785042 192.0
118.850121 144.0
118.932587 260.0
118.960808 140.0
119.050087 596.0
119.085678 4440.0
119.147568 132.0
119.267082 56.0
119.321426 364.0
119.414932 52.0
119.454086 156.0
119.514999 60.0
119.573753 204.0
119.632523 112.0
119.665176 112.0
119.737038 128.0
119.852493 72.0
119.902611 236.0
119.91787 52.0
120.029045 76.0
120.050858 152.0
120.088203 812.0
120.152733 164.0
120.474281 76.0
120.507057 132.0
120.576981 104.0
120.705956 196.0
120.780312 92.0
120.89846 68.0
120.950989 88.0
121.029243 808.0
121.067162 128.0
121.0924 204.0
121.119591 136.0
121.134918 216.0
121.262009 184.0
121.371613 140.0
121.400124 212.0
121.461533 224.0
121.729279 96.0
121.801758 156.0
121.865463 116.0
121.995132 108.0
122.034401 248.0
122.21946 140.0
122.320694 148.0
122.366928 108.0
122.49025 72.0
122.596001 184.0
122.728264 140.0
122.781181 88.0
122.796623 252.0
122.928986 68.0
122.951057 44.0
123.000336 148.0
123.01506 196.0
123.046349 700.0
123.115303 180.0
123.207191 196.0
123.235909 148.0
123.408302 48.0
123.49897 148.0
123.53215 120.0
123.629501 172.0
123.664917 112.0
123.881912 124.0
124.024429 240.0
124.176712 112.0
124.265442 156.0
124.309822 128.0
124.354202 132.0
124.411919 168.0
124.454102 224.0
124.662895 128.0
124.754028 164.0
124.77626 128.0
124.791817 132.0
124.858528 112.0
124.900787 96.0
124.971977 36.0
124.987549 144.0
125.015831 22516.0
125.056541 204.0
125.091248 108.0
125.113548 164.0
125.126328 80.0
125.142738 172.0
125.200668 168.0
125.2603 164.0
125.281433 72.0
125.343819 44.0
125.377243 32.0
125.417366 96.0
125.450798 72.0
125.649277 36.0
125.681946 112.0
125.736298 144.0
125.764732 184.0
125.809959 28.0
125.84568 188.0
125.894806 32.0
125.975212 72.0
126.019501 1420.0
126.046707 108.0
126.263542 48.0
126.283669 52.0
126.525337 156.0
126.561165 52.0
126.590271 128.0
126.628342 44.0
126.682098 116.0
126.807579 108.0
126.86586 164.0
126.910835 64.0
127.012802 5872.0
127.05619 208.0
127.092377 52.0
127.108078 196.0
127.132767 108.0
127.175407 160.0
127.21357 48.0
127.267448 204.0
127.29483 184.0
127.35952 68.0
127.485336 188.0
127.532532 160.0
127.590973 72.0
127.676422 88.0
127.701157 80.0
127.737144 208.0
127.752892 200.0
127.836304 56.0
127.856392 128.0
127.910408 92.0
128.017487 264.0
128.06221 1996.0
128.142365 64.0
128.27533 72.0
128.315903 60.0
128.354233 88.0
128.412979 172.0
128.49408 68.0
128.787537 92.0
128.853989 124.0
128.893707 152.0
129.010178 168.0
129.068954 992.0
129.11525 152.0
129.361877 152.0
129.438843 132.0
129.511322 52.0
129.533966 92.0
129.615524 188.0
129.692581 224.0
129.715256 100.0
129.837677 140.0
129.873764 168.0
129.926147 88.0
129.962448 160.0
129.982864 48.0
130.016907 104.0
130.039597 284.0
130.072525 332.0
130.169006 124.0
130.275742 144.0
130.291656 104.0
130.773727 140.0
130.810135 208.0
130.930817 152.0
130.953583 96.0
131.016479 144.0
131.048431 3116.0
131.086777 396.0
131.119904 176.0
131.153244 204.0
131.211075 196.0
131.352463 172.0
131.377563 196.0
131.564697 68.0
131.587524 176.0
132.052689 452.0
132.078842 1232.0
132.163483 44.0
132.27562 168.0
132.346588 200.0
132.479431 232.0
132.505859 200.0
132.814102 160.0
132.837036 208.0
132.960938 192.0
132.98848 104.0
133.057205 208.0
133.088242 4532.0
133.127319 92.0
133.190536 92.0
133.270935 84.0
133.311371 100.0
133.328384 76.0
133.362854 96.0
133.496887 228.0
133.511108 132.0
133.574402 176.0
133.641113 64.0
133.885117 148.0
133.963425 152.0
134.018723 88.0
134.034851 204.0
134.057892 180.0
134.091629 824.0
134.306885 196.0
134.406082 356.0
134.429153 132.0
134.486847 56.0
134.595352 136.0
134.634613 160.0
134.814804 196.0
134.8564 96.0
134.988174 112.0
135.043411 1460.0
135.072037 184.0
135.097473 124.0
135.21257 92.0
135.424713 184.0
135.534698 116.0
135.88884 132.0
135.993622 152.0
136.021469 200.0
136.051773 4876.0
136.123627 264.0
136.267639 96.0
136.414047 204.0
136.476822 228.0
136.511688 76.0
136.581467 88.0
136.721054 108.0
136.767609 144.0
136.788559 208.0
136.902939 92.0
137.017242 976.0
137.054489 216.0
137.133286 180.0
137.163589 208.0
137.231186 176.0
137.273163 148.0
137.354797 120.0
137.42244 168.0
137.515778 156.0
137.725922 228.0
137.819366 104.0
137.912842 164.0
138.017731 540.0
138.0578 140.0
138.134979 128.0
138.163055 124.0
138.357285 204.0
138.401779 68.0
138.493301 140.0
138.718048 96.0
138.875153 172.0
139.017181 468.0
139.026535 160.0
139.030609 312.0
139.145004 104.0
139.238937 108.0
139.26712 68.0
139.492691 160.0
139.558517 132.0
139.605545 196.0
139.680176 148.0
139.718445 84.0
139.798447 48.0
139.960861 120.0
140.019852 152.0
140.154007 112.0
140.216553 200.0
140.602051 108.0
140.670502 152.0
140.757858 52.0
140.852325 72.0
140.923187 240.0
140.942093 196.0
141.011551 860.0
141.070877 292.0
141.121719 152.0
141.158936 196.0
141.315674 52.0
141.49791 168.0
141.974167 156.0
142.033463 164.0
142.050064 112.0
142.074814 376.0
142.322998 184.0
142.403732 92.0
142.610443 156.0
142.75563 164.0
142.857727 156.0
142.87439 68.0
142.97908 136.0
143.02562 776.0
143.084579 1232.0
143.140961 60.0
143.288635 152.0
143.534119 76.0
143.643829 80.0
144.015198 212.0
144.054199 132.0
144.084442 504.0
144.192993 164.0
144.22406 180.0
144.434479 164.0
144.568451 148.0
144.587601 60.0
144.690536 144.0
144.935989 140.0
144.997131 64.0
145.031891 296.0
145.06076 184.0
145.0961 480.0
145.460037 208.0
145.604095 132.0
145.868393 128.0
145.962158 168.0
146.062073 612.0
146.097504 340.0
146.14978 64.0
146.234009 104.0
146.25325 192.0
146.35437 164.0
146.715759 152.0
146.732635 256.0
146.761566 92.0
146.858032 176.0
146.894211 188.0
146.978653 156.0
147.044418 1340.0
147.073044 296.0
147.103088 316.0
147.164505 124.0
147.335968 132.0
147.393967 124.0
147.51239 88.0
147.541397 40.0
147.621185 128.0
147.732437 208.0
147.805023 164.0
147.838898 428.0
147.909088 208.0
148.000702 228.0
148.020447 304.0
148.050171 1180.0
148.075592 388.0
148.111725 22596.0
148.182526 48.0
148.211807 60.0
148.243301 96.0
148.303146 52.0
148.32814 32.0
148.349945 88.0
148.459061 72.0
148.478455 188.0
148.565781 132.0
148.597321 140.0
148.645844 92.0
148.746811 160.0
148.903168 108.0
148.96875 180.0
149.015182 4108.0
149.049164 164.0
149.083466 444.0
149.112732 972.0
149.144012 244.0
149.189896 68.0
149.220062 88.0
149.352814 108.0
149.43959 184.0
149.476883 136.0
149.501221 60.0
149.596146 72.0
149.676483 164.0
149.771469 104.0
149.803131 100.0
149.849411 88.0
149.944061 228.0
150.015457 396.0
150.06781 180.0
150.085464 180.0
150.12236 324.0
150.24437 152.0
150.334641 112.0
150.400543 128.0
150.49086 64.0
150.6203 104.0
150.665985 80.0
150.771774 196.0
150.801102 104.0
150.891556 56.0
150.970215 232.0
151.011871 1252.0
151.105194 112.0
151.177734 172.0
151.21933 116.0
151.35643 144.0
151.559723 220.0
151.888382 68.0
152.020218 252.0
152.050171 228.0
152.091888 144.0
152.111526 136.0
152.285858 160.0
152.347275 164.0
152.568436 144.0
152.652039 132.0
152.814377 76.0
152.878357 248.0
152.912811 60.0
152.966949 76.0
153.010681 7060.0
153.04892 176.0
153.067719 392.0
153.186417 100.0
153.289597 84.0
153.343811 180.0
153.415283 152.0
153.457199 120.0
153.605164 216.0
153.671783 176.0
154.012009 680.0
154.043945 208.0
154.078064 212.0
154.126083 172.0
154.207626 104.0
154.328766 92.0
154.53653 160.0
154.952469 124.0
155.007156 2128.0
155.052933 156.0
155.08873 612.0
155.163116 88.0
155.202789 44.0
155.23999 116.0
155.371445 136.0
155.59729 112.0
155.815826 84.0
155.922684 60.0
156.010498 236.0
156.027084 180.0
156.051941 152.0
156.089233 144.0
156.161362 200.0
156.25119 136.0
156.452484 108.0
156.644241 64.0
156.72644 32.0
156.773788 64.0
156.848557 124.0
156.964722 128.0
157.005539 4712.0
157.048035 224.0
157.082962 44.0
157.104263 192.0
157.167786 44.0
157.337494 152.0
157.573807 92.0
157.687195 172.0
158.007782 936.0
158.057312 284.0
158.098526 144.0
158.230011 152.0
158.320145 160.0
158.397781 204.0
158.450394 72.0
158.472946 224.0
158.74115 184.0
158.76622 28.0
158.909195 68.0
159.001175 1376.0
159.044357 2052.0
159.107468 104.0
159.275711 140.0
159.310883 88.0
159.557159 100.0
159.798599 232.0
159.903946 148.0
159.944565 76.0
160.01268 128.0
160.050629 4508.0
160.07489 1120.0
160.115189 680.0
160.171173 36.0
160.379959 56.0
160.826752 156.0
160.922684 60.0
160.989777 56.0
161.057251 612.0
161.10704 128.0
161.126221 204.0
161.210632 68.0
161.319321 192.0
161.499771 84.0
161.734161 188.0
161.807571 100.0
161.82782 104.0
161.848083 164.0
162.035507 136.0
162.061218 492.0
162.089951 468.0
162.316833 108.0
162.384537 120.0
162.425888 136.0
162.550201 128.0
162.591553 68.0
162.910736 172.0
163.035233 116.0
163.062546 776.0
163.1064 168.0
163.154694 108.0
163.655899 152.0
163.681366 256.0
163.710449 160.0
163.780685 120.0
163.951385 180.0
164.001907 348.0
164.06926 596.0
164.150223 232.0
164.242035 132.0
164.295609 192.0
164.507416 280.0
164.566132 100.0
164.755127 136.0
164.798553 144.0
164.832855 164.0
164.877762 136.0
164.977448 52.0
165.010574 2696.0
165.071091 1092.0
165.642776 100.0
166.009109 160.0
166.038589 140.0
166.07547 756.0
166.15036 48.0
166.178574 92.0
166.286346 224.0
166.327423 72.0
166.558517 44.0
166.627869 124.0
166.776917 152.0
167.009781 288.0
167.084274 296.0
167.243652 164.0
167.265625 204.0
167.320877 148.0
167.80661 208.0
167.860764 84.0
167.958771 236.0
168.005203 108.0
168.057816 416.0
168.095505 192.0
168.216797 196.0
168.27359 132.0
168.29425 188.0
168.516373 168.0
168.587982 180.0
168.671432 208.0
168.94812 176.0
169.004593 1144.0
169.061234 284.0
169.101624 348.0
169.399506 120.0
169.455551 148.0
169.569565 108.0
169.639542 200.0
169.789932 116.0
169.857361 80.0
169.942978 144.0
170.010437 132.0
170.031204 144.0
170.181763 132.0
170.233688 60.0
170.857498 52.0
170.925751 204.0
170.951157 140.0
170.97908 204.0
170.987503 116.0
171.020828 21032.0
171.151596 92.0
171.206284 196.0
171.224503 36.0
171.258362 60.0
171.284409 124.0
171.343079 92.0
171.388626 68.0
171.427704 72.0
171.53717 88.0
171.58931 156.0
171.610168 44.0
171.647934 112.0
171.727509 128.0
171.75621 36.0
171.903946 184.0
172.024567 1576.0
172.075317 312.0
172.108521 116.0
172.198944 108.0
172.286118 88.0
172.348816 104.0
172.756668 92.0
172.785065 112.0
172.890106 44.0
172.980408 76.0
173.017685 5576.0
173.089523 136.0
173.164993 48.0
173.303833 172.0
173.345764 88.0
173.571182 92.0
173.749542 80.0
173.781021 172.0
173.862366 208.0
174.027054 432.0
174.266754 60.0
174.316666 152.0
174.487518 240.0
174.757294 160.0
174.966324 252.0
175.016357 120.0
175.060013 180.0
175.352524 124.0
175.532806 156.0
175.668076 152.0
175.770203 116.0
176.069656 2668.0
176.100189 224.0
176.240204 148.0
176.29306 56.0
176.348557 52.0
176.422562 76.0
176.451645 160.0
176.509811 152.0
176.745224 224.0
176.972855 112.0
177.010529 8340.0
177.043167 240.0
177.078949 1496.0
177.118515 52.0
177.155014 184.0
177.508087 108.0
177.616013 144.0
177.699066 200.0
177.903412 148.0
178.013824 660.0
178.078323 1388.0
178.115845 64.0
178.166321 140.0
178.215179 184.0
178.243378 84.0
178.81778 48.0
179.00708 1700.0
179.084534 2100.0
179.129318 312.0
179.289169 76.0
179.36647 104.0
179.625122 48.0
179.806549 72.0
180.00943 144.0
180.056213 140.0
180.092468 660.0
180.180374 156.0
180.816772 140.0
180.905106 124.0
181.008011 356.0
181.064011 188.0
181.094055 196.0
181.309555 44.0
181.532043 172.0
181.663467 184.0
182.011139 308.0
182.044601 208.0
182.075043 312.0
182.560547 128.0
182.74884 76.0
182.883392 200.0
183.019638 1488.0
183.07724 144.0
183.240555 260.0
183.29274 32.0
183.799667 204.0
184.020081 308.0
184.072296 196.0
184.126297 128.0
184.802078 148.0
185.014938 512.0
185.281296 184.0
185.419479 168.0
185.462845 144.0
185.807236 92.0
185.972763 88.0
186.013474 160.0
186.124786 192.0
186.597549 104.0
186.8396 136.0
187.030075 260.0
187.079071 196.0
187.503983 196.0
187.580307 68.0
187.872086 188.0
188.013977 212.0
188.134064 28.0
188.199585 64.0
188.592972 152.0
188.757004 140.0
188.819901 116.0
188.849991 172.0
188.921097 164.0
189.003174 160.0
189.070633 528.0
189.287857 128.0
189.572739 208.0
189.685104 168.0
189.745422 184.0
190.081833 1532.0
190.338058 140.0
190.579773 124.0
190.761154 188.0
190.824387 52.0
190.873886 56.0
191.085648 2804.0
191.11972 96.0
191.192978 44.0
191.26178 40.0
191.517853 80.0
191.867813 184.0
192.090515 392.0
192.132568 164.0
192.309174 64.0
192.347809 56.0
192.427872 100.0
192.753891 104.0
192.883682 112.0
193.060623 136.0
193.101624 1180.0
193.370483 40.0
193.575348 156.0
193.852356 100.0
193.983353 164.0
194.010818 220.0
194.034073 340.0
194.073517 512.0
194.108521 1120.0
194.237717 64.0
194.345917 40.0
194.792892 244.0
195.021118 4888.0
195.078293 604.0
195.12027 648.0
195.437866 148.0
195.462906 40.0
195.487961 84.0
195.680008 116.0
196.020203 644.0
196.086578 444.0
196.115768 372.0
196.173111 80.0
196.233887 180.0
196.332031 36.0
196.706177 168.0
197.020416 1876.0
197.05632 300.0
197.098495 312.0
197.158371 232.0
197.340073 60.0
197.524643 92.0
197.818451 52.0
197.886887 144.0
198.031784 436.0
198.058517 340.0
198.104141 192.0
198.168518 96.0
198.858353 168.0
199.039871 768.0
199.096985 196.0
199.265533 128.0
199.29924 128.0
199.585938 184.0
200.025192 208.0
200.048462 176.0
200.174026 64.0
200.337387 92.0
200.385284 184.0
200.517715 108.0
200.548721 248.0
200.833496 92.0
201.047165 704.0
202.036743 108.0
202.057831 172.0
202.121719 32.0
203.04805 156.0
203.088135 296.0
203.18988 184.0
203.96228 244.0
204.096451 292.0
204.710526 172.0
205.099625 2528.0
205.177811 204.0
205.223419 168.0
205.51149 68.0
205.534317 132.0
206.109177 3208.0
206.225418 48.0
206.374069 92.0
206.416946 60.0
206.482727 128.0
206.697281 64.0
206.837509 76.0
207.079834 576.0
207.113129 644.0
207.295746 80.0
207.330139 180.0
207.596741 128.0
208.052948 180.0
208.088287 696.0
208.124725 200.0
208.162048 156.0
208.374603 76.0
208.489532 104.0
208.561386 60.0
208.664871 140.0
208.733871 100.0
209.056061 96.0
209.094711 736.0
209.280579 164.0
210.031448 652.0
210.0672 160.0
210.090424 176.0
210.130814 180.0
211.039337 628.0
211.07399 356.0
211.115417 336.0
211.193863 160.0
211.442688 48.0
211.743774 164.0
211.764053 104.0
211.801712 140.0
211.929169 128.0
212.047562 7124.0
212.121078 172.0
212.140732 96.0
212.24028 36.0
212.314697 48.0
212.340805 56.0
212.459732 72.0
212.584488 104.0
212.607712 48.0
212.694778 68.0
212.752838 72.0
212.790573 48.0
212.964813 52.0
212.999664 152.0
213.052719 516.0
213.104248 100.0
213.194321 44.0
213.293793 108.0
213.586823 88.0
214.045212 2480.0
214.24469 48.0
214.297134 52.0
214.34375 40.0
214.410782 52.0
214.445755 52.0
214.705231 80.0
214.746063 108.0
215.046219 336.0
215.080505 268.0
215.890884 100.0
216.054688 312.0
216.096497 272.0
216.801331 124.0
216.915634 48.0
216.983047 160.0
217.05928 144.0
217.095535 324.0
217.138458 180.0
217.628525 80.0
218.019196 204.0
218.069092 936.0
218.321991 140.0
218.519073 80.0
219.08194 1748.0
219.152084 36.0
219.181549 168.0
220.085709 392.0
220.790359 76.0
220.923462 188.0
221.044769 92.0
221.093979 652.0
221.260834 124.0
221.402969 64.0
221.527359 84.0
221.642899 96.0
221.986755 116.0
222.052002 148.0
222.101105 360.0
222.235916 104.0
222.405075 92.0
223.072113 256.0
223.11087 896.0
223.486786 208.0
224.081818 408.0
224.11264 164.0
224.454834 148.0
224.762054 76.0
224.967987 120.0
225.086716 892.0
225.156097 64.0
225.215836 100.0
225.616241 148.0
225.756775 172.0
225.990097 48.0
226.02301 144.0
226.056732 808.0
226.098328 600.0
226.205566 40.0
226.627838 80.0
227.053909 116.0
227.103256 212.0
227.3685 40.0
227.449539 120.0
227.680725 84.0
227.915024 80.0
228.057922 532.0
228.122391 32.0
228.344894 88.0
229.044983 256.0
229.078918 308.0
229.96582 52.0
230.043976 152.0
230.077011 100.0
230.905426 136.0
231.030273 132.0
231.074829 140.0
231.104721 500.0
231.286652 208.0
232.040955 156.0
232.084534 416.0
232.106339 360.0
233.036438 192.0
233.095383 1180.0
233.313004 136.0
233.468063 44.0
233.656662 48.0
233.857498 32.0
234.034058 260.0
234.102295 1040.0
234.551956 92.0
234.792816 152.0
235.074966 112.0
235.108551 1344.0
235.19249 44.0
235.607788 40.0
235.694748 104.0
235.7789 76.0
235.800293 48.0
236.081863 1020.0
236.113617 292.0
236.141693 156.0
236.197769 168.0
236.390518 48.0
236.568024 160.0
236.788483 68.0
236.944702 100.0
236.972275 48.0
237.027435 124.0
237.053299 224.0
237.089417 4432.0
237.140823 232.0
237.410614 40.0
237.557831 64.0
237.588516 176.0
237.657135 108.0
238.002838 56.0
238.094742 928.0
238.549698 68.0
239.057175 180.0
239.104935 1132.0
239.331131 112.0
239.528229 132.0
239.549789 116.0
239.636063 100.0
239.965836 40.0
240.021332 168.0
240.113129 2004.0
240.169357 100.0
240.277328 76.0
240.305099 68.0
240.493332 40.0
240.56279 32.0
240.851822 76.0
241.028778 180.0
241.07988 308.0
241.119171 424.0
241.376877 140.0
241.633606 68.0
242.050125 348.0
242.339508 116.0
242.584335 124.0
242.894424 80.0
243.055115 148.0
243.08847 212.0
243.136429 40.0
243.170563 84.0
244.031387 108.0
244.332703 60.0
244.63768 128.0
244.662582 100.0
244.980225 108.0
245.058121 144.0
245.089279 100.0
246.053009 100.0
246.099854 156.0
246.128174 168.0
247.045441 348.0
247.128143 120.0
247.184464 68.0
248.055862 204.0
248.099365 148.0
248.13501 156.0
248.475357 60.0
249.046753 144.0
249.101227 140.0
250.107239 656.0
250.295166 168.0
250.796066 172.0
251.105133 1296.0
251.158676 44.0
251.537323 52.0
252.113907 4660.0
252.216446 72.0
252.238571 48.0
252.725586 100.0
252.766724 92.0
252.814194 76.0
253.038986 184.0
253.118958 708.0
253.926178 52.0
254.04985 408.0
254.132599 636.0
254.189484 44.0
254.484665 88.0
254.684738 112.0
255.119476 152.0
256.051025 224.0
256.778992 100.0
257.036743 488.0
257.074585 456.0
257.720703 128.0
257.941223 88.0
258.044617 588.0
258.254578 52.0
259.046997 332.0
259.253448 72.0
260.042755 144.0
260.061768 168.0
260.495117 124.0
260.957886 60.0
261.066101 300.0
261.408203 128.0
262.061676 160.0
262.118195 196.0
262.14563 148.0
263.064819 156.0
263.11969 152.0
264.138885 264.0
265.047363 120.0
265.150665 132.0
265.407135 124.0
265.913208 132.0
266.130707 112.0
267.115479 160.0
267.26181 96.0
267.971588 48.0
268.688843 56.0
268.914001 100.0
269.067047 392.0
269.132721 168.0
270.067352 164.0
270.139313 152.0
270.368347 88.0
270.646576 132.0
271.084351 336.0
271.190369 236.0
272.058044 1108.0
273.06424 264.0
274.019257 176.0
274.058319 388.0
275.080597 824.0
275.207062 88.0
275.613312 64.0
276.03714 164.0
276.073456 80.0
277.080536 228.0
277.503235 60.0
278.392487 148.0
279.49942 68.0
280.125336 156.0
280.461853 60.0
281.997192 176.0
282.104156 184.0
282.149017 644.0
283.147278 216.0
283.282074 208.0
284.089966 152.0
284.159393 172.0
284.44809 72.0
285.077057 196.0
285.389679 112.0
285.81012 96.0
286.065887 208.0
286.962006 28.0
287.083771 908.0
288.086639 368.0
288.112854 136.0
288.599548 52.0
288.863312 76.0
288.98172 52.0
289.079071 412.0
291.623383 116.0
291.94635 120.0
293.369568 40.0
294.447784 132.0
294.721069 176.0
294.926117 148.0
295.545105 32.0
296.575897 36.0
298.742615 52.0
299.431 48.0
300.096069 104.0
301.114044 44.0
304.081085 132.0
304.810364 136.0
305.091888 80.0
307.652405 228.0
307.8479 108.0
312.17572 36.0
312.509888 108.0
312.654144 148.0
316.059418 72.0
316.579773 108.0
317.008392 276.0
317.171417 124.0
317.198303 160.0
317.394775 76.0
317.52597 104.0
317.678497 132.0
317.73172 76.0
318.038483 124.0
318.12677 12636.0
318.178864 100.0
318.381256 64.0
318.423889 48.0
318.594391 36.0
318.711639 36.0
318.761383 48.0
318.871552 116.0
318.914185 52.0
318.985779 140.0
319.011597 64.0
319.127747 1720.0
319.227051 44.0
319.557831 76.0
319.746429 72.0
320.123932 2220.0
320.169434 176.0
320.209259 44.0
320.244873 72.0
320.447906 100.0
320.761536 40.0
321.128174 772.0
321.196533 136.0
321.278595 40.0
321.439148 136.0
321.571198 52.0
321.896057 52.0
322.196075 104.0
322.757202 124.0
322.85376 56.0
323.250824 216.0
323.458405 80.0
323.809296 96.0
323.999146 124.0
324.586945 88.0
325.003021 68.0
327.573517 124.0
327.991516 68.0
329.564972 104.0
329.608307 88.0
330.790955 60.0
333.500519 112.0
333.820435 56.0
334.726501 44.0
335.265656 52.0
344.079956 88.0
344.748505 92.0
352.36203 44.0
353.472504 64.0
356.145508 36.0
357.228058 76.0
371.845947 72.0
385.841614 56.0
389.674561 88.0
391.098083 92.0
393.964813 112.0
396.160339 128.0
397.210815 152.0
397.337769 80.0
399.498901 124.0
400.115723 56.0
403.027222 48.0
442.758118 84.0
443.721863 60.0
449.986389 32.0
459.787689 76.0
462.22348 68.0
465.96228 60.0
484.549133 44.0
490.719696 48.0
490.949005 88.0
503.329803 72.0
507.060638 84.0
507.356476 68.0
513.773926 68.0
525.278198 108.0
531.991272 68.0
540.221558 40.0
541.249023 152.0
544.574036 80.0
546.670776 100.0
555.135376 56.0
557.069031 120.0
580.181519 132.0
585.235046 128.0
593.739746 96.0
599.18866 116.0
612.326233 124.0
629.490234 72.0
631.509216 56.0
633.105713 112.0
636.857178 84.0
638.757141 72.0
652.359924 28.0
664.155457 88.0
672.160461 248.0
674.096863 144.0
675.611755 76.0
680.561218 220.0
684.247437 56.0
691.126404 80.0
698.676208 80.0
704.855408 40.0
709.290405 76.0
714.744568 60.0
716.480225 152.0
721.047729 32.0
728.495544 104.0
730.177917 108.0
730.850342 72.0
732.697021 168.0
733.090332 176.0
752.323547 36.0
785.752197 212.0
800.150024 56.0
825.856567 164.0
849.519775 128.0
854.457764 184.0
858.185181 40.0
859.666748 152.0
870.414124 140.0
871.471375 208.0
874.700012 48.0
885.374817 160.0
890.772095 108.0
893.334167 124.0
898.009949 164.0
900.259888 220.0
909.407715 52.0
916.606262 192.0
917.124573 172.0
918.378662 48.0
922.218689 200.0
924.59552 100.0
926.472595 136.0
930.499451 144.0
935.180115 88.0
935.849731 168.0
937.97583 96.0
939.524719 160.0
939.970154 52.0
941.337463 180.0
948.146179 60.0
953.770325 200.0
967.091003 144.0
968.440735 60.0
968.806213 84.0
975.104187 172.0
976.447083 216.0
980.132324 176.0
980.693176 124.0
983.818298 140.0
984.061768 168.0
986.854553 224.0
990.333923 164.0
994.503357 124.0
995.539246 188.0
996.23645 232.0
998.687927 180.0
999.323242 148.0
1001.243164 260.0
1005.157837 128.0
1008.606079 36.0
1009.712524 72.0
1010.591797 116.0
1010.72467 112.0
1017.817505 160.0
1018.712952 176.0
1019.843994 56.0
1020.937561 220.0
1022.177979 140.0
1022.57251 172.0
1024.297974 212.0
1024.361694 180.0
1024.909668 172.0
1028.225586 84.0
1029.636475 208.0
1030.805542 212.0
1033.766235 164.0
1037.243896 100.0
1037.711914 96.0
1042.101929 56.0
1046.945435 132.0
1047.557373 148.0
1049.026611 88.0
1050.400024 152.0
1050.896851 128.0
1055.683105 188.0
1057.061035 184.0
1057.76001 76.0
1063.392456 32.0
1064.301392 196.0
1064.716919 176.0
1066.594604 152.0
1072.152832 208.0
1073.280518 84.0
1073.42395 84.0
1077.836548 224.0
1082.677246 36.0
1086.708496 104.0
1087.075928 72.0
1090.221436 156.0
1096.44043 272.0
1103.020874 100.0
1103.91333 160.0
1104.932007 180.0
1108.248901 44.0
1110.396729 152.0
1111.298828 192.0
1112.513306 184.0
1113.748413 148.0
1113.980957 88.0
1115.030762 200.0
1115.48938 96.0
1118.030029 176.0
1118.935303 176.0
1120.427124 128.0
1121.17334 72.0
1121.353271 216.0
1122.219971 120.0
1122.599976 92.0
1125.769775 160.0
1126.237183 224.0
1126.337402 216.0
1126.511108 140.0
1126.89856 216.0
1127.092285 140.0
1128.629639 208.0
1130.877441 160.0
1131.740967 48.0
1132.249878 120.0
1140.287109 196.0
1141.52417 132.0
1144.074097 40.0
1144.700317 204.0
1145.239014 172.0
1145.400635 200.0
1149.317505 88.0
1153.31543 176.0
1154.363281 136.0
1157.977173 40.0
1158.959351 228.0
1160.904785 160.0
1163.021484 36.0
1163.136963 156.0
1163.625732 44.0
1165.568237 132.0
1168.988525 184.0
1169.056641 80.0
1172.959106 204.0
1173.088623 160.0
1173.347656 164.0
1173.477173 208.0
1175.148193 180.0
1175.721436 164.0
1176.847656 216.0
1178.138428 200.0
1178.705566 172.0
1179.108765 224.0
1179.730713 140.0
1180.024658 176.0
1183.657837 44.0
1186.00769 148.0
1187.481812 196.0
1188.586304 160.0
1188.984253 156.0
1189.149048 156.0
1190.425903 136.0
1191.772217 128.0
1194.412109 244.0
1194.535889 196.0
1196.345703 180.0
1196.662354 152.0
1197.302734 140.0
1197.605835 148.0
1199.721191 160.0
1201.355591 132.0
1201.555664 92.0
1204.234741 156.0
1205.684814 116.0
1206.597168 208.0
1206.728516 28.0
1206.846069 140.0
1208.083984 152.0
1208.505981 212.0
1208.561401 180.0
1209.108032 132.0
1209.287964 72.0
1210.374878 132.0
1211.344482 184.0
1212.716431 156.0
1215.802612 180.0
1217.350708 160.0
1219.678101 112.0
1219.886597 40.0
1220.220337 172.0
1220.567993 140.0
1222.794067 112.0
1223.719849 192.0
1226.973389 88.0
1227.036133 152.0
1227.831055 208.0
1228.716919 52.0
1231.118042 168.0
1231.201782 32.0
1232.046997 208.0
1232.536011 116.0
1233.157959 204.0
1233.451538 184.0
1234.318481 160.0
1234.514282 168.0
1236.347046 92.0
1237.866089 156.0
1238.069214 200.0
1238.15332 248.0
1239.182983 140.0
1239.568359 188.0
1240.297241 40.0
1241.061279 224.0
1241.229614 144.0
1241.636353 128.0
1243.179688 92.0
1243.22876 100.0
1243.327026 132.0
1244.036011 100.0
1246.223633 180.0
1246.245728 92.0
1246.264893 148.0
1246.873657 192.0
1247.400757 160.0
1248.708618 84.0
1253.657715 156.0
1253.8479 148.0
1254.284912 68.0
1255.568115 204.0
1256.851929 116.0
1257.014282 68.0
1257.183594 32.0
1258.673096 96.0
1261.053833 176.0
1262.672852 212.0
1265.220093 128.0
1265.588257 208.0
1265.800659 192.0
1266.841797 148.0
1267.85498 168.0
1269.407471 184.0
1271.01062 156.0
1271.202148 80.0
1272.259644 128.0
1274.191406 172.0
1274.440063 208.0
1274.589233 164.0
1275.420776 140.0
1276.57251 164.0
1277.824829 160.0
1278.194336 160.0
1279.838501 148.0
1279.931152 248.0
1280.016602 56.0
1280.272949 116.0
1281.227295 152.0
1281.597778 108.0
1281.911377 52.0
1282.253418 112.0
1284.007202 112.0
1284.863159 140.0
1285.319824 216.0
1287.468506 112.0
1287.718384 160.0
1292.386353 180.0
1292.558105 176.0
1293.66748 184.0
1294.791626 232.0
1294.848877 168.0
1295.429077 120.0
1296.331787 136.0
1297.342407 188.0
1297.578979 212.0
1298.123901 180.0
1298.618774 132.0
1298.912842 172.0
1303.227417 120.0
1304.449097 192.0
1304.959473 148.0
1305.088989 176.0
1308.708008 112.0
1309.22644 144.0
1310.717651 192.0
1311.567993 168.0
1313.888916 216.0
1314.820801 204.0
1315.390991 248.0
1315.557007 116.0
1315.665283 168.0
1316.401733 140.0
1316.813354 100.0
1317.008423 196.0
1318.648438 128.0
1318.872559 144.0
1319.299072 44.0
1319.819702 172.0
1320.325806 128.0
1321.649536 132.0
1323.900757 128.0
1324.349731 120.0
1327.248535 156.0
1327.306519 140.0
1328.343628 156.0
1329.011108 108.0
1329.283813 168.0
1331.486328 136.0
1332.401611 136.0
1332.844849 180.0
1333.193604 168.0
1334.509277 184.0
1335.171021 184.0
1335.309204 172.0
1336.182007 56.0
1336.793213 144.0
1339.326782 152.0
1339.625366 200.0
1340.310303 212.0
1340.579834 168.0
1340.681885 160.0
1341.17749 112.0
1343.022217 132.0
1343.547363 52.0
1344.284302 148.0
1344.342651 160.0
1344.758667 60.0
1345.765991 212.0
1345.904785 140.0
1346.357544 128.0
1347.876953 84.0
1348.724731 220.0
1348.921997 168.0
1349.031738 132.0
1350.18689 168.0
1350.698853 172.0
1350.815918 208.0
1351.518311 296.0
1352.645264 212.0
1353.318848 188.0
1354.077026 236.0
1355.26709 104.0
1355.398926 108.0
1357.363403 152.0
1357.414795 132.0
1357.752075 40.0
1357.950073 148.0
1359.387939 48.0
1360.349487 100.0
1361.421387 152.0
1361.722534 192.0
1362.611328 116.0
1362.890503 128.0
1364.066406 120.0
1364.353027 216.0
1365.080933 80.0
1366.522583 176.0
1367.412964 176.0
1368.428833 140.0
1368.657104 180.0
1368.804321 84.0
1368.966309 184.0
1369.032593 80.0
1369.555542 268.0
1370.395264 212.0
1372.982666 164.0
1373.122803 200.0
1377.654785 156.0
1378.881348 92.0
1379.657471 196.0
1381.602417 140.0
1384.555664 112.0
1385.259277 148.0
1386.696777 216.0
1387.260132 124.0
1387.482544 216.0
1387.764282 60.0
1388.891479 148.0
1389.892944 204.0
1390.026489 316.0
1390.694458 252.0
1394.913452 136.0
1395.143799 180.0
1395.686523 120.0
1396.772339 216.0
1397.248413 140.0
1399.265259 128.0
1401.060181 184.0
1401.559326 220.0
1402.267212 180.0
1402.982788 204.0
1403.228882 164.0
1404.078857 88.0
1404.996338 96.0
1405.94397 128.0
1408.788696 176.0
1409.498413 44.0
1410.05896 304.0
1410.328003 176.0
1410.769043 132.0
1412.526245 160.0
1412.608521 172.0
1412.788086 80.0
1413.608887 192.0
1414.853516 192.0
1415.355225 172.0
1415.954224 212.0
1416.111572 80.0
1416.680786 160.0
1417.415039 92.0
1417.467529 244.0
1417.752197 104.0
1417.95459 180.0
1418.479248 236.0
1418.726685 144.0
1419.453857 48.0
1419.746338 84.0
1420.796387 148.0
1422.015869 204.0
1422.63501 116.0
1422.837769 96.0
1423.213135 64.0
1424.061646 152.0
1425.068237 60.0
1425.864868 152.0
1427.864624 200.0
1429.007935 148.0
1429.188599 176.0
1429.745361 100.0
1429.993774 176.0
1430.460449 76.0
1431.228271 160.0
1433.766846 192.0
1435.568604 148.0
1436.692383 200.0
1437.63562 120.0
1437.748779 184.0
1438.677124 220.0
1439.160278 144.0
1441.479248 224.0
1443.981445 132.0
1444.127563 176.0
1444.745483 204.0
1444.80603 164.0
1445.017822 220.0
1445.34314 92.0
1448.144165 172.0
1448.953491 164.0
1449.477417 116.0
1451.470947 188.0
1453.162354 144.0
1455.50769 176.0
1456.229126 204.0
1457.429443 204.0
1457.656006 180.0
1458.812622 72.0
1459.071045 120.0
1459.45874 124.0
1460.226807 208.0
1462.174438 160.0
1462.433228 160.0
1462.661621 128.0
1462.83667 100.0
1464.05481 160.0
1464.374756 168.0
1464.648926 144.0
1466.088867 240.0
1467.468506 184.0
1467.620972 128.0
1467.727783 168.0
1469.146362 164.0
1469.512573 160.0
1470.267944 32.0
1470.962524 224.0
1471.817627 212.0
1472.474487 204.0
1472.55835 172.0
1473.474976 184.0
1473.986816 180.0
1474.109131 180.0
1475.202026 120.0
1475.37793 228.0
1475.567627 112.0
1477.159668 124.0
1478.146606 76.0
1478.888916 84.0
1479.218018 156.0
1479.340576 192.0
1480.557983 192.0
1480.879639 184.0
1481.071045 196.0
1481.346802 204.0
1482.856323 140.0
1483.231812 172.0
1483.599731 44.0
1485.248413 132.0
1486.583374 180.0
1487.657837 168.0
1487.803711 144.0
1490.076904 136.0
1491.498657 96.0
1493.105469 228.0
1494.705566 204.0
1496.421997 60.0
1497.084229 132.0
1497.831299 112.0
1498.724854 164.0
1499.194946 148.0
1499.796021 96.0
1500.019653 132.0
1500.867676 184.0
1501.469116 168.0
1501.978149 140.0
1502.386963 176.0
1502.772705 128.0
1503.220215 148.0
1503.505859 156.0
1503.775879 100.0
1503.992065 168.0
1504.63269 132.0
