>compound MLS002153909-01!Harmalol hydrochloride dihydrate6028-00-8
>formula C12H12N2O
>ionization [M+H]+
>parentmass 201.101318
#inchi InChI=1S/C12H12N2O/c1-7-12-10(4-5-13-7)9-3-2-8(15)6-11(9)14-12/h2-3,6,14-15H,4-5H2,1H3
#inchikey RHVPEFQDYMMNSY
#origInchi InChI=1S/C12H12N2O.ClH.H2O/c1-7-12-10(4-5-13-7)9-3-2-8(15)6-11(9)14-12;;/h2-3,6,14-15H,4-5H2,1H3;1H;1H2
#Ion_Source LC-ESI
#Instrument qTof
#Compound_Source NIH Pharmacologically Active Library
#PI Dorrestein
#Data_Collector VP/LMS
#Scan -1
#Precursor_MZ 201.105
#ExactMass 200.095
#Charge 1
#CAS_Number N/A
#Pubmed_ID N/A
#Smiles CC1=NCCc2c1[nH]c3cc(O)ccc23.O.Cl
#INCHI_AUX N/A
#Library_Class 1
#SpectrumID CCMSLIB00000085817
#IonMode Positive
#UpdateWorkflowName UPDATE-SINGLE-ANNOTATED-GOLD
#LibraryQualityString Gold
#TaskID d252d724072548979f1f6f1ced849daf
##Scan# 1198
#SpectrumFile p4-F09_GF9_01_18393.mzXML
#LibraryName Pharm_Active_Library.mgf
#MQScore -1
#Organism Pharm_Active_Library
#TIC_Query 0
#RT_Query -1
#MZErrorPPM -1
#SharedPeaks 0
#MassDiff 0
#LibMZ -1
#SpecMZ 201.105
#SpecCharge 0
#internalFilename spec-00000.mgf

>collision 10
44.949776 196.0
44.980473 112.0
45.00317 200.0
45.019192 248.0
45.071293 204.0
45.172043 124.0
45.328217 196.0
45.34832 200.0
45.368427 152.0
45.381836 92.0
45.404633 180.0
45.466347 192.0
45.482452 160.0
45.503933 192.0
45.627823 172.0
45.638298 188.0
45.655781 176.0
45.682682 44.0
45.706898 160.0
45.760742 192.0
45.807877 88.0
45.820004 164.0
45.845604 104.0
45.882 160.0
45.923805 176.0
45.966976 100.0
45.991272 192.0
46.016922 28.0
46.054733 208.0
46.10878 148.0
46.179085 180.0
46.298191 236.0
46.409309 172.0
46.46899 84.0
46.528404 160.0
46.772053 128.0
46.836052 136.0
46.868748 176.0
46.890553 220.0
46.954636 124.0
47.005112 148.0
47.05698 64.0
47.070637 140.0
47.21413 176.0
47.236015 192.0
47.248325 48.0
47.274326 200.0
47.37051 160.0
47.393459 156.0
47.505886 212.0
47.545681 140.0
47.571758 180.0
47.655537 192.0
47.784782 196.0
47.797169 176.0
47.8302 140.0
47.845341 264.0
47.941765 164.0
47.974846 216.0
47.999664 196.0
48.034142 216.0
48.060356 104.0
48.175819 140.0
48.194786 236.0
48.241287 168.0
48.320118 200.0
48.396244 104.0
48.468273 176.0
48.506989 184.0
48.527756 140.0
48.591679 68.0
48.612492 208.0
48.66663 156.0
48.765266 184.0
48.787506 148.0
48.889046 92.0
48.907139 160.0
48.969799 128.0
48.985119 80.0
49.03389 160.0
49.142662 188.0
49.163593 172.0
49.213848 320.0
49.240383 352.0
49.261333 144.0
49.276703 120.0
49.440311 168.0
49.587368 204.0
49.644852 116.0
49.768341 140.0
49.809067 144.0
49.848408 136.0
49.930386 128.0
49.939793 216.0
49.95808 140.0
49.991848 120.0
50.053791 196.0
50.093227 112.0
50.105907 180.0
50.134087 176.0
50.151001 120.0
50.194706 172.0
50.241253 180.0
50.258183 156.0
50.368305 148.0
50.427299 160.0
50.50259 212.0
50.62289 196.0
50.656025 132.0
50.737667 128.0
50.77879 160.0
50.795811 104.0
50.827023 112.0
50.846893 200.0
50.909359 144.0
50.940609 220.0
50.987499 180.0
51.084187 108.0
51.099838 204.0
51.114067 144.0
51.213043 184.0
51.296375 184.0
51.431889 176.0
51.463299 184.0
51.545387 256.0
51.570442 152.0
51.679131 132.0
51.693439 108.0
51.747833 232.0
51.759289 120.0
51.799393 156.0
51.820881 140.0
51.886814 148.0
51.905418 164.0
51.974308 172.0
52.001575 180.0
52.037464 132.0
52.061874 180.0
52.120773 144.0
52.235794 32.0
52.261688 80.0
52.280396 72.0
52.312061 188.0
52.33654 208.0
52.355259 44.0
52.394154 128.0
52.461887 200.0
52.511654 164.0
52.528225 60.0
52.54842 116.0
52.565739 96.0
52.57584 100.0
52.62492 128.0
52.652359 80.0
52.788204 160.0
52.833832 228.0
52.983612 136.0
53.01059 196.0
53.048828 124.0
53.067677 152.0
53.079277 108.0
53.119751 128.0
53.150356 160.0
53.214222 148.0
53.243263 176.0
53.291203 164.0
53.356609 196.0
53.372601 160.0
53.401688 148.0
53.422054 48.0
53.493263 240.0
53.564716 128.0
53.590134 188.0
53.633205 92.0
53.647423 260.0
53.666737 144.0
53.685692 68.0
53.719238 176.0
53.798046 180.0
53.884212 160.0
53.920746 176.0
53.967525 160.0
53.983612 156.0
54.045048 120.0
54.062611 44.0
54.083099 204.0
54.216385 136.0
54.247166 160.0
54.339561 140.0
54.486382 172.0
54.514194 220.0
54.533405 160.0
54.558395 196.0
54.614277 228.0
54.628986 152.0
54.653999 124.0
54.68932 84.0
54.743793 212.0
54.842506 180.0
55.01215 228.0
55.125881 100.0
55.168743 232.0
55.265392 208.0
55.305374 188.0
55.322601 156.0
55.433689 180.0
55.449993 124.0
55.491501 272.0
55.531616 152.0
55.754288 136.0
55.795868 60.0
55.807762 124.0
55.850891 104.0
55.883621 192.0
55.961018 184.0
56.03558 136.0
56.065292 188.0
56.083179 220.0
56.099575 204.0
56.115974 260.0
56.174141 192.0
56.223381 44.0
56.326405 108.0
56.459431 152.0
56.511787 116.0
56.619572 168.0
56.68399 56.0
56.703472 168.0
56.770416 184.0
56.785454 68.0
56.847446 48.0
56.902985 180.0
56.919502 156.0
56.949539 140.0
56.963959 200.0
56.993107 60.0
57.015648 116.0
57.051723 208.0
57.077286 140.0
57.123909 168.0
57.140461 236.0
57.167545 184.0
57.289509 180.0
57.339233 208.0
57.38295 188.0
57.450817 140.0
57.537231 248.0
57.573082 32.0
57.60445 172.0
57.64711 160.0
57.674313 124.0
57.80801 352.0
57.840706 108.0
57.872498 156.0
57.896729 172.0
58.003822 188.0
58.012325 180.0
58.087711 80.0
58.148403 140.0
58.231911 92.0
58.306358 176.0
58.402149 172.0
58.560448 208.0
58.635105 128.0
58.738789 176.0
58.828827 148.0
58.914349 128.0
58.952549 224.0
59.08252 180.0
59.113121 268.0
59.125549 164.0
59.174347 148.0
59.229481 240.0
59.243267 160.0
59.283108 164.0
59.333691 104.0
59.36129 200.0
59.53624 152.0
59.631496 112.0
59.659164 236.0
59.737595 176.0
59.766827 232.0
59.848412 140.0
59.936211 60.0
59.951622 224.0
60.0308 192.0
60.099659 200.0
60.150589 112.0
60.162941 52.0
60.227798 172.0
60.284966 120.0
60.390099 128.0
60.4133 192.0
60.609711 328.0
60.653332 192.0
60.673485 140.0
60.69054 136.0
60.726208 152.0
60.819305 172.0
60.872093 160.0
60.937332 136.0
61.088139 168.0
61.127037 352.0
61.187744 128.0
61.220444 96.0
61.246922 224.0
61.335739 68.0
61.409027 212.0
61.429306 208.0
61.651024 188.0
61.668869 192.0
61.718243 144.0
61.782372 136.0
61.802711 180.0
61.841835 100.0
62.010994 156.0
62.021965 136.0
62.233761 108.0
62.326435 184.0
62.339008 200.0
62.521435 136.0
62.615898 156.0
62.723045 200.0
62.756153 208.0
62.767189 196.0
62.913925 192.0
62.969193 96.0
63.077953 164.0
63.089287 212.0
63.195255 200.0
63.214245 120.0
63.225323 112.0
63.237984 236.0
63.348827 124.0
63.36784 184.0
63.404285 160.0
63.502586 176.0
63.552105 244.0
63.566048 128.0
63.73888 148.0
63.755028 160.0
63.777279 148.0
63.829498 216.0
63.955433 140.0
63.988861 292.0
64.057343 164.0
64.110657 220.0
64.165718 168.0
64.186447 172.0
64.32206 148.0
64.336426 148.0
64.35878 192.0
64.384331 244.0
64.411987 204.0
64.451424 124.0
64.508965 164.0
64.553734 176.0
64.593719 68.0
64.609711 188.0
64.740967 196.0
64.907631 152.0
64.938103 240.0
64.950935 112.0
65.096039 208.0
65.191772 128.0
65.286621 132.0
65.301102 188.0
65.311333 176.0
65.355797 176.0
65.383156 176.0
65.413734 240.0
65.439529 176.0
65.640915 176.0
65.671555 76.0
65.69091 188.0
65.736092 152.0
65.750618 164.0
65.768021 184.0
65.831337 172.0
65.870102 120.0
65.885567 196.0
65.930382 156.0
65.942818 168.0
65.965446 112.0
66.176865 236.0
66.245071 184.0
66.279434 84.0
66.342644 136.0
66.370209 220.0
66.410751 128.0
66.517845 132.0
66.53083 216.0
66.579544 152.0
66.652649 144.0
66.755066 148.0
66.838028 120.0
66.877083 144.0
66.9104 196.0
66.999222 132.0
67.061142 40.0
67.096268 176.0
67.191597 148.0
67.203018 160.0
67.312386 160.0
67.339066 216.0
67.407135 184.0
67.488869 368.0
67.528114 180.0
67.555923 164.0
67.596825 100.0
67.619736 184.0
67.681839 60.0
67.704735 156.0
67.726166 144.0
67.829399 216.0
67.867111 132.0
68.006554 264.0
68.068939 212.0
68.088654 180.0
68.136368 164.0
68.149429 352.0
68.276009 176.0
68.423561 228.0
68.562477 148.0
68.616875 136.0
68.68119 144.0
68.834679 144.0
68.907356 224.0
69.052834 192.0
69.082603 184.0
69.324348 224.0
69.359154 120.0
69.447037 116.0
69.518959 228.0
69.627953 248.0
69.642899 164.0
69.681107 96.0
69.704369 80.0
69.734283 180.0
69.782494 148.0
69.802444 132.0
69.840698 192.0
69.962181 144.0
69.995483 144.0
70.047112 272.0
70.105431 40.0
70.153763 40.0
70.182106 208.0
70.265503 96.0
70.325584 132.0
70.343475 200.0
70.397369 44.0
70.4692 120.0
70.48925 152.0
70.686974 168.0
70.730095 200.0
70.780319 192.0
70.832237 112.0
70.904579 184.0
70.937813 104.0
70.986435 168.0
71.040924 164.0
71.100517 156.0
71.167664 192.0
71.17942 184.0
71.262367 220.0
71.355354 176.0
71.387794 168.0
71.443306 156.0
71.495506 180.0
71.564484 188.0
71.638588 164.0
71.672287 172.0
71.726219 148.0
71.749817 188.0
71.764206 240.0
71.808395 408.0
71.889038 192.0
72.002937 144.0
72.026581 164.0
72.066849 144.0
72.09417 80.0
72.119522 40.0
72.175308 96.0
72.195602 136.0
72.233673 204.0
72.283119 136.0
72.344131 200.0
72.427338 236.0
72.502518 196.0
72.530846 196.0
72.552887 156.0
72.617325 136.0
72.724213 120.0
72.746284 148.0
72.868561 212.0
73.104919 252.0
73.162796 152.0
73.200256 132.0
73.258163 144.0
73.30928 144.0
73.358711 76.0
73.529289 140.0
73.63002 148.0
73.65564 72.0
73.674431 72.0
73.809456 224.0
73.833397 172.0
73.862473 248.0
73.885483 160.0
73.973709 100.0
74.121002 216.0
74.158707 192.0
74.253006 152.0
74.357666 72.0
74.395432 128.0
74.441788 60.0
74.484726 168.0
74.537987 168.0
74.56205 128.0
74.631927 164.0
74.70649 36.0
74.718529 144.0
74.751221 344.0
74.78392 120.0
74.811462 144.0
74.890678 148.0
74.937195 188.0
74.981995 96.0
75.002678 152.0
75.021645 176.0
75.183784 212.0
75.240746 140.0
75.289093 188.0
75.306366 144.0
75.438477 204.0
75.472275 84.0
75.498215 184.0
75.536263 144.0
75.553566 164.0
75.707253 208.0
75.738792 160.0
75.771706 136.0
75.7873 168.0
75.818497 128.0
75.945068 244.0
76.007523 152.0
76.097778 148.0
76.123825 216.0
76.137718 124.0
76.259338 148.0
76.32193 168.0
76.334099 144.0
76.426292 152.0
76.468063 196.0
76.510963 260.0
76.624786 156.0
76.673576 216.0
76.704956 180.0
76.724129 96.0
76.748535 68.0
76.78167 68.0
77.040009 208.0
77.297752 116.0
77.314537 136.0
77.330284 92.0
77.419579 180.0
77.480888 132.0
77.70491 180.0
77.731621 200.0
77.824661 172.0
77.847488 108.0
77.94059 196.0
77.954643 128.0
77.985977 116.0
78.023315 180.0
78.058365 180.0
78.097054 224.0
78.116409 168.0
78.210739 152.0
78.257202 164.0
78.295403 168.0
78.369934 188.0
78.398125 52.0
78.461586 168.0
78.495773 216.0
78.567406 196.0
78.583282 84.0
78.597397 188.0
78.777489 128.0
78.825195 192.0
78.897659 148.0
79.044472 156.0
79.102875 136.0
79.147141 80.0
79.203812 140.0
79.232155 48.0
79.281769 96.0
79.427162 76.0
79.446671 108.0
79.503456 160.0
79.572685 120.0
79.602867 216.0
79.666809 144.0
79.729004 204.0
79.748558 176.0
79.80011 296.0
79.814331 140.0
79.852646 140.0
79.871246 104.0
79.894371 148.0
79.938858 148.0
79.95665 156.0
79.987457 196.0
80.011833 156.0
80.040321 144.0
80.075943 148.0
80.11869 48.0
80.193535 224.0
80.259499 200.0
80.277328 148.0
80.308311 184.0
80.359383 112.0
80.418274 100.0
80.468262 164.0
80.4879 108.0
80.633957 228.0
80.66478 232.0
80.761337 64.0
80.943893 124.0
80.9618 188.0
80.999413 164.0
81.052765 180.0
81.108719 228.0
81.123062 160.0
81.137405 212.0
81.1912 140.0
81.216476 168.0
81.236038 92.0
81.266541 156.0
81.336533 188.0
81.361023 200.0
81.401169 156.0
81.457268 188.0
81.494576 180.0
81.512543 148.0
81.658165 168.0
81.861534 200.0
81.884949 132.0
81.908363 124.0
81.99305 144.0
82.077782 220.0
82.278557 168.0
82.296112 160.0
82.321396 160.0
82.393646 156.0
82.451469 228.0
82.512932 196.0
82.52478 188.0
82.587074 136.0
82.677536 104.0
82.716782 212.0
82.764435 200.0
82.791595 92.0
82.87674 144.0
82.936256 152.0
82.942886 128.0
82.946342 216.0
82.985489 176.0
83.039894 120.0
83.272217 176.0
83.34919 152.0
83.423035 92.0
83.540939 216.0
83.566719 148.0
83.746941 236.0
83.785202 132.0
83.843506 152.0
83.879967 184.0
83.929192 164.0
83.966003 172.0
83.980255 216.0
84.032524 184.0
84.067825 128.0
84.134399 136.0
84.164581 160.0
84.385666 140.0
84.416756 124.0
84.469795 128.0
84.497238 148.0
84.533836 196.0
84.722427 168.0
84.751747 216.0
84.804893 140.0
84.885559 148.0
84.927742 248.0
84.959938 268.0
85.039665 176.0
85.065369 196.0
85.214127 40.0
85.510193 208.0
85.537804 168.0
85.65313 192.0
85.699875 168.0
85.76622 136.0
85.812309 156.0
85.843658 184.0
85.921127 180.0
85.980179 184.0
86.129738 204.0
86.292366 204.0
86.505119 172.0
86.53289 60.0
86.556961 64.0
86.577339 128.0
86.605118 228.0
86.664398 76.0
86.751564 144.0
86.777466 236.0
86.860924 132.0
86.905449 108.0
86.959267 156.0
86.987106 156.0
87.130104 164.0
87.203125 244.0
87.274864 168.0
87.35878 152.0
87.49836 168.0
87.524422 112.0
87.602646 220.0
87.630592 208.0
87.693634 140.0
87.774124 172.0
87.829063 96.0
87.880447 216.0
87.910431 172.0
87.934563 148.0
87.947632 148.0
87.971893 80.0
87.99617 120.0
88.009239 240.0
88.078339 212.0
88.166153 180.0
88.205406 188.0
88.303703 204.0
88.482285 172.0
88.51973 164.0
88.550148 148.0
88.622757 176.0
88.680473 208.0
88.68679 192.0
88.755844 44.0
88.802727 180.0
88.864632 240.0
89.018555 112.0
89.037521 192.0
89.054054 204.0
89.112473 84.0
89.144417 160.0
89.165092 68.0
89.244049 132.0
89.313629 84.0
89.386108 252.0
89.394302 132.0
89.399384 180.0
89.445351 148.0
89.46418 184.0
89.503716 200.0
89.554565 160.0
89.646263 268.0
89.705315 112.0
89.722282 144.0
89.74868 188.0
89.778847 184.0
89.859962 148.0
90.016632 104.0
90.046852 400.0
90.169655 192.0
90.209351 52.0
90.250946 180.0
90.296333 84.0
90.317139 172.0
90.353081 108.0
90.407959 148.0
90.442024 160.0
90.504936 192.0
90.551842 172.0
90.631668 208.0
90.65036 144.0
90.673103 128.0
90.737556 176.0
90.834152 184.0
90.888199 284.0
90.913963 100.0
90.950195 180.0
91.055054 536.0
91.119041 124.0
91.212166 176.0
91.349487 168.0
91.415672 128.0
91.495621 140.0
91.62513 116.0
91.682289 176.0
91.707069 180.0
91.75473 252.0
91.789047 244.0
91.819565 172.0
91.86216 264.0
91.905403 128.0
91.997017 56.0
92.049759 156.0
92.117416 180.0
92.163185 240.0
92.2836 156.0
92.541908 204.0
92.614685 156.0
92.70665 172.0
92.724869 152.0
92.769897 220.0
92.835091 96.0
92.93676 160.0
92.998596 180.0
93.019287 140.0
93.053848 56.0
93.084564 152.0
93.295921 168.0
93.369644 248.0
93.427467 180.0
93.455559 56.0
93.497894 68.0
93.617256 120.0
93.630737 144.0
93.702011 136.0
93.721283 196.0
93.755966 68.0
93.773315 184.0
93.813789 68.0
93.829216 144.0
93.923714 124.0
93.968079 164.0
94.036209 184.0
94.064575 244.0
94.099327 128.0
94.137947 120.0
94.182365 180.0
94.282837 152.0
94.46653 152.0
94.5308 148.0
94.617485 48.0
94.744003 172.0
94.846077 136.0
94.902 180.0
94.983757 252.0
95.148712 156.0
95.181717 204.0
95.208908 52.0
95.253578 192.0
95.327415 184.0
95.381836 196.0
95.465439 144.0
95.480995 180.0
95.576317 68.0
95.604523 364.0
95.63665 156.0
95.667793 192.0
95.909348 204.0
95.938591 128.0
96.012527 196.0
96.118034 244.0
96.166824 232.0
96.293732 172.0
96.3582 144.0
96.385551 168.0
96.452003 140.0
96.563454 140.0
96.676933 216.0
96.751755 160.0
96.782639 172.0
96.815933 172.0
96.859024 44.0
96.934021 156.0
96.958946 108.0
97.047165 216.0
97.097404 220.0
97.104729 136.0
97.120071 160.0
97.314445 236.0
97.396492 148.0
97.450768 204.0
97.492767 300.0
97.655952 76.0
97.701195 80.0
97.781876 192.0
97.931541 268.0
97.976822 92.0
98.019569 144.0
98.04776 160.0
98.233109 56.0
98.262703 204.0
98.280457 200.0
98.377167 148.0
98.545044 196.0
98.601349 120.0
98.709106 252.0
98.780312 168.0
98.794159 132.0
98.865395 116.0
98.944756 168.0
99.001991 200.0
99.192207 188.0
99.247566 208.0
99.275482 140.0
99.321098 176.0
99.378632 196.0
99.452057 140.0
99.503677 136.0
99.53743 188.0
99.589066 92.0
99.616875 152.0
99.630783 144.0
99.646675 164.0
99.722191 196.0
99.742065 172.0
99.807678 248.0
99.960846 148.0
100.04245 172.0
100.06601 120.0
100.104935 168.0
100.208328 168.0
100.274567 192.0
100.355255 128.0
100.399124 112.0
100.419067 128.0
100.496872 88.0
100.698494 88.0
100.740448 148.0
100.766418 160.0
100.784401 224.0
100.80838 188.0
100.944321 160.0
101.040329 228.0
101.112366 116.0
101.143295 156.0
101.184433 136.0
101.308601 144.0
101.384956 148.0
101.494232 168.0
101.606339 180.0
101.683571 212.0
101.703453 188.0
101.72171 52.0
101.745804 176.0
101.777931 160.0
101.821304 60.0
101.950691 140.0
102.04274 276.0
102.068375 332.0
102.111526 152.0
102.155777 72.0
102.200043 168.0
102.359062 132.0
102.375175 204.0
102.395317 128.0
102.489998 160.0
102.516197 144.0
102.695633 140.0
102.734116 204.0
102.764221 232.0
102.797951 168.0
102.838737 208.0
102.927719 164.0
102.964073 108.0
103.053673 2776.0
103.081245 156.0
103.172203 164.0
103.194901 88.0
103.271286 168.0
103.307701 128.0
103.325905 104.0
103.340073 40.0
103.364693 48.0
103.550606 108.0
103.571045 132.0
103.60125 52.0
103.623535 132.0
103.653923 136.0
103.687523 196.0
103.781631 112.0
103.887093 132.0
103.925644 156.0
103.980438 56.0
104.012909 80.0
104.051773 576.0
104.108337 224.0
104.147102 48.0
104.213974 160.0
104.234291 96.0
104.27697 60.0
104.31559 36.0
104.335922 68.0
104.38002 284.0
104.464043 140.0
104.496597 192.0
104.604454 188.0
104.618706 212.0
104.694046 48.0
104.78775 208.0
104.812202 172.0
104.891685 172.0
104.922264 156.0
105.005875 172.0
105.033943 396.0
105.068634 2336.0
105.114609 200.0
105.152771 120.0
105.167061 180.0
105.203804 204.0
105.30999 160.0
105.330414 160.0
105.401924 192.0
105.430534 60.0
105.549194 176.0
105.592049 84.0
105.608414 172.0
105.632408 148.0
105.749596 104.0
105.804863 188.0
105.948227 56.0
106.044464 272.0
106.064552 136.0
106.087585 288.0
106.171654 48.0
106.186012 36.0
106.200371 40.0
106.240028 72.0
106.311157 112.0
106.325058 216.0
106.346046 116.0
106.387108 120.0
106.430222 344.0
106.700111 180.0
106.765182 140.0
106.793976 156.0
106.810432 168.0
106.828819 196.0
106.85569 136.0
106.878326 136.0
106.904457 172.0
106.973 80.0
106.989471 100.0
107.051796 396.0
107.092239 208.0
107.269646 120.0
107.300568 72.0
107.416718 212.0
107.533676 196.0
107.572891 136.0
107.723648 164.0
107.740654 224.0
107.779427 184.0
107.909538 228.0
107.996506 132.0
108.051003 256.0
108.159973 176.0
108.286278 120.0
108.300774 176.0
108.402298 164.0
108.441673 196.0
108.505936 132.0
108.526672 156.0
108.553627 168.0
108.657341 244.0
108.690536 184.0
108.721664 184.0
108.792236 136.0
108.813004 204.0
108.831688 212.0
108.866989 180.0
109.037346 200.0
109.051895 160.0
109.209923 336.0
109.297302 184.0
109.374306 124.0
109.463829 192.0
109.495071 152.0
109.526314 144.0
109.545059 32.0
109.588814 204.0
109.615898 164.0
109.722206 176.0
109.78476 164.0
109.800934 196.0
109.849419 140.0
109.920357 204.0
109.955833 164.0
109.982971 228.0
110.083183 164.0
110.173004 116.0
110.229416 104.0
110.344383 212.0
110.363411 160.0
110.39875 60.0
110.488693 220.0
110.545189 176.0
110.643562 196.0
110.800644 96.0
110.865601 212.0
110.980896 104.0
111.054298 140.0
111.079468 56.0
111.098351 144.0
111.150803 232.0
111.186478 128.0
111.257851 120.0
111.395149 184.0
111.45948 192.0
111.549858 144.0
111.687019 228.0
111.722305 140.0
111.852776 52.0
111.939102 124.0
111.955948 128.0
111.979118 204.0
112.010712 148.0
112.044418 136.0
112.090775 208.0
112.210922 140.0
112.244659 132.0
112.296425 168.0
112.33535 240.0
112.369102 216.0
112.416451 128.0
112.56752 120.0
112.717506 48.0
112.814728 156.0
112.865471 220.0
112.97123 136.0
112.986038 132.0
113.036301 348.0
113.081322 140.0
113.15535 84.0
113.176529 124.0
113.261238 160.0
113.278183 128.0
113.412704 208.0
113.454079 160.0
113.636482 96.0
113.670433 40.0
113.693771 92.0
113.755325 164.0
113.802696 168.0
113.918846 232.0
113.950714 112.0
114.018974 228.0
114.038666 392.0
114.156609 124.0
114.184547 264.0
114.241982 304.0
114.365402 180.0
114.448433 232.0
114.546402 156.0
114.655067 168.0
114.719017 104.0
114.745331 160.0
114.783798 208.0
114.817101 176.0
114.851227 160.0
114.923759 148.0
114.942383 160.0
114.968575 64.0
114.983513 76.0
115.009407 184.0
115.053345 17092.0
115.090256 112.0
115.132965 80.0
115.164124 156.0
115.225945 264.0
115.252594 124.0
115.285072 200.0
115.329529 72.0
115.361855 164.0
115.386848 224.0
115.442841 148.0
115.459953 68.0
115.532677 188.0
115.573334 124.0
115.603287 192.0
115.708176 124.0
115.731728 260.0
115.753143 172.0
115.774559 28.0
115.798119 180.0
115.879517 192.0
115.943802 84.0
115.97477 168.0
116.005966 136.0
116.052261 1508.0
116.147499 40.0
116.201134 168.0
116.232613 196.0
116.332047 172.0
116.402901 172.0
116.429985 124.0
116.456589 100.0
116.587654 88.0
116.61129 196.0
116.656433 164.0
116.686531 124.0
116.713753 164.0
116.861153 192.0
116.89518 148.0
116.951134 56.0
116.970512 68.0
116.987732 216.0
117.007439 308.0
117.030792 264.0
117.05629 12140.0
117.147873 84.0
117.166481 204.0
117.181564 168.0
117.226814 80.0
117.254829 64.0
117.278542 36.0
117.302254 56.0
117.347527 84.0
117.371246 76.0
117.487717 176.0
117.643097 112.0
117.766495 168.0
117.980835 132.0
118.041229 788.0
118.06144 1664.0
118.092567 48.0
118.202904 200.0
118.235359 60.0
118.358757 64.0
118.445389 136.0
118.514717 144.0
118.616577 204.0
118.651268 36.0
118.714149 208.0
118.779213 132.0
118.829109 72.0
118.998405 268.0
119.047691 380.0
119.193901 160.0
119.291702 244.0
119.374329 184.0
119.522247 200.0
119.585976 184.0
119.611481 148.0
119.665909 152.0
119.739944 148.0
119.811829 156.0
119.894638 116.0
120.042915 296.0
120.063927 160.0
120.073242 104.0
120.080643 152.0
120.145493 184.0
120.181328 176.0
120.202126 168.0
120.226128 196.0
120.326546 284.0
120.365845 132.0
120.381134 212.0
120.505638 160.0
120.540604 200.0
120.682686 32.0
120.704552 168.0
120.776726 152.0
120.940346 160.0
120.98243 112.0
121.03405 152.0
121.055695 156.0
121.076584 120.0
121.166397 120.0
121.229942 56.0
121.363655 192.0
121.379005 48.0
121.407516 64.0
121.447632 124.0
121.47551 184.0
121.611557 156.0
121.848724 104.0
121.89267 272.0
121.908058 132.0
121.987587 196.0
122.061935 148.0
122.130119 68.0
122.17411 44.0
122.248924 252.0
122.303947 216.0
122.369987 212.0
122.532974 172.0
122.651978 152.0
122.719795 172.0
122.744576 160.0
122.776382 204.0
122.828392 168.0
122.989471 152.0
123.027 156.0
123.05143 60.0
123.093239 228.0
123.189415 140.0
123.210304 136.0
123.247864 160.0
123.479988 200.0
123.548561 160.0
123.576355 128.0
123.606087 68.0
123.660492 192.0
123.697708 212.0
123.734467 108.0
123.918297 176.0
124.040192 116.0
124.100052 156.0
124.131096 176.0
124.277496 192.0
124.304123 152.0
124.426208 244.0
124.597763 180.0
124.710205 152.0
124.915131 164.0
125.006348 192.0
125.07312 104.0
125.228989 136.0
125.42971 192.0
125.541008 140.0
125.694931 108.0
125.751472 64.0
125.770813 216.0
125.795372 236.0
125.980728 216.0
126.048424 200.0
126.085747 176.0
126.210938 156.0
126.398834 60.0
126.454781 160.0
126.591354 140.0
126.61599 204.0
126.635368 116.0
126.734718 112.0
126.844536 252.0
126.861267 164.0
126.914032 116.0
126.940941 100.0
127.051498 376.0
127.172028 84.0
127.20121 152.0
127.29068 132.0
127.360641 188.0
127.547142 136.0
127.655067 200.0
127.747284 84.0
127.999489 144.0
128.059189 1600.0
128.143524 36.0
128.179581 200.0
128.215637 160.0
128.233658 148.0
128.255966 164.0
128.383667 140.0
128.400513 176.0
128.423065 116.0
128.553925 148.0
128.61937 140.0
128.732269 112.0
128.83606 176.0
128.901688 140.0
128.935593 164.0
128.999115 232.0
129.030533 204.0
129.068176 2608.0
129.13002 36.0
129.182175 156.0
129.231827 152.0
129.274826 156.0
129.451401 204.0
129.518936 244.0
129.539734 84.0
129.576553 156.0
129.607697 136.0
129.659821 160.0
129.71875 172.0
129.734619 132.0
129.829865 144.0
129.845734 104.0
129.877487 196.0
130.064346 5676.0
130.115265 180.0
130.13269 88.0
130.177078 52.0
130.208878 184.0
130.231583 204.0
130.272476 76.0
130.359955 80.0
130.401993 220.0
130.461105 168.0
130.520218 124.0
130.540085 168.0
130.570251 124.0
130.588928 148.0
130.631653 188.0
130.654404 156.0
130.672607 96.0
130.693085 80.0
130.768188 132.0
130.827377 104.0
130.856964 104.0
130.875183 136.0
130.901459 184.0
130.936676 76.0
130.954895 180.0
130.984497 188.0
131.04895 4860.0
131.071747 4724.0
131.148987 160.0
131.198715 140.0
131.260284 232.0
131.27681 84.0
131.31958 136.0
131.369766 48.0
131.410828 184.0
131.43364 96.0
131.481567 76.0
131.528519 204.0
131.625397 176.0
131.64595 56.0
131.814987 140.0
131.920135 28.0
132.050156 752.0
132.079666 9652.0
132.11795 160.0
132.135101 168.0
132.187729 136.0
132.233505 44.0
132.416672 52.0
132.476227 40.0
132.551834 88.0
132.571823 144.0
132.746689 100.0
132.794861 336.0
132.834366 196.0
132.918747 28.0
132.937103 216.0
132.953171 152.0
133.008255 192.0
133.054749 2432.0
133.104675 140.0
133.125351 112.0
133.18277 28.0
133.210327 200.0
133.270065 220.0
133.309128 132.0
133.334412 140.0
133.368881 100.0
133.39946 252.0
133.429535 52.0
133.557434 188.0
133.603439 84.0
133.734604 120.0
133.787552 48.0
133.9142 132.0
133.956299 160.0
133.995758 208.0
134.024796 96.0
134.063492 512.0
134.119278 68.0
134.149246 112.0
134.167694 132.0
134.211121 196.0
134.287598 180.0
134.405258 68.0
134.502197 172.0
134.532196 188.0
134.567612 284.0
134.638412 116.0
134.710022 112.0
134.751602 128.0
134.810089 168.0
134.881027 244.0
134.961945 108.0
134.980438 40.0
135.003571 196.0
135.060379 268.0
135.082199 56.0
135.105347 144.0
135.153931 204.0
135.188004 204.0
135.251129 224.0
135.276596 128.0
135.329849 200.0
135.364578 148.0
135.598572 200.0
135.633011 112.0
135.702881 156.0
135.763184 176.0
135.837402 164.0
136.062515 116.0
136.377182 244.0
136.398514 208.0
136.55159 196.0
136.694748 88.0
136.745941 92.0
136.899597 224.0
137.047653 164.0
137.10228 136.0
137.12056 152.0
137.162888 136.0
137.525681 180.0
137.627151 32.0
137.652847 136.0
137.750946 148.0
137.7724 152.0
138.052856 164.0
138.080734 224.0
138.115601 224.0
138.454987 172.0
138.586166 168.0
138.726791 56.0
138.766647 192.0
138.822922 284.0
138.90033 144.0
138.961319 216.0
139.012955 132.0
139.052109 1764.0
139.095093 56.0
139.13031 188.0
139.280609 60.0
139.34874 164.0
139.393372 128.0
139.445084 168.0
139.778061 232.0
139.816681 160.0
139.83316 172.0
139.962646 220.0
140.049011 1720.0
140.085114 52.0
140.174652 96.0
140.252426 136.0
140.455215 148.0
140.523621 268.0
140.620377 136.0
140.658142 152.0
140.837769 292.0
140.917938 80.0
141.004288 132.0
141.055328 1220.0
141.10701 404.0
141.125336 180.0
141.155106 212.0
141.438217 88.0
141.540024 116.0
141.63475 148.0
141.672653 128.0
141.935471 168.0
142.020966 176.0
142.062927 3892.0
142.144501 180.0
142.161102 184.0
142.220444 56.0
142.302719 128.0
142.433716 88.0
142.68605 176.0
142.740738 96.0
142.781174 88.0
142.807327 176.0
142.831116 160.0
142.883453 164.0
142.909637 40.0
142.952469 192.0
143.072021 4176.0
143.112244 164.0
143.130997 44.0
143.316788 120.0
143.366837 100.0
143.431198 164.0
143.672043 164.0
143.820908 168.0
143.934601 44.0
143.970413 128.0
144.013412 48.0
144.042419 1940.0
144.073898 748.0
144.113754 116.0
144.147202 100.0
144.220673 240.0
144.238022 60.0
144.44606 212.0
144.493912 132.0
144.602417 92.0
144.666229 224.0
144.721298 36.0
144.752426 40.0
144.898529 204.0
144.948853 220.0
145.052734 2684.0
145.162201 100.0
145.187515 36.0
145.21257 216.0
145.24614 132.0
145.522141 176.0
145.630203 44.0
145.732056 140.0
145.739853 56.0
145.747162 176.0
145.84256 148.0
145.884918 44.0
145.978683 180.0
146.059738 3616.0
146.093491 348.0
146.141586 152.0
146.204834 96.0
146.421997 60.0
146.438995 184.0
146.522675 140.0
146.650406 100.0
146.672089 176.0
146.696198 164.0
146.763702 188.0
146.787827 64.0
146.934952 44.0
147.061661 308.0
147.087433 200.0
147.187317 160.0
147.231873 160.0
147.313797 100.0
147.442047 76.0
147.766083 204.0
147.826584 148.0
147.904022 180.0
147.940338 88.0
148.037125 532.0
148.077576 528.0
148.138916 268.0
148.17041 120.0
148.289154 148.0
148.386124 172.0
148.519501 80.0
148.635956 152.0
148.818008 80.0
148.915146 92.0
148.934952 156.0
149.022491 172.0
149.048264 372.0
149.211609 168.0
149.620346 172.0
149.664169 124.0
149.727493 144.0
149.74942 184.0
149.810318 76.0
150.012573 164.0
150.075974 172.0
150.205231 44.0
150.271103 160.0
150.339417 172.0
150.426254 168.0
150.47612 56.0
150.495651 124.0
150.570694 248.0
150.957489 168.0
150.999069 116.0
151.01619 156.0
151.065109 184.0
151.216827 228.0
151.469025 120.0
151.49353 124.0
151.643005 148.0
151.689575 140.0
151.765579 56.0
152.023361 232.0
152.045227 148.0
152.089417 160.0
152.217087 76.0
152.296997 280.0
152.35878 168.0
152.53894 156.0
152.63237 200.0
152.688934 184.0
152.716904 192.0
152.770096 244.0
152.900513 136.0
152.91774 212.0
153.021133 156.0
153.044327 336.0
153.077774 248.0
153.095016 72.0
153.21817 252.0
153.30687 68.0
153.469574 136.0
153.509979 72.0
153.573151 112.0
153.654007 196.0
153.716248 444.0
153.797684 140.0
153.906311 240.0
154.00264 160.0
154.063583 3192.0
154.148392 36.0
154.341217 132.0
154.393143 204.0
154.422821 100.0
154.458557 224.0
154.486954 112.0
154.561356 88.0
154.633133 116.0
154.74205 172.0
154.846054 152.0
154.883209 144.0
155.069427 1768.0
155.222748 144.0
155.3629 120.0
155.441055 144.0
155.50061 128.0
155.64212 132.0
155.699234 124.0
155.741455 48.0
155.885559 276.0
155.905441 156.0
155.922836 172.0
155.980011 72.0
156.004868 132.0
156.044571 408.0
156.077377 2136.0
156.345642 108.0
156.381271 216.0
156.410355 80.0
156.529861 172.0
156.574677 60.0
156.622009 136.0
156.646912 148.0
156.68428 172.0
156.737 204.0
156.785202 136.0
156.901123 128.0
156.990875 204.0
157.072525 2732.0
157.121994 36.0
157.146759 172.0
157.192947 184.0
157.250351 140.0
157.333267 168.0
157.365189 184.0
157.477554 96.0
157.554993 224.0
157.584976 36.0
157.71994 236.0
157.764923 60.0
157.869949 152.0
157.897522 172.0
157.924973 196.0
158.058853 7832.0
158.110794 152.0
158.145157 44.0
158.246262 136.0
158.380524 180.0
158.433136 68.0
158.463196 48.0
158.515823 80.0
158.63588 80.0
158.663712 88.0
158.686264 92.0
158.718872 60.0
158.748962 184.0
158.794098 132.0
158.869354 64.0
158.886917 40.0
158.94162 256.0
159.015274 352.0
159.067505 26072.0
159.115311 124.0
159.138412 200.0
159.188126 284.0
159.218262 36.0
159.238358 88.0
159.278549 208.0
159.32019 152.0
159.364563 84.0
159.464279 84.0
159.480652 92.0
159.517273 108.0
159.591827 232.0
159.613815 196.0
159.64801 84.0
159.698318 60.0
159.722168 204.0
159.783844 132.0
159.81308 132.0
159.823425 148.0
159.876144 124.0
159.899063 112.0
159.926041 424.0
159.966675 236.0
159.999847 156.0
160.006302 176.0
160.016602 252.0
160.044724 648.0
160.075058 86568.0
160.133362 240.0
160.167938 96.0
160.203949 60.0
160.242355 36.0
160.271545 144.0
160.300034 36.0
160.331406 212.0
160.359406 160.0
160.387512 124.0
160.41983 144.0
160.487793 300.0
160.522873 36.0
160.548737 92.0
160.591507 124.0
160.655548 92.0
160.71106 132.0
160.733765 64.0
160.759628 160.0
160.822678 52.0
160.872589 100.0
160.890259 56.0
160.92308 104.0
160.949722 116.0
160.971054 60.0
161.014999 60.0
161.045059 392.0
161.077377 8800.0
161.145111 168.0
161.154327 152.0
161.164749 100.0
161.183136 92.0
161.198853 156.0
161.257935 144.0
161.284348 44.0
161.314468 48.0
161.357651 56.0
161.398102 68.0
161.423401 56.0
161.461578 84.0
161.501801 96.0
161.53215 56.0
161.557449 204.0
161.646011 52.0
161.686035 144.0
161.744293 72.0
161.775101 188.0
161.792816 84.0
161.813065 40.0
161.848511 96.0
162.01413 164.0
162.05423 440.0
162.080414 640.0
162.114502 104.0
162.149841 136.0
162.185471 104.0
162.235413 92.0
162.272247 100.0
162.325394 228.0
162.336395 144.0
162.368027 84.0
162.436508 128.0
162.492538 144.0
162.553223 44.0
162.619202 136.0
162.664902 64.0
162.779465 128.0
162.850067 52.0
162.878204 32.0
162.898849 92.0
162.938568 220.0
162.987442 100.0
163.04335 84.0
163.188568 64.0
163.244202 140.0
163.384094 164.0
163.457886 112.0
163.661514 196.0
163.824524 76.0
163.885666 80.0
164.049805 300.0
164.107422 120.0
164.219635 216.0
164.273193 156.0
164.834915 144.0
164.903915 104.0
165.055206 136.0
165.218445 120.0
165.251709 168.0
165.680832 196.0
165.735641 108.0
165.801071 168.0
165.986847 68.0
166.063889 3520.0
166.20488 172.0
166.330643 152.0
166.397385 80.0
166.423065 64.0
166.496109 136.0
166.582306 160.0
166.602051 124.0
166.813583 160.0
166.916428 164.0
167.071045 6868.0
167.110138 156.0
167.165955 72.0
167.186539 72.0
167.344559 196.0
167.374466 40.0
167.395065 84.0
167.438843 56.0
167.583099 132.0
167.660416 60.0
167.799606 180.0
167.997131 164.0
168.021423 104.0
168.0672 624.0
168.098831 40.0
168.21756 40.0
168.261444 40.0
168.27951 136.0
168.349228 252.0
168.457718 40.0
168.506805 56.0
168.701279 64.0
168.780792 72.0
168.954086 140.0
168.974777 124.0
169.016174 48.0
169.051453 1732.0
169.072678 1048.0
169.199951 96.0
169.223251 96.0
169.412308 136.0
169.435349 72.0
169.497818 40.0
169.889328 176.0
169.998306 172.0
170.057297 992.0
170.291687 176.0
170.348831 184.0
170.473541 64.0
170.625534 204.0
170.749115 176.0
170.806351 128.0
170.833191 176.0
170.983276 152.0
171.05571 776.0
171.092468 464.0
171.407761 60.0
171.446854 144.0
171.472916 140.0
171.561554 164.0
171.605865 212.0
171.644989 64.0
171.793655 136.0
172.074081 3028.0
172.117294 212.0
172.266159 76.0
172.310577 196.0
172.362839 52.0
172.804733 40.0
172.849213 64.0
172.891083 88.0
172.92511 144.0
172.964371 84.0
172.98793 160.0
173.078674 1020.0
173.102463 516.0
173.323898 116.0
173.509277 116.0
173.787292 192.0
173.863403 36.0
174.031403 180.0
174.089798 2040.0
174.274994 108.0
174.570084 128.0
174.604279 132.0
174.66478 188.0
174.94635 136.0
175.090698 376.0
175.151749 100.0
175.178101 52.0
175.544464 68.0
175.750214 220.0
175.824112 48.0
175.908569 148.0
175.96492 164.0
176.011551 52.0
176.067001 84.0
176.093414 212.0
176.127747 120.0
176.170013 196.0
176.458084 136.0
176.563873 104.0
176.741104 44.0
176.881378 152.0
176.968552 164.0
177.040527 388.0
177.461578 120.0
177.615402 156.0
177.814392 144.0
177.843597 188.0
178.056 84.0
178.457275 84.0
178.69133 104.0
178.811081 208.0
178.829712 164.0
179.065506 136.0
179.100296 116.0
179.197205 224.0
179.490417 168.0
179.685135 104.0
180.005432 192.0
180.072205 164.0
180.285934 92.0
180.312668 104.0
180.494446 216.0
180.695053 132.0
180.807449 140.0
180.858307 144.0
180.887741 160.0
180.906479 60.0
181.047028 224.0
181.131424 180.0
181.233231 136.0
181.43158 208.0
181.546875 152.0
181.621979 108.0
181.643433 128.0
181.731964 196.0
181.879913 156.0
181.953094 228.0
182.030167 216.0
182.059341 1464.0
182.086319 156.0
182.169907 132.0
182.273376 108.0
182.330811 112.0
182.416824 72.0
182.545883 144.0
182.666916 224.0
182.72879 104.0
182.77565 144.0
182.822968 84.0
182.900208 212.0
183.066559 8992.0
183.126938 40.0
183.151443 128.0
183.170303 152.0
183.191086 120.0
183.208023 160.0
183.239609 88.0
183.259781 112.0
183.341797 216.0
183.438568 160.0
183.474823 208.0
183.534149 52.0
183.610748 128.0
183.644714 60.0
183.749924 32.0
183.802765 124.0
183.869873 64.0
183.903748 36.0
183.957733 216.0
184.01712 276.0
184.074066 12304.0
184.114334 328.0
184.138641 188.0
184.225693 176.0
184.279114 184.0
184.340454 68.0
184.368301 40.0
184.387207 32.0
184.441269 52.0
184.483948 260.0
184.530487 188.0
184.557526 164.0
184.59964 188.0
184.63324 68.0
184.69545 112.0
184.727631 168.0
184.852478 196.0
184.978073 180.0
185.017181 144.0
185.070312 21272.0
185.139145 156.0
185.19046 120.0
185.219971 156.0
185.272369 164.0
185.314941 68.0
185.330154 184.0
185.380447 52.0
185.404831 80.0
185.437363 116.0
185.478012 44.0
185.498199 116.0
185.534943 64.0
185.559341 60.0
185.581039 40.0
185.693237 64.0
185.795303 128.0
185.844147 80.0
185.952698 144.0
185.994217 160.0
186.015121 144.0
186.077347 15624.0
186.161743 112.0
186.197769 196.0
186.229645 64.0
186.318268 80.0
186.33812 60.0
186.353333 120.0
186.400345 48.0
186.449707 72.0
186.504074 68.0
186.533981 108.0
186.555573 152.0
186.623688 116.0
186.683517 156.0
186.721588 72.0
186.854889 52.0
186.974609 88.0
187.079315 1628.0
187.137955 76.0
187.184235 40.0
187.222366 72.0
187.260498 72.0
187.402145 32.0
187.481171 36.0
187.513885 40.0
187.691086 52.0
187.742905 72.0
187.824722 52.0
187.844528 216.0
187.963867 96.0
188.037552 140.0
188.081451 364.0
188.149475 80.0
188.351547 152.0
188.436249 68.0
188.783401 52.0
188.955719 180.0
189.352646 28.0
189.440308 76.0
189.514282 136.0
190.018784 92.0
190.702576 56.0
190.856522 44.0
190.892273 152.0
191.054367 288.0
194.228699 144.0
194.522842 84.0
195.273087 56.0
196.225464 52.0
196.535065 172.0
196.830948 36.0
197.020889 132.0
197.638794 88.0
198.061539 80.0
198.117569 84.0
198.754013 68.0
198.908386 212.0
198.972946 188.0
199.086166 4072.0
199.147064 100.0
199.394318 48.0
199.529236 124.0
199.551727 104.0
199.579849 52.0
199.613586 136.0
199.745789 48.0
199.813675 208.0
200.016495 40.0
200.093201 1556.0
200.12146 132.0
200.207382 180.0
200.314423 120.0
200.382034 56.0
200.404572 68.0
200.424301 136.0
200.455292 216.0
200.525757 248.0
200.61261 192.0
200.646973 184.0
200.677979 144.0
200.802063 180.0
200.892319 176.0
200.974152 60.0
201.007507 396.0
201.034927 140.0
201.101318 33060.0
201.158234 192.0
201.188644 76.0
201.236649 76.0
201.256409 92.0
201.290298 68.0
201.321365 52.0
201.352432 44.0
201.413269 96.0
201.453583 128.0
201.482361 44.0
201.521027 140.0
201.570312 32.0
201.638275 92.0
201.663223 64.0
201.711273 108.0
201.755478 84.0
201.773468 196.0
201.847107 108.0
201.88092 68.0
201.926163 64.0
202.016693 160.0
202.044983 124.0
202.103867 4888.0
202.1474 184.0
202.181702 172.0
202.205521 60.0
202.2827 116.0
202.363037 116.0
202.401611 36.0
202.486572 68.0
202.592026 88.0
202.631042 76.0
202.854935 120.0
202.964554 156.0
203.016541 88.0
203.1091 524.0
203.309799 184.0
203.37352 160.0
203.409714 140.0
203.491348 160.0
203.562912 152.0
203.649353 108.0
203.657761 104.0
203.666275 100.0
203.711945 104.0
203.755753 144.0
203.930756 44.0
203.976227 40.0
204.303268 76.0
204.434158 68.0
204.602097 72.0
204.704605 48.0
204.792892 152.0
206.159515 40.0
206.23732 108.0
207.751526 76.0
210.780518 56.0
213.877991 84.0
217.555496 72.0
219.718628 88.0
220.007858 104.0
220.864838 112.0
223.517197 132.0
225.581131 144.0
226.242279 56.0
229.505219 36.0
230.976013 80.0
231.611694 80.0
232.736862 136.0
233.362793 44.0
235.276154 60.0
236.147049 124.0
236.958282 72.0
239.702225 44.0
241.118744 52.0
241.545441 44.0
243.519943 144.0
244.648727 56.0
250.653122 88.0
250.886353 96.0
251.889893 68.0
253.462326 112.0
254.042542 68.0
254.290054 52.0
268.244995 76.0
270.168488 28.0
273.2854 108.0
274.583344 92.0
276.059601 84.0
286.275146 84.0
289.391937 84.0
290.344147 56.0
292.236298 148.0
299.297852 132.0
302.882782 128.0
303.766724 36.0
309.685638 176.0
311.088287 84.0
315.347015 96.0
318.145477 72.0
321.816223 60.0
323.897644 84.0
325.888763 44.0
328.939209 44.0
329.755554 120.0
329.856781 60.0
335.407135 76.0
335.461792 108.0
340.092865 120.0
340.379242 60.0
346.418518 80.0
346.802399 52.0
352.765808 64.0
353.061188 44.0
354.22525 104.0
357.514404 48.0
372.860992 128.0
374.399933 68.0
374.700378 76.0
374.742767 56.0
375.286224 88.0
375.903412 84.0
376.579041 40.0
377.263 60.0
377.398315 56.0
378.295929 104.0
386.895844 52.0
398.002991 120.0
410.633453 72.0
413.380707 76.0
419.815643 52.0
425.630707 56.0
427.665771 76.0
431.221222 88.0
432.288239 44.0
433.712982 60.0
435.015503 112.0
448.477051 80.0
455.92627 92.0
459.618408 108.0
470.002808 72.0
470.071838 72.0
484.131287 44.0
490.013092 88.0
494.853912 52.0
499.771912 52.0
509.61795 88.0
529.813477 112.0
529.978394 76.0
532.193848 64.0
537.002991 76.0
543.011169 84.0
543.461121 48.0
547.603271 72.0
556.873657 68.0
563.010559 80.0
572.576599 48.0
582.309692 100.0
583.477356 164.0
588.10199 100.0
588.377136 64.0
592.236145 52.0
596.520935 92.0
599.606934 116.0
612.03064 64.0
615.363831 84.0
615.936707 52.0
616.761902 44.0
632.911316 56.0
655.216858 76.0
656.149536 96.0
664.604309 96.0
667.013 152.0
674.916626 32.0
682.559937 56.0
682.617188 92.0
694.624878 108.0
697.549866 84.0
697.996765 88.0
711.369446 232.0
723.621033 88.0
735.815186 176.0
775.024658 112.0
811.919373 56.0
819.827454 172.0
824.918823 172.0
830.21521 132.0
845.112061 64.0
856.863892 88.0
860.631775 140.0
861.262512 104.0
866.041382 144.0
866.679993 80.0
873.313904 104.0
879.341553 188.0
888.911316 156.0
890.745911 160.0
903.922485 220.0
909.622375 132.0
911.514282 180.0
914.750061 156.0
920.218262 128.0
927.580994 132.0
928.636047 196.0
936.269775 144.0
937.098267 168.0
938.859924 256.0
939.793274 116.0
945.702881 188.0
946.743713 176.0
947.049988 144.0
948.998779 160.0
952.896301 140.0
956.42627 128.0
959.956604 136.0
968.09552 108.0
972.354736 216.0
974.907288 200.0
975.267761 172.0
975.491516 152.0
975.864563 168.0
978.091797 76.0
981.531616 148.0
988.11438 120.0
989.034302 112.0
989.929626 192.0
991.947144 196.0
992.016052 224.0
994.638245 120.0
994.757507 64.0
1001.517395 156.0
1002.323792 184.0
1002.998169 172.0
1005.880981 120.0
1010.279358 140.0
1011.304504 92.0
1013.850586 88.0
1017.2948 100.0
1019.49884 64.0
1022.965393 84.0
1024.831421 192.0
1026.227417 204.0
1029.156128 184.0
1029.341309 212.0
1031.756592 192.0
1035.5 236.0
1037.153076 248.0
1038.20459 232.0
1039.134766 64.0
1039.558228 140.0
1040.604614 160.0
1040.662354 72.0
1041.227417 124.0
1042.456909 212.0
1042.994385 192.0
1043.8302 68.0
1044.621338 60.0
1045.580078 140.0
1048.542725 236.0
1048.826294 60.0
1049.406494 164.0
1050.612671 64.0
1051.77417 168.0
1053.000977 152.0
1054.984741 140.0
1055.547363 164.0
1056.064697 212.0
1056.918701 152.0
1058.899658 232.0
1059.333618 176.0
1059.787109 60.0
1061.803223 132.0
1064.256226 48.0
1064.301758 92.0
1070.277466 140.0
1077.119019 136.0
1080.394165 124.0
1080.472656 128.0
1082.48877 160.0
1083.92334 164.0
1085.903198 80.0
1090.387573 136.0
1090.584717 172.0
1091.044922 164.0
1092.827271 60.0
1092.932617 96.0
1093.294556 188.0
1094.677002 84.0
1094.960205 228.0
1096.00769 140.0
1097.464355 184.0
1097.780884 168.0
1098.783569 184.0
1099.81958 180.0
1100.242065 100.0
1102.25 208.0
1102.613525 168.0
1106.536255 212.0
1107.893921 204.0
1107.973511 68.0
1112.104858 28.0
1113.658569 32.0
1113.964111 132.0
1114.934204 236.0
1117.121826 192.0
1118.605835 244.0
1121.843506 168.0
1123.417358 124.0
1123.510742 176.0
1128.232422 116.0
1129.375977 120.0
1130.044922 148.0
1130.285767 188.0
1131.79187 72.0
1132.917114 128.0
1135.826538 240.0
1136.578003 188.0
1136.665161 184.0
1138.068115 248.0
1138.350098 224.0
1139.088989 180.0
1140.997559 156.0
1144.73877 132.0
1147.312622 156.0
1149.059448 148.0
1149.140381 200.0
1149.963745 172.0
1151.85437 196.0
1151.901733 164.0
1152.151611 32.0
1153.341064 216.0
1153.712769 160.0
1154.037354 132.0
1154.828613 192.0
1155.890747 164.0
1157.359619 60.0
1157.657593 84.0
1158.599121 200.0
1159.432617 196.0
1160.578247 208.0
1161.609131 88.0
1162.497925 168.0
1163.706299 140.0
1163.76062 116.0
1164.854004 168.0
1166.573364 52.0
1167.749634 124.0
1169.06958 68.0
1169.77063 200.0
1170.376587 72.0
1170.969116 160.0
1172.256714 116.0
1172.672485 192.0
1173.449585 48.0
1177.06604 200.0
1179.799072 156.0
1179.969971 172.0
1180.421265 152.0
1181.87146 76.0
1182.856934 220.0
1182.911743 48.0
1183.596436 132.0
1184.815552 216.0
1185.548828 144.0
1185.918823 148.0
1187.687988 152.0
1188.524902 164.0
1188.634766 148.0
1188.936646 160.0
1189.890869 164.0
1190.515747 156.0
1193.305542 88.0
1194.571045 148.0
1195.437988 156.0
1197.324341 128.0
1198.102661 172.0
1199.246582 32.0
1200.404907 216.0
1200.549683 156.0
1200.660034 204.0
1200.825562 252.0
1201.570557 164.0
1204.407959 144.0
1204.546021 120.0
1205.050415 160.0
1205.630859 212.0
1207.296997 168.0
1207.80188 176.0
1208.009399 128.0
1208.562866 140.0
1209.054199 168.0
1209.137329 164.0
1209.940308 184.0
1211.263062 60.0
1211.491577 172.0
1213.154907 188.0
1213.418335 212.0
1214.305908 148.0
1214.999634 176.0
1215.048218 136.0
1219.443848 148.0
1220.625732 100.0
1221.098633 200.0
1222.0448 208.0
1222.121338 196.0
1223.332397 164.0
1223.485474 244.0
1225.05249 44.0
1225.574951 168.0
1228.398682 36.0
1228.894043 52.0
1228.949829 196.0
1230.652954 104.0
1231.270996 236.0
1233.00708 60.0
1233.10498 164.0
1233.776001 140.0
1234.293457 164.0
1235.111694 152.0
1236.063232 164.0
1237.078125 80.0
1237.855347 212.0
1237.932373 160.0
1238.835938 32.0
1240.517822 128.0
1240.587891 76.0
1241.254028 212.0
1243.148071 144.0
1245.085693 220.0
1247.179443 184.0
1247.453613 136.0
1247.994995 40.0
1248.191895 180.0
1248.445068 180.0
1248.536499 192.0
1249.338379 108.0
1252.773926 188.0
1253.654663 180.0
1255.939087 216.0
1256.503418 120.0
1257.80896 184.0
1259.023438 112.0
1259.772217 184.0
1260.118286 184.0
1260.224365 152.0
1260.365601 172.0
1260.93811 148.0
1261.750977 212.0
1262.387329 128.0
1263.278564 48.0
1263.336914 212.0
1264.134766 204.0
1264.679688 236.0
1265.430054 116.0
1266.967041 124.0
1267.597656 160.0
1267.668457 84.0
1267.852783 192.0
1268.561523 128.0
1268.880615 88.0
1269.121704 176.0
1269.171265 252.0
1269.525879 148.0
1270.001099 104.0
1270.462158 164.0
1270.740601 184.0
1271.526489 100.0
1272.605591 156.0
1274.28894 180.0
1275.880493 128.0
1276.798218 180.0
1277.168091 176.0
1278.747681 160.0
1279.495117 156.0
1279.794189 156.0
1279.97229 184.0
1280.057739 156.0
1281.100342 92.0
1282.330322 148.0
1282.822144 40.0
1283.014648 184.0
1285.85376 164.0
1286.246338 156.0
1287.249634 168.0
1289.060425 116.0
1289.15332 240.0
1289.796509 140.0
1292.449829 104.0
1293.043823 104.0
1293.33728 128.0
1293.680908 228.0
1293.881348 168.0
1294.217896 176.0
1295.242065 120.0
1296.510254 244.0
1297.004761 100.0
1297.187988 120.0
1298.804688 148.0
1299.012695 160.0
1299.171143 136.0
1299.278076 152.0
1300.067383 120.0
1302.285889 88.0
1302.379272 204.0
1303.610107 200.0
1303.86792 192.0
1304.959229 140.0
1307.12439 148.0
1307.261108 212.0
1308.427246 164.0
1308.621582 200.0
1309.262451 124.0
1309.752319 116.0
1310.595215 168.0
1310.782593 56.0
1311.200562 104.0
1312.620728 152.0
1312.808228 196.0
1313.745972 148.0
1314.056152 252.0
1314.865479 132.0
1316.481567 136.0
1316.857178 148.0
1318.685181 144.0
1319.668335 184.0
1321.216064 132.0
1321.97583 188.0
1322.13501 116.0
1324.133301 272.0
1325.054443 264.0
1326.249023 136.0
1326.33606 76.0
1327.133545 180.0
1327.227783 100.0
1328.221313 188.0
1328.649414 232.0
1328.743652 164.0
1329.012207 144.0
1329.404053 164.0
1329.599976 60.0
1330.282227 148.0
1330.616211 188.0
1331.69104 248.0
1332.213989 208.0
1332.424683 164.0
1333.136841 172.0
1334.990601 212.0
1335.27417 176.0
1335.514282 224.0
1336.2854 228.0
1337.442505 192.0
1337.748291 52.0
1339.211914 220.0
1341.237549 144.0
1341.427124 164.0
1341.769775 188.0
1343.24292 152.0
1343.344971 220.0
1343.461792 72.0
1343.512817 176.0
1343.593018 124.0
1344.381104 188.0
1344.46875 116.0
1344.935791 164.0
1345.381104 168.0
1345.673218 80.0
1345.841064 180.0
1346.454468 172.0
1348.149536 152.0
1348.376099 120.0
1348.484497 176.0
1349.099731 68.0
1349.399414 164.0
1349.860107 212.0
1351.527954 168.0
1351.937744 44.0
1352.384155 196.0
1352.515991 200.0
1353.101562 204.0
1354.95459 108.0
1356.764893 64.0
1356.984863 56.0
1357.380737 136.0
1358.106812 216.0
1358.216675 212.0
1359.236694 196.0
1359.647583 164.0
1360.917603 96.0
1360.998413 180.0
1361.321533 216.0
1361.475708 128.0
1361.997192 196.0
1363.393188 156.0
1363.532837 116.0
1363.731323 188.0
1363.80481 168.0
1364.238525 72.0
1364.569336 136.0
1364.709106 220.0
1365.745972 164.0
1365.952026 168.0
1366.202148 200.0
1366.422852 172.0
1367.298462 168.0
1367.401489 48.0
1367.622314 84.0
1367.710693 96.0
1367.983032 168.0
1368.10083 208.0
1369.205322 64.0
1370.920044 144.0
1370.934448 108.0
1372.499512 192.0
1373.443481 180.0
1374.492065 156.0
1374.860107 172.0
1376.070679 188.0
1376.794434 200.0
1377.089844 168.0
1377.28186 40.0
1378.190552 168.0
1378.316162 144.0
1379.336182 108.0
1379.520874 88.0
1379.661377 160.0
1379.934937 152.0
1380.156738 168.0
1380.578247 200.0
1380.859375 224.0
1382.176147 204.0
1382.250122 64.0
1382.396973 128.0
1382.775635 244.0
1382.842285 152.0
1384.071167 96.0
1384.16748 132.0
1384.293335 164.0
1385.345093 120.0
1385.767334 140.0
1385.967407 136.0
1386.493652 204.0
1386.686279 148.0
1387.353394 104.0
1388.19873 200.0
1388.450928 132.0
1388.554688 240.0
1388.843994 208.0
1389.103638 48.0
1389.17041 220.0
1389.251953 152.0
1389.533936 124.0
1389.682251 44.0
1390.253662 132.0
1390.595093 136.0
1391.441406 136.0
1391.990845 128.0
1392.131958 144.0
1393.394653 152.0
1396.665039 208.0
1397.223633 176.0
1397.536133 144.0
1397.751953 108.0
1398.064453 160.0
1398.205933 176.0
1398.600342 48.0
1398.82373 164.0
1399.203369 196.0
1399.702271 180.0
1400.814209 176.0
1400.931152 116.0
1401.162109 120.0
1401.363281 220.0
1401.640869 224.0
1402.637695 136.0
1402.913574 212.0
1403.032837 156.0
1403.524902 144.0
1404.263184 128.0
1404.442261 156.0
1405.576294 216.0
1406.531616 56.0
1406.733154 164.0
1406.882446 120.0
1407.800903 144.0
1408.921265 188.0
1410.064575 220.0
1410.229004 192.0
1410.348633 172.0
1410.782227 208.0
1411.135864 156.0
1411.380371 144.0
1411.522461 180.0
1411.64209 172.0
1412.240356 160.0
1412.434814 136.0
1413.639404 196.0
1416.611938 208.0
1417.331177 368.0
1419.265137 184.0
1419.565063 164.0
1420.930298 164.0
1422.130981 144.0
1422.431274 164.0
1422.896484 160.0
1424.69165 208.0
1425.127441 48.0
1426.141968 188.0
1426.382568 72.0
1427.059204 136.0
1427.720947 152.0
1428.14209 212.0
1428.3302 228.0
1428.766479 220.0
1428.992188 140.0
1429.240479 160.0
1429.556519 212.0
1430.640381 148.0
1431.077148 244.0
1431.190063 64.0
1431.543945 64.0
1431.739746 128.0
1433.397095 216.0
1434.21106 152.0
1435.138428 128.0
1435.281738 148.0
1436.118286 184.0
1436.307373 196.0
1437.499512 164.0
1437.740967 152.0
1438.055542 192.0
1438.510864 84.0
1438.571289 144.0
1438.63916 180.0
1438.963867 220.0
1439.265869 52.0
1439.590576 68.0
1439.839844 160.0
1440.323242 168.0
1440.738647 212.0
1441.758789 132.0
1442.42395 200.0
1442.794312 144.0
1443.558105 44.0
1444.480835 176.0
1445.35083 164.0
1445.593018 192.0
1446.001709 164.0
1446.614868 220.0
1447.228149 136.0
1447.40979 116.0
1447.856689 136.0
1448.19751 176.0
1448.331787 196.0
1448.510376 192.0
1449.515747 180.0
1449.583862 176.0
1450.175049 156.0
1450.417603 60.0
1451.115112 176.0
1451.987183 240.0
1452.533325 132.0
1452.859497 304.0
1453.117432 116.0
1453.474121 200.0
1453.603027 156.0
1453.709351 132.0
1453.845947 132.0
1453.94458 168.0
1454.050781 116.0
1454.346802 80.0
1454.422729 180.0
1454.510376 112.0
1455.219849 136.0
1455.690674 44.0
1455.918457 192.0
1456.594482 124.0
1456.959106 40.0
1457.22583 168.0
1457.323853 184.0
1457.658691 128.0
1458.912354 184.0
1460.273438 152.0
1461.338501 192.0
1462.091919 116.0
1462.419189 84.0
1463.515381 176.0
1463.903809 196.0
1464.078979 108.0
1464.231201 152.0
1464.505493 208.0
1464.665405 160.0
1465.175781 168.0
1466.921021 184.0
1467.828369 184.0
1469.62085 316.0
1470.101685 212.0
1470.239014 124.0
1470.811401 100.0
1470.97937 120.0
1471.529053 72.0
1471.910889 156.0
1472.498901 168.0
1473.209351 176.0
1473.262817 172.0
1473.537842 148.0
1473.797607 176.0
1473.973389 140.0
1474.057373 88.0
1474.806396 188.0
1475.685547 172.0
1477.406372 224.0
1477.635986 196.0
1478.676636 136.0
1479.074707 192.0
1479.39624 140.0
1479.625854 204.0
1479.763672 116.0
1480.912354 160.0
1480.966064 164.0
1481.24939 196.0
1481.678467 144.0
1482.61084 160.0
1483.21875 192.0
1484.192505 176.0
1484.790649 120.0
1485.043701 232.0
1485.212524 112.0
1485.266235 140.0
1485.787842 152.0
1486.048706 48.0
1486.110107 176.0
1486.240601 120.0
1486.317261 232.0
1486.570557 140.0
1487.529907 132.0
1487.775635 32.0
1488.02124 88.0
1489.127075 244.0
1489.503418 68.0
1489.695557 156.0
1489.826172 188.0
1490.456177 48.0
1491.040161 164.0
1491.101685 144.0
1491.924194 196.0
1492.408569 88.0
1492.539307 216.0
1493.469849 164.0
1493.539062 56.0
1494.216064 124.0
1494.570068 136.0
1495.177979 184.0
1495.378052 140.0
1495.647461 108.0
1495.726562 120.0
1496.032349 232.0
1496.525146 152.0
1497.164307 160.0
1497.256714 132.0
1497.634155 228.0
1497.949951 176.0
1498.91394 164.0
1499.62207 80.0
1499.799316 112.0
1500.485474 184.0
1500.5625 196.0
1501.248779 120.0
1501.81189 60.0
1502.513794 172.0
1502.953613 184.0
1503.717651 76.0
1504.018677 148.0
1504.134521 204.0
1504.335205 144.0
1504.612061 172.0
1504.782959 140.0
1505.068604 76.0
