>compound MLS001165780-01!Fluconazole86386-73-4
>formula C13H12F2N6O
>ionization [M+H]+
>parentmass 307.111
#inchi InChI=1S/C13H12F2N6O/c14-10-1-2-11(12(15)3-10)13(22,4-20-8-16-6-18-20)5-21-9-17-7-19-21/h1-3,6-9,22H,4-5H2
#inchikey RFHAOTPXVQNOHP
#Ion_Source LC-ESI
#Instrument qTof
#Compound_Source NIH Pharmacologically Active Library
#PI Dorrestein
#Data_Collector VP/LMS
#Scan -1
#Precursor_MZ 307.111
#ExactMass 306.104
#Charge 1
#CAS_Number N/A
#Pubmed_ID N/A
#Smiles OC(Cn1cncn1)(Cn2cncn2)c3ccc(F)cc3F
#INCHI_AUX N/A
#Library_Class 1
#SpectrumID CCMSLIB00000085015
#IonMode Positive
#UpdateWorkflowName UPDATE-SINGLE-ANNOTATED-GOLD
#LibraryQualityString Gold
#TaskID d252d724072548979f1f6f1ced849daf
##Scan# 1399
#SpectrumFile p3-D09_GD9_01_18266.mzXML
#LibraryName Pharm_Active_Library.mgf
#MQScore -1
#Organism Pharm_Active_Library
#TIC_Query 0
#RT_Query -1
#MZErrorPPM -1
#SharedPeaks 0
#MassDiff 0
#LibMZ -1
#SpecMZ 307.111
#SpecCharge 0
#internalFilename spec-00000.mgf

>collision 10
45.166534 96.0
45.917568 184.0
46.190243 160.0
46.301235 64.0
46.374401 236.0
46.394737 160.0
46.421856 152.0
46.535839 28.0
46.989086 212.0
47.019108 152.0
47.184399 68.0
47.273312 56.0
47.313007 56.0
47.625675 128.0
47.727379 88.0
47.741131 156.0
48.549053 36.0
49.471497 60.0
49.520508 148.0
50.058418 168.0
50.493099 212.0
50.672882 76.0
50.702641 108.0
51.176655 196.0
51.209873 36.0
51.229816 156.0
51.432312 164.0
51.938869 204.0
52.213215 104.0
52.345615 176.0
52.531548 120.0
52.550667 176.0
52.600819 132.0
52.717812 108.0
52.765514 128.0
52.955086 164.0
53.156609 184.0
53.423958 180.0
53.439964 168.0
53.562256 156.0
53.639488 180.0
53.724072 112.0
53.801422 96.0
54.482441 180.0
54.589741 160.0
54.828239 40.0
54.884258 200.0
55.077595 164.0
55.441578 188.0
55.49791 212.0
55.526085 168.0
55.974903 156.0
56.107517 132.0
56.611076 60.0
56.679985 132.0
56.717457 112.0
56.935017 172.0
57.238796 196.0
57.389481 140.0
57.424168 48.0
57.559994 136.0
57.715637 172.0
58.070015 136.0
58.539639 164.0
58.727104 172.0
58.88279 132.0
58.930145 160.0
59.024914 128.0
59.27903 164.0
59.435444 176.0
59.501446 168.0
59.653542 140.0
60.633717 60.0
60.810532 156.0
60.863316 196.0
61.079346 168.0
61.197628 144.0
61.528168 64.0
61.556274 136.0
61.765709 128.0
61.936333 132.0
62.019382 176.0
62.800865 72.0
62.97765 104.0
63.077202 92.0
63.143612 204.0
63.446865 164.0
63.476189 220.0
63.636452 60.0
63.769897 192.0
63.822361 136.0
63.897118 136.0
63.914619 176.0
63.933716 136.0
63.951221 160.0
64.341782 192.0
64.546303 228.0
64.767166 228.0
65.163422 112.0
65.269508 172.0
65.316154 196.0
65.327415 76.0
65.639877 240.0
65.940163 60.0
66.330261 156.0
66.403229 44.0
66.451889 92.0
66.695496 52.0
66.799568 132.0
66.872787 140.0
67.01284 184.0
67.756248 76.0
68.0047 188.0
68.222343 152.0
68.322662 156.0
68.769241 168.0
69.280212 156.0
69.3349 252.0
69.373024 44.0
69.615273 148.0
69.668427 140.0
69.759827 128.0
69.818024 112.0
69.841309 164.0
70.499893 220.0
70.78093 140.0
70.806053 168.0
71.116234 132.0
71.143097 168.0
71.274101 148.0
71.509544 112.0
71.645943 76.0
72.15564 124.0
72.167473 60.0
72.633209 116.0
72.65696 112.0
72.70108 204.0
72.882782 56.0
73.051102 176.0
73.112358 224.0
73.171936 136.0
73.294571 200.0
73.420723 152.0
74.183334 160.0
74.358299 156.0
74.454445 68.0
74.903366 168.0
75.279366 144.0
75.517868 80.0
75.549011 144.0
75.931824 168.0
76.510475 188.0
76.644592 212.0
76.684677 128.0
77.590187 188.0
78.173355 124.0
78.531006 152.0
79.089363 196.0
79.293053 176.0
79.320084 240.0
79.592865 96.0
79.617729 148.0
80.044533 156.0
80.704765 160.0
81.324623 180.0
82.195686 144.0
82.35817 184.0
82.504547 108.0
82.685432 168.0
83.01516 108.0
83.281952 168.0
83.520073 224.0
83.618324 168.0
83.631065 152.0
83.663834 156.0
83.745781 216.0
83.805901 120.0
84.308739 200.0
84.895386 148.0
85.108253 176.0
85.17804 60.0
85.542145 128.0
85.669212 164.0
85.967735 160.0
86.365143 148.0
86.402145 132.0
86.505783 236.0
86.550217 144.0
86.589104 44.0
86.713242 188.0
86.739189 168.0
86.852303 120.0
87.102898 180.0
87.264587 188.0
87.881104 216.0
88.196716 164.0
88.522263 132.0
88.57283 184.0
89.019211 128.0
89.156357 176.0
89.293602 132.0
89.368851 148.0
89.851189 152.0
89.960648 216.0
90.518417 180.0
90.605545 172.0
90.628281 168.0
90.702194 204.0
91.053215 252.0
91.534355 156.0
91.587685 184.0
92.246025 72.0
92.362671 228.0
92.454514 68.0
92.544479 232.0
92.703468 184.0
92.789726 208.0
92.845337 152.0
92.99691 120.0
93.012268 144.0
93.181267 232.0
93.358109 140.0
94.05172 232.0
94.130875 116.0
95.027542 172.0
95.331955 208.0
95.39415 240.0
95.413589 176.0
95.499153 172.0
95.925598 140.0
95.976288 152.0
96.575844 212.0
97.046539 160.0
97.289139 132.0
97.39518 156.0
98.012283 156.0
98.184441 172.0
98.316628 176.0
98.672188 212.0
98.893745 156.0
99.019165 280.0
99.405067 148.0
99.770546 152.0
100.027168 188.0
100.068977 132.0
100.431679 136.0
100.459602 72.0
100.483543 164.0
100.505493 120.0
100.583328 120.0
100.737091 148.0
100.876976 72.0
101.037445 1392.0
101.744431 168.0
101.846848 140.0
101.893051 212.0
101.951324 148.0
101.999565 184.0
102.041779 148.0
102.084938 164.0
102.090889 76.0
102.096809 120.0
102.158432 92.0
102.297287 140.0
102.476532 164.0
102.716438 204.0
102.73056 120.0
102.863747 140.0
103.047523 172.0
103.114212 160.0
103.275963 152.0
103.377129 52.0
103.567444 164.0
103.68293 140.0
103.709274 124.0
104.607117 124.0
105.033012 568.0
105.3862 236.0
105.517014 76.0
105.561996 184.0
105.666313 120.0
105.87101 100.0
105.985725 160.0
106.223549 212.0
106.43084 172.0
106.778145 152.0
106.851212 140.0
107.027168 512.0
107.202248 160.0
107.620995 84.0
107.769714 176.0
108.069527 160.0
108.119186 96.0
108.608162 180.0
108.942375 192.0
109.046272 192.0
109.229248 164.0
109.287506 188.0
109.612343 88.0
109.973137 168.0
110.010712 60.0
110.035767 68.0
110.820099 104.0
110.922791 160.0
111.119926 192.0
111.384445 136.0
111.59671 212.0
111.74604 136.0
111.813377 156.0
111.994453 92.0
112.079506 252.0
112.316956 156.0
112.46888 184.0
112.551216 236.0
112.631477 104.0
112.663162 144.0
113.013115 196.0
113.077614 72.0
113.126305 156.0
113.242767 172.0
113.554329 248.0
114.272346 224.0
114.568283 224.0
114.625816 180.0
114.64286 200.0
115.042259 176.0
115.088692 160.0
115.197617 96.0
115.437004 148.0
116.047272 104.0
116.186684 172.0
116.214577 160.0
117.606964 144.0
117.725708 36.0
117.840195 152.0
118.019592 132.0
118.199135 96.0
118.348488 152.0
118.526108 172.0
118.621468 56.0
119.027664 896.0
119.046883 360.0
119.87339 84.0
120.033165 144.0
120.165581 60.0
120.250687 176.0
120.604523 196.0
120.860405 112.0
120.923866 168.0
121.044228 5088.0
121.114357 44.0
121.22171 32.0
121.258972 68.0
121.383934 92.0
121.559425 48.0
122.048935 576.0
122.267059 140.0
122.293541 136.0
122.502663 188.0
122.559944 204.0
122.579781 108.0
122.617241 116.0
123.119812 176.0
123.661942 168.0
124.047363 164.0
124.200371 148.0
124.229202 128.0
124.335709 164.0
124.440041 164.0
124.717735 120.0
124.81778 176.0
124.853363 148.0
124.924538 188.0
125.035286 252.0
125.347572 136.0
125.425575 240.0
126.032616 148.0
126.218147 140.0
126.786758 136.0
126.836067 268.0
126.883141 148.0
126.950409 144.0
126.981812 236.0
127.034988 10856.0
127.096222 32.0
127.354393 288.0
127.399323 60.0
127.42662 80.0
127.450996 52.0
127.587944 56.0
128.036865 804.0
128.1996 144.0
128.270218 204.0
128.500244 32.0
128.58374 144.0
128.80954 52.0
128.845688 224.0
128.911209 152.0
128.967712 156.0
129.044571 640.0
129.361313 76.0
129.393005 40.0
129.658035 72.0
129.875702 172.0
129.891571 112.0
130.046875 176.0
130.11171 84.0
130.65715 192.0
130.766373 164.0
130.875656 168.0
130.932587 188.0
131.171829 180.0
131.564209 168.0
131.712646 180.0
131.984604 156.0
132.985748 188.0
133.045425 144.0
133.369324 64.0
133.778793 148.0
134.013702 160.0
134.041367 152.0
134.218857 128.0
135.714905 188.0
136.05365 160.0
136.114014 96.0
136.723083 176.0
136.806885 152.0
137.007156 176.0
137.03978 132.0
137.389496 128.0
138.137054 252.0
138.446014 104.0
138.837402 36.0
138.974182 296.0
138.992218 128.0
139.035019 10636.0
139.087158 80.0
139.109573 32.0
139.14418 76.0
139.189407 60.0
139.37262 52.0
139.4272 36.0
139.480728 88.0
139.57048 212.0
139.75589 56.0
139.871216 36.0
140.039444 1156.0
140.153824 220.0
140.182098 48.0
140.314102 48.0
140.377762 52.0
140.524017 60.0
140.901764 188.0
140.953751 116.0
141.014328 2668.0
141.049789 5196.0
141.126312 68.0
141.145218 84.0
141.168869 60.0
141.185425 160.0
141.232727 112.0
141.270569 220.0
141.355759 48.0
141.618546 96.0
142.015533 152.0
142.053574 620.0
142.189957 60.0
142.284897 64.0
142.813431 160.0
143.019455 144.0
143.183746 200.0
143.257584 52.0
143.338593 80.0
143.708191 88.0
143.72728 80.0
143.848999 148.0
144.319656 72.0
144.506226 244.0
144.709656 184.0
144.963562 148.0
145.043579 492.0
145.450439 56.0
146.038239 320.0
146.075226 148.0
146.597702 156.0
146.932861 248.0
147.005249 52.0
147.035339 892.0
147.923706 136.0
148.04129 320.0
148.051056 356.0
148.134384 172.0
148.306427 128.0
148.500397 256.0
148.740616 56.0
148.96402 80.0
149.042328 268.0
149.540314 184.0
150.037247 92.0
150.259186 100.0
150.610718 160.0
150.80864 196.0
150.923538 116.0
150.982224 164.0
151.000702 252.0
151.034897 11112.0
151.07518 196.0
151.106979 132.0
151.182831 60.0
151.256256 96.0
151.283188 228.0
151.631012 64.0
151.72171 80.0
151.859039 60.0
151.893372 64.0
151.930176 136.0
151.989059 136.0
152.037094 1680.0
152.084763 136.0
152.431061 144.0
152.595749 76.0
152.667053 204.0
152.949997 92.0
153.041458 260.0
153.341629 180.0
153.427902 96.0
154.029312 244.0
154.60614 112.0
154.779434 112.0
154.853729 196.0
154.918121 148.0
156.062271 116.0
156.415543 196.0
157.243073 100.0
158.041 188.0
158.355682 212.0
159.0625 180.0
159.55806 156.0
159.600418 76.0
160.136444 120.0
161.421036 96.0
162.393539 228.0
162.934235 196.0
163.057602 160.0
163.307922 116.0
164.045212 284.0
164.332001 172.0
164.536194 192.0
165.04985 288.0
165.297882 164.0
165.484726 208.0
165.689636 160.0
166.044739 808.0
166.115189 204.0
166.400055 164.0
167.04126 96.0
167.063126 176.0
167.771332 208.0
167.851257 120.0
167.887375 52.0
168.034882 148.0
168.055038 148.0
168.202148 92.0
168.744659 100.0
168.835159 80.0
168.950439 176.0
168.97226 144.0
169.003311 40.0
169.045013 10200.0
169.078476 356.0
169.132309 184.0
169.22406 56.0
169.288055 36.0
169.360565 48.0
169.389069 72.0
169.596359 128.0
169.624878 72.0
169.762299 76.0
169.783035 60.0
169.866043 44.0
170.047577 960.0
170.086609 156.0
170.211227 48.0
171.17337 60.0
171.220245 36.0
171.381744 124.0
172.06012 220.0
172.174774 40.0
172.200897 128.0
172.292313 76.0
172.349792 100.0
173.049667 1276.0
173.703354 48.0
173.782059 52.0
174.058121 360.0
174.112808 64.0
174.283569 88.0
174.9832 60.0
176.031906 156.0
176.053772 28.0
176.476578 272.0
177.042465 432.0
177.071991 216.0
177.275986 56.0
178.045975 280.0
178.170181 68.0
178.566254 104.0
179.64238 252.0
179.663712 68.0
179.837173 48.0
180.283188 164.0
181.632614 152.0
183.034409 212.0
184.052109 180.0
185.957962 116.0
187.060287 112.0
188.064667 128.0
188.952789 52.0
190.652878 184.0
191.04332 156.0
192.611862 180.0
193.055969 1168.0
193.098343 40.0
193.433136 92.0
194.023209 44.0
194.048157 160.0
194.070343 212.0
194.728043 160.0
197.0513 136.0
198.868744 132.0
200.062149 1840.0
200.945557 60.0
201.059052 416.0
201.095123 52.0
201.648712 52.0
201.812668 48.0
202.055908 120.0
202.110397 436.0
204.107025 132.0
204.291473 48.0
204.342682 136.0
204.897858 140.0
205.040344 160.0
205.268402 56.0
207.954803 172.0
208.065643 176.0
209.703537 164.0
210.072632 136.0
211.410416 60.0
216.121674 168.0
216.812775 172.0
217.96312 128.0
218.492371 140.0
218.604187 144.0
219.059219 356.0
219.134201 104.0
219.818283 92.0
220.001282 244.0
220.067337 13812.0
220.143005 36.0
220.166641 64.0
220.294586 100.0
220.397354 116.0
220.55368 92.0
220.618713 124.0
220.691986 92.0
220.802048 52.0
220.855286 108.0
220.949951 60.0
221.020966 44.0
221.071152 1252.0
221.282318 80.0
221.388031 72.0
221.571671 80.0
221.740585 60.0
221.959961 48.0
222.010376 76.0
222.069931 160.0
222.143845 68.0
222.247681 112.0
222.318893 80.0
222.443558 56.0
222.532623 108.0
222.853409 80.0
222.89798 176.0
222.987122 172.0
224.064178 156.0
224.899323 144.0
226.906616 132.0
232.757233 88.0
236.051315 60.0
238.077545 5288.0
238.128586 148.0
238.193665 44.0
238.285522 80.0
238.999161 120.0
239.082809 848.0
239.113022 76.0
239.873825 100.0
240.969406 92.0
244.426666 60.0
247.131989 140.0
248.410233 76.0
252.780273 76.0
263.831696 160.0
263.899597 228.0
275.268158 172.0
284.152313 68.0
289.088776 144.0
289.176758 160.0
291.632416 52.0
295.886322 116.0
302.188232 168.0
306.208099 164.0
313.199341 112.0
315.875031 88.0
338.795502 80.0
339.000702 68.0
385.171295 148.0
400.062317 36.0
410.512115 112.0
421.762634 72.0
435.5047 48.0
440.014648 60.0
446.324738 96.0
478.662201 36.0
489.707336 60.0
508.125153 44.0
512.108032 64.0
525.189331 148.0
544.591064 96.0
552.983704 88.0
562.487976 76.0
566.550171 128.0
593.317871 44.0
646.837585 44.0
683.724854 172.0
732.971375 92.0
777.956665 40.0
781.068542 40.0
782.933105 276.0
808.574097 92.0
813.465759 200.0
846.944031 92.0
850.318542 152.0
850.446228 168.0
851.032593 216.0
860.879395 72.0
865.393677 136.0
866.102295 216.0
872.528137 112.0
883.231506 96.0
918.011292 136.0
920.811523 156.0
940.447449 224.0
950.711304 188.0
968.275879 204.0
969.30426 176.0
969.539734 192.0
994.87085 172.0
996.736267 112.0
1009.874634 168.0
1018.450562 40.0
1021.616211 208.0
1031.87146 192.0
1033.438477 44.0
1047.305176 220.0
1057.500488 196.0
1067.010498 224.0
1085.312012 212.0
1094.05896 144.0
1101.778687 136.0
1106.865967 144.0
1111.545898 136.0
1113.537598 96.0
1115.344849 192.0
1122.21521 168.0
1122.447754 172.0
1123.348999 156.0
1127.695923 196.0
1129.046509 172.0
1132.19873 168.0
1132.526855 164.0
1140.699829 124.0
1142.233032 132.0
1144.581909 172.0
1146.79834 44.0
1149.455566 184.0
1155.015869 176.0
1155.658569 160.0
1157.337158 164.0
1163.819458 212.0
1171.314087 104.0
1172.622314 212.0
1177.37085 136.0
1180.644409 176.0
1182.382202 164.0
1183.621216 148.0
1185.902588 172.0
1186.35498 48.0
1188.755615 204.0
1190.410034 148.0
1192.271729 148.0
1194.451416 212.0
1199.526489 204.0
1202.623535 164.0
1205.918213 132.0
1211.142212 160.0
1211.190796 196.0
1213.332031 188.0
1219.711914 196.0
1228.395386 100.0
1228.527954 184.0
1228.995361 132.0
1235.164307 96.0
1237.487793 208.0
1243.355103 148.0
1243.530518 164.0
1251.087158 160.0
1255.893066 148.0
1257.036011 188.0
1258.984375 40.0
1263.25354 96.0
1263.536499 168.0
1263.77002 192.0
1275.485962 76.0
1275.820068 152.0
1280.908325 104.0
1283.374146 124.0
1295.882446 152.0
1304.480347 188.0
1305.256836 176.0
1307.767578 196.0
1309.171509 268.0
1315.437256 152.0
1320.52417 120.0
1321.269165 184.0
1322.542847 192.0
1325.635376 216.0
1327.433228 168.0
1331.845825 204.0
1340.926392 228.0
1346.303345 180.0
1347.245605 136.0
1350.103516 52.0
1358.886475 160.0
1359.422119 220.0
1362.439941 148.0
1363.453979 140.0
1363.997803 216.0
1364.468384 152.0
1365.762573 216.0
1368.831665 180.0
1371.248047 92.0
1374.765991 100.0
1378.295776 208.0
1379.345215 112.0
1380.099365 192.0
1382.081665 140.0
1382.99939 84.0
1384.169067 216.0
1384.724487 112.0
1385.294922 152.0
1386.962158 148.0
1388.207764 124.0
1391.7771 188.0
1394.064941 156.0
1394.912231 136.0
1401.141235 164.0
1408.063599 136.0
1410.469482 116.0
1412.525879 104.0
1418.411621 112.0
1421.674316 152.0
1421.891602 164.0
1422.5 164.0
1424.001709 216.0
1427.812256 196.0
1428.022827 140.0
1429.091064 148.0
1429.843628 208.0
1430.009155 176.0
1430.603882 124.0
1435.124268 56.0
1439.470703 200.0
1440.097534 116.0
1440.588501 188.0
1440.724487 180.0
1447.43335 144.0
1448.099854 148.0
1448.175537 52.0
1448.720947 176.0
1449.4104 216.0
1450.463867 176.0
1453.004395 124.0
1454.203369 176.0
1463.538818 160.0
1463.744385 88.0
1464.787842 156.0
1465.526855 164.0
1468.530518 116.0
1477.284424 252.0
1478.799561 144.0
1481.372314 44.0
1482.238159 148.0
1482.705566 144.0
1485.028687 172.0
1488.267212 256.0
1488.674194 80.0
1489.580566 96.0
1491.263306 140.0
1492.839355 192.0
1494.600952 136.0
1497.734375 140.0
1499.683838 136.0
1500.130859 164.0
1501.595947 212.0
