>compound MLS002153464-01!4-(2-Aminoethyl)benzenesulfonyl fluoride hydrochloride30827-99-7
>formula C8H10FNO2S
>ionization [M+H]+
>parentmass 204.04890423209054
#inchi InChI=1S/C8H10FNO2S/c9-13(11,12)8-3-1-7(2-4-8)5-6-10/h1-4H,5-6,10H2
#inchikey MGSKVZWGBWPBTF
#origInchi InChI=1S/C8H10FNO2S.ClH/c9-13(11,12)8-3-1-7(2-4-8)5-6-10;/h1-4H,5-6,10H2;1H
#Ion_Source LC-ESI
#Instrument qTof
#Compound_Source NIH Pharmacologically Active Library
#PI Dorrestein
#Data_Collector VP/LMS
#Scan -1
#Precursor_MZ 204.051
#ExactMass 203.042
#Charge 1
#CAS_Number N/A
#Pubmed_ID N/A
#Smiles NCCc1ccc(cc1)S(=O)(=O)F.Cl
#INCHI_AUX N/A
#Library_Class 1
#SpectrumID CCMSLIB00000085803
#IonMode Positive
#UpdateWorkflowName UPDATE-SINGLE-ANNOTATED-GOLD
#LibraryQualityString Gold
#TaskID d252d724072548979f1f6f1ced849daf
##Scan# 1176
#SpectrumFile p4-F08_GF8_01_18392.mzXML
#LibraryName Pharm_Active_Library.mgf
#MQScore -1
#Organism Pharm_Active_Library
#TIC_Query 0
#RT_Query -1
#MZErrorPPM -1
#SharedPeaks 0
#MassDiff 0
#LibMZ -1
#SpecMZ 204.051
#SpecCharge 0
#internalFilename spec-00000.mgf

>collision 10
44.900272 220.0
44.913612 108.0
45.03508 148.0
45.231644 160.0
45.353539 140.0
45.617989 128.0
45.896687 152.0
46.062695 56.0
46.073502 112.0
46.099174 176.0
46.115395 68.0
46.352234 224.0
46.501415 52.0
46.517704 128.0
46.927216 144.0
47.03772 188.0
47.100536 164.0
47.151093 60.0
47.293339 148.0
47.434429 212.0
47.779129 160.0
48.064346 220.0
48.092575 220.0
48.116798 56.0
48.220402 236.0
48.26049 96.0
48.274319 104.0
48.290916 152.0
48.34626 308.0
48.468121 152.0
48.5513 172.0
48.598465 220.0
48.923691 180.0
49.096474 268.0
49.2528 212.0
49.435959 184.0
49.489151 184.0
50.036736 112.0
50.3512 184.0
50.379448 144.0
50.420425 184.0
50.598663 184.0
50.617069 200.0
50.71199 244.0
50.865185 176.0
51.219265 196.0
51.230659 136.0
51.243484 76.0
51.338902 196.0
51.69614 164.0
51.978451 200.0
51.99567 200.0
52.248577 76.0
52.675304 184.0
52.753338 136.0
53.015327 248.0
53.132778 160.0
53.269245 140.0
53.41251 72.0
53.560181 176.0
53.707401 140.0
53.808098 168.0
53.850445 176.0
53.878201 172.0
53.917656 128.0
53.967358 252.0
54.002457 32.0
54.103428 152.0
54.189838 96.0
54.326187 212.0
54.614105 172.0
54.634701 80.0
54.80402 240.0
54.889515 216.0
54.957367 140.0
55.090248 204.0
55.415737 200.0
55.449818 92.0
55.492809 84.0
55.565487 208.0
55.764477 228.0
56.047237 180.0
56.07111 192.0
56.272465 240.0
56.48917 124.0
56.543037 184.0
56.955372 120.0
56.973396 176.0
57.093651 132.0
57.382771 240.0
57.677158 172.0
57.760326 180.0
58.488701 104.0
58.601395 132.0
58.985989 232.0
59.082333 160.0
59.643608 160.0
59.829746 144.0
60.034683 36.0
60.304867 152.0
60.375988 160.0
60.420849 28.0
60.645393 160.0
60.778767 152.0
60.954235 124.0
61.036625 64.0
61.187553 160.0
61.354256 164.0
61.424435 120.0
61.454075 88.0
61.822861 200.0
62.034313 76.0
63.396164 144.0
63.537289 112.0
63.703983 204.0
63.939316 156.0
64.245255 168.0
64.352188 280.0
64.387321 176.0
64.532745 168.0
64.638313 236.0
64.93309 120.0
65.077515 236.0
65.090363 136.0
65.37812 52.0
65.74234 152.0
66.013748 52.0
66.141563 44.0
66.194992 144.0
66.3927 156.0
66.481934 192.0
66.670319 156.0
66.691444 72.0
66.956657 140.0
66.981087 264.0
67.120888 180.0
67.139191 148.0
67.212601 52.0
67.233818 60.0
67.287682 124.0
67.449417 68.0
67.663727 76.0
67.755447 184.0
67.848862 168.0
68.057236 116.0
68.361343 228.0
68.381096 148.0
68.567207 144.0
68.961678 164.0
69.305901 148.0
69.504883 52.0
69.918686 32.0
69.975281 192.0
70.223579 180.0
70.270294 356.0
70.338715 268.0
70.413857 104.0
70.487358 124.0
70.642853 216.0
70.934242 268.0
71.234619 152.0
71.710823 184.0
71.860909 84.0
72.124367 140.0
72.26812 152.0
72.295189 232.0
72.612007 160.0
72.730782 228.0
72.781708 164.0
72.975418 144.0
73.24942 140.0
73.544418 228.0
73.980324 108.0
74.093353 136.0
74.407219 100.0
74.427818 204.0
74.450142 92.0
74.481064 164.0
74.757874 160.0
75.228424 164.0
75.336525 208.0
75.382149 132.0
75.691795 56.0
75.710846 172.0
75.793999 144.0
75.856392 148.0
76.052406 160.0
76.113174 184.0
76.429535 176.0
76.858192 188.0
77.408829 124.0
77.682251 204.0
77.705063 176.0
77.779854 124.0
77.942101 72.0
78.014168 88.0
78.091537 132.0
78.429604 148.0
78.893875 176.0
79.05838 172.0
79.19648 160.0
79.363068 200.0
79.547585 152.0
79.657684 168.0
80.33416 116.0
80.428734 148.0
80.68956 172.0
80.963341 184.0
81.094131 168.0
81.162254 32.0
81.226822 164.0
81.634529 124.0
81.890099 220.0
81.904503 68.0
81.958557 148.0
82.294052 140.0
82.339195 164.0
82.52533 156.0
82.81488 156.0
82.863792 120.0
82.97435 68.0
83.790405 140.0
83.866943 192.0
83.896111 128.0
84.013969 224.0
84.130432 236.0
84.182579 172.0
84.352501 164.0
84.365295 88.0
84.744148 52.0
84.782631 232.0
84.802795 236.0
84.927475 136.0
84.962334 200.0
85.006371 228.0
85.033897 220.0
85.120186 176.0
85.259804 112.0
85.874741 144.0
86.01313 144.0
86.090683 140.0
86.170113 28.0
86.216309 192.0
86.269913 220.0
86.545586 164.0
86.753555 176.0
86.834679 124.0
86.942291 176.0
87.03511 200.0
87.096397 164.0
87.501808 248.0
87.598648 240.0
87.915627 188.0
88.05191 192.0
88.160271 56.0
88.182701 252.0
88.255608 148.0
88.309845 160.0
88.581261 80.0
88.937546 200.0
88.990112 92.0
89.144142 148.0
89.339691 240.0
89.490257 92.0
89.569351 176.0
90.1278 212.0
90.254448 128.0
90.269577 28.0
90.506111 132.0
90.744858 160.0
90.930763 140.0
91.05378 840.0
91.145355 64.0
91.223282 184.0
91.240395 240.0
91.308853 72.0
91.493431 156.0
91.75444 184.0
92.065468 176.0
92.174362 184.0
92.564598 84.0
92.72744 172.0
93.070839 64.0
93.239891 184.0
93.805786 220.0
93.823135 172.0
93.900269 188.0
94.035332 196.0
94.064285 172.0
94.195595 116.0
94.272461 128.0
94.609444 184.0
94.839966 208.0
94.865166 156.0
95.088234 220.0
95.231918 76.0
95.332947 140.0
95.358208 160.0
95.395142 176.0
95.435974 208.0
95.500145 208.0
95.527382 140.0
95.576019 116.0
95.772652 148.0
96.033844 56.0
96.217278 132.0
96.275856 256.0
96.41066 188.0
96.590538 160.0
96.747093 156.0
96.915535 132.0
96.931213 216.0
96.980209 224.0
97.04686 168.0
97.086082 156.0
97.140999 132.0
97.777634 200.0
97.85244 172.0
97.93515 168.0
98.088844 128.0
98.274231 124.0
98.376862 152.0
98.558571 56.0
98.588211 200.0
98.726601 220.0
98.748352 112.0
99.108658 200.0
99.485497 188.0
100.145691 132.0
100.346962 236.0
100.456657 204.0
100.504539 124.0
100.532806 216.0
100.558418 216.0
100.584366 56.0
101.104042 244.0
101.163818 144.0
101.30027 228.0
101.34034 140.0
101.671165 160.0
101.751511 204.0
101.930275 212.0
101.992241 48.0
102.044693 2012.0
102.201736 228.0
102.322502 116.0
102.348679 148.0
102.453415 40.0
102.667076 44.0
102.812332 252.0
102.834534 200.0
102.956024 160.0
102.971832 176.0
102.995155 204.0
103.020393 208.0
103.05378 29232.0
103.118477 152.0
103.145599 128.0
103.161774 44.0
103.220406 152.0
103.287148 84.0
103.325584 32.0
103.351891 64.0
103.38308 68.0
103.418671 168.0
103.487503 72.0
103.509781 48.0
103.584717 44.0
103.761536 208.0
103.807671 100.0
103.842148 176.0
103.868515 92.0
103.884743 168.0
103.932037 180.0
103.976051 184.0
104.012589 88.0
104.061653 42728.0
104.088043 196.0
104.121246 88.0
104.139687 148.0
104.17363 92.0
104.229904 124.0
104.252258 60.0
104.276642 56.0
104.296967 40.0
104.323395 120.0
104.393883 132.0
104.465073 60.0
104.516617 56.0
104.636703 56.0
104.669281 40.0
104.750748 36.0
104.773163 84.0
104.789459 72.0
104.842438 144.0
104.863426 148.0
104.897476 104.0
104.917862 28.0
104.948441 68.0
105.064568 3236.0
105.186272 80.0
105.356644 68.0
105.373955 40.0
105.407722 104.0
105.56292 148.0
105.603989 108.0
105.626488 44.0
105.640808 48.0
105.68766 80.0
105.694595 112.0
105.736984 96.0
105.76239 68.0
105.836235 124.0
105.894638 88.0
105.917168 80.0
105.940727 88.0
105.972481 116.0
106.066902 432.0
106.362137 68.0
106.664101 124.0
106.705475 64.0
106.775131 76.0
106.789528 40.0
106.84507 72.0
106.947968 44.0
107.047386 124.0
107.236328 52.0
109.265747 92.0
109.511391 160.0
110.821251 56.0
111.023994 156.0
111.083321 100.0
111.242805 116.0
111.454933 64.0
112.280159 56.0
112.892616 56.0
114.684547 92.0
114.844467 48.0
115.094162 60.0
119.048035 172.0
119.469658 168.0
120.055443 532.0
121.042038 164.0
121.05854 216.0
121.44223 188.0
122.054802 228.0
122.112137 68.0
123.060799 188.0
124.068626 160.0
126.736557 148.0
128.646057 180.0
129.326477 92.0
131.05928 264.0
131.177795 100.0
136.062088 132.0
139.004929 192.0
141.499329 264.0
143.166275 124.0
143.924591 100.0
146.821121 152.0
153.987335 136.0
155.009079 156.0
157.574493 164.0
163.854584 212.0
163.925934 52.0
166.340393 184.0
167.010468 332.0
167.786194 56.0
169.03894 200.0
169.479156 116.0
171.56102 72.0
173.952103 160.0
174.932648 88.0
176.362366 112.0
185.019608 256.0
186.718292 48.0
187.020966 3904.0
187.101974 92.0
187.259903 76.0
187.29805 52.0
187.360703 52.0
187.442444 132.0
187.747772 84.0
187.802307 60.0
188.02684 340.0
189.017487 216.0
201.14003 40.0
201.450653 80.0
204.046661 128.0
205.037277 252.0
214.334564 72.0
215.376099 72.0
234.619492 124.0
252.502304 48.0
297.591461 120.0
298.450439 104.0
307.932343 108.0
325.59317 76.0
348.66452 84.0
348.924744 72.0
355.029999 64.0
355.979462 100.0
395.864349 52.0
508.929138 88.0
675.43689 96.0
696.459961 56.0
704.213379 180.0
754.169373 60.0
786.495544 220.0
837.189453 168.0
839.984863 152.0
841.265991 200.0
843.397583 208.0
875.524231 124.0
877.091492 132.0
877.54541 160.0
877.66333 216.0
896.574158 168.0
901.473816 208.0
904.051331 144.0
913.062439 164.0
923.726685 140.0
924.834045 172.0
926.341858 188.0
930.793701 156.0
933.607361 192.0
934.428528 164.0
936.748047 116.0
940.418945 172.0
943.473267 172.0
943.558838 180.0
948.057922 200.0
952.924072 172.0
956.417175 188.0
958.541931 224.0
959.460327 132.0
962.11322 160.0
966.260254 212.0
968.098694 232.0
969.907837 192.0
971.011536 208.0
972.246155 152.0
972.69928 160.0
973.307739 180.0
973.525085 156.0
975.009888 200.0
975.171509 88.0
975.892639 216.0
982.226379 52.0
986.791565 116.0
987.767212 184.0
991.77478 84.0
992.244934 56.0
997.945984 152.0
1000.903381 84.0
1003.657043 196.0
1003.80835 172.0
1007.35553 240.0
1010.478638 164.0
1017.266235 208.0
1018.358398 204.0
1020.608154 128.0
1020.881592 36.0
1021.447632 108.0
1021.66394 136.0
1025.841675 156.0
1027.117065 188.0
1032.616577 100.0
1035.42627 160.0
1036.214233 204.0
1036.669189 188.0
1043.312622 148.0
1046.45874 160.0
1047.914429 160.0
1050.570679 204.0
1052.442383 156.0
1053.223755 124.0
1056.734253 156.0
1058.106323 144.0
1061.015381 136.0
1061.618408 136.0
1062.526489 172.0
1064.376343 136.0
1068.698975 148.0
1068.757446 188.0
1077.814697 176.0
1078.402832 144.0
1078.598999 208.0
1080.449707 184.0
1082.884888 124.0
1082.930664 156.0
1083.946167 160.0
1088.728516 160.0
1090.04248 168.0
1091.396606 188.0
1091.948975 108.0
1092.402832 132.0
1095.859253 176.0
1098.331543 260.0
1099.710571 136.0
1100.106689 136.0
1100.192505 172.0
1104.456543 180.0
1105.758301 172.0
1106.97644 172.0
1107.512939 188.0
1107.665283 172.0
1110.435913 128.0
1111.590332 228.0
1112.313721 72.0
1116.193848 172.0
1116.519653 160.0
1119.447876 148.0
1120.886841 212.0
1121.246704 144.0
1121.467773 196.0
1121.906616 172.0
1122.293335 200.0
1122.973511 232.0
1124.328003 184.0
1124.521484 136.0
1125.40271 280.0
1126.471313 140.0
1127.841187 184.0
1129.539673 180.0
1130.630249 176.0
1131.246094 152.0
1134.615845 104.0
1137.057617 208.0
1139.186157 184.0
1139.945435 108.0
1142.325562 160.0
1143.981079 208.0
1145.577148 200.0
1145.630981 188.0
1146.614746 96.0
1146.864136 136.0
1147.012451 152.0
1148.037354 160.0
1148.428467 136.0
1148.974976 128.0
1149.555176 148.0
1153.46582 48.0
1153.810669 132.0
1157.654053 192.0
1161.476685 160.0
1161.910767 112.0
1163.974243 128.0
1164.782471 176.0
1165.7948 136.0
1165.944336 56.0
1168.099731 104.0
1168.596436 172.0
1169.596802 92.0
1169.651245 148.0
1170.611328 124.0
1171.435425 28.0
1172.505249 144.0
1174.175537 160.0
1174.769043 180.0
1176.031372 160.0
1177.157959 144.0
1177.362793 148.0
1178.612915 200.0
1179.412598 212.0
1180.144043 176.0
1180.766357 192.0
1183.27771 136.0
1183.832397 164.0
1184.05835 196.0
1185.154419 192.0
1186.648682 120.0
1187.588257 128.0
1188.953613 152.0
1190.003906 156.0
1190.333496 196.0
1190.944702 148.0
1191.58252 216.0
1191.741577 212.0
1192.016479 68.0
1192.772461 156.0
1192.861816 144.0
1193.817627 228.0
1193.989502 172.0
1195.09021 172.0
1197.940552 204.0
1199.015381 148.0
1200.332153 108.0
1200.732178 176.0
1202.498413 172.0
1202.615723 148.0
1203.685913 184.0
1203.865479 160.0
1204.777222 104.0
1205.841309 188.0
1208.939697 116.0
1209.874146 152.0
1210.040405 208.0
1210.310425 64.0
1210.435059 52.0
1210.718994 156.0
1211.834229 136.0
1215.294189 148.0
1215.918701 184.0
1216.057617 136.0
1217.307251 204.0
1218.689575 192.0
1220.496826 156.0
1228.54834 36.0
1228.953003 228.0
1229.099487 136.0
1231.647827 176.0
1231.696655 64.0
1232.185669 120.0
1232.248535 276.0
1233.0802 220.0
1234.667236 168.0
1234.758179 92.0
1236.654297 180.0
1237.85144 68.0
1238.012451 180.0
1239.525635 196.0
1241.025757 176.0
1241.881348 112.0
1242.119751 132.0
1242.491577 200.0
1245.248779 188.0
1245.840454 172.0
1246.444702 140.0
1246.901489 196.0
1247.316162 216.0
1247.646606 172.0
1247.942139 116.0
1252.10083 176.0
1253.03064 168.0
1253.206787 176.0
1254.778564 236.0
1256.718262 200.0
1257.071045 188.0
1257.692139 80.0
1260.708008 168.0
1262.029907 176.0
1262.630981 112.0
1265.015503 172.0
1265.858154 100.0
1265.999756 80.0
1267.033936 40.0
1267.21106 80.0
1267.402344 112.0
1269.231201 188.0
1269.621216 164.0
1269.692139 116.0
1270.273804 204.0
1271.380615 148.0
1271.430298 156.0
1275.20874 172.0
1275.905396 76.0
1277.99646 168.0
1280.929688 192.0
1284.315674 144.0
1286.062378 176.0
1287.177612 196.0
1287.234741 100.0
1288.677612 136.0
1290.943604 228.0
1291.358398 144.0
1291.759033 160.0
1294.793945 200.0
1295.388428 144.0
1295.961548 180.0
1297.875488 96.0
1299.051636 184.0
1300.171021 264.0
1302.820679 108.0
1303.747559 140.0
1307.069946 56.0
1307.451416 212.0
1308.502319 264.0
1309.085571 132.0
1309.942749 124.0
1310.641602 192.0
1312.796997 160.0
1313.150391 52.0
1316.008057 192.0
1316.318604 180.0
1317.098633 184.0
1317.77771 148.0
1319.252075 236.0
1320.047485 140.0
1321.110718 88.0
1321.211914 184.0
1321.501343 248.0
1322.355347 160.0
1322.427734 144.0
1322.500122 196.0
1322.753418 184.0
1323.347046 220.0
1324.078491 156.0
1324.397217 216.0
1324.732666 200.0
1327.317871 68.0
1328.188232 240.0
1328.703247 96.0
1330.256348 212.0
1331.490723 168.0
1331.708618 164.0
1332.580322 64.0
1332.747437 184.0
1332.827393 160.0
1333.183472 124.0
1333.539673 204.0
1334.688232 160.0
1337.365601 192.0
1337.591187 144.0
1338.239136 168.0
1338.457642 148.0
1339.914307 204.0
1340.038208 100.0
1340.584717 168.0
1342.917725 164.0
1344.150757 164.0
1344.749146 216.0
1346.698608 52.0
1346.852051 40.0
1347.677612 136.0
1349.585327 212.0
1349.768188 60.0
1350.6604 76.0
1350.923828 44.0
1353.156006 192.0
1354.225098 160.0
1355.074951 188.0
1355.565918 84.0
1358.40332 228.0
1358.660156 112.0
1358.91687 132.0
1359.239746 116.0
1359.401245 200.0
1360.215942 176.0
1361.273193 180.0
1362.088501 220.0
1362.375 40.0
1364.396729 224.0
1365.616699 76.0
1366.315552 64.0
1366.727539 204.0
1368.324829 112.0
1368.759277 124.0
1369.937622 116.0
1371.67688 196.0
1372.76062 144.0
1376.088623 184.0
1376.361816 172.0
1376.967407 132.0
1377.46228 96.0
1377.543457 176.0
1378.65918 184.0
1379.634888 168.0
1380.699707 200.0
1381.084351 184.0
1383.185791 76.0
1384.155762 248.0
1384.703735 212.0
1385.06665 116.0
1385.537842 128.0
1385.866821 56.0
1387.000732 168.0
1387.920044 164.0
1388.105469 200.0
1388.216675 84.0
1389.025146 200.0
1389.863525 180.0
1391.711792 172.0
1391.927124 144.0
1395.664795 176.0
1396.044067 188.0
1397.814575 124.0
1398.201538 192.0
1399.012939 188.0
1401.230469 212.0
1402.566284 232.0
1403.550415 228.0
1405.370361 164.0
1406.407715 88.0
1406.878052 72.0
1407.453003 224.0
1408.020508 132.0
1408.879517 176.0
1410.097534 160.0
1410.43396 176.0
1410.957275 140.0
1411.091797 144.0
1411.188965 156.0
1414.510742 224.0
1415.813599 180.0
1418.263672 136.0
1421.030884 156.0
1421.323486 224.0
1421.916382 104.0
1422.396729 188.0
1422.959839 132.0
1423.575562 60.0
1424.799927 192.0
1425.686646 148.0
1426.596069 200.0
1427.761597 160.0
1428.295654 224.0
1428.388916 128.0
1428.764771 176.0
1428.86731 160.0
1429.15332 88.0
1429.868164 100.0
1429.950928 64.0
1430.914551 176.0
1432.443359 192.0
1432.8125 236.0
1435.978516 188.0
1436.793213 188.0
1437.691162 164.0
1438.098755 176.0
1438.544067 156.0
1439.578491 252.0
1439.888184 112.0
1441.338623 168.0
1442.298462 156.0
1442.536987 212.0
1443.515747 160.0
1445.020996 96.0
1445.338745 180.0
1448.518677 188.0
1448.920166 216.0
1449.064087 104.0
1449.200562 116.0
1450.625366 176.0
1451.808228 164.0
1451.990234 212.0
1454.251221 120.0
1455.405151 168.0
1456.240601 136.0
1456.696289 152.0
1457.045776 192.0
1457.174927 212.0
1457.501709 128.0
1460.116821 148.0
1461.410034 148.0
1461.92749 148.0
1464.432373 168.0
1464.546631 148.0
1464.615112 184.0
1465.552246 184.0
1466.108521 180.0
1466.299072 164.0
1466.84021 116.0
1468.205078 208.0
1469.799438 124.0
1470.219116 180.0
1470.5 96.0
1470.982422 156.0
1475.650391 200.0
1475.719238 192.0
1475.803345 220.0
1476.063232 140.0
1476.621582 180.0
1477.317627 188.0
1477.432373 148.0
1477.723145 184.0
1480.256836 76.0
1480.846558 196.0
1481.474609 208.0
1482.440063 180.0
1482.555054 144.0
1482.853882 200.0
1483.34436 180.0
1483.720093 192.0
1486.251221 256.0
1486.320312 180.0
1486.75 164.0
1488.339111 212.0
1489.51416 228.0
1489.867554 184.0
1490.943359 108.0
1493.811401 104.0
1494.88855 284.0
1495.157959 144.0
1495.658203 88.0
1496.959351 164.0
1497.344482 128.0
1497.583252 88.0
1497.983765 40.0
1498.484497 192.0
1500.380493 204.0
1501.976807 176.0
1502.200562 168.0
1502.686646 72.0
