>compound MLS001148191-01!49562-28-9
>formula C20H21ClO4
>ionization [M+H]+
>parentmass 361.12011328409056
#inchi InChI=1S/C20H21ClO4/c1-13(2)24-19(23)20(3,4)25-17-11-7-15(8-12-17)18(22)14-5-9-16(21)10-6-14/h5-13H,1-4H3
#inchikey YMTINGFKWWXKFG
#Ion_Source LC-ESI
#Instrument qTof
#Compound_Source NIH Pharmacologically Active Library
#PI Dorrestein
#Data_Collector VP/LMS
#Scan -1
#Precursor_MZ 361.115
#ExactMass 360.113
#Charge 1
#CAS_Number N/A
#Pubmed_ID N/A
#Smiles CC(C)OC(=O)C(C)(C)Oc1ccc(cc1)C(=O)c2ccc(Cl)cc2
#INCHI_AUX N/A
#Library_Class 1
#SpectrumID CCMSLIB00000085302
#IonMode Positive
#UpdateWorkflowName UPDATE-SINGLE-ANNOTATED-GOLD
#LibraryQualityString Gold
#TaskID d252d724072548979f1f6f1ced849daf
##Scan# 2796
#SpectrumFile p3-H02_GH2_01_18307.mzXML
#LibraryName Pharm_Active_Library.mgf
#MQScore -1
#Organism Pharm_Active_Library
#TIC_Query 0
#RT_Query -1
#MZErrorPPM -1
#SharedPeaks 0
#MassDiff 0
#LibMZ -1
#SpecMZ 361.115
#SpecCharge 0
#internalFilename spec-00000.mgf

>collision 10
44.891796 44.0
44.933449 124.0
45.042179 156.0
45.102757 188.0
45.124149 120.0
45.164268 148.0
45.211769 200.0
45.253941 104.0
45.28474 156.0
45.304836 68.0
45.370506 156.0
45.49147 172.0
45.520794 148.0
45.547653 120.0
45.697239 200.0
45.711689 124.0
45.739956 88.0
45.757092 192.0
45.870628 320.0
45.931313 132.0
45.95155 140.0
46.016338 208.0
46.027138 144.0
46.17519 204.0
46.196095 188.0
46.221802 184.0
46.292194 152.0
46.335545 164.0
46.494202 140.0
46.547493 236.0
46.654491 132.0
46.670811 84.0
46.707531 104.0
46.734802 92.0
46.755154 180.0
46.771488 136.0
46.85865 252.0
46.881817 188.0
46.89817 228.0
46.910442 260.0
46.924076 132.0
47.027756 64.0
47.0784 176.0
47.111057 124.0
47.191696 156.0
47.295937 188.0
47.414841 252.0
47.427177 188.0
47.486137 156.0
47.525925 172.0
47.692104 116.0
47.716637 128.0
47.832417 180.0
47.857201 208.0
47.920563 52.0
48.011543 128.0
48.11504 192.0
48.146774 196.0
48.231853 144.0
48.24353 168.0
48.301613 56.0
48.318214 140.0
48.371647 212.0
48.394341 180.0
48.443428 200.0
48.456673 192.0
48.46637 164.0
48.538456 164.0
48.716118 176.0
48.813416 144.0
48.920555 184.0
48.969296 180.0
49.080788 44.0
49.090549 160.0
49.108681 32.0
49.137978 196.0
49.174263 152.0
49.206371 208.0
49.239887 104.0
49.260429 164.0
49.344837 196.0
49.421627 264.0
49.452415 184.0
49.52943 180.0
49.558853 144.0
49.592487 180.0
49.644367 160.0
49.662598 184.0
49.728546 180.0
49.767857 80.0
49.821232 200.0
49.847927 136.0
49.957603 64.0
50.023746 196.0
50.225266 100.0
50.250179 188.0
50.298241 224.0
50.31982 332.0
50.329704 280.0
50.387619 164.0
50.451218 108.0
50.498676 164.0
50.621017 104.0
50.636597 116.0
50.668652 172.0
50.701771 232.0
50.723034 128.0
50.745716 188.0
50.757133 392.0
50.788261 124.0
50.809544 112.0
50.82373 144.0
50.880508 176.0
50.974258 212.0
51.021164 148.0
51.072361 160.0
51.143509 168.0
51.215866 108.0
51.250324 204.0
51.276268 176.0
51.287189 180.0
51.34584 168.0
51.418606 164.0
51.474445 248.0
51.541424 124.0
51.568581 148.0
51.690376 272.0
51.751701 160.0
51.786072 100.0
51.849113 164.0
51.899292 120.0
51.921127 212.0
52.016941 128.0
52.027569 188.0
52.072941 188.0
52.098801 136.0
52.1838 172.0
52.209484 124.0
52.255516 68.0
52.285736 132.0
52.345741 292.0
52.360607 68.0
52.465801 132.0
52.496082 128.0
52.51339 140.0
52.529255 176.0
52.638954 188.0
52.667839 160.0
52.729973 152.0
52.761776 200.0
52.810944 168.0
52.847111 140.0
52.863029 192.0
52.949898 132.0
53.058578 368.0
53.071629 112.0
53.094833 104.0
53.190601 128.0
53.216324 184.0
53.239967 152.0
53.31496 136.0
53.335865 140.0
53.425858 204.0
53.506077 188.0
53.568703 144.0
53.580357 48.0
53.597843 148.0
53.670727 80.0
53.689686 124.0
53.701355 56.0
53.734909 324.0
53.7495 120.0
53.859001 156.0
53.965691 44.0
54.0359 240.0
54.079803 52.0
54.141296 128.0
54.166199 180.0
54.191105 164.0
54.217144 208.0
54.279331 148.0
54.323059 128.0
54.40818 128.0
54.431671 112.0
54.460381 168.0
54.491898 136.0
54.519817 128.0
54.593327 192.0
54.615391 208.0
54.635986 224.0
54.708099 104.0
54.728714 196.0
54.75375 76.0
54.814152 200.0
54.876064 168.0
54.902164 240.0
54.923256 152.0
54.948338 172.0
55.187622 172.0
55.243195 168.0
55.281906 136.0
55.3578 176.0
55.430389 180.0
55.508957 232.0
55.52972 156.0
55.590549 164.0
55.60545 104.0
55.629143 188.0
55.641018 96.0
55.759861 160.0
55.798512 96.0
55.87883 168.0
55.942825 152.0
55.98452 144.0
55.997925 168.0
56.036659 92.0
56.072422 180.0
56.100746 116.0
56.123142 180.0
56.143875 156.0
56.164871 184.0
56.197693 172.0
56.236221 196.0
56.249928 112.0
56.300697 132.0
56.323101 184.0
56.338039 384.0
56.376892 148.0
56.387352 312.0
56.554878 164.0
56.62825 196.0
56.655754 232.0
56.673191 168.0
56.68668 104.0
56.725651 132.0
56.77813 204.0
56.853615 64.0
56.868156 200.0
56.97628 124.0
57.067966 80.0
57.186127 192.0
57.212406 156.0
57.222946 180.0
57.289215 156.0
57.322365 128.0
57.346478 140.0
57.46109 176.0
57.484844 232.0
57.580349 184.0
57.596966 184.0
57.610561 152.0
57.624157 168.0
57.692123 132.0
57.724705 196.0
57.737534 140.0
57.84951 144.0
57.861893 348.0
57.89645 144.0
57.967655 172.0
58.020706 196.0
58.069233 144.0
58.104126 264.0
58.116264 152.0
58.185543 180.0
58.228603 168.0
58.240757 132.0
58.277218 64.0
58.291546 224.0
58.356258 120.0
58.398842 152.0
58.456654 92.0
58.47644 164.0
58.487095 336.0
58.502319 184.0
58.512978 148.0
58.572372 112.0
58.60284 156.0
58.616554 140.0
58.645424 136.0
58.660759 176.0
58.733955 148.0
58.804146 260.0
58.872852 196.0
58.979805 168.0
58.99815 144.0
59.031792 164.0
59.079208 216.0
59.09145 88.0
59.102158 144.0
59.129707 148.0
59.223106 200.0
59.327965 132.0
59.36718 180.0
59.396324 220.0
59.422405 184.0
59.436214 152.0
59.465374 104.0
59.489933 148.0
59.527878 208.0
59.532597 148.0
59.538372 324.0
59.555969 148.0
59.572865 148.0
59.590115 212.0
59.668152 60.0
59.718472 200.0
59.760441 100.0
59.789677 36.0
59.857418 188.0
59.969887 132.0
60.08709 168.0
60.11795 136.0
60.169933 184.0
60.205952 160.0
60.237347 184.0
60.253838 108.0
60.321838 204.0
60.440933 176.0
60.467243 124.0
60.526073 208.0
60.540009 156.0
60.560146 220.0
60.589577 160.0
60.615921 48.0
60.685677 156.0
60.721832 216.0
60.761677 344.0
60.792885 180.0
60.962521 188.0
60.98064 168.0
61.030388 64.0
61.168858 192.0
61.182869 52.0
61.204319 228.0
61.243607 312.0
61.276321 124.0
61.305927 184.0
61.349571 204.0
61.372959 192.0
61.394794 168.0
61.450951 68.0
61.477478 124.0
61.532265 208.0
61.66021 192.0
61.683659 200.0
61.725872 160.0
61.839478 176.0
61.893314 64.0
61.908974 152.0
61.927769 96.0
61.948132 152.0
62.004406 184.0
62.078228 176.0
62.106461 164.0
62.303093 236.0
62.373409 220.0
62.420578 152.0
62.519691 248.0
62.67717 56.0
62.729183 156.0
62.814342 220.0
62.826244 220.0
62.869568 76.0
62.8894 92.0
62.956398 208.0
62.978512 200.0
62.989567 168.0
63.04171 168.0
63.07016 108.0
63.100197 224.0
63.215672 208.0
63.228333 140.0
63.274239 180.0
63.316898 132.0
63.367687 208.0
63.39621 84.0
63.469135 156.0
63.486763 208.0
63.511955 100.0
63.526234 180.0
63.537338 168.0
63.580635 200.0
63.600819 176.0
63.637333 224.0
63.688152 152.0
63.773956 132.0
63.877319 168.0
63.968029 224.0
63.996685 140.0
64.007835 192.0
64.023758 176.0
64.111382 404.0
64.163986 160.0
64.178337 196.0
64.213425 172.0
64.278831 188.0
64.432121 192.0
64.456093 80.0
64.476868 196.0
64.568001 248.0
64.617592 208.0
64.63839 160.0
64.667198 80.0
64.688011 124.0
64.744049 112.0
64.772881 184.0
64.899498 188.0
64.92836 176.0
64.97007 148.0
65.021423 180.0
65.063156 128.0
65.078987 112.0
65.095268 120.0
65.156311 180.0
65.167557 104.0
65.191658 180.0
65.278473 180.0
65.332687 256.0
65.428116 100.0
65.447441 156.0
65.563431 148.0
65.637589 40.0
65.676147 172.0
65.740829 168.0
65.767548 116.0
65.78553 220.0
65.942719 152.0
66.005768 148.0
66.070473 204.0
66.091629 212.0
66.148506 236.0
66.185394 116.0
66.384712 200.0
66.425468 188.0
66.439865 216.0
66.457268 236.0
66.475563 60.0
66.571342 164.0
66.589211 132.0
66.660698 128.0
66.681824 168.0
66.712708 68.0
66.736633 112.0
66.754173 72.0
66.872124 200.0
67.046402 356.0
67.064987 208.0
67.137703 48.0
67.18174 192.0
67.334084 184.0
67.348251 192.0
67.362953 44.0
67.378647 176.0
67.402168 220.0
67.423416 140.0
67.470207 220.0
67.542778 256.0
67.580406 152.0
67.611496 216.0
67.638977 200.0
67.667152 144.0
67.719559 176.0
67.734299 160.0
67.775261 176.0
67.84082 188.0
67.885094 140.0
67.901497 40.0
67.968758 184.0
68.045906 296.0
68.093529 88.0
68.167831 160.0
68.190292 168.0
68.223343 160.0
68.377975 184.0
68.438881 176.0
68.478928 128.0
68.70755 112.0
68.799973 172.0
68.826393 144.0
68.927155 176.0
68.946983 176.0
68.988312 176.0
69.008148 92.0
69.021378 188.0
69.049492 204.0
69.082581 184.0
69.117325 160.0
69.14711 164.0
69.186844 200.0
69.214668 204.0
69.32267 148.0
69.334267 180.0
69.384003 76.0
69.435158 136.0
69.455307 188.0
69.546577 104.0
69.645798 212.0
69.760864 168.0
69.790794 220.0
69.962166 220.0
69.978821 200.0
70.023781 180.0
70.042107 116.0
70.082092 188.0
70.100418 172.0
70.211609 156.0
70.240479 140.0
70.259201 180.0
70.313896 136.0
70.367317 84.0
70.383392 244.0
70.391335 104.0
70.398338 180.0
70.44915 156.0
70.556114 140.0
70.579887 164.0
70.684906 172.0
70.699974 100.0
70.783676 156.0
70.860725 100.0
70.929443 128.0
70.991669 176.0
71.00415 236.0
71.031731 112.0
71.093819 132.0
71.118996 168.0
71.187828 164.0
71.253342 92.0
71.270142 276.0
71.365959 172.0
71.392288 188.0
71.460533 140.0
71.467194 172.0
71.487076 28.0
71.508949 140.0
71.524101 136.0
71.589767 136.0
71.603241 148.0
71.719505 152.0
71.759338 228.0
71.810097 252.0
71.893227 196.0
71.974258 176.0
72.09758 80.0
72.114479 132.0
72.146011 216.0
72.378403 244.0
72.441071 132.0
72.464684 192.0
72.569885 64.0
72.615669 208.0
72.654686 204.0
72.676743 180.0
72.714081 160.0
72.731056 172.0
72.742935 260.0
72.858421 184.0
72.883904 152.0
72.917297 80.0
73.028412 176.0
73.135612 92.0
73.149231 76.0
73.169662 200.0
73.191795 76.0
73.214714 176.0
73.230965 192.0
73.249702 200.0
73.266739 136.0
73.305931 76.0
73.34343 192.0
73.394577 172.0
73.488396 52.0
73.518692 124.0
73.563492 168.0
73.613007 132.0
73.718925 160.0
73.742851 172.0
73.764328 192.0
73.867676 156.0
73.900185 132.0
73.946388 72.0
74.01487 212.0
74.028572 44.0
74.083702 64.0
74.103943 120.0
74.186211 84.0
74.222214 232.0
74.272324 56.0
74.302834 160.0
74.417831 216.0
74.49855 76.0
74.562134 32.0
74.710014 152.0
74.806389 172.0
74.827049 128.0
74.851158 128.0
74.904549 144.0
75.013115 128.0
75.068291 160.0
75.087257 160.0
75.159721 76.0
75.175568 216.0
75.273651 76.0
75.346199 196.0
75.358292 140.0
75.380753 104.0
75.467186 160.0
75.491394 176.0
75.527718 128.0
75.614532 116.0
75.62635 156.0
75.683479 164.0
75.726776 164.0
75.74733 176.0
75.763153 212.0
75.803009 220.0
75.905289 224.0
76.03714 160.0
76.137833 256.0
76.182999 188.0
76.207321 144.0
76.247292 152.0
76.34124 216.0
76.358566 180.0
76.375961 180.0
76.389877 136.0
76.537819 140.0
76.563942 212.0
76.661423 168.0
76.694618 160.0
76.746925 160.0
76.764359 180.0
76.780052 204.0
76.797501 100.0
76.898697 188.0
76.949326 248.0
77.022675 144.0
77.040146 176.0
77.136261 204.0
77.153748 96.0
77.270927 152.0
77.288422 156.0
77.314674 184.0
77.451378 160.0
77.470512 176.0
77.54937 232.0
77.577415 260.0
77.65107 204.0
77.66861 200.0
77.712471 120.0
77.863441 140.0
77.942497 132.0
78.151749 84.0
78.172867 124.0
78.188705 184.0
78.280251 136.0
78.296104 68.0
78.389473 188.0
78.468796 192.0
78.53405 212.0
78.562859 192.0
78.578148 136.0
78.703468 152.0
78.726425 136.0
78.821823 192.0
78.846565 148.0
78.885452 168.0
78.922585 160.0
79.034019 176.0
79.05349 60.0
79.143768 264.0
79.203987 132.0
79.221703 172.0
79.29258 156.0
79.328033 136.0
79.400734 144.0
79.443306 48.0
79.480568 188.0
79.507187 156.0
79.620811 124.0
79.667801 144.0
79.709641 128.0
79.867874 140.0
79.894562 172.0
79.976418 64.0
80.013802 140.0
80.12957 212.0
80.15274 32.0
80.211555 212.0
80.255852 156.0
80.291794 68.0
80.364937 160.0
80.504173 184.0
80.569481 164.0
80.602425 216.0
80.650681 216.0
80.707893 136.0
80.759758 228.0
80.779434 184.0
80.843849 172.0
80.865326 128.0
80.899338 144.0
80.974693 224.0
81.017532 204.0
81.062332 196.0
81.164513 160.0
81.20755 184.0
81.259575 124.0
81.343925 228.0
81.361877 200.0
81.38163 168.0
81.435509 68.0
81.485809 92.0
81.505577 104.0
81.561287 144.0
81.584656 196.0
81.602638 104.0
81.635002 180.0
81.667381 160.0
81.757339 184.0
81.846077 248.0
81.899582 200.0
81.97345 164.0
82.00589 156.0
82.018509 148.0
82.036537 132.0
82.087021 96.0
82.151955 196.0
82.168198 132.0
82.200676 160.0
82.222115 168.0
82.308983 128.0
82.336075 208.0
82.442551 120.0
82.487854 212.0
82.583694 132.0
82.619873 208.0
82.643394 132.0
82.665108 164.0
82.724838 148.0
82.755615 124.0
82.784592 180.0
82.817192 156.0
82.982109 200.0
83.105446 108.0
83.12178 152.0
83.147186 208.0
83.185303 148.0
83.279732 116.0
83.359673 180.0
83.456017 164.0
83.650688 172.0
83.665253 184.0
83.730812 84.0
83.745476 388.0
83.843773 140.0
83.923981 180.0
84.002403 192.0
84.060791 112.0
84.113571 192.0
84.153114 160.0
84.166672 188.0
84.21685 164.0
84.268211 184.0
84.31282 176.0
84.350288 152.0
84.398735 128.0
84.417023 116.0
84.429825 200.0
84.521294 144.0
84.596336 124.0
84.643944 184.0
84.715378 236.0
84.741028 76.0
84.832664 120.0
84.968384 132.0
85.011261 196.0
85.066971 100.0
85.102371 124.0
85.157463 184.0
85.2089 60.0
85.332047 172.0
85.390892 44.0
85.409286 144.0
85.604385 140.0
85.624641 132.0
85.711227 192.0
85.742554 176.0
85.768364 128.0
85.78495 92.0
85.799698 128.0
85.873466 180.0
85.895599 128.0
85.982323 176.0
85.995239 132.0
86.022934 148.0
86.087555 52.0
86.133728 156.0
86.165138 208.0
86.292671 172.0
86.345581 248.0
86.366646 272.0
86.568382 124.0
86.603577 212.0
86.666565 136.0
86.712898 208.0
86.746262 92.0
86.816719 144.0
86.924316 132.0
86.963295 164.0
86.997887 172.0
87.150864 52.0
87.208473 40.0
87.235931 192.0
87.267967 160.0
87.314461 128.0
87.347939 128.0
87.405617 132.0
87.427948 128.0
87.47316 208.0
87.63092 136.0
87.664467 176.0
87.691414 148.0
87.742752 132.0
87.781914 112.0
87.860252 200.0
87.955429 156.0
88.099693 176.0
88.127251 96.0
88.346001 168.0
88.450798 120.0
88.473267 104.0
88.520073 176.0
88.609985 152.0
88.714943 164.0
88.825584 48.0
88.848099 100.0
88.870613 160.0
88.932541 176.0
88.99527 216.0
89.052711 136.0
89.157928 68.0
89.208679 148.0
89.283897 144.0
89.306122 204.0
89.404305 352.0
89.430656 44.0
89.660439 212.0
89.711334 148.0
89.86599 188.0
89.888634 172.0
89.954697 196.0
90.067993 168.0
90.18515 128.0
90.204056 156.0
90.300491 52.0
90.347366 164.0
90.368591 184.0
90.400764 184.0
90.442406 192.0
90.531395 192.0
90.656425 240.0
90.673485 172.0
90.703812 128.0
90.74173 36.0
90.783447 188.0
90.863113 104.0
90.929535 184.0
90.952309 208.0
90.97509 144.0
90.999771 172.0
91.030151 264.0
91.108032 88.0
91.165039 100.0
91.206749 144.0
91.336159 136.0
91.364693 184.0
91.377625 176.0
91.390053 208.0
91.420174 176.0
91.461746 148.0
91.496017 208.0
91.760849 268.0
91.840942 60.0
91.963066 240.0
91.982155 220.0
92.071892 156.0
92.190346 136.0
92.211365 208.0
92.240776 228.0
92.431297 132.0
92.496376 108.0
92.850853 164.0
92.96405 172.0
92.994759 132.0
93.033806 1092.0
93.067711 188.0
93.102272 84.0
93.121483 196.0
93.165665 76.0
93.240601 140.0
93.269432 208.0
93.321342 44.0
93.369423 144.0
93.432899 208.0
93.610664 148.0
93.640533 144.0
93.658134 172.0
93.746567 196.0
93.854713 104.0
93.901001 72.0
93.924065 184.0
93.993607 124.0
94.036064 164.0
94.141098 148.0
94.256226 192.0
94.279419 108.0
94.292946 68.0
94.308411 168.0
94.345139 108.0
94.412819 124.0
94.490196 212.0
94.513412 148.0
94.563728 168.0
94.662468 188.0
94.687195 224.0
94.733116 320.0
94.794197 120.0
94.867851 112.0
94.900818 40.0
94.94883 168.0
95.032715 128.0
95.09481 112.0
95.108398 176.0
95.154991 96.0
95.193825 140.0
95.250153 120.0
95.279297 208.0
95.341476 208.0
95.520363 188.0
95.604027 180.0
95.654633 112.0
95.670212 140.0
95.691628 112.0
95.730072 204.0
95.783157 132.0
95.819031 212.0
95.94101 108.0
96.069374 220.0
96.076965 160.0
96.161438 148.0
96.321556 168.0
96.401901 136.0
96.472031 108.0
96.495491 104.0
96.509178 188.0
96.546333 184.0
96.560028 212.0
96.618713 144.0
96.843834 108.0
96.91436 88.0
96.930038 104.0
96.961395 92.0
97.053535 156.0
97.09864 112.0
97.157486 156.0
97.171219 176.0
97.234016 184.0
97.281128 152.0
97.328247 132.0
97.428421 148.0
97.450035 192.0
97.654488 232.0
97.668251 192.0
97.691864 132.0
97.823715 132.0
97.841431 144.0
97.87294 200.0
97.920204 176.0
97.963539 108.0
98.099068 192.0
98.192192 172.0
98.21981 124.0
98.290833 192.0
98.328331 80.0
98.367813 200.0
98.432968 120.0
98.468407 148.0
98.525803 184.0
98.614723 136.0
98.749176 136.0
98.856018 100.0
98.905495 160.0
99.030243 160.0
99.264107 124.0
99.305756 164.0
99.466484 124.0
99.492287 224.0
99.522072 88.0
99.589592 140.0
99.680984 160.0
99.784348 212.0
99.931534 128.0
99.947456 160.0
99.967354 124.0
99.995468 96.0
100.023087 140.0
100.056923 156.0
100.074844 252.0
100.341835 148.0
100.355797 72.0
100.459503 160.0
100.521362 180.0
100.571259 100.0
100.599205 164.0
100.619171 88.0
100.691055 204.0
100.707039 232.0
100.721016 164.0
100.792465 244.0
100.819305 208.0
100.854576 148.0
100.88089 204.0
100.928871 48.0
100.978867 228.0
101.207787 360.0
101.263084 156.0
101.309158 144.0
101.371269 40.0
101.39933 164.0
101.447441 132.0
101.46949 212.0
101.585815 208.0
101.615906 188.0
101.694176 88.0
101.744362 128.0
101.792549 200.0
101.852806 172.0
101.886955 160.0
101.9422 236.0
101.959351 152.0
102.236839 60.0
102.526848 236.0
102.559097 164.0
102.65789 144.0
102.682091 248.0
102.966675 176.0
103.047478 204.0
103.061623 88.0
103.108101 184.0
103.152573 124.0
103.166725 60.0
103.241539 160.0
103.2771 124.0
103.35685 236.0
103.391251 156.0
103.496346 212.0
103.541069 152.0
103.555252 120.0
103.579559 144.0
103.792366 160.0
103.825737 220.0
103.981033 212.0
104.035843 176.0
104.260658 224.0
104.334496 176.0
104.430069 144.0
104.472786 132.0
104.515518 176.0
104.55825 140.0
104.572495 260.0
104.643753 172.0
104.670219 164.0
104.782249 156.0
104.965698 184.0
104.998329 76.0
105.019806 280.0
105.039124 152.0
105.076302 240.0
105.117081 212.0
105.14727 120.0
105.167679 196.0
105.21463 132.0
105.239136 204.0
105.253426 172.0
105.40728 152.0
105.479729 136.0
105.584496 324.0
105.6931 136.0
105.813683 100.0
105.832207 184.0
105.852173 236.0
105.881256 160.0
105.963196 48.0
106.05542 136.0
106.127174 172.0
106.194847 120.0
106.349777 160.0
106.420593 156.0
106.443176 220.0
106.502739 216.0
106.59314 252.0
106.806961 88.0
106.848106 192.0
106.961296 148.0
107.006378 196.0
107.237312 124.0
107.311531 156.0
107.517769 164.0
107.59626 136.0
107.639618 88.0
107.711906 164.0
107.777779 172.0
107.822586 176.0
107.837952 168.0
107.885498 164.0
107.918579 352.0
107.945457 172.0
107.970276 248.0
107.990959 236.0
108.026123 308.0
108.075783 228.0
108.115097 204.0
108.149551 204.0
108.164772 120.0
108.303513 152.0
108.369812 156.0
108.402962 120.0
108.434052 172.0
108.492096 112.0
108.565277 204.0
108.691605 136.0
108.8116 144.0
108.881882 156.0
108.91835 208.0
108.946594 96.0
109.028336 460.0
109.050499 152.0
109.071281 220.0
109.13781 72.0
109.160271 180.0
109.185646 172.0
109.227242 184.0
109.254288 112.0
109.389763 164.0
109.427032 112.0
109.522835 104.0
109.555351 184.0
109.576996 188.0
109.768768 76.0
109.802277 228.0
109.906601 160.0
110.02124 160.0
110.056732 148.0
110.121475 204.0
110.179962 160.0
110.301178 132.0
110.342987 164.0
110.378532 40.0
110.414085 120.0
110.451736 64.0
110.466377 148.0
110.504036 56.0
110.675995 132.0
110.748978 44.0
110.776207 176.0
110.831551 164.0
110.90403 200.0
110.918709 120.0
110.999115 5304.0
111.04081 448.0
111.072327 124.0
111.187187 108.0
111.326981 164.0
111.348305 184.0
111.380363 48.0
111.446159 88.0
111.479111 160.0
111.565292 84.0
111.624161 100.0
111.773521 192.0
111.788254 168.0
111.820572 156.0
111.855606 68.0
111.934296 244.0
112.006271 320.0
112.025757 200.0
112.083069 68.0
112.129433 172.0
112.146294 200.0
112.201103 204.0
112.229431 192.0
112.262253 164.0
112.327637 132.0
112.355064 112.0
112.395149 172.0
112.462685 188.0
112.642174 144.0
112.701332 132.0
112.730919 112.0
112.833084 108.0
112.84201 36.0
112.848701 128.0
112.961388 132.0
112.995247 2420.0
113.02697 316.0
113.067375 216.0
113.08371 104.0
113.137039 132.0
113.151855 112.0
113.204796 144.0
113.255623 328.0
113.350967 196.0
113.484505 176.0
113.572479 160.0
113.732727 160.0
113.830391 220.0
113.847992 152.0
113.930313 176.0
113.986572 176.0
113.995995 92.0
113.999199 172.0
114.027969 152.0
114.042847 200.0
114.135422 124.0
114.241272 244.0
114.385246 116.0
114.440674 60.0
114.538643 116.0
114.662224 148.0
114.681404 112.0
114.756775 248.0
114.887268 164.0
114.9608 148.0
114.994217 1296.0
115.056854 164.0
115.076073 216.0
115.191399 64.0
115.224892 124.0
115.270065 196.0
115.306786 208.0
115.330299 164.0
115.370918 84.0
115.409401 156.0
115.426506 256.0
115.597641 144.0
115.616905 232.0
115.781761 144.0
115.876015 148.0
115.918869 156.0
115.974594 200.0
115.993881 144.0
116.008888 188.0
116.038902 200.0
116.088226 116.0
116.107529 184.0
116.167587 204.0
116.184746 216.0
116.21479 144.0
116.261993 88.0
116.386505 156.0
116.442345 164.0
116.483841 180.0
116.556206 156.0
116.601334 184.0
116.788399 172.0
116.898125 184.0
116.949776 172.0
116.991013 504.0
117.031586 96.0
117.048813 28.0
117.196342 180.0
117.221146 168.0
117.298737 260.0
117.406548 152.0
117.581306 124.0
117.674126 64.0
117.784271 212.0
117.909592 128.0
118.018967 216.0
118.099861 96.0
118.192894 172.0
118.212372 132.0
118.255653 144.0
118.290291 208.0
118.394218 212.0
118.550201 140.0
118.580544 120.0
118.734482 84.0
118.773529 180.0
118.819084 116.0
118.861565 152.0
118.957977 240.0
119.036934 188.0
119.129539 192.0
119.199074 156.0
119.227325 172.0
119.344711 208.0
119.40995 92.0
119.493195 220.0
119.533958 200.0
119.66674 124.0
119.681984 108.0
119.760384 136.0
119.786522 240.0
119.819206 200.0
119.838814 148.0
119.899826 148.0
119.973946 152.0
120.100426 164.0
120.122238 184.0
120.141869 112.0
120.174599 52.0
120.226974 132.0
120.29245 108.0
120.309921 200.0
120.427841 220.0
120.460602 128.0
120.581055 160.0
120.617943 212.0
120.727264 72.0
120.748215 228.0
120.814758 180.0
120.8629 316.0
120.882591 148.0
120.916664 176.0
120.946152 156.0
120.98494 200.0
121.028397 68480.0
121.100922 236.0
121.13121 80.0
121.169441 48.0
121.189156 168.0
121.205505 244.0
121.260902 184.0
121.288879 80.0
121.3097 40.0
121.32724 52.0
121.36393 60.0
121.387009 468.0
121.42421 156.0
121.445221 120.0
121.502693 124.0
121.522438 176.0
121.570801 160.0
121.592667 64.0
121.662247 80.0
121.691452 148.0
121.755135 92.0
121.794449 80.0
121.815079 220.0
121.853981 32.0
121.906723 148.0
121.958801 132.0
121.988045 72.0
122.031448 5040.0
122.078194 64.0
122.113388 68.0
122.24099 88.0
122.256393 108.0
122.293808 68.0
122.326828 240.0
122.348846 28.0
122.399483 96.0
122.420479 188.0
122.467026 144.0
122.500801 116.0
122.540459 164.0
122.666924 84.0
122.685455 188.0
122.754272 80.0
122.835884 96.0
122.918861 92.0
122.96386 52.0
122.985939 84.0
123.009262 120.0
123.03273 284.0
123.100746 192.0
123.123909 180.0
123.147125 208.0
123.273056 40.0
123.312836 36.0
123.332733 52.0
123.352623 192.0
123.390968 84.0
123.425583 56.0
123.480873 64.0
123.507416 40.0
123.549446 176.0
123.646812 152.0
123.67337 184.0
123.719864 88.0
123.792427 140.0
123.821724 164.0
123.873161 144.0
123.910332 56.0
124.010056 172.0
124.034431 40.0
124.072121 132.0
124.142433 124.0
124.260643 144.0
124.396019 68.0
124.438202 200.0
124.473732 48.0
124.52243 112.0
124.530708 104.0
124.536858 180.0
124.70034 180.0
124.773697 64.0
124.791489 136.0
124.83596 116.0
124.889336 152.0
124.941765 120.0
125.0718 184.0
125.100739 224.0
125.170914 180.0
125.31678 156.0
125.374718 164.0
125.472794 120.0
125.524078 64.0
125.664612 124.0
125.767265 148.0
125.791824 184.0
125.811913 144.0
125.91687 132.0
126.046883 204.0
126.100075 56.0
126.131371 164.0
126.171608 120.0
126.254349 144.0
126.370667 180.0
126.432922 176.0
126.569885 40.0
126.652748 120.0
126.737885 160.0
126.770401 172.0
126.811844 168.0
126.870125 168.0
126.991669 316.0
127.076462 200.0
127.231331 136.0
127.289711 184.0
127.318901 156.0
127.451447 148.0
127.539093 52.0
127.602043 56.0
127.629021 196.0
127.685242 184.0
127.717781 160.0
127.910255 52.0
127.99617 124.0
128.115189 188.0
128.250397 148.0
128.281952 36.0
128.318024 104.0
128.403717 52.0
128.482666 112.0
128.577637 204.0
128.764832 32.0
128.850677 224.0
128.943283 192.0
129.008713 1472.0
129.119675 136.0
129.183014 148.0
129.348206 44.0
129.44783 128.0
129.47728 164.0
129.507568 244.0
129.582413 184.0
129.663055 80.0
129.706131 120.0
129.721176 168.0
129.760529 32.0
129.783203 148.0
129.844437 204.0
129.862579 124.0
129.978287 68.0
130.014267 272.0
130.273453 228.0
130.288361 140.0
130.334793 256.0
130.659943 152.0
130.72821 172.0
130.762344 32.0
130.869339 168.0
131.008133 764.0
131.060669 168.0
131.290649 168.0
131.347946 56.0
131.498535 132.0
131.560165 72.0
131.683487 176.0
131.822845 76.0
132.008011 156.0
132.035461 40.0
132.122375 120.0
132.248245 140.0
132.303177 220.0
132.358139 108.0
132.394775 92.0
132.410812 192.0
132.433716 128.0
132.45433 112.0
132.479614 196.0
132.552841 68.0
132.715607 196.0
132.894516 216.0
132.983551 180.0
133.213638 48.0
133.234314 160.0
133.33313 120.0
133.425079 172.0
133.440735 220.0
133.507858 108.0
133.627472 152.0
133.770157 120.0
133.877869 180.0
133.915237 136.0
133.954391 104.0
133.97052 88.0
134.04425 192.0
134.164108 164.0
134.26326 140.0
134.290939 52.0
134.334763 180.0
134.364761 192.0
134.401672 36.0
134.424744 192.0
134.452438 180.0
134.468597 176.0
134.484482 168.0
134.595566 148.0
134.671783 224.0
134.724915 132.0
134.761887 200.0
134.930603 168.0
134.997665 104.0
135.036987 124.0
135.092499 172.0
135.16423 124.0
135.51619 148.0
135.557388 164.0
135.779968 152.0
135.840775 84.0
136.158768 260.0
136.177353 244.0
136.195557 196.0
136.258652 208.0
136.279572 172.0
136.456223 168.0
136.493423 192.0
136.602737 168.0
136.628326 152.0
136.663223 180.0
136.705109 200.0
136.737686 168.0
136.83313 96.0
136.884369 156.0
136.926285 164.0
137.017136 128.0
137.313187 72.0
137.48349 140.0
137.607208 76.0
137.670258 76.0
137.792847 100.0
137.833786 180.0
137.861832 112.0
137.892212 164.0
137.916321 228.0
138.065231 204.0
138.102646 104.0
138.172836 124.0
138.261749 192.0
138.360062 80.0
138.384979 180.0
138.400482 232.0
138.434998 152.0
138.468246 240.0
138.524002 112.0
138.578232 132.0
138.613754 276.0
138.65123 172.0
138.676819 148.0
138.695068 176.0
138.744293 184.0
138.796616 192.0
138.847092 176.0
138.861771 232.0
138.88031 408.0
138.902191 420.0
138.911575 60.0
138.915634 384.0
138.940445 1000.0
138.994705 150372.0
139.035934 84.0
139.07251 148.0
139.07637 280.0
139.119003 124.0
139.161835 116.0
139.17099 96.0
139.216644 124.0
139.256439 212.0
139.283997 120.0
139.310028 116.0
139.329208 72.0
139.357315 116.0
139.379593 856.0
139.407928 88.0
139.432251 52.0
139.493805 136.0
139.514343 44.0
139.542557 96.0
139.574982 172.0
139.604446 84.0
139.625259 72.0
139.656952 56.0
139.68367 92.0
139.709549 48.0
139.727585 84.0
139.758957 44.0
139.777786 56.0
139.824387 176.0
139.849091 168.0
139.884659 168.0
139.926071 92.0
139.949219 72.0
139.964966 240.0
139.997803 10820.0
140.046173 268.0
140.067932 84.0
140.098816 104.0
140.173401 68.0
140.231796 108.0
140.253799 68.0
140.272385 100.0
140.29361 52.0
140.320618 148.0
140.343109 80.0
140.359619 112.0
140.43576 56.0
140.468109 84.0
140.523666 168.0
140.552261 120.0
140.579681 84.0
140.62085 132.0
140.642731 200.0
140.666336 68.0
140.702698 176.0
140.726257 88.0
140.759064 148.0
140.789749 84.0
140.817337 232.0
140.851669 108.0
140.878876 148.0
140.904404 152.0
140.961044 456.0
140.991302 47876.0
141.063416 96.0
141.08728 56.0
141.111359 188.0
141.135025 168.0
141.151657 148.0
141.189499 88.0
141.218781 116.0
141.259491 80.0
141.279831 60.0
141.311203 84.0
141.32048 72.0
141.356674 56.0
141.408569 92.0
141.43074 48.0
141.470108 80.0
141.49379 84.0
141.538773 112.0
141.57193 48.0
141.600342 60.0
141.64061 60.0
141.700073 164.0
141.794632 60.0
141.83493 44.0
141.879974 56.0
141.93924 92.0
141.962952 52.0
141.994888 2972.0
142.045975 36.0
142.078629 312.0
142.129013 96.0
142.169357 72.0
142.194824 180.0
142.221573 48.0
142.314575 68.0
142.356903 88.0
142.38916 96.0
142.603989 88.0
142.661041 164.0
142.837021 96.0
142.858429 112.0
142.898087 72.0
143.022629 116.0
143.093262 228.0
143.113098 40.0
143.163834 216.0
143.189301 96.0
143.513397 40.0
144.344376 48.0
144.892517 80.0
144.96257 116.0
145.041092 124.0
145.10582 164.0
145.196945 116.0
145.261703 44.0
145.578537 148.0
145.616959 40.0
145.765915 44.0
145.878876 92.0
145.929367 80.0
146.191574 44.0
146.261368 68.0
146.398605 104.0
146.417877 144.0
146.494949 92.0
147.382828 72.0
147.39975 56.0
147.566528 104.0
147.752762 116.0
147.861664 136.0
148.157089 132.0
148.19342 124.0
148.746384 68.0
148.826508 88.0
148.928497 56.0
149.020813 152.0
149.326614 96.0
149.604523 52.0
149.67514 124.0
149.762817 48.0
149.955307 80.0
150.269882 144.0
150.470032 132.0
150.653198 124.0
150.880478 144.0
150.922043 88.0
150.958725 84.0
151.11528 100.0
151.240097 64.0
151.264572 100.0
151.522095 52.0
151.570724 48.0
151.592773 48.0
152.066116 180.0
152.139755 148.0
152.179047 80.0
152.422226 156.0
153.271179 32.0
154.290558 116.0
154.515625 148.0
154.998459 148.0
155.673218 44.0
156.244919 144.0
156.264816 108.0
156.498795 140.0
157.069504 132.0
157.234192 128.0
157.316559 100.0
157.341522 108.0
157.681259 152.0
158.083908 152.0
158.136475 68.0
158.760315 216.0
159.023758 184.0
159.066437 100.0
159.83551 56.0
160.092285 184.0
161.009491 176.0
161.457626 212.0
162.146286 220.0
162.174164 128.0
162.229935 148.0
163.298981 100.0
164.106262 188.0
164.195511 124.0
165.552597 96.0
166.103668 168.0
166.16011 188.0
166.32692 96.0
166.491241 188.0
166.609406 132.0
166.725037 124.0
167.15451 52.0
168.594971 212.0
168.720169 96.0
168.828781 164.0
169.05127 116.0
170.067245 132.0
170.62056 68.0
170.66217 120.0
171.513489 108.0
171.962128 124.0
172.131821 196.0
172.421814 152.0
172.615265 412.0
173.096771 196.0
173.177963 176.0
173.749435 156.0
174.327103 52.0
175.96553 124.0
176.695007 44.0
176.760635 184.0
176.946442 168.0
178.240845 44.0
178.456161 40.0
178.730133 164.0
179.55864 160.0
179.708038 152.0
179.809433 200.0
179.993637 184.0
180.32225 136.0
180.602997 104.0
180.723389 108.0
181.695984 124.0
182.100021 188.0
182.262527 156.0
182.477554 116.0
182.531342 72.0
183.015686 136.0
183.608551 64.0
183.732635 128.0
183.773117 216.0
184.764694 120.0
184.875641 76.0
184.948715 168.0
185.062424 172.0
185.495895 208.0
186.954483 140.0
187.796356 180.0
187.957321 176.0
188.484344 88.0
189.080521 132.0
189.507721 184.0
189.529648 100.0
189.688599 104.0
189.732468 120.0
190.429474 128.0
190.522873 148.0
191.213074 124.0
191.276382 140.0
192.796158 56.0
193.653854 76.0
194.930069 72.0
195.630981 88.0
195.862106 108.0
197.330063 212.0
198.755768 80.0
199.567551 188.0
200.023315 200.0
200.175354 180.0
200.335907 92.0
201.074692 44.0
202.075058 72.0
203.13179 128.0
205.162308 120.0
205.998474 92.0
206.19278 164.0
206.802002 76.0
207.612823 228.0
207.635773 152.0
208.704056 152.0
209.466736 96.0
210.074997 84.0
211.158218 212.0
211.383881 176.0
211.847137 32.0
212.038391 136.0
212.310913 128.0
213.126648 156.0
213.443481 120.0
214.955353 36.0
215.913574 124.0
217.026382 140.0
217.214081 88.0
219.508209 136.0
219.567184 180.0
220.281494 96.0
220.452866 152.0
221.141983 112.0
221.461761 156.0
222.954163 64.0
223.170746 196.0
223.822815 28.0
224.004501 132.0
224.767761 20.0
224.988632 64.0
225.936035 220.0
227.185333 216.0
227.422394 232.0
227.975021 124.0
229.308289 164.0
229.44696 88.0
230.029205 184.0
230.94783 52.0
231.356354 116.0
231.462326 124.0
231.622849 80.0
231.744034 92.0
231.850082 124.0
232.074417 188.0
232.471802 96.0
232.511246 92.0
232.614456 128.0
232.669662 192.0
232.683838 196.0
232.726776 68.0
232.754105 100.0
232.790466 136.0
232.80159 132.0
232.813019 220.0
232.851288 156.0
232.872559 92.0
232.908997 172.0
232.955795 276.0
232.982361 364.0
233.035706 47164.0
233.113998 104.0
233.145279 136.0
233.194626 76.0
233.241562 72.0
233.275391 88.0
233.306442 148.0
233.344452 56.0
233.390137 64.0
233.416183 224.0
233.444687 128.0
233.473434 108.0
233.507797 60.0
233.542206 68.0
233.569794 136.0
233.620346 72.0
233.653076 168.0
233.699448 76.0
233.746552 92.0
233.780487 120.0
233.863785 76.0
234.003586 152.0
234.038498 4648.0
234.105469 84.0
234.134766 144.0
234.170227 56.0
234.274872 80.0
234.357147 76.0
234.415039 80.0
234.436371 132.0
234.52388 28.0
234.549149 104.0
234.582672 136.0
234.619263 48.0
234.649307 56.0
234.790024 36.0
234.869324 116.0
234.942535 56.0
234.977966 144.0
235.032196 11320.0
235.122574 72.0
235.156143 40.0
235.223297 120.0
235.259933 80.0
235.336258 172.0
235.385117 44.0
235.449249 44.0
235.482834 44.0
235.550858 60.0
235.612442 84.0
235.644745 92.0
235.74559 80.0
235.792587 116.0
236.03627 1348.0
236.10939 72.0
236.344955 40.0
236.403091 52.0
236.427582 36.0
236.745972 116.0
236.785782 48.0
236.929749 44.0
236.985931 48.0
237.043121 152.0
237.141205 28.0
237.322067 84.0
237.530624 148.0
237.607315 116.0
237.690155 140.0
237.763809 140.0
238.230545 124.0
238.673126 72.0
239.073044 104.0
239.451736 136.0
239.725922 124.0
240.126709 108.0
241.24762 80.0
241.479538 104.0
241.649689 144.0
241.999435 44.0
242.278183 88.0
242.591202 48.0
243.496597 112.0
245.077606 124.0
245.45166 100.0
247.401337 132.0
249.141907 136.0
250.330872 96.0
251.835281 60.0
252.141754 196.0
252.97998 64.0
253.360016 52.0
258.524811 48.0
259.947693 72.0
260.368256 96.0
261.847717 112.0
263.095642 100.0
263.667389 64.0
264.990906 56.0
266.66214 92.0
269.301361 112.0
270.386871 100.0
270.422852 80.0
271.235199 100.0
271.969971 44.0
272.896393 180.0
275.206177 76.0
279.598602 48.0
283.553009 84.0
283.801086 88.0
289.011993 144.0
296.147766 132.0
296.72348 100.0
302.061554 116.0
304.845734 84.0
311.027802 72.0
311.122589 48.0
315.52652 56.0
316.651825 92.0
317.101807 84.0
321.058929 148.0
325.0047 80.0
325.09082 104.0
325.830505 140.0
330.221222 112.0
331.372406 40.0
334.990936 96.0
339.71051 56.0
344.455658 40.0
344.740173 92.0
344.936066 140.0
346.998169 152.0
348.107635 68.0
352.937073 124.0
362.244812 140.0
362.786713 60.0
367.30069 128.0
374.480133 68.0
385.358124 40.0
389.216339 88.0
400.237091 52.0
405.233978 80.0
408.312958 84.0
410.511871 80.0
414.47345 68.0
451.579987 80.0
454.299469 48.0
475.272766 32.0
475.316132 20.0
493.260803 20.0
495.212189 56.0
498.49527 56.0
500.176483 96.0
504.597565 108.0
504.91507 48.0
509.536682 52.0
518.65271 52.0
519.255737 40.0
527.264343 64.0
529.744385 96.0
541.217346 44.0
544.900208 100.0
571.671814 64.0
573.758118 208.0
574.683411 40.0
585.84021 68.0
592.013184 40.0
592.957947 64.0
593.651245 72.0
596.997253 68.0
604.485596 72.0
605.5578 212.0
616.346619 108.0
620.311035 20.0
620.965576 60.0
621.734558 100.0
659.171326 144.0
673.07196 56.0
675.759766 160.0
680.081848 120.0
681.59314 56.0
682.196045 68.0
687.775208 56.0
701.424377 48.0
701.672119 100.0
701.972717 44.0
704.802124 96.0
719.039978 56.0
737.592773 152.0
739.14502 88.0
744.50647 148.0
744.625977 112.0
746.294312 168.0
746.827271 128.0
747.088379 188.0
748.008057 92.0
748.498108 220.0
771.211914 160.0
772.489258 140.0
776.605042 164.0
778.286621 108.0
779.597595 140.0
783.253113 44.0
783.292114 80.0
786.040771 180.0
791.053589 160.0
798.08429 88.0
798.663513 160.0
801.309448 172.0
802.825745 168.0
803.801697 144.0
804.445129 68.0
805.354309 168.0
805.597229 168.0
806.128296 168.0
808.197998 188.0
815.690063 80.0
816.702209 32.0
817.4646 216.0
819.263855 108.0
820.683044 236.0
828.70813 180.0
832.178284 156.0
832.390747 196.0
833.315552 168.0
836.415344 188.0
837.325073 156.0
837.613098 176.0
842.747742 220.0
844.331726 128.0
847.382385 216.0
854.058594 140.0
856.503357 132.0
857.150085 272.0
861.344971 176.0
863.653931 204.0
878.9646 56.0
881.226074 196.0
884.384094 72.0
890.028076 96.0
899.424927 152.0
902.170837 176.0
905.731445 124.0
909.185059 84.0
909.665222 148.0
909.719299 196.0
912.308533 100.0
913.378967 104.0
913.782043 180.0
914.119019 88.0
915.27478 136.0
915.925232 80.0
916.756714 248.0
919.856934 152.0
924.90448 152.0
929.753357 192.0
931.313782 240.0
931.817993 168.0
934.304688 32.0
936.057617 180.0
938.452393 184.0
938.775574 232.0
940.78302 216.0
940.923462 136.0
941.967773 192.0
944.027527 140.0
944.96344 120.0
949.171509 44.0
953.425842 144.0
956.802917 36.0
956.999939 136.0
959.871399 212.0
961.796326 136.0
962.685425 148.0
963.358643 84.0
963.488403 148.0
963.896179 136.0
965.701477 60.0
966.016968 84.0
966.084961 40.0
966.889404 116.0
967.112244 272.0
969.205505 184.0
972.10144 208.0
977.545227 184.0
978.223694 48.0
979.039368 184.0
984.977234 76.0
987.027222 156.0
987.677673 156.0
989.010498 232.0
991.089722 208.0
991.910767 164.0
993.378174 124.0
994.61438 208.0
994.82782 148.0
998.296204 180.0
998.988098 176.0
999.900513 156.0
1000.775513 184.0
1001.216309 164.0
1001.386414 124.0
1002.047852 132.0
1005.604553 144.0
1010.255371 176.0
1012.122498 140.0
1012.895142 96.0
1015.627258 176.0
1028.129761 208.0
1028.487183 176.0
1028.646729 120.0
1028.819092 168.0
1030.518066 156.0
1032.755615 192.0
1033.043457 140.0
1033.11377 184.0
1034.20166 96.0
1035.514282 164.0
1036.225342 136.0
1037.77002 108.0
1039.0271 60.0
1040.381348 196.0
1040.458374 228.0
1041.228882 192.0
1041.440918 64.0
1042.905884 216.0
1043.420166 204.0
1045.324097 176.0
1049.001831 208.0
1049.285522 152.0
1049.395142 164.0
1050.943237 224.0
1051.807983 264.0
1052.705444 112.0
1054.152588 172.0
1055.264282 140.0
1057.703369 196.0
1057.832764 168.0
1059.108521 184.0
1060.23584 388.0
1061.240601 64.0
1061.370361 172.0
1062.207031 92.0
1062.758423 164.0
1066.167725 56.0
1068.059814 112.0
1068.417603 176.0
1068.54126 132.0
1068.807983 52.0
1069.291138 212.0
1071.164917 132.0
1071.770752 192.0
1071.927124 120.0
1072.011841 232.0
1073.400391 160.0
1073.843872 232.0
1074.313599 156.0
1075.977783 128.0
1076.297729 264.0
1076.572021 28.0
1077.133667 152.0
1079.015869 164.0
1079.198975 180.0
1083.335327 168.0
1083.676025 228.0
1084.554199 172.0
1087.512451 124.0
1090.192139 208.0
1091.296509 196.0
1091.743652 228.0
1092.276367 172.0
1093.065918 164.0
1093.612183 148.0
1094.105957 84.0
1095.357178 128.0
1095.515259 156.0
1097.044189 248.0
1097.15625 280.0
1097.235352 140.0
1098.494995 232.0
1098.620361 232.0
1098.79187 60.0
1098.923828 36.0
1100.587158 184.0
1104.182251 136.0
1107.246582 172.0
1107.55127 176.0
1107.928955 140.0
1108.227051 188.0
1108.538452 152.0
1109.420044 76.0
1109.751587 160.0
1113.828979 172.0
1114.039062 164.0
1116.212524 196.0
1116.71936 92.0
1117.276733 88.0
1117.48291 180.0
1118.77417 76.0
1118.93396 180.0
1119.18689 100.0
1120.885498 156.0
1121.232056 176.0
1121.572021 156.0
1121.812012 128.0
1122.025391 96.0
1122.072021 164.0
1122.532104 88.0
1122.778809 100.0
1124.473511 84.0
1125.448242 36.0
1125.615112 52.0
1127.118164 56.0
1127.49231 228.0
1130.334595 204.0
1130.615601 108.0
1132.517212 136.0
1133.27417 184.0
1134.359863 188.0
1134.78894 184.0
1135.023682 56.0
1135.620605 140.0
1135.875488 224.0
1136.096802 148.0
1137.069824 76.0
1139.835327 172.0
1140.004761 172.0
1143.858765 64.0
1144.471436 140.0
1144.525269 280.0
1145.239136 212.0
1145.906128 228.0
1146.216064 132.0
1146.472168 184.0
1147.867554 128.0
1148.69043 172.0
1149.324707 104.0
1151.53894 84.0
1152.288818 264.0
1153.403931 152.0
1153.910889 184.0
1154.252563 220.0
1154.580444 36.0
1155.613647 228.0
1158.337036 140.0
1158.648682 140.0
1159.18396 112.0
1159.258423 140.0
1160.071899 92.0
1160.227783 168.0
1160.370117 144.0
1160.776978 148.0
1161.035278 188.0
1161.265259 140.0
1161.862305 224.0
1162.696899 140.0
1162.900513 176.0
1164.228638 164.0
1164.801758 72.0
1165.188965 176.0
1165.410889 220.0
1166.092773 240.0
1166.568604 144.0
1167.860596 160.0
1170.603394 204.0
1170.766846 120.0
1170.828247 152.0
1170.991699 156.0
1171.740967 184.0
1172.081665 156.0
1174.167725 52.0
1174.406494 200.0
1175.511719 208.0
1175.853027 156.0
1178.024414 192.0
1178.420654 184.0
1178.652954 116.0
1180.642334 168.0
1180.820068 248.0
1180.929565 128.0
1182.229492 136.0
1182.427979 176.0
1183.00293 152.0
1183.167236 236.0
1183.372681 164.0
1183.838257 216.0
1184.228882 144.0
1184.310913 144.0
1184.536987 152.0
1184.797241 152.0
1185.379639 180.0
1185.482422 124.0
1185.715454 144.0
1185.886841 156.0
1185.982788 144.0
1186.058228 180.0
1186.610596 168.0
1187.532471 120.0
1188.904663 136.0
1189.323364 96.0
1189.549805 164.0
1189.680298 196.0
1190.33252 156.0
1191.033081 164.0
1191.617065 212.0
1192.324829 184.0
1192.476074 232.0
1192.558472 208.0
1192.689087 236.0
1192.82666 172.0
1193.14978 164.0
1193.362915 128.0
1193.720459 180.0
1194.552734 164.0
1195.096191 100.0
1196.706909 124.0
1197.354126 172.0
1197.560791 56.0
1198.703125 164.0
1201.228027 164.0
1201.911011 212.0
1202.02832 148.0
1203.187988 160.0
1205.612427 204.0
1205.97876 200.0
1206.179199 200.0
1206.310547 140.0
1208.025635 44.0
1209.139648 144.0
1210.129639 172.0
1210.80127 200.0
1211.015991 156.0
1211.348511 192.0
1211.674072 164.0
1212.574951 148.0
1212.651245 76.0
1212.914673 248.0
1213.136475 184.0
1213.262573 184.0
1213.448486 200.0
1214.349976 180.0
1216.278931 116.0
1216.771851 80.0
1217.077393 204.0
1217.961548 140.0
1218.042725 156.0
1218.140015 44.0
1218.327515 80.0
1219.703491 84.0
1219.891235 224.0
1220.503052 148.0
1220.572632 148.0
1221.198486 92.0
1221.275024 76.0
1221.664551 116.0
1221.768921 192.0
1222.012451 124.0
1222.492554 128.0
1222.701416 56.0
1223.411377 160.0
1224.560303 200.0
1224.818115 152.0
1225.43811 264.0
1225.612305 136.0
1227.223633 148.0
1227.428955 132.0
1227.487427 168.0
1227.794312 160.0
1228.659302 248.0
1228.840698 96.0
1230.411011 128.0
1230.885864 188.0
1231.870605 148.0
1232.059326 144.0
1234.267334 204.0
1234.631592 196.0
1236.177734 164.0
1236.449829 168.0
1236.996582 136.0
1237.73877 100.0
1237.892822 136.0
1238.439087 156.0
1239.006592 132.0
1239.272827 124.0
1239.447998 116.0
1239.945557 168.0
1240.863892 152.0
1241.558105 192.0
1243.220825 160.0
1244.891602 148.0
1247.224243 160.0
1247.948364 184.0
1248.707886 152.0
1249.101807 124.0
1249.58728 144.0
1250.677979 172.0
1251.353882 188.0
1251.649658 196.0
1251.719971 148.0
1253.424805 136.0
1253.586792 256.0
1253.833496 212.0
1255.144775 124.0
1255.857056 188.0
1256.386108 96.0
1256.5625 132.0
1257.141113 196.0
1258.418823 196.0
1259.923218 180.0
1260.022095 116.0
1260.565552 216.0
1260.700439 128.0
1260.905396 116.0
1261.9021 84.0
1262.303711 92.0
1263.076172 176.0
1263.31665 164.0
1263.415649 108.0
1263.69873 120.0
1264.03833 64.0
1264.654053 216.0
1265.496582 204.0
1265.588623 216.0
1266.700562 136.0
1266.990967 104.0
1267.316895 140.0
1267.642822 240.0
1268.997314 156.0
1269.429321 108.0
1271.359009 188.0
1272.355713 160.0
1273.105347 200.0
1273.228638 172.0
1273.503174 44.0
1273.851196 184.0
1274.227783 192.0
1274.654053 48.0
1274.803345 252.0
1274.895752 172.0
1274.952515 96.0
1275.514038 252.0
1276.239258 116.0
1277.085571 144.0
1277.853882 232.0
1278.230957 212.0
1278.707764 136.0
1279.213135 124.0
1280.238525 164.0
1280.388062 232.0
1280.623169 164.0
1280.715698 56.0
1281.307007 80.0
1281.599121 164.0
1281.991089 152.0
1283.366821 164.0
1283.823242 220.0
1284.158447 188.0
1285.11438 160.0
1285.449829 212.0
1285.499756 168.0
1287.142822 148.0
1287.684326 132.0
1287.805786 148.0
1288.363037 144.0
1289.176025 216.0
1289.799438 248.0
1290.049561 200.0
1290.210938 128.0
1290.6073 128.0
1291.615723 168.0
1291.780151 128.0
1292.080688 124.0
1293.18811 164.0
1293.633667 132.0
1294.93689 64.0
1295.18042 216.0
1295.467041 136.0
1295.939819 152.0
1296.08313 168.0
1297.158203 168.0
1297.918213 208.0
1298.111816 176.0
1298.513428 164.0
1298.886475 76.0
1300.701904 152.0
1301.678467 92.0
1302.317627 240.0
1302.446899 208.0
1303.100708 88.0
1303.22998 100.0
1303.984497 96.0
1304.55957 168.0
1304.933472 248.0
1305.328979 148.0
1305.415283 192.0
1306.033813 192.0
1306.580566 140.0
1306.810791 160.0
1307.112915 116.0
1307.213745 120.0
1307.37207 112.0
1307.839844 204.0
1308.470581 180.0
1308.732544 168.0
1309.080078 184.0
1309.135864 148.0
1309.495972 172.0
1309.5896 124.0
1310.273926 160.0
1310.48291 188.0
1310.900879 168.0
1311.26123 168.0
1311.347656 84.0
1311.556763 68.0
1312.277588 172.0
1313.005981 64.0
1315.820312 180.0
1317.264648 32.0
1317.601074 192.0
1318.630371 336.0
1319.664062 96.0
1320.235352 272.0
1320.908081 152.0
1321.624268 160.0
1322.297363 56.0
1322.956055 80.0
1323.491821 172.0
1323.839478 116.0
1324.187012 108.0
1324.43335 220.0
1325.889648 152.0
1326.897339 96.0
1328.035889 120.0
1328.391235 92.0
1328.558105 176.0
1328.949951 124.0
1329.320068 196.0
1329.523193 100.0
1329.740967 124.0
1329.813477 148.0
1330.060303 124.0
1330.140137 140.0
1330.292603 180.0
1331.243774 172.0
1331.665039 64.0
1332.391479 164.0
1333.583252 40.0
1333.772217 136.0
1334.055786 80.0
1334.135742 112.0
1334.237549 168.0
1334.332031 64.0
1334.644653 176.0
1335.128906 176.0
1335.5625 184.0
1335.626465 180.0
1335.721069 140.0
1336.179443 168.0
1336.89978 156.0
1337.765991 124.0
1338.515869 180.0
1338.836304 112.0
1338.974731 248.0
1340.082031 188.0
1340.154785 172.0
1340.249512 128.0
1340.322388 272.0
1340.978394 192.0
1341.145996 164.0
1341.218872 224.0
1341.619873 148.0
1341.780273 52.0
1342.436523 152.0
1342.61145 152.0
1343.253418 200.0
1343.654663 168.0
1343.705688 64.0
1344.063232 84.0
1344.121582 184.0
1346.027344 256.0
1346.121826 168.0
1346.216675 224.0
1346.684204 152.0
1346.935547 284.0
1347.133789 124.0
1347.217407 168.0
1347.37085 44.0
1347.838501 136.0
1347.911499 228.0
1348.737427 160.0
1349.197998 220.0
1350.126587 184.0
1350.397217 136.0
1350.836182 196.0
1351.640991 152.0
1352.951172 208.0
1353.082886 64.0
1353.207397 180.0
1353.793213 224.0
1354.130127 164.0
1354.232666 156.0
1355.346191 208.0
1355.522095 108.0
1355.756592 160.0
1355.881104 148.0
1356.14502 196.0
1356.430908 152.0
1357.274048 244.0
1357.853394 164.0
1358.176147 140.0
1358.71167 180.0
1359.04187 160.0
1360.164673 184.0
1360.282227 176.0
1360.511475 220.0
1360.766724 172.0
1361.075073 132.0
1361.419434 164.0
1361.978516 192.0
1362.301636 172.0
1362.478027 148.0
1362.573486 152.0
1362.963013 160.0
1363.602295 44.0
1364.219727 52.0
1365.307983 172.0
1365.411011 188.0
1365.484497 176.0
1367.07373 160.0
1367.198853 180.0
1367.265015 176.0
1367.699341 156.0
1367.824463 152.0
1368.47229 140.0
1369.61377 192.0
1371.655029 200.0
1372.56189 156.0
1372.797852 136.0
1372.960083 52.0
1373.734619 172.0
1374.435547 180.0
1374.981567 152.0
1375.815674 36.0
1376.059326 128.0
1376.223267 164.0
1376.554077 44.0
1376.97583 160.0
1377.130127 204.0
1377.337036 160.0
1377.56604 64.0
1377.950195 48.0
1378.94043 160.0
1379.406128 76.0
1379.516968 184.0
1379.6427 212.0
1380.411621 248.0
1380.522583 144.0
1380.848022 216.0
1380.966309 184.0
1382.238037 76.0
1382.416382 144.0
1383.519287 52.0
1383.926514 212.0
1383.985718 188.0
1384.274536 132.0
1384.50415 116.0
1385.26709 196.0
1385.400391 148.0
1385.674561 76.0
1387.008545 136.0
1387.164185 128.0
1387.95752 156.0
1388.032837 176.0
1388.202271 236.0
1388.914185 204.0
1388.980957 184.0
1389.070068 200.0
1389.997437 188.0
1390.450195 180.0
1390.724731 176.0
1390.925171 128.0
1391.333496 204.0
1391.526489 172.0
1391.738403 152.0
1391.860718 248.0
1392.024292 232.0
1392.128052 128.0
1392.269165 124.0
1393.472534 176.0
1393.732544 160.0
1394.787964 108.0
1395.442139 108.0
1395.880859 96.0
1396.022217 176.0
1396.819824 168.0
1397.256958 152.0
1397.383423 112.0
1397.450439 132.0
1398.082886 208.0
1398.787231 128.0
1398.931519 204.0
1399.489868 168.0
1399.84729 64.0
1399.996216 160.0
1400.145142 72.0
1400.517578 52.0
1400.681519 192.0
1401.172974 140.0
1401.538208 64.0
1401.657471 188.0
1401.94812 136.0
1402.223877 160.0
1404.333984 120.0
1404.953125 92.0
1405.406006 204.0
1406.169434 96.0
1406.226562 200.0
1406.691895 132.0
1406.848755 148.0
1407.109985 140.0
1407.363892 184.0
1407.782104 168.0
1408.065918 168.0
1408.626099 224.0
1408.835327 164.0
1409.231201 132.0
1409.39563 180.0
1409.597412 172.0
1409.896362 208.0
1410.718506 200.0
1410.77832 192.0
1411.002686 112.0
1411.279297 148.0
1411.840088 156.0
1412.012207 228.0
1412.422607 184.0
1412.834961 140.0
1413.500977 152.0
1413.628174 108.0
1413.964966 148.0
1414.054688 124.0
1414.953003 268.0
1415.095337 152.0
1415.289917 116.0
1415.385742 188.0
1416.533203 180.0
1416.600708 132.0
1417.540405 168.0
1417.709595 108.0
1417.829468 196.0
1418.151855 112.0
1418.436646 168.0
1419.00647 236.0
1419.186401 48.0
1419.642212 380.0
1419.891235 160.0
1420.183838 104.0
1420.521362 44.0
1420.889038 100.0
1421.586792 52.0
1421.684326 168.0
1421.864502 192.0
1421.924561 140.0
1422.082153 200.0
1422.14978 144.0
1422.299805 116.0
1422.667725 224.0
1423.148193 120.0
1423.283325 228.0
1423.350708 156.0
1424.177124 148.0
1424.289795 196.0
1425.093628 124.0
1425.364136 228.0
1426.423828 148.0
1426.634399 124.0
1426.807251 120.0
1426.912598 76.0
1429.515137 124.0
1429.613037 192.0
1429.72583 144.0
1430.049561 176.0
1430.772217 260.0
1431.78125 196.0
1431.833984 164.0
1431.909302 144.0
1432.122437 204.0
1432.41394 164.0
1432.624878 208.0
1432.903687 172.0
1432.98645 152.0
1433.33313 184.0
1433.975342 188.0
1434.184814 128.0
1434.787842 116.0
1435.896362 132.0
1436.077393 192.0
1436.160278 164.0
1436.794067 36.0
1436.89209 256.0
1437.012817 224.0
1437.307129 104.0
1437.616455 124.0
1437.76062 200.0
1438.461792 192.0
1438.55249 240.0
1439.126221 192.0
1439.858765 184.0
1440.051392 164.0
1440.289307 164.0
1440.833252 232.0
1440.96167 168.0
1441.173218 148.0
1441.619019 192.0
1443.206543 152.0
1444.325806 188.0
1444.651123 168.0
1445.513672 72.0
1446.225098 188.0
1446.315918 148.0
1446.951904 152.0
1448.534668 156.0
1448.7771 176.0
1448.82605 140.0
1449.042236 160.0
1450.186523 128.0
1450.557983 324.0
1451.331299 176.0
1451.55127 152.0
1452.400635 188.0
1452.830933 188.0
1453.16687 172.0
1454.024414 208.0
1455.026489 184.0
1455.094727 148.0
1456.180664 144.0
1456.568115 136.0
1456.709961 188.0
1456.765625 168.0
1456.909912 200.0
1457.19104 188.0
1457.806519 112.0
1458.07251 208.0
1459.585449 40.0
1459.669067 84.0
1459.912354 132.0
1460.589355 228.0
1460.977295 168.0
1461.521729 152.0
1461.776245 180.0
1462.042603 180.0
1462.30896 240.0
1462.484009 88.0
1462.659058 164.0
1462.910278 100.0
1463.344238 172.0
1463.915405 132.0
1463.96875 196.0
1464.524658 104.0
1464.628906 176.0
1464.70752 212.0
1464.844604 76.0
1465.781738 360.0
1465.941772 168.0
1466.101807 244.0
1466.178711 140.0
1466.582031 196.0
1466.772583 176.0
1467.100342 180.0
1467.443481 180.0
1467.778931 76.0
1468.73999 132.0
1468.97644 136.0
1470.105713 184.0
1470.82312 196.0
1471.014038 160.0
1471.571289 200.0
1471.976074 128.0
1472.472412 192.0
1473.557129 212.0
1473.702393 160.0
1474.145508 60.0
1474.275513 128.0
1476.247925 180.0
1476.400879 176.0
1476.997437 40.0
1477.141479 148.0
1477.326416 152.0
1477.433472 120.0
1477.571167 232.0
1478.060913 152.0
1478.198608 216.0
1479.3927 208.0
1479.637695 64.0
1480.127686 132.0
1480.319092 168.0
1480.564209 224.0
1480.832275 112.0
1481.100342 120.0
1481.506348 124.0
1481.621338 216.0
1481.912476 132.0
1482.218994 176.0
1482.786011 136.0
1482.931641 172.0
1483.10791 140.0
1483.583252 176.0
1484.234985 112.0
1484.649048 204.0
1484.733398 160.0
1484.90979 132.0
1485.753662 176.0
1486.436523 104.0
1486.497925 252.0
1486.659058 132.0
1486.766479 116.0
1488.30188 132.0
1488.862427 120.0
1488.92395 128.0
1489.108276 148.0
1489.338623 120.0
1489.423218 196.0
1489.75354 188.0
1490.183716 116.0
1490.598633 216.0
1490.690918 152.0
1490.829224 144.0
1490.906128 172.0
1490.963623 220.0
1491.894043 176.0
1492.036011 196.0
1492.828003 228.0
1493.558716 104.0
1493.966431 128.0
1494.089478 148.0
1494.635864 28.0
1494.720459 152.0
1494.820435 164.0
1495.213013 172.0
1495.728638 160.0
1496.032227 180.0
1496.421631 188.0
1496.521606 120.0
1496.575562 120.0
1497.168579 148.0
1497.429565 112.0
1497.730835 180.0
1498.470337 96.0
1498.654297 148.0
1498.963501 140.0
1499.472168 88.0
1499.988647 172.0
1500.481934 136.0
1501.60791 236.0
1502.178711 140.0
1503.953491 108.0
1504.154175 124.0
1504.225952 148.0
1504.586548 156.0
1504.663696 144.0
