>compound Anagrelide hydrochloride
>formula C10H7Cl2N3O
>ionization [M+H]+
>parentmass 256.005005
#inchi InChI=1S/C10H7Cl2N3O/c11-6-1-2-7-5(9(6)12)3-15-4-8(16)14-10(15)13-7/h1-2H,3-4H2,(H,13,14,16)
#inchikey OTBXOEAOVRKTNQ
#origInchi InChI=1S/C10H7Cl2N3O.ClH/c11-6-1-2-7-5(9(6)12)3-15-4-8(16)14-10(15)13-7;/h1-2H,3-4H2,(H,13,14,16);1H
#Ion_Source LC-ESI
#Instrument qTof
#Compound_Source Commercial
#PI Dorrestein
#Data_Collector Garg_Neha
#Scan -1
#Precursor_MZ 256.004
#ExactMass 254.997
#Charge 1
#CAS_Number 58579-51-4, 68475-42-3 (free base)
#Pubmed_ID N/A
#Smiles C1(=C(C(=C2C(=C1)NC3N(C2)CC(N=3)=O)Cl)Cl).Cl
#INCHI_AUX N/A
#Library_Class 1
#SpectrumID CCMSLIB00000078597
#IonMode Positive
#UpdateWorkflowName UPDATE-SINGLE-ANNOTATED-GOLD
#LibraryQualityString Gold
#TaskID 77f51c88eb8b467eb4a01dd2d0cb90d2
##Scan# 1109
#SpectrumFile Plate9_61_80_GC7_01_15756.mzXML
#LibraryName FDALibrary_2_04302014.mgf
#MQScore -1
#Organism FDALibrary_2_04302014
#TIC_Query 0
#RT_Query -1
#MZErrorPPM -1
#SharedPeaks 0
#MassDiff 0
#LibMZ -1
#SpecMZ 256.004
#SpecCharge 0
#internalFilename spec-00000.mgf

>collision 10
46.81028 140.0
47.420959 144.0
47.972164 140.0
48.980995 140.0
49.68697 144.0
50.029884 188.0
50.685234 148.0
50.785892 140.0
52.724556 244.0
53.359459 196.0
53.96307 148.0
57.630318 140.0
58.607479 168.0
59.525269 184.0
62.478645 208.0
62.557331 140.0
63.834171 152.0
64.505402 236.0
64.839928 140.0
65.263725 144.0
65.329666 184.0
65.682449 240.0
66.579124 148.0
66.655472 188.0
67.303772 180.0
67.573463 176.0
68.407166 188.0
68.693893 148.0
70.502075 164.0
71.712151 228.0
74.377594 216.0
74.44455 152.0
74.726456 260.0
75.293579 180.0
76.444702 288.0
80.415627 152.0
80.476318 140.0
81.443375 176.0
81.916557 144.0
82.177864 200.0
82.477646 152.0
83.087914 152.0
83.682228 140.0
85.439232 140.0
86.219208 148.0
88.396912 184.0
89.077492 144.0
89.511955 160.0
89.745605 264.0
90.433243 164.0
90.908943 148.0
91.368759 228.0
91.734238 140.0
93.071793 144.0
93.419609 152.0
94.047791 140.0
94.136604 148.0
94.167503 160.0
95.275505 172.0
96.106857 160.0
98.198082 184.0
98.271072 204.0
100.017006 160.0
101.004723 212.0
102.31916 200.0
102.831169 140.0
102.980583 144.0
105.500313 180.0
105.858376 208.0
106.66468 176.0
108.01947 204.0
108.652245 204.0
108.867172 144.0
109.978951 152.0
110.957954 148.0
113.897644 148.0
114.293633 112.0
114.459099 148.0
116.329865 176.0
117.321587 152.0
118.456123 140.0
121.14431 232.0
121.628815 160.0
123.953484 176.0
124.014938 176.0
124.575798 148.0
125.652222 144.0
125.779419 140.0
126.197769 180.0
126.909187 160.0
127.531029 156.0
127.80764 144.0
128.037262 156.0
128.129608 152.0
128.77475 236.0
131.100204 192.0
131.535843 156.0
132.047653 184.0
133.389328 140.0
133.88829 212.0
134.198914 160.0
135.282913 144.0
135.995178 352.0
136.335938 176.0
137.000992 428.0
137.71286 168.0
137.983521 160.0
138.00882 288.0
138.999161 168.0
139.662979 212.0
139.801788 184.0
140.428467 192.0
140.876953 176.0
141.018723 164.0
141.214066 168.0
144.048325 184.0
144.48819 200.0
144.787399 208.0
144.967468 168.0
145.405945 144.0
146.227905 148.0
146.953384 128.0
150.961227 204.0
151.018646 3208.0
152.023697 380.0
152.852539 168.0
153.016891 1420.0
153.125793 160.0
153.391907 160.0
153.78656 184.0
154.018661 152.0
155.618454 180.0
156.006012 148.0
156.105469 148.0
156.959595 144.0
157.716034 172.0
157.763535 280.0
158.521912 160.0
158.966614 108.0
159.06868 160.0
160.724701 212.0
161.257538 240.0
162.01413 156.0
162.343643 144.0
163.00647 184.0
163.756683 152.0
164.012711 336.0
164.253723 188.0
165.004578 172.0
165.999329 328.0
166.025589 188.0
166.115952 180.0
167.092377 184.0
167.53241 156.0
169.674835 252.0
170.219711 200.0
171.590942 192.0
171.971054 2440.0
172.029221 152.0
172.784485 168.0
172.970886 256.0
173.967987 1476.0
174.966034 152.0
175.986343 272.0
176.009491 192.0
176.080795 152.0
176.270996 176.0
176.480713 152.0
179.632248 212.0
180.027267 164.0
181.354263 184.0
181.627747 180.0
182.562408 172.0
183.879807 152.0
183.979675 148.0
185.92041 160.0
185.986374 1300.0
186.994049 288.0
187.067413 144.0
187.983963 872.0
189.089996 184.0
189.60762 140.0
190.084793 180.0
191.693451 220.0
191.800949 204.0
192.813889 176.0
193.137375 172.0
193.212067 164.0
195.815796 164.0
197.222458 128.0
197.471207 96.0
197.988617 156.0
198.282791 160.0
198.434158 160.0
198.544632 176.0
198.732773 172.0
198.781967 152.0
198.832474 164.0
198.852127 148.0
198.936325 176.0
198.983261 49960.0
199.056061 168.0
199.132278 148.0
199.164612 108.0
199.447571 256.0
199.51059 164.0
199.616257 140.0
199.723129 188.0
199.752533 160.0
199.87619 148.0
199.931335 204.0
199.952866 160.0
199.984955 3484.0
200.332062 160.0
200.923172 260.0
200.980057 32196.0
201.303635 120.0
201.346924 128.0
201.45694 164.0
201.517563 128.0
201.555969 96.0
201.620178 104.0
201.790222 204.0
201.863739 208.0
201.983078 1720.0
202.423843 156.0
202.868851 140.0
202.982269 180.0
205.370041 180.0
207.166306 148.0
209.507629 236.0
211.778091 168.0
212.636307 188.0
214.658173 168.0
217.053055 216.0
218.20108 144.0
220.834412 188.0
225.684769 176.0
227.356277 168.0
227.574051 168.0
227.92984 244.0
227.964859 128.0
228.009521 21308.0
228.863235 140.0
229.009735 2260.0
230.006195 9728.0
230.252457 208.0
230.420822 152.0
230.70871 188.0
231.009674 760.0
231.219315 204.0
234.905563 144.0
237.327744 176.0
239.300308 168.0
240.690887 164.0
242.342606 200.0
243.006104 180.0
249.071899 152.0
249.533859 188.0
251.75531 176.0
252.033295 172.0
253.343109 140.0
254.437225 156.0
254.552567 208.0
255.009003 148.0
255.62529 112.0
255.655807 244.0
255.933685 308.0
255.964767 232.0
256.005005 101904.0
256.121216 172.0
256.157684 248.0
256.192719 380.0
256.269073 112.0
256.321655 128.0
256.363678 248.0
256.450317 312.0
256.520935 108.0
256.750946 204.0
256.800293 116.0
256.844757 168.0
257.007355 8876.0
257.077423 136.0
257.225922 176.0
257.274902 176.0
257.500519 164.0
257.894653 140.0
258.001801 45932.0
258.109894 152.0
258.135437 148.0
258.157593 252.0
258.215729 188.0
258.377686 184.0
258.570557 104.0
258.595978 124.0
258.796539 96.0
258.899811 96.0
258.944366 156.0
259.004364 3224.0
259.090271 268.0
260.028351 124.0
260.690491 192.0
260.737091 112.0
260.770538 108.0
260.908295 132.0
272.664459 140.0
299.173645 156.0
410.210388 148.0
532.10199 144.0
986.13269 172.0
1382.080444 148.0
1444.047852 220.0
1491.336426 252.0
1548.309814 152.0
1562.57251 156.0
1692.609985 156.0
1734.686523 172.0
1757.983398 168.0
1758.90979 216.0
1790.081665 176.0
1810.72998 184.0
1811.475342 144.0
1839.443848 172.0
1857.756592 216.0
1864.711792 140.0
1865.605713 236.0
1889.581055 144.0
1905.74231 144.0
1909.47168 140.0
1916.130737 160.0
1940.725708 148.0
1948.52832 160.0
1990.465942 228.0
2001.910522 144.0
