>compound MLS001148602-01!
>formula C12H14N4O4S
>ionization [M+H]+
>parentmass 311.080017
#inchi InChI=1S/C12H14N4O4S/c1-19-11-7-10(14-12(15-11)20-2)16-21(17,18)9-5-3-8(13)4-6-9/h3-7H,13H2,1-2H3,(H,14,15,16)
#inchikey ZZORFUFYDOWNEF
#Ion_Source LC-ESI
#Instrument qTof
#Compound_Source NIH Pharmacologically Active Library
#PI Dorrestein
#Data_Collector VP/LMS
#Scan -1
#Precursor_MZ 311.083
#ExactMass 310.074
#Charge 1
#CAS_Number N/A
#Pubmed_ID N/A
#Smiles COc1cc(NS(=O)(=O)c2ccc(N)cc2)nc(OC)n1
#INCHI_AUX N/A
#Library_Class 1
#SpectrumID CCMSLIB00000084763
#IonMode Positive
#UpdateWorkflowName UPDATE-SINGLE-ANNOTATED-GOLD
#LibraryQualityString Gold
#TaskID d252d724072548979f1f6f1ced849daf
##Scan# 1672
#SpectrumFile p3-A05_GA5_01_18227.mzXML
#LibraryName Pharm_Active_Library.mgf
#MQScore -1
#Organism Pharm_Active_Library
#TIC_Query 0
#RT_Query -1
#MZErrorPPM -1
#SharedPeaks 0
#MassDiff 0
#LibMZ -1
#SpecMZ 311.083
#SpecCharge 0
#internalFilename spec-00000.mgf

>collision 10
45.17675 100.0
45.215553 52.0
45.601822 56.0
45.695957 152.0
45.712101 176.0
45.728252 172.0
45.820999 160.0
45.943855 180.0
45.957344 180.0
46.459297 124.0
46.494576 204.0
46.528511 120.0
47.259056 260.0
47.335712 156.0
47.662182 44.0
47.78318 224.0
47.803822 192.0
47.860256 192.0
48.087723 100.0
48.194057 112.0
48.419544 132.0
48.499905 136.0
48.549816 136.0
48.560913 212.0
49.337933 164.0
49.755424 172.0
50.26495 160.0
50.540493 120.0
50.968716 180.0
51.254726 192.0
51.264702 188.0
51.657345 176.0
51.780441 236.0
52.077335 44.0
52.144863 208.0
52.282932 216.0
52.650558 224.0
53.015125 188.0
53.426041 156.0
53.536663 152.0
54.075386 204.0
54.098804 92.0
54.541817 124.0
54.793457 148.0
54.861397 204.0
54.954166 104.0
55.363625 88.0
55.756771 212.0
55.77758 168.0
55.805824 156.0
55.884655 68.0
55.954609 188.0
55.978432 264.0
56.115517 184.0
56.282631 192.0
56.367771 212.0
56.455971 192.0
56.649052 196.0
57.060257 168.0
57.100857 156.0
57.574089 248.0
57.598255 176.0
57.844734 184.0
57.864414 208.0
57.902271 236.0
57.955292 128.0
57.968929 136.0
58.082638 200.0
58.134224 148.0
58.17065 56.0
58.258537 192.0
58.349915 140.0
58.460953 140.0
58.695541 256.0
58.706219 88.0
58.730621 96.0
58.776386 164.0
58.799278 172.0
58.968807 128.0
59.212074 212.0
59.402138 248.0
59.474258 100.0
59.552563 164.0
59.738556 164.0
59.846291 212.0
59.89711 140.0
60.330738 72.0
60.3895 168.0
60.477692 116.0
60.499363 196.0
60.840427 164.0
60.919628 160.0
60.933609 64.0
60.977119 152.0
61.124855 184.0
61.157539 116.0
61.219814 272.0
61.389675 48.0
61.416191 48.0
61.489521 176.0
61.805191 64.0
62.186001 140.0
62.643574 240.0
62.799625 156.0
63.268944 216.0
63.57803 152.0
63.965847 196.0
64.220795 240.0
64.457069 108.0
64.517807 148.0
64.59137 88.0
65.361458 128.0
65.611099 188.0
65.667542 212.0
65.704643 132.0
65.757889 136.0
65.804703 116.0
65.878998 160.0
66.65345 152.0
66.910431 120.0
66.928345 120.0
67.371964 124.0
67.399742 112.0
67.479828 128.0
67.522346 204.0
67.699097 180.0
67.83181 144.0
68.12883 72.0
68.268539 156.0
68.327759 144.0
68.485786 112.0
68.561577 212.0
68.637405 136.0
68.678635 180.0
68.840172 164.0
68.853584 148.0
69.204155 164.0
69.219055 160.0
69.454391 180.0
69.882751 212.0
69.888397 132.0
70.06781 20.0
70.266205 208.0
70.403076 188.0
70.473236 104.0
70.486603 164.0
70.683914 152.0
70.737747 196.0
71.175056 144.0
71.460793 188.0
71.607246 128.0
71.654411 216.0
71.844917 160.0
72.417953 144.0
72.675629 176.0
72.875984 176.0
72.892975 192.0
72.923561 176.0
73.103836 140.0
73.446281 164.0
73.640862 92.0
73.765602 200.0
73.801498 164.0
74.349663 96.0
74.689964 180.0
74.851624 152.0
74.884346 108.0
74.908463 84.0
74.946365 44.0
74.958427 64.0
75.009293 140.0
75.139465 160.0
75.265465 132.0
75.633705 168.0
75.711617 172.0
75.728935 196.0
76.002838 200.0
76.479012 140.0
76.722885 52.0
76.789146 228.0
76.811821 128.0
76.951431 176.0
77.56723 204.0
77.714546 148.0
77.800545 172.0
78.548439 172.0
78.567841 56.0
79.089134 220.0
79.163498 160.0
79.184746 172.0
79.570343 184.0
79.999763 156.0
80.243835 60.0
80.441856 224.0
80.852951 184.0
80.869057 180.0
80.888748 140.0
81.033806 176.0
81.256996 256.0
81.318932 136.0
81.716064 256.0
81.818649 224.0
82.027618 188.0
82.110558 196.0
82.777405 160.0
82.974899 132.0
83.023857 104.0
83.06739 180.0
83.188972 224.0
83.294289 208.0
83.581535 148.0
83.93309 180.0
84.12648 172.0
84.170303 148.0
84.797783 220.0
84.990334 148.0
85.039879 212.0
85.080261 152.0
85.113312 212.0
85.298866 188.0
85.508553 228.0
85.62822 164.0
85.677956 160.0
85.720337 128.0
86.18718 128.0
86.231529 228.0
86.520088 100.0
86.564529 208.0
86.764633 172.0
87.085663 172.0
87.111664 148.0
87.366348 200.0
87.84726 204.0
87.882416 176.0
88.192413 184.0
88.521683 176.0
88.641571 120.0
89.251625 160.0
89.291115 340.0
89.366356 216.0
89.611122 124.0
89.680847 168.0
89.750595 212.0
89.809059 140.0
89.90905 120.0
90.058205 68.0
90.167786 136.0
90.239616 112.0
91.033546 152.0
91.126625 144.0
91.301498 96.0
91.335739 28.0
91.575562 52.0
91.594612 192.0
91.708931 144.0
91.865295 116.0
92.023903 200.0
92.049904 2888.0
92.072678 92.0
92.249123 232.0
92.321785 164.0
92.369598 232.0
92.432732 192.0
92.451057 160.0
92.593536 120.0
92.666328 132.0
92.813911 192.0
92.867607 44.0
93.058098 652.0
93.130562 68.0
93.359268 108.0
93.386192 200.0
94.025841 184.0
94.057594 168.0
94.654114 228.0
94.795517 172.0
94.871109 156.0
95.051903 204.0
95.111649 180.0
95.145447 148.0
95.208725 140.0
95.924728 132.0
96.010521 200.0
96.051476 112.0
96.190025 196.0
96.488914 108.0
96.803932 176.0
96.935181 136.0
97.061516 188.0
97.184204 92.0
97.21756 172.0
97.354973 32.0
97.429611 64.0
97.541626 148.0
97.592743 148.0
97.815048 152.0
98.048332 180.0
98.321587 232.0
98.874954 80.0
99.056145 296.0
99.104652 124.0
99.267197 196.0
99.467575 168.0
99.50927 160.0
99.672134 188.0
99.771515 176.0
99.851051 128.0
100.052017 152.0
100.211349 196.0
100.540367 236.0
100.608231 224.0
100.736031 172.0
100.764 204.0
100.93589 88.0
101.167976 188.0
101.258087 140.0
101.380287 188.0
101.430397 144.0
101.516609 196.0
102.267982 152.0
102.328377 140.0
102.364616 108.0
102.713287 148.0
102.866638 112.0
103.15551 108.0
103.266716 132.0
103.454895 188.0
103.554115 184.0
104.050056 192.0
104.154488 184.0
105.099106 124.0
105.427864 128.0
105.568924 156.0
105.871796 168.0
105.984459 84.0
106.057274 188.0
106.078735 160.0
106.320755 192.0
106.602097 176.0
107.03717 172.0
107.075256 140.0
107.108215 188.0
107.809692 156.0
107.935791 180.0
107.952332 176.0
107.995705 132.0
108.000809 128.0
108.045586 17788.0
108.0728 192.0
108.104446 68.0
108.136894 148.0
108.163368 76.0
108.177856 64.0
108.206841 80.0
108.40361 60.0
108.418114 64.0
108.571526 28.0
108.64827 108.0
108.676315 128.0
109.047325 1024.0
109.147102 152.0
109.333961 196.0
109.462677 48.0
109.619255 172.0
109.746407 100.0
109.77977 112.0
109.881973 132.0
109.919533 136.0
109.965446 180.0
110.019089 204.0
110.035736 1052.0
110.063461 168.0
110.111588 120.0
110.16172 176.0
110.474968 52.0
110.841682 216.0
110.952766 132.0
110.984215 124.0
111.02095 720.0
111.055336 376.0
111.145721 36.0
111.361946 144.0
111.490105 236.0
111.679321 64.0
111.750847 56.0
111.889755 116.0
111.982407 180.0
112.028496 168.0
112.052002 168.0
112.355507 168.0
112.40403 160.0
112.456795 148.0
112.794746 64.0
113.035698 180.0
113.060387 672.0
113.118385 48.0
113.213661 232.0
113.312325 256.0
113.658813 128.0
113.713989 176.0
113.744484 196.0
113.996735 148.0
114.041626 160.0
114.055954 352.0
114.779793 136.0
115.856987 116.0
116.560722 176.0
116.919846 168.0
116.94352 68.0
117.044655 184.0
117.475746 232.0
117.587944 156.0
117.624634 88.0
117.883804 180.0
117.998367 68.0
118.061073 144.0
118.29258 208.0
118.574158 100.0
118.955902 56.0
119.418716 152.0
120.061195 404.0
120.635429 216.0
121.298706 104.0
121.577248 108.0
122.007759 200.0
122.342148 120.0
122.474266 192.0
122.868851 132.0
123.014549 196.0
123.279541 156.0
123.686485 180.0
124.015083 176.0
124.052376 716.0
124.125145 48.0
124.289291 212.0
124.351425 152.0
124.38916 164.0
124.489067 156.0
124.951393 184.0
125.039772 228.0
125.058456 292.0
125.211578 216.0
125.54834 192.0
125.575104 152.0
126.065643 836.0
126.222733 180.0
126.415108 168.0
126.627785 64.0
126.880989 48.0
126.977013 180.0
127.015541 156.0
127.050255 1064.0
127.072853 444.0
127.186073 200.0
127.444328 92.0
127.862587 140.0
127.957123 212.0
128.057938 336.0
128.331131 212.0
128.716965 248.0
128.838928 196.0
129.29567 128.0
129.750961 112.0
129.961884 104.0
130.634354 220.0
130.873322 296.0
130.891541 172.0
131.019089 176.0
131.060196 328.0
131.733124 140.0
131.961655 216.0
132.059982 184.0
132.233871 188.0
132.364349 136.0
133.067337 208.0
133.905273 148.0
134.278641 160.0
134.747238 136.0
134.77034 160.0
135.26062 96.0
135.779617 164.0
135.942001 56.0
136.622772 152.0
136.843872 52.0
136.981262 168.0
137.027863 172.0
137.466217 176.0
137.919296 124.0
138.026825 184.0
138.066589 140.0
138.108688 84.0
138.448044 180.0
138.722168 160.0
139.040924 772.0
139.28299 144.0
139.466263 108.0
139.924988 80.0
140.018738 212.0
140.045532 840.0
140.087479 92.0
140.214706 56.0
140.276001 160.0
140.38916 64.0
140.410385 116.0
141.054001 4072.0
141.289078 52.0
141.824249 64.0
141.904846 104.0
141.978348 28.0
142.013596 200.0
142.057236 364.0
142.096954 228.0
142.320053 128.0
142.700211 92.0
142.800079 172.0
142.921402 76.0
142.938065 108.0
142.970383 196.0
143.054672 76.0
143.095154 52.0
143.159439 172.0
143.216599 72.0
143.319031 172.0
143.578873 136.0
144.027573 164.0
144.056152 320.0
144.266525 116.0
145.066116 584.0
145.104431 56.0
145.138 200.0
145.350052 108.0
145.656372 100.0
145.733246 112.0
146.07222 148.0
146.233429 184.0
146.298416 188.0
146.753754 120.0
146.997375 56.0
147.067368 120.0
147.08667 176.0
148.068314 160.0
148.090103 132.0
148.74173 236.0
148.992462 108.0
149.077515 208.0
149.369263 216.0
149.539581 120.0
150.092575 200.0
150.353592 52.0
150.553772 264.0
150.866531 44.0
151.397476 140.0
151.4832 148.0
153.06485 100.0
153.259445 176.0
153.890854 184.0
153.989624 100.0
154.036469 104.0
154.061676 7828.0
154.115616 156.0
154.305923 128.0
154.575531 196.0
154.63739 76.0
154.971695 236.0
155.068451 1860.0
155.093124 184.0
155.279083 72.0
155.410553 184.0
155.487473 56.0
155.524704 44.0
155.624008 64.0
155.671188 68.0
155.708435 108.0
155.8078 84.0
155.840088 144.0
155.910049 132.0
155.932037 172.0
155.956894 176.0
155.976776 148.0
156.012772 8900.0
156.077286 29668.0
156.143631 36.0
156.152802 40.0
156.163895 140.0
156.197968 128.0
156.227921 124.0
156.255844 72.0
156.280167 60.0
156.302567 132.0
156.330078 80.0
156.382202 116.0
156.417053 52.0
156.473999 136.0
156.505569 36.0
156.568298 48.0
156.607773 80.0
156.654236 96.0
156.681015 80.0
156.738312 96.0
156.779907 128.0
156.833023 92.0
156.860443 72.0
156.912781 84.0
156.975128 60.0
157.016068 760.0
157.048676 1092.0
157.080444 1852.0
157.12645 208.0
157.157211 72.0
157.2146 52.0
157.249542 48.0
157.291977 80.0
157.586655 88.0
157.629135 52.0
157.646622 108.0
157.899948 80.0
157.931625 140.0
157.950684 156.0
158.007736 596.0
158.051651 488.0
158.073196 284.0
158.146805 128.0
158.189362 76.0
158.211884 132.0
158.236923 116.0
158.25946 100.0
158.334579 56.0
158.407211 68.0
158.655304 60.0
159.003952 124.0
159.058289 316.0
159.064743 204.0
159.25 124.0
159.322845 224.0
160.046936 124.0
160.341904 64.0
161.086243 28.0
162.083038 184.0
162.892349 28.0
163.009216 64.0
163.34227 168.0
163.367706 200.0
164.310303 196.0
164.476166 48.0
165.452667 40.0
166.722336 52.0
166.963989 88.0
167.478729 140.0
168.327209 124.0
169.278793 68.0
169.989059 164.0
170.058319 116.0
170.368134 160.0
170.394104 124.0
171.070206 176.0
171.096298 212.0
171.492233 60.0
171.630402 84.0
172.05246 584.0
172.075668 384.0
172.10463 192.0
172.363861 64.0
172.478851 68.0
172.536697 192.0
172.852844 124.0
172.986313 172.0
173.057968 4100.0
173.256042 48.0
173.287491 152.0
173.321548 88.0
173.36348 52.0
173.929977 76.0
174.061234 432.0
174.095078 248.0
174.154221 148.0
175.013092 40.0
175.060303 172.0
175.160568 48.0
176.929855 128.0
177.062241 144.0
177.539276 56.0
178.027557 164.0
180.578018 36.0
186.067108 188.0
187.955994 92.0
188.073334 128.0
191.101486 148.0
193.068237 152.0
194.123306 192.0
196.138947 176.0
197.423248 184.0
200.999222 184.0
201.076385 212.0
201.095673 244.0
202.109665 108.0
210.132935 160.0
211.99794 96.0
215.05162 100.0
215.697128 72.0
216.121185 160.0
216.402161 124.0
217.073151 128.0
217.460403 128.0
217.792175 196.0
217.877365 60.0
217.925461 184.0
218.023773 2160.0
218.459427 64.0
218.706604 108.0
218.962753 120.0
219.01767 248.0
219.098251 60.0
220.023193 248.0
220.115799 108.0
221.544327 160.0
226.884735 148.0
228.304962 92.0
229.072357 500.0
230.040421 48.0
230.079285 1252.0
230.435776 92.0
230.662689 48.0
230.813843 64.0
231.034637 164.0
231.082291 168.0
232.092148 132.0
232.397964 92.0
232.543625 124.0
233.576691 176.0
235.478622 172.0
236.030441 316.0
236.144882 132.0
242.155823 112.0
242.905914 140.0
244.558945 128.0
245.05719 100.0
245.1035 2024.0
245.272217 80.0
245.56842 40.0
245.94989 76.0
246.104446 388.0
246.79567 52.0
247.121155 120.0
248.995468 68.0
253.424347 168.0
275.196075 40.0
293.071899 136.0
295.123199 64.0
295.602081 76.0
311.080017 1192.0
311.383728 76.0
312.087158 132.0
313.075287 136.0
313.995117 112.0
314.08786 80.0
324.937073 80.0
332.224548 56.0
333.535431 56.0
343.159851 64.0
344.322205 88.0
348.151489 60.0
392.053375 60.0
425.50177 84.0
438.011444 56.0
486.573059 100.0
544.961731 80.0
647.263184 196.0
662.553162 88.0
672.663208 72.0
691.97644 76.0
756.359924 100.0
814.220764 144.0
831.324402 212.0
840.098694 184.0
842.500183 184.0
848.217468 80.0
889.266479 76.0
899.587708 180.0
900.513245 64.0
901.779846 124.0
908.384277 152.0
923.369995 112.0
926.978088 112.0
930.641724 72.0
931.898987 116.0
932.931641 232.0
936.869446 188.0
940.772339 128.0
949.240051 176.0
960.883362 188.0
964.92865 96.0
973.175049 228.0
974.89563 116.0
980.932861 104.0
997.741272 236.0
1001.050781 196.0
1002.367371 152.0
1007.711609 188.0
1012.056763 76.0
1014.470581 232.0
1023.670471 204.0
1034.850952 104.0
1035.433716 180.0
1040.088501 232.0
1048.881348 252.0
1050.299927 144.0
1052.946167 232.0
1056.339478 132.0
1058.51416 176.0
1062.714233 48.0
1063.512451 44.0
1066.3573 128.0
1081.881714 180.0
1082.366211 80.0
1084.259277 168.0
1090.375854 228.0
1094.546631 200.0
1097.432495 108.0
1100.857178 136.0
1103.698486 140.0
1104.816284 204.0
1108.722778 48.0
1108.94812 116.0
1114.157104 160.0
1122.150024 164.0
1124.384644 208.0
1124.791748 136.0
1126.881958 220.0
1129.30188 204.0
1131.690918 108.0
1132.936646 156.0
1137.691284 84.0
1142.422241 116.0
1144.367188 60.0
1165.422363 176.0
1166.285522 148.0
1166.761353 128.0
1166.897339 220.0
1169.638794 136.0
1174.387939 100.0
1184.531494 160.0
1185.216553 188.0
1186.14856 136.0
1186.909546 152.0
1186.964478 192.0
1188.583252 224.0
1189.468506 148.0
1191.082153 160.0
1196.569824 160.0
1197.547729 188.0
1198.188354 140.0
1199.966431 152.0
1203.954712 132.0
1206.373047 312.0
1207.624512 128.0
1212.443115 172.0
1213.060059 76.0
1218.153442 64.0
1224.817261 188.0
1228.365234 200.0
1230.409912 248.0
1231.631958 204.0
1232.519165 156.0
1240.904175 132.0
1241.745728 136.0
1246.94812 192.0
1247.770508 124.0
1252.281128 220.0
1256.186035 156.0
1257.082031 104.0
1257.36438 112.0
1259.757935 120.0
1263.858521 172.0
1266.059937 184.0
1266.343262 200.0
1269.142456 148.0
1271.532959 124.0
1273.570679 208.0
1278.276978 80.0
1284.667969 168.0
1286.437622 160.0
1286.630371 72.0
1288.751587 220.0
1290.252441 208.0
1290.488403 192.0
1290.588501 184.0
1296.150024 152.0
1297.196411 184.0
1300.847656 108.0
1302.872803 140.0
1303.282349 188.0
1305.438721 224.0
1308.489502 140.0
1309.346436 204.0
1310.873657 140.0
1316.009277 192.0
1317.005859 148.0
1320.308838 160.0
1323.442017 188.0
1329.53186 180.0
1330.097168 168.0
1334.812256 160.0
1335.939575 128.0
1336.026855 148.0
1337.693359 168.0
1337.94812 276.0
1341.226074 248.0
1343.574219 256.0
1343.654419 200.0
1344.384155 164.0
1350.052979 200.0
1355.389404 60.0
1359.525146 224.0
1359.723267 52.0
1362.166992 244.0
1363.78479 132.0
1367.212036 52.0
1369.803711 132.0
1372.471558 132.0
1375.031372 196.0
1377.224121 180.0
1377.667358 192.0
1379.241333 156.0
1381.26001 188.0
1386.109253 44.0
1387.473022 172.0
1387.643433 172.0
1388.66687 120.0
1388.881958 172.0
1391.753906 212.0
1393.387939 276.0
1393.655396 168.0
1394.442993 192.0
1395.491211 148.0
1400.477051 168.0
1400.685669 240.0
1401.423096 164.0
1402.898804 108.0
1403.21936 156.0
1403.271484 204.0
1405.039062 164.0
1405.755371 208.0
1409.167725 92.0
1412.47937 40.0
1414.245239 192.0
1414.372559 156.0
1415.495483 228.0
1420.344482 140.0
1421.672363 176.0
1423.879517 112.0
1426.764893 120.0
1429.480103 256.0
1431.911743 160.0
1432.002075 104.0
1432.521851 200.0
1433.44104 180.0
1435.702515 248.0
1437.73938 144.0
1437.973389 200.0
1438.433838 156.0
1439.377441 120.0
1443.155518 168.0
1450.233521 180.0
1451.264526 124.0
1451.590576 124.0
1452.386841 192.0
1452.523438 32.0
1453.099976 192.0
1454.488647 168.0
1454.754395 244.0
1455.581909 204.0
1456.721191 208.0
1456.850342 124.0
1458.529663 160.0
1462.42395 136.0
1463.573486 64.0
1463.733398 124.0
1463.832397 136.0
1465.477661 184.0
1466.171021 148.0
1466.857056 160.0
1468.637451 220.0
1468.908203 120.0
1472.083252 196.0
1472.304688 168.0
1473.290039 160.0
1475.773926 136.0
1478.129761 248.0
1480.25769 40.0
1481.636353 60.0
1481.720703 124.0
1482.203369 224.0
1482.333618 184.0
1485.101196 216.0
1485.162598 52.0
1486.205933 124.0
1487.863647 208.0
1488.362671 164.0
1491.220459 112.0
1491.527954 144.0
1491.781616 184.0
1492.519653 184.0
1493.342529 212.0
1493.465576 168.0
1498.14563 156.0
1498.392212 108.0
1500.326538 184.0
1500.473022 212.0
1500.550171 204.0
