>compound Atomoxetine hydrochloride
>formula C17H21NO
>ionization [M+H]+
>parentmass 256.170898
#inchi InChI=1S/C17H21NO/c1-14-8-6-7-11-16(14)19-17(12-13-18-2)15-9-4-3-5-10-15/h3-11,17-18H,12-13H2,1-2H3/t17-/m1/s1
#inchikey VHGCDTVCOLNTBX
#Ion_Source LC-ESI
#Instrument qTof
#Compound_Source Commercial
#PI Dorrestein
#Data_Collector Garg_Neha
#Scan -1
#Precursor_MZ 256.17
#ExactMass 255.162
#Charge 1
#CAS_Number N/A
#Pubmed_ID N/A
#Smiles CNCC[C@@H](Oc1ccccc1C)c2ccccc2
#INCHI_AUX N/A
#Library_Class 1
#SpectrumID CCMSLIB00000078996
#IonMode Positive
#UpdateWorkflowName UPDATE-SINGLE-ANNOTATED-GOLD
#LibraryQualityString Gold
#TaskID 278b19f5865741e282cec7349aa7e7a1
##Scan# 1156
#SpectrumFile NCP003352_C2_D11_BC5_01_15719.mzXML
#LibraryName NIHcollectionI_05062014.mgf
#MQScore -1
#Organism NIHcollectionI_05062014
#TIC_Query 0
#RT_Query -1
#MZErrorPPM -1
#SharedPeaks 0
#MassDiff 0
#LibMZ -1
#SpecMZ 256.17
#SpecCharge 0
#internalFilename spec-00000.mgf

>collision 10
46.704338 188.0
49.531551 152.0
50.24992 140.0
51.730808 196.0
56.147282 168.0
58.237896 196.0
59.988453 192.0
69.579231 208.0
80.59938 180.0
91.060486 168.0
112.098656 152.0
112.609192 168.0
115.059784 164.0
117.070129 568.0
118.076355 336.0
118.526878 156.0
119.012749 148.0
120.402046 156.0
120.963966 148.0
121.063728 156.0
121.634727 156.0
123.996986 180.0
129.789948 160.0
131.770126 156.0
132.06044 152.0
132.917236 208.0
141.159485 148.0
143.453003 184.0
145.10733 140.0
145.849121 148.0
146.595184 180.0
147.079361 524.0
147.65741 240.0
148.112091 8172.0
148.973572 140.0
149.118408 1536.0
149.907852 148.0
152.067307 140.0
166.09137 176.0
168.100677 140.0
173.151947 156.0
179.084091 172.0
181.066208 140.0
182.087967 164.0
185.934845 176.0
193.996582 164.0
195.861542 140.0
197.093292 300.0
198.09581 160.0
212.991119 156.0
213.592819 148.0
219.214142 320.0
223.061722 204.0
225.12645 168.0
227.134399 164.0
229.896881 212.0
237.217697 140.0
241.476105 168.0
246.097 168.0
255.169464 180.0
256.170898 17736.0
256.317596 120.0
257.174438 1736.0
258.082184 176.0
258.17746 252.0
258.809448 124.0
259.119171 152.0
348.859528 152.0
1657.19397 188.0
1714.163818 172.0
1854.392822 144.0
1949.965576 144.0
