>compound Metolazone (Zaroxolyn)
>formula C16H16ClN3O3S
>ionization [M+H]+
>parentmass 366.068481
#inchi InChI=1S/C16H16ClN3O3S/c1-9-5-3-4-6-14(9)20-10(2)19-13-8-12(17)15(24(18,22)23)7-11(13)16(20)21/h3-8,10,19H,1-2H3,(H2,18,22,23)
#inchikey AQCHWTWZEMGIFD
#Ion_Source LC-ESI
#Instrument qTof
#Compound_Source Commercial
#PI Dorrestein
#Data_Collector Garg_Neha
#Scan -1
#Precursor_MZ 366.067
#ExactMass 365.06
#Charge 1
#CAS_Number 17560-51-9
#Pubmed_ID N/A
#Smiles C1(=C(C=C2C(=C1)NC(N(C2=O)C3=CC=CC=C3C)C)S(=O)(=O)N)Cl
#INCHI_AUX N/A
#Library_Class 1
#SpectrumID CCMSLIB00000078199
#IonMode Positive
#UpdateWorkflowName UPDATE-SINGLE-ANNOTATED-GOLD
#LibraryQualityString Gold
#TaskID 77f51c88eb8b467eb4a01dd2d0cb90d2
##Scan# 1213
#SpectrumFile Plate3_41_60_GG11_01_16500.mzXML
#LibraryName FDALibrary_2_04302014.mgf
#MQScore -1
#Organism FDALibrary_2_04302014
#TIC_Query 0
#RT_Query -1
#MZErrorPPM -1
#SharedPeaks 0
#MassDiff 0
#LibMZ -1
#SpecMZ 366.067
#SpecCharge 0
#internalFilename spec-00000.mgf

>collision 10
45.590485 168.0
46.202641 188.0
46.388168 220.0
47.73851 164.0
47.805916 140.0
47.863731 196.0
49.591991 192.0
51.383575 212.0
52.980988 224.0
53.036053 148.0
53.924885 184.0
54.388203 168.0
54.558601 160.0
57.753006 140.0
58.071075 188.0
58.505657 192.0
61.095833 184.0
61.116058 192.0
62.32011 188.0
63.339138 156.0
67.139038 144.0
68.144096 160.0
68.870575 204.0
69.677307 144.0
70.153259 152.0
71.547081 188.0
71.951691 144.0
72.022614 164.0
72.637054 172.0
73.426262 160.0
73.528625 192.0
74.236877 252.0
75.770943 144.0
76.7547 172.0
76.7826 208.0
76.854118 144.0
78.896744 140.0
78.925026 140.0
80.901695 184.0
81.94693 220.0
81.973961 164.0
82.517258 204.0
82.982559 192.0
83.371002 152.0
83.389175 160.0
86.993217 172.0
88.151695 196.0
89.361107 160.0
90.274048 140.0
91.260063 180.0
92.471397 152.0
92.584358 176.0
94.662254 168.0
95.118767 112.0
97.961159 180.0
98.968384 152.0
99.899185 144.0
100.275513 140.0
101.573166 228.0
102.21405 168.0
104.053429 200.0
105.038307 168.0
105.148491 168.0
106.278076 152.0
107.360069 160.0
108.080025 444.0
108.785652 172.0
109.65094 216.0
110.072334 180.0
110.481987 156.0
111.9702 228.0
112.977036 168.0
113.260689 188.0
113.880035 160.0
113.982002 180.0
114.028755 160.0
114.132919 168.0
114.978622 152.0
115.051193 164.0
115.493523 216.0
115.598358 172.0
117.052589 184.0
117.970711 172.0
118.126411 176.0
118.53994 180.0
118.646141 208.0
118.758904 268.0
119.038857 160.0
119.295235 168.0
119.467033 228.0
120.046127 196.0
120.333527 128.0
120.751785 160.0
121.047218 148.0
122.472542 176.0
122.884773 240.0
123.003944 160.0
123.030228 176.0
123.383904 160.0
124.894043 180.0
125.132149 164.0
125.163322 164.0
125.571136 212.0
126.004791 192.0
126.23217 204.0
126.416 156.0
126.500648 164.0
127.932869 176.0
128.313599 232.0
128.455673 164.0
128.6362 144.0
129.64267 184.0
129.903412 156.0
131.057159 136.0
131.547165 176.0
132.0737 172.0
132.245834 164.0
133.049515 320.0
133.077972 184.0
133.634186 200.0
133.995651 188.0
134.094742 424.0
134.798615 224.0
135.302826 212.0
136.553558 184.0
136.949219 204.0
136.981827 212.0
138.018051 140.0
138.303452 208.0
138.429077 176.0
138.556366 204.0
138.912689 160.0
140.020218 220.0
141.027191 148.0
141.980286 120.0
142.076202 196.0
142.382401 196.0
142.986252 188.0
143.119568 192.0
143.689194 236.0
144.043137 184.0
145.890091 168.0
146.708588 272.0
147.053467 328.0
148.038055 312.0
148.071381 168.0
148.58284 148.0
149.046082 152.0
149.197266 152.0
149.23616 204.0
149.654648 148.0
150.009201 432.0
150.210297 172.0
151.018341 1644.0
152.003433 176.0
152.034241 152.0
152.509552 160.0
152.836624 184.0
153.015533 816.0
153.291229 192.0
153.826828 148.0
154.007706 204.0
154.10643 164.0
154.657898 156.0
154.997177 156.0
155.572571 168.0
155.838318 148.0
156.484985 180.0
157.834824 160.0
158.187592 172.0
159.057144 180.0
159.901917 184.0
160.037857 160.0
160.063385 652.0
161.049545 388.0
161.076889 152.0
161.397842 168.0
162.020462 204.0
162.809311 184.0
164.870285 168.0
166.959656 184.0
167.02652 156.0
168.003555 156.0
168.253159 164.0
168.371933 224.0
168.7854 160.0
169.738281 152.0
171.391464 184.0
172.93222 212.0
173.484909 140.0
173.828506 224.0
175.051727 236.0
176.15065 172.0
176.21933 164.0
178.005859 2836.0
178.679703 184.0
179.012894 2612.0
179.190872 244.0
179.612076 188.0
179.894928 176.0
180.017792 1044.0
181.009933 1016.0
181.990356 152.0
182.014587 300.0
182.270538 208.0
184.110413 144.0
188.937881 148.0
194.001694 540.0
195.009781 220.0
195.036713 196.0
195.964508 200.0
196.013824 808.0
197.026321 168.0
197.399216 192.0
198.005814 216.0
198.811081 140.0
198.861603 180.0
199.021606 148.0
199.30249 148.0
199.73262 148.0
199.760742 216.0
200.439255 192.0
200.639374 144.0
202.484528 152.0
205.329422 156.0
207.216019 152.0
207.924286 180.0
209.667099 156.0
211.00444 2364.0
212.003586 256.0
213.000229 812.0
214.003525 228.0
216.85759 144.0
217.658463 172.0
218.316696 152.0
218.587341 144.0
220.468735 148.0
221.338425 144.0
221.916214 180.0
222.07634 160.0
222.571945 152.0
223.021759 560.0
223.282166 236.0
223.621338 152.0
224.021912 212.0
231.002914 168.0
232.979477 788.0
233.102951 152.0
233.912994 180.0
234.980392 140.0
235.538269 232.0
235.626846 148.0
236.403488 148.0
236.587143 204.0
237.276443 140.0
237.589264 192.0
237.853165 140.0
237.966751 264.0
237.997452 204.0
238.738007 200.0
239.945023 148.0
241.365295 204.0
243.239639 156.0
243.338989 148.0
245.068283 156.0
249.10405 356.0
251.093307 140.0
251.752884 168.0
252.120621 164.0
252.375381 220.0
256.074921 200.0
257.450104 140.0
257.517181 164.0
257.951721 256.0
258.255493 212.0
258.325867 160.0
258.545746 248.0
258.713074 264.0
258.787415 148.0
258.920837 104.0
258.994293 40732.0
259.119385 180.0
259.381073 160.0
259.759583 184.0
259.796234 192.0
259.860413 168.0
259.996338 5248.0
260.275269 136.0
260.782043 268.0
260.855255 180.0
260.905548 152.0
260.95108 176.0
260.991089 15028.0
261.115631 288.0
261.293335 144.0
261.639679 128.0
261.994537 1052.0
263.004456 168.0
263.753815 140.0
264.904663 136.0
266.970062 152.0
267.077301 160.0
268.074554 440.0
268.797516 144.0
269.512634 160.0
270.072876 116.0
277.004791 508.0
277.995239 152.0
279.005188 608.0
292.167297 168.0
300.058533 372.0
302.065796 184.0
321.005463 160.0
322.998352 216.0
335.826111 116.0
340.458466 180.0
342.569702 172.0
348.021057 164.0
348.056641 728.0
349.056732 132.0
350.060059 272.0
351.035065 140.0
351.068634 144.0
351.799927 276.0
352.965607 196.0
355.460327 160.0
359.475433 180.0
363.991394 216.0
364.185089 144.0
364.249664 176.0
365.12384 192.0
365.154266 176.0
365.197296 128.0
365.724976 224.0
365.907715 164.0
365.96283 148.0
366.068481 22420.0
366.234161 176.0
366.625 152.0
367.069824 3320.0
367.19632 196.0
367.607666 216.0
368.065155 5008.0
368.194641 132.0
368.86084 136.0
369.067871 1188.0
369.673065 132.0
370.055756 116.0
1280.99231 180.0
1358.112305 144.0
1360.67334 220.0
1362.362427 180.0
1549.792969 228.0
1593.957153 236.0
1595.777344 148.0
1635.311401 140.0
1723.473389 188.0
1760.530151 164.0
1785.655396 192.0
1829.265625 240.0
1890.212036 152.0
1892.349854 140.0
1911.71521 176.0
1923.306641 168.0
1944.206787 164.0
1953.397217 196.0
1966.90564 188.0
1990.757202 180.0
1997.832153 192.0
2002.33606 144.0
