>compound NCGC00160185-01!3,3',4,4'-Tetramethoxy-7,7'-epoxylignan
>formula C22H28O5
>ionization [M+H]+
>parentmass 373.201
#inchi InChI=1S/C22H28O5/c1-13-14(2)22(16-8-10-18(24-4)20(12-16)26-6)27-21(13)15-7-9-17(23-3)19(11-15)25-5/h7-14,21-22H,1-6H3/t13-,14+,21-,22+
#inchikey JLJAVUZBHSLLJL
#Ion_Source LC-ESI
#Instrument qTOF
#Compound_Source Prestwick Phytochem Lib
#PI Dorrestein
#Data_Collector VVP/LMS
#Scan -1
#Precursor_MZ 373.201
#ExactMass 372.194
#Charge 1
#CAS_Number N/A
#Pubmed_ID N/A
#Smiles [H][C@]1(C)[C@@]([H])(C)[C@@]([H])(O[C@]1([H])C2=CC(OC)=C(OC)C=C2)C3=CC(OC)=C(OC)C=C3
#INCHI_AUX N/A
#Library_Class 1
#SpectrumID CCMSLIB00000078709
#IonMode Positive
#UpdateWorkflowName UPDATE-SINGLE-ANNOTATED-GOLD
#LibraryQualityString Gold
#TaskID 67c915c6594c435cadc1fe2b5358144d
##Scan# 2504
#SpectrumFile p1-E02_GE2_01_17922.mzXML
#LibraryName phytochem_lib.mgf
#MQScore -1
#Organism phytochem_lib
#TIC_Query 0
#RT_Query -1
#MZErrorPPM -1
#SharedPeaks 0
#MassDiff 0
#LibMZ -1
#SpecMZ 373.201
#SpecCharge 0
#internalFilename spec-00000.mgf

>collision 10
94.95134 228.0
94.95475 140.0
95.785904 108.0
95.893066 140.0
95.916458 100.0
95.951546 140.0
96.026505 136.0
96.054596 360.0
96.212967 84.0
96.271538 184.0
96.562729 128.0
96.611626 192.0
96.846519 64.0
97.030724 152.0
97.101311 132.0
97.228828 144.0
97.334839 224.0
97.38694 180.0
97.560776 240.0
97.588303 116.0
97.907074 136.0
98.362511 192.0
98.613358 212.0
98.668709 160.0
98.761642 172.0
98.799232 140.0
98.92984 224.0
99.028847 168.0
99.070442 152.0
99.110062 160.0
99.268639 176.0
99.890282 196.0
99.916138 184.0
100.139076 164.0
100.157005 200.0
100.350304 148.0
100.487923 212.0
100.565742 208.0
100.899338 212.0
101.105354 136.0
101.335632 200.0
101.467903 176.0
101.640396 68.0
101.680527 220.0
101.716652 68.0
101.933556 128.0
102.152702 76.0
102.319725 168.0
102.380135 40.0
102.394234 48.0
102.436531 208.0
103.05233 416.0
103.490723 184.0
103.523125 140.0
103.70343 336.0
103.723694 248.0
103.786545 152.0
103.827095 128.0
103.921715 180.0
103.942726 192.0
104.063515 516.0
104.151833 196.0
104.20668 140.0
104.245285 80.0
104.428253 176.0
104.925102 260.0
104.947525 160.0
105.029701 152.0
105.06897 308.0
105.482399 44.0
105.67054 168.0
105.713509 128.0
105.783096 160.0
106.043228 364.0
106.073975 196.0
106.121124 208.0
106.447365 64.0
106.774109 108.0
106.790565 196.0
106.839928 200.0
106.903717 152.0
107.019684 224.0
107.047981 1908.0
107.070465 136.0
107.084877 72.0
107.156975 152.0
107.218788 96.0
107.288719 212.0
107.424973 48.0
107.6231 144.0
107.997139 212.0
108.032303 172.0
108.05719 1304.0
108.224777 52.0
108.317963 108.0
108.543861 180.0
108.697365 160.0
108.73056 72.0
108.823975 136.0
108.894577 192.0
109.027519 844.0
109.062363 820.0
109.689392 156.0
109.726921 108.0
110.159912 140.0
110.261276 96.0
110.516396 184.0
110.77626 136.0
110.832558 196.0
111.119797 168.0
111.161758 236.0
111.195335 196.0
111.218422 212.0
111.581833 180.0
111.649124 176.0
111.781647 100.0
111.796379 128.0
111.857414 152.0
111.969009 160.0
112.072227 176.0
112.141769 152.0
112.164948 212.0
112.285133 152.0
112.584808 188.0
112.671402 144.0
112.711548 96.0
113.060455 196.0
113.087975 196.0
113.208641 132.0
113.469261 180.0
113.530754 136.0
113.951027 208.0
114.101921 252.0
114.433815 276.0
114.574379 132.0
114.704369 252.0
114.740608 92.0
114.770454 172.0
115.054443 256.0
115.088371 184.0
115.280609 188.0
115.357552 244.0
115.544899 192.0
115.607796 144.0
115.802612 132.0
115.869019 88.0
116.0662 108.0
116.2099 120.0
116.269981 144.0
116.319351 40.0
116.340813 176.0
116.651802 224.0
116.708199 136.0
116.792068 68.0
116.850143 48.0
117.070061 796.0
117.177391 68.0
117.267891 64.0
117.339027 196.0
117.632416 36.0
117.757652 148.0
117.80085 200.0
117.848373 160.0
118.043442 340.0
118.069908 240.0
118.317688 168.0
118.551613 176.0
118.592789 220.0
118.909447 92.0
119.002785 132.0
119.026672 132.0
119.048691 140.0
119.07959 108.0
119.226517 196.0
119.57666 220.0
119.983986 168.0
120.060776 456.0
120.317772 196.0
121.032707 172.0
121.065559 1632.0
121.23204 64.0
121.286835 48.0
121.574142 180.0
122.036339 188.0
122.050804 204.0
122.068672 224.0
122.103584 152.0
122.125931 300.0
122.270782 180.0
122.468933 144.0
122.51078 144.0
122.625359 180.0
122.799538 144.0
123.045624 368.0
123.080498 580.0
123.117332 32.0
123.371429 120.0
123.451019 52.0
123.632423 132.0
123.82724 144.0
123.953514 40.0
124.052055 3460.0
124.255051 168.0
124.464676 240.0
124.526207 280.0
124.674706 144.0
124.750275 200.0
125.056091 720.0
125.077263 108.0
125.261696 116.0
125.451492 204.0
125.533981 132.0
125.576355 52.0
125.728065 144.0
125.750381 184.0
125.775887 188.0
126.031754 132.0
126.127846 92.0
126.521935 116.0
126.588715 144.0
126.716393 188.0
126.756721 40.0
126.949501 196.0
127.00177 144.0
127.059402 212.0
127.931351 120.0
128.007904 172.0
128.062393 184.0
128.086716 176.0
128.397751 156.0
128.485718 156.0
128.537613 132.0
128.761108 172.0
129.002869 116.0
129.069153 284.0
129.272003 124.0
129.367065 136.0
129.729523 120.0
130.483215 180.0
130.681076 188.0
130.835541 184.0
131.045456 284.0
131.083755 352.0
131.113724 104.0
131.186661 76.0
131.234543 156.0
131.490021 52.0
131.690933 176.0
132.057617 728.0
132.253387 96.0
132.379303 100.0
132.433304 172.0
132.612976 200.0
132.870132 120.0
132.970764 144.0
133.021255 188.0
133.064224 848.0
133.149841 44.0
133.361206 208.0
133.478455 180.0
133.524445 132.0
133.897263 148.0
134.073135 716.0
134.111938 204.0
134.144897 176.0
134.270615 144.0
134.406723 188.0
134.584442 228.0
134.637558 64.0
134.928696 236.0
134.965683 188.0
135.04451 1668.0
135.078995 1512.0
135.132217 92.0
135.181961 216.0
135.229401 40.0
135.252548 144.0
135.405365 268.0
135.641693 188.0
135.752975 60.0
135.831833 144.0
136.051956 2700.0
136.086563 328.0
136.131226 52.0
136.354233 44.0
136.400726 52.0
136.572784 176.0
137.059662 964.0
137.080307 220.0
137.404404 84.0
137.61911 104.0
137.960205 140.0
138.032684 88.0
138.066635 2056.0
138.407074 144.0
138.4422 220.0
138.520813 112.0
138.660065 120.0
138.723343 140.0
138.899216 168.0
139.004791 52.0
139.075165 15596.0
139.118027 128.0
139.149475 156.0
139.183182 92.0
139.232758 184.0
139.253632 124.0
139.280472 76.0
139.314697 124.0
139.335846 40.0
139.360809 180.0
139.392242 80.0
139.599091 44.0
139.681412 60.0
139.730804 56.0
140.012909 104.0
140.041534 148.0
140.078171 1152.0
140.11731 192.0
140.206451 72.0
140.222946 72.0
140.361252 112.0
140.560165 140.0
140.940323 128.0
140.963959 56.0
141.015945 116.0
141.083313 520.0
141.101044 52.0
141.180313 76.0
141.216904 124.0
141.278412 128.0
141.354126 44.0
141.887039 100.0
142.076981 300.0
142.128952 196.0
142.150253 160.0
142.420944 160.0
142.580124 144.0
143.083191 1020.0
143.324951 52.0
143.789948 176.0
144.050705 212.0
144.091965 196.0
144.880295 208.0
145.064331 540.0
145.268646 176.0
145.427002 184.0
145.830505 144.0
146.010818 68.0
146.071075 720.0
146.39827 128.0
146.584824 196.0
146.619904 96.0
146.764526 84.0
146.964722 96.0
147.043381 192.0
147.081406 904.0
147.107117 96.0
147.230255 136.0
147.418671 132.0
147.529861 60.0
147.578217 52.0
147.658005 160.0
147.902374 104.0
148.049332 524.0
148.0858 936.0
148.243851 176.0
148.721619 176.0
148.775024 180.0
148.981445 84.0
149.00087 132.0
149.059387 1072.0
149.095657 324.0
149.158829 128.0
149.260941 76.0
149.294983 120.0
149.698944 68.0
149.764694 44.0
150.067551 1788.0
150.29126 112.0
150.452332 140.0
150.541153 244.0
150.564651 196.0
150.647705 180.0
150.80896 184.0
150.840622 428.0
150.901855 212.0
150.932831 120.0
150.947739 336.0
150.985001 160.0
151.07489 20232.0
151.115372 164.0
151.151337 116.0
151.179565 112.0
151.218567 144.0
151.27507 72.0
151.307983 108.0
151.334915 68.0
151.364288 128.0
151.38504 124.0
151.40593 148.0
151.496552 40.0
151.552902 44.0
151.663177 48.0
151.687683 104.0
151.766129 72.0
151.783295 52.0
151.844803 48.0
151.886307 188.0
151.962357 212.0
151.994247 60.0
152.045776 408.0
152.079041 2252.0
152.112045 124.0
152.156998 116.0
152.190613 124.0
152.566498 92.0
152.805054 148.0
152.851791 36.0
152.967468 96.0
153.065491 160.0
153.08873 176.0
153.128052 220.0
153.166916 80.0
153.193069 124.0
153.307358 108.0
153.60321 72.0
153.729034 144.0
154.072235 56.0
154.742447 176.0
155.059509 192.0
155.084305 148.0
155.203293 72.0
155.359543 52.0
155.880936 104.0
156.089722 36.0
156.154388 204.0
156.903885 172.0
157.069199 208.0
157.103622 380.0
157.597717 92.0
157.725174 144.0
158.107834 196.0
158.972397 148.0
159.08046 1264.0
159.29126 52.0
159.313858 64.0
159.716049 96.0
160.086792 1048.0
160.116226 56.0
160.310211 100.0
160.509354 60.0
160.74646 156.0
160.945862 148.0
161.0616 224.0
161.083542 500.0
161.092834 268.0
162.064743 628.0
162.101822 116.0
162.743561 56.0
162.794342 136.0
162.824814 80.0
163.073303 1372.0
163.119553 184.0
163.200897 152.0
163.669067 40.0
164.010437 108.0
164.082993 2792.0
164.168503 44.0
164.222061 176.0
164.273071 72.0
164.313889 40.0
164.344513 44.0
164.372574 68.0
164.454239 76.0
164.512955 116.0
164.798981 72.0
164.821182 140.0
164.95488 200.0
164.988113 140.0
165.054077 2996.0
165.089996 4696.0
165.159439 116.0
165.179901 88.0
165.210587 40.0
165.302704 68.0
165.345108 64.0
165.479309 84.0
165.745682 60.0
165.781555 52.0
165.909714 172.0
166.054855 180.0
166.091324 420.0
166.864731 140.0
166.965012 216.0
167.02417 128.0
167.07016 5756.0
167.173386 60.0
167.191406 136.0
167.428238 44.0
167.786407 72.0
167.856018 116.0
168.071594 600.0
168.317902 80.0
168.545197 68.0
168.870926 68.0
169.07402 168.0
169.448166 64.0
169.538864 104.0
170.067932 160.0
170.226288 228.0
170.85788 100.0
170.876099 136.0
171.081268 736.0
172.059296 84.0
172.086731 508.0
172.294327 88.0
173.057388 320.0
173.092453 1100.0
173.175842 52.0
173.215134 68.0
173.353989 64.0
174.068558 164.0
174.104248 176.0
174.356445 160.0
175.073181 144.0
175.103012 332.0
175.456696 104.0
175.583267 44.0
175.847092 100.0
175.976425 136.0
176.081177 1016.0
176.116394 136.0
176.417618 68.0
176.594788 244.0
176.745575 100.0
176.901718 48.0
177.088104 660.0
177.986053 156.0
178.057755 156.0
178.098969 388.0
178.225113 72.0
178.740936 96.0
178.772339 100.0
179.064514 444.0
179.106461 7584.0
179.668121 68.0
180.077042 352.0
180.11116 640.0
180.134567 120.0
180.268875 40.0
180.426559 136.0
181.106247 144.0
181.347382 188.0
184.088776 128.0
184.226517 136.0
185.095337 272.0
185.138016 72.0
186.102982 2468.0
186.383102 108.0
186.404846 52.0
186.652191 240.0
186.858902 108.0
187.075134 2036.0
187.105408 372.0
187.177353 80.0
187.272675 68.0
187.482452 84.0
188.080109 484.0
188.2845 132.0
188.377365 52.0
188.997955 164.0
189.085922 400.0
189.608612 180.0
189.666168 44.0
189.811462 148.0
190.028152 244.0
190.088959 172.0
190.330063 88.0
191.10643 1308.0
191.358368 160.0
191.548386 56.0
191.917664 144.0
191.9673 108.0
192.076019 172.0
192.106445 320.0
193.083878 512.0
193.212982 48.0
194.090942 112.0
195.099258 876.0
195.655151 44.0
196.087952 148.0
196.117554 68.0
197.102524 156.0
197.488464 92.0
198.782761 32.0
199.074692 176.0
199.28537 136.0
200.785706 108.0
201.091248 160.0
201.242828 68.0
202.051132 224.0
202.098022 4892.0
202.153 52.0
202.206757 48.0
202.339798 40.0
202.450226 52.0
202.489883 64.0
202.69101 68.0
202.74202 84.0
202.787354 76.0
203.103653 780.0
203.698151 48.0
203.973785 56.0
204.110168 176.0
204.505676 196.0
205.066757 156.0
205.125504 240.0
206.091995 204.0
206.129089 204.0
207.136597 172.0
210.099167 112.0
216.104446 160.0
217.122498 6464.0
217.190643 148.0
217.226257 52.0
217.314499 104.0
217.379044 56.0
217.551819 60.0
218.123138 1244.0
218.692703 60.0
219.048981 104.0
219.126801 172.0
219.258163 220.0
219.305328 72.0
219.357254 168.0
219.614914 100.0
219.877487 28.0
220.048691 80.0
220.104019 228.0
220.190201 52.0
220.651382 208.0
220.731216 44.0
221.115784 120.0
222.978271 184.0
223.070404 196.0
226.097763 104.0
227.713684 48.0
229.498154 128.0
230.077423 164.0
231.771103 60.0
232.286484 164.0
233.115326 168.0
234.103973 152.0
234.420776 32.0
234.777451 76.0
235.132431 2176.0
235.183212 40.0
236.011093 108.0
236.13884 396.0
238.100952 136.0
239.078568 172.0
240.070511 184.0
247.838654 60.0
249.077835 112.0
251.09848 164.0
252.080276 168.0
253.105133 100.0
255.081619 68.0
255.224686 140.0
255.717758 76.0
256.622437 272.0
257.908936 72.0
262.093719 168.0
262.132385 184.0
263.058014 116.0
263.106415 144.0
264.108154 108.0
265.125 160.0
266.11731 188.0
266.269928 148.0
267.098755 172.0
268.108124 172.0
271.093201 168.0
272.778595 104.0
275.107544 116.0
278.136353 200.0
279.103088 152.0
279.139679 92.0
281.109894 200.0
282.123688 184.0
282.153778 176.0
283.08728 132.0
283.134155 64.0
283.804352 40.0
287.116547 156.0
293.113312 112.0
293.1427 104.0
294.117584 136.0
295.102386 144.0
295.144257 148.0
296.129822 136.0
296.157227 184.0
296.996948 188.0
297.112671 296.0
297.146912 156.0
297.422424 48.0
297.954681 136.0
298.10437 148.0
303.057404 204.0
303.809723 76.0
306.02005 108.0
306.601746 60.0
308.141113 100.0
308.497009 52.0
309.147552 140.0
310.548889 120.0
311.129913 160.0
312.111633 160.0
312.136444 140.0
312.252289 104.0
313.128601 156.0
315.160492 140.0
323.296448 80.0
325.138306 192.0
326.14975 140.0
327.158447 112.0
327.792358 72.0
331.15567 64.0
333.107086 44.0
340.158325 152.0
340.246429 116.0
342.555847 116.0
350.81958 84.0
355.189545 132.0
366.742493 60.0
367.123749 112.0
375.156342 156.0
376.263519 140.0
381.062042 64.0
390.529968 68.0
390.569305 40.0
391.20282 176.0
415.389313 56.0
420.148834 40.0
431.450745 44.0
432.758087 112.0
437.878143 92.0
449.292145 48.0
467.107788 96.0
480.930328 60.0
524.969788 104.0
528.107239 20.0
560.495605 76.0
601.086609 100.0
619.425049 136.0
621.155029 76.0
633.121826 104.0
634.30426 64.0
646.108093 148.0
713.048767 60.0
751.767151 72.0
772.253906 100.0
781.334473 148.0
783.182556 32.0
787.86261 148.0
793.257141 160.0
795.669312 120.0
819.445862 120.0
851.905334 136.0
877.768982 168.0
878.606506 144.0
880.152832 112.0
912.164001 100.0
915.00946 64.0
921.529053 168.0
925.751038 212.0
932.260071 168.0
936.500488 152.0
949.500122 196.0
950.426392 80.0
956.448975 116.0
956.645935 164.0
963.651733 188.0
968.699829 92.0
976.029297 248.0
983.879578 160.0
992.162415 216.0
992.488403 172.0
992.626404 200.0
999.825378 140.0
1001.159973 124.0
1021.94751 140.0
1027.745483 220.0
1028.894287 236.0
1045.405396 176.0
1046.744263 208.0
1047.980957 148.0
1056.813477 112.0
1059.649292 120.0
1059.934326 152.0
1061.204712 132.0
1062.884644 144.0
1063.637451 196.0
1082.747437 116.0
1084.503296 140.0
1084.739258 124.0
1085.080078 136.0
1085.834229 200.0
1087.927368 32.0
1088.918823 196.0
1090.508789 180.0
1093.5802 120.0
1093.948853 80.0
1097.875732 120.0
1100.937744 124.0
1105.260742 176.0
1106.723633 232.0
1109.612305 216.0
1110.083008 240.0
1115.567139 192.0
1117.608765 200.0
1121.211304 112.0
1121.584473 144.0
1122.651245 212.0
1123.671753 156.0
1126.068115 192.0
1128.306641 216.0
1129.155762 156.0
1131.002441 108.0
1135.981079 164.0
1139.411377 120.0
1140.506714 52.0
1143.654541 184.0
1150.449097 128.0
1159.06543 168.0
1161.492432 128.0
1171.328125 164.0
1174.913818 128.0
1176.585815 168.0
1178.607422 168.0
1179.454834 120.0
1180.391479 60.0
1182.217896 52.0
1189.077759 188.0
1189.17395 148.0
1190.457642 184.0
1191.426147 72.0
1191.680298 80.0
1192.133789 128.0
1192.3125 64.0
1196.907593 212.0
1202.532837 40.0
1203.927368 196.0
1204.783936 180.0
1213.75354 160.0
1214.606567 152.0
1214.696777 200.0
1216.709229 172.0
1220.440796 180.0
1223.577881 144.0
1226.50354 204.0
1226.893921 192.0
1227.5354 180.0
1232.498291 132.0
1236.351196 192.0
1238.696655 168.0
1241.885864 72.0
1243.148682 188.0
1243.387329 184.0
1245.282959 184.0
1247.693115 128.0
1247.756348 176.0
1248.02356 204.0
1249.254272 196.0
1251.01355 208.0
1252.147095 140.0
1252.492188 60.0
1253.253052 164.0
1256.587891 188.0
1258.648926 116.0
1260.824585 160.0
1262.210083 136.0
1263.108276 164.0
1265.372803 124.0
1267.993652 216.0
1268.333862 240.0
1273.833008 120.0
1277.562256 244.0
1278.88855 156.0
1282.756348 208.0
1284.995605 144.0
1286.151611 168.0
1287.615234 176.0
1288.208008 116.0
1296.307007 152.0
1301.457153 184.0
1303.432495 204.0
1303.99292 140.0
1305.703979 136.0
1308.949463 40.0
1311.903442 140.0
1312.408081 160.0
1316.261963 172.0
1317.871826 176.0
1318.355957 132.0
1318.948608 196.0
1319.751099 156.0
1321.646118 152.0
1325.375 192.0
1328.811646 180.0
1329.471924 152.0
1336.338623 92.0
1338.500244 168.0
1338.915405 80.0
1339.40332 32.0
1339.738403 136.0
1346.478027 72.0
1350.929321 184.0
1351.412231 80.0
1354.223267 184.0
1359.494385 124.0
1362.350464 168.0
1363.335083 196.0
1365.503784 140.0
1365.893555 152.0
1366.36438 156.0
1371.651733 120.0
1371.961304 176.0
1372.779785 180.0
1375.147827 196.0
1375.347168 196.0
1375.568604 20.0
1378.24939 208.0
1379.624023 144.0
1384.018677 60.0
1385.433228 112.0
1385.707397 64.0
1385.803711 160.0
1387.330322 72.0
1387.626953 72.0
1391.061646 88.0
1391.499634 156.0
1393.906128 144.0
1396.790771 148.0
1397.036255 92.0
1397.78772 192.0
1398.606323 40.0
1404.298706 160.0
1405.619141 172.0
1406.134033 144.0
1406.335449 36.0
1406.604248 80.0
1407.291016 44.0
1410.353882 164.0
1411.819214 112.0
1412.35022 128.0
1412.776611 104.0
1413.666992 184.0
1413.98877 180.0
1415.972168 192.0
1419.134888 108.0
1419.779785 160.0
1419.892212 148.0
1422.060425 204.0
1422.128052 68.0
1425.236938 120.0
1427.161133 132.0
1427.627319 164.0
1429.846558 192.0
1431.209106 172.0
1431.864258 132.0
1433.024292 192.0
1434.772705 128.0
1435.489014 188.0
1436.567505 204.0
1437.148438 164.0
1437.903076 152.0
1441.097168 124.0
1444.446167 164.0
1446.254639 168.0
1446.504395 132.0
1446.761719 324.0
1447.61731 164.0
1449.745972 96.0
1454.296387 184.0
1454.607544 224.0
1455.021118 192.0
1455.404663 192.0
1456.56665 208.0
1457.706177 156.0
1458.770264 92.0
1459.074341 240.0
1459.849854 156.0
1460.222534 136.0
1463.174805 176.0
1463.959106 136.0
1464.728271 160.0
1465.177734 176.0
1465.269165 68.0
1465.383423 204.0
1467.235474 168.0
1467.47937 144.0
1467.624268 212.0
1468.234253 168.0
1468.890259 148.0
1471.240601 208.0
1471.370361 200.0
1473.401733 184.0
1473.600342 108.0
1473.714966 172.0
1474.502075 140.0
1478.945679 152.0
1481.158447 228.0
1483.809937 156.0
1483.871216 236.0
1485.305298 72.0
1485.719482 228.0
1485.865234 152.0
1487.269531 136.0
1487.707031 204.0
1488.136963 184.0
1490.61792 124.0
1494.393188 36.0
1495.054932 220.0
1495.224243 252.0
1497.641846 160.0
1501.08667 212.0
1501.179199 132.0
1504.064575 148.0
