>compound MLS001140843-01!4-[[[2-(4,7-dimethyl-2-oxochromen-5-yl)oxyacetyl]amino]methyl]cyclohexane-1-carboxylic acid
>formula C21H25NO6
>ionization [M+H]+
>parentmass 388.176
#inchi InChI=1S/C21H25NO6/c1-12-7-16(20-13(2)9-19(24)28-17(20)8-12)27-11-18(23)22-10-14-3-5-15(6-4-14)21(25)26/h7-9,14-15H,3-6,10-11H2,1-2H3,(H,22,23)(H,25,26)/t14-,15-
#inchikey WKVKJOYONAXNFU
#Ion_Source LC-ESI
#Instrument qTof
#Compound_Source NIH Natural Product Library
#PI Dorrestein
#Data_Collector VVP/LMS
#Scan -1
#Precursor_MZ 388.176
#ExactMass 387.168
#Charge 1
#CAS_Number N/A
#Pubmed_ID N/A
#Smiles Cc1cc(OCC(=O)NC[C@H]2CC[C@@H](CC2)C(=O)O)c3c(C)cc(=O)oc3c1
#INCHI_AUX N/A
#Library_Class 1
#SpectrumID CCMSLIB00000079615
#IonMode Positive
#UpdateWorkflowName UPDATE-SINGLE-ANNOTATED-GOLD
#LibraryQualityString Gold
#TaskID b1d8e8f6646f4e71acdff9ca3d919d08
##Scan# 1872
#SpectrumFile p1-G08_GG8_01_17952.mzXML
#LibraryName NIH_Natural_Products_Library.mgf
#MQScore -1
#Organism NIH_Natural_Products_Library
#TIC_Query 0
#RT_Query -1
#MZErrorPPM -1
#SharedPeaks 0
#MassDiff 0
#LibMZ -1
#SpecMZ 388.176
#SpecCharge 0
#internalFilename spec-00000.mgf

>collision 10
95.026489 148.0
95.049774 204.0
95.085243 1172.0
95.183716 212.0
95.938622 132.0
95.954216 148.0
96.012711 136.0
96.084045 296.0
96.465698 196.0
96.612366 120.0
97.321846 40.0
97.496674 96.0
97.752327 160.0
97.876335 108.0
98.045753 136.0
98.08123 232.0
98.298172 152.0
98.430428 180.0
98.610199 176.0
99.170326 172.0
99.321014 92.0
99.6446 88.0
99.670425 136.0
100.25547 164.0
100.363113 156.0
100.984177 152.0
101.172272 160.0
101.358543 132.0
101.478806 144.0
101.647293 56.0
101.797844 184.0
101.85006 204.0
102.203888 72.0
102.260239 88.0
102.47168 188.0
102.691406 156.0
103.054771 252.0
103.151779 232.0
103.789513 88.0
104.014702 200.0
104.091858 192.0
104.392601 180.0
104.767113 140.0
104.928116 228.0
105.054153 184.0
105.06852 128.0
105.183113 232.0
105.767715 196.0
105.808662 152.0
105.979012 116.0
106.076164 124.0
106.101631 180.0
106.970604 204.0
107.048843 184.0
107.07959 408.0
107.162132 152.0
107.830727 64.0
107.892738 84.0
107.958908 156.0
108.080048 176.0
108.773155 180.0
108.833366 228.0
109.093529 160.0
109.115936 60.0
109.932442 84.0
109.984619 72.0
110.020103 180.0
110.036812 180.0
110.062737 292.0
110.095146 876.0
110.364838 64.0
111.068665 204.0
111.102188 544.0
111.282562 264.0
111.345558 188.0
112.058655 112.0
112.088333 140.0
112.110771 344.0
112.19986 152.0
112.501541 164.0
112.904793 184.0
113.019348 40.0
113.046852 240.0
113.095535 140.0
113.114586 76.0
113.25222 188.0
113.457764 72.0
113.493805 128.0
114.601196 84.0
114.643814 180.0
114.833557 152.0
114.893288 276.0
115.053284 296.0
116.061005 256.0
116.333534 120.0
116.479561 172.0
116.969833 132.0
117.068367 608.0
117.612175 132.0
118.078873 168.0
118.598503 148.0
118.70256 212.0
118.819687 204.0
119.053802 140.0
119.085915 1024.0
119.251816 168.0
119.338776 140.0
119.485489 208.0
119.937447 156.0
120.083664 192.0
121.062622 368.0
121.148041 92.0
121.795158 84.0
122.0215 140.0
122.60041 68.0
123.015068 164.0
123.079979 216.0
123.38842 112.0
123.456963 200.0
123.757904 84.0
123.899651 176.0
124.078667 212.0
124.113029 868.0
124.192261 68.0
124.269905 188.0
124.474113 156.0
125.083282 104.0
125.292618 120.0
125.395386 164.0
126.543312 160.0
126.653046 48.0
126.740417 204.0
126.809883 208.0
126.973549 164.0
127.025139 36.0
128.062531 472.0
128.246109 112.0
128.266403 124.0
128.561859 180.0
128.984512 176.0
129.031677 204.0
129.070129 752.0
129.135696 224.0
129.298599 152.0
129.466125 160.0
129.731232 248.0
129.787903 76.0
129.803787 60.0
130.075363 496.0
130.132797 128.0
130.150955 212.0
130.625946 208.0
130.739716 184.0
130.839859 216.0
131.049393 160.0
131.083344 364.0
131.110916 96.0
131.316101 36.0
131.532867 160.0
131.950928 60.0
132.057816 656.0
132.436066 112.0
132.617065 196.0
132.828018 152.0
132.857849 200.0
132.974869 164.0
133.060852 596.0
133.096115 216.0
133.215958 36.0
133.464172 140.0
133.496368 200.0
133.84845 136.0
134.066559 128.0
134.091568 168.0
134.311676 148.0
134.972183 100.0
135.041565 100.0
135.079483 1456.0
135.474411 232.0
135.620407 88.0
135.657486 44.0
135.884766 104.0
136.618912 176.0
136.879578 100.0
136.895889 96.0
136.928482 44.0
137.062683 172.0
137.086899 176.0
137.292053 60.0
137.345688 132.0
137.394684 116.0
138.025299 232.0
138.089188 268.0
138.261566 160.0
138.389969 136.0
138.544891 160.0
139.091278 212.0
139.175797 236.0
139.26738 136.0
139.716873 112.0
139.940643 188.0
140.052979 204.0
140.10585 572.0
140.519745 168.0
140.746338 220.0
140.807739 128.0
140.899857 108.0
141.410629 176.0
141.58345 36.0
141.995834 84.0
142.304321 188.0
142.335175 160.0
143.060333 132.0
143.436707 48.0
143.582153 120.0
143.932953 112.0
144.056564 212.0
144.143158 200.0
144.396561 144.0
144.446793 156.0
144.666946 36.0
145.063995 2652.0
145.472412 188.0
145.558838 144.0
146.069183 152.0
146.150162 148.0
146.287338 156.0
146.40773 132.0
146.496841 52.0
146.581177 100.0
146.776413 252.0
146.836716 148.0
147.020065 180.0
147.046219 288.0
147.079224 1860.0
147.111786 56.0
147.162476 164.0
147.974854 120.0
148.079697 428.0
148.34552 112.0
148.940033 204.0
149.020538 224.0
149.05777 112.0
149.088516 212.0
149.63797 100.0
149.676926 104.0
149.701279 172.0
150.103348 168.0
150.669601 176.0
151.055862 132.0
152.048187 160.0
152.106781 804.0
153.08316 108.0
153.114639 932.0
153.181686 56.0
153.267914 64.0
154.030243 48.0
154.089539 140.0
154.116714 144.0
154.180969 28.0
154.242752 200.0
154.274887 156.0
154.339172 224.0
154.480148 188.0
155.057007 152.0
155.094238 164.0
156.936371 144.0
157.060287 320.0
157.385498 180.0
157.4729 52.0
157.605301 116.0
158.213058 152.0
158.478546 160.0
159.081467 640.0
159.120621 220.0
159.869675 172.0
160.045151 168.0
160.083649 136.0
160.373367 160.0
161.059265 952.0
161.264343 128.0
161.79303 100.0
161.896835 264.0
161.955093 160.0
162.066391 1888.0
162.421478 32.0
163.038437 216.0
163.074615 784.0
163.25708 44.0
163.45549 72.0
163.542023 136.0
163.913849 176.0
164.077515 152.0
164.250366 108.0
164.268234 172.0
164.347321 56.0
164.750702 132.0
165.019058 156.0
165.061554 148.0
165.090652 152.0
165.1418 172.0
165.389999 76.0
166.898483 104.0
167.199448 60.0
167.668167 216.0
167.812531 268.0
168.483551 140.0
169.295731 116.0
170.120941 136.0
170.520264 224.0
171.019638 148.0
171.110748 204.0
172.281723 136.0
172.888336 140.0
173.058411 1188.0
173.168472 88.0
173.307312 136.0
173.433105 132.0
173.514359 48.0
174.065445 304.0
174.136276 136.0
174.225586 68.0
174.483124 124.0
174.638275 120.0
174.704041 68.0
174.732986 96.0
174.806656 208.0
174.985641 124.0
175.075699 5048.0
175.11731 136.0
175.188431 52.0
175.228073 84.0
175.270096 48.0
175.393463 188.0
175.441422 104.0
175.488876 112.0
175.662933 144.0
175.823883 164.0
175.971695 56.0
176.080261 920.0
176.13353 216.0
176.257355 136.0
176.415543 44.0
176.46048 68.0
176.897003 60.0
176.994949 108.0
177.091705 184.0
177.14592 132.0
177.353409 196.0
177.495758 32.0
178.09288 408.0
178.422394 60.0
178.603226 152.0
178.683029 188.0
178.856003 128.0
179.194214 188.0
179.666092 208.0
180.096436 152.0
180.261505 148.0
180.705368 168.0
181.106918 112.0
181.353424 256.0
182.104691 176.0
182.367996 144.0
183.738647 84.0
183.814865 144.0
184.627319 108.0
184.805847 20.0
184.897858 92.0
185.058899 484.0
185.095901 128.0
185.271133 136.0
185.938568 36.0
186.055817 144.0
187.036621 148.0
187.638672 180.0
187.769562 176.0
188.047836 140.0
188.260788 216.0
189.056885 284.0
189.18222 136.0
189.236969 176.0
189.447861 56.0
189.658844 196.0
189.749313 44.0
189.842545 96.0
189.916595 216.0
189.991745 172.0
190.062119 7356.0
190.12236 28.0
190.157211 160.0
190.188232 72.0
190.292542 80.0
190.327606 244.0
190.356659 196.0
190.435349 100.0
190.501266 100.0
190.536987 140.0
190.626022 168.0
190.666122 148.0
190.732086 28.0
190.79158 112.0
190.913147 204.0
190.991776 172.0
191.030975 188.0
191.070175 18180.0
191.119385 164.0
191.177643 52.0
191.216171 216.0
191.256775 64.0
191.297256 52.0
191.326279 56.0
191.353638 64.0
191.422653 60.0
191.484894 116.0
191.514465 188.0
191.579636 108.0
191.612701 100.0
191.720169 96.0
191.971024 92.0
192.015152 164.0
192.073669 2160.0
192.119965 32.0
192.299332 60.0
192.371094 92.0
192.445633 68.0
192.511902 56.0
192.611343 36.0
192.650009 52.0
192.71402 140.0
192.7854 44.0
192.871078 52.0
192.920837 116.0
193.014832 44.0
193.044907 196.0
193.071426 280.0
193.13652 96.0
193.251602 96.0
193.330185 128.0
193.435364 88.0
193.494675 132.0
193.604263 116.0
194.086426 48.0
194.177933 88.0
194.288895 124.0
194.571976 152.0
194.841354 200.0
194.988632 184.0
195.489212 100.0
195.519821 176.0
196.514633 152.0
196.629044 52.0
197.917755 144.0
198.105499 312.0
199.958618 80.0
200.014908 156.0
200.327469 196.0
200.679749 100.0
201.04364 116.0
201.063385 300.0
201.780869 188.0
202.174042 52.0
202.479797 164.0
202.604431 124.0
202.697937 136.0
202.790543 168.0
202.876495 184.0
203.015427 228.0
203.070572 12236.0
203.168594 80.0
203.191284 100.0
203.282089 76.0
203.458054 48.0
203.48645 92.0
203.602875 64.0
203.662521 204.0
203.772537 132.0
203.844345 196.0
204.040466 232.0
204.074249 2264.0
204.262283 48.0
204.347626 68.0
204.535446 80.0
204.803101 108.0
204.979736 180.0
205.074203 480.0
205.487274 116.0
205.555756 40.0
205.629944 132.0
205.98114 80.0
206.042145 148.0
206.078278 148.0
206.17543 40.0
206.498505 96.0
207.237061 72.0
208.071671 48.0
209.953522 48.0
211.681641 56.0
212.443909 32.0
213.057693 244.0
214.170578 48.0
214.26088 80.0
215.06572 220.0
218.150223 180.0
218.662018 44.0
220.012054 200.0
221.53801 112.0
222.190231 176.0
222.879044 184.0
223.304153 140.0
224.07811 88.0
224.826553 132.0
227.064362 148.0
228.199448 192.0
230.079437 196.0
230.163971 128.0
230.535522 92.0
230.559708 36.0
230.871857 220.0
230.95578 180.0
230.976181 172.0
231.028366 120.0
231.065201 8872.0
231.15242 76.0
231.267426 48.0
231.324936 56.0
231.573227 72.0
231.627747 52.0
231.818619 60.0
231.854141 156.0
231.900452 176.0
231.973206 96.0
232.067795 960.0
232.346207 60.0
232.397781 88.0
232.540405 48.0
232.649689 100.0
232.813644 40.0
233.075668 296.0
233.378845 72.0
233.579575 80.0
233.603897 144.0
233.749939 180.0
233.832108 132.0
233.865585 60.0
233.928818 140.0
234.602753 80.0
235.069397 56.0
237.971161 156.0
238.48111 60.0
241.403793 84.0
244.832962 188.0
246.164566 80.0
247.27124 52.0
247.308807 72.0
247.459061 100.0
247.499771 156.0
247.957138 156.0
248.044891 176.0
248.090866 7740.0
248.135803 40.0
248.16951 60.0
248.241486 104.0
248.273773 88.0
248.327087 64.0
248.358459 76.0
248.41806 48.0
248.478027 68.0
248.593765 48.0
248.640839 60.0
248.716156 68.0
249.094971 1404.0
249.17778 52.0
249.507782 88.0
250.102554 200.0
250.19046 48.0
250.363647 104.0
250.467575 48.0
250.823654 120.0
251.047501 80.0
251.669128 36.0
252.917862 120.0
256.322418 212.0
257.346313 36.0
260.091461 332.0
261.094971 424.0
261.677948 84.0
262.115997 84.0
263.0513 160.0
263.561584 60.0
266.204803 164.0
274.113403 220.0
275.29248 52.0
277.456421 84.0
277.751556 200.0
279.06665 136.0
282.204132 28.0
283.32196 112.0
291.110199 228.0
294.410095 176.0
295.137939 164.0
295.894104 172.0
296.970093 60.0
314.942505 36.0
319.173981 68.0
323.716522 196.0
329.937683 36.0
340.13797 120.0
341.493805 56.0
341.721893 168.0
341.894836 124.0
341.979492 84.0
342.169647 4368.0
342.439728 56.0
342.620209 80.0
342.645996 76.0
343.088257 76.0
343.168396 1204.0
343.763214 72.0
343.973602 56.0
344.047424 56.0
344.171875 312.0
344.217285 92.0
344.671631 136.0
344.893372 72.0
345.344452 44.0
345.571594 120.0
345.940186 76.0
346.312744 112.0
346.929291 60.0
347.403992 48.0
347.500427 84.0
360.981781 124.0
365.024109 188.0
365.925873 36.0
367.648804 68.0
370.164703 120.0
370.849945 148.0
379.508453 40.0
381.939514 76.0
386.105042 64.0
386.328003 160.0
391.24527 116.0
400.930023 68.0
432.799622 116.0
442.517761 68.0
443.380676 52.0
495.713562 92.0
497.252411 68.0
500.983063 88.0
552.980408 92.0
620.986511 64.0
715.987976 72.0
750.859558 20.0
767.609314 76.0
802.4422 72.0
824.448425 88.0
826.268005 92.0
845.932739 208.0
855.14447 100.0
859.649475 172.0
868.278442 92.0
893.037537 176.0
899.472717 152.0
902.675049 208.0
916.649658 136.0
928.989807 188.0
939.251892 92.0
939.91687 176.0
961.851562 136.0
974.056458 100.0
980.365295 140.0
983.889465 224.0
1008.786011 112.0
1009.007324 164.0
1018.455688 44.0
1037.484619 60.0
1048.759644 116.0
1075.659546 40.0
1079.220093 164.0
1083.434937 224.0
1102.642334 128.0
1106.075073 152.0
1106.372925 140.0
1108.909912 144.0
1125.301025 216.0
1141.307861 80.0
1144.389526 180.0
1145.898193 204.0
1155.911621 52.0
1164.453491 160.0
1165.64917 44.0
1182.151611 244.0
1184.609497 256.0
1188.277344 168.0
1196.724243 208.0
1211.77417 36.0
1214.124023 136.0
1225.440674 72.0
1230.615845 48.0
1231.335083 96.0
1239.169678 148.0
1239.569092 216.0
1248.93457 112.0
1250.17981 176.0
1250.989258 132.0
1260.786377 168.0
1263.147827 128.0
1267.537354 64.0
1267.948364 176.0
1276.05481 136.0
1282.589966 92.0
1286.713257 148.0
1299.122681 216.0
1300.873657 228.0
1305.845215 176.0
1318.751953 128.0
1329.717407 108.0
1336.077637 68.0
1337.487183 200.0
1341.646729 220.0
1341.777954 152.0
1345.148315 192.0
1350.270264 220.0
1357.469116 180.0
1362.555664 188.0
1364.929688 68.0
1370.626953 172.0
1375.974365 188.0
1378.899536 240.0
1380.296753 196.0
1381.53186 164.0
1382.368042 248.0
1389.510864 176.0
1393.304565 112.0
1397.780518 164.0
1405.156982 132.0
1412.403198 40.0
1417.127075 192.0
1418.955811 148.0
1426.402832 68.0
1428.252686 148.0
1431.488892 192.0
1433.19873 104.0
1437.866577 140.0
1442.568481 20.0
1442.950317 160.0
1447.331055 192.0
1448.588257 152.0
1453.296265 188.0
1455.072266 216.0
1458.764404 144.0
1461.395874 184.0
1462.050171 56.0
1469.182129 176.0
1471.227417 172.0
1473.503296 192.0
1480.402588 200.0
1480.517456 164.0
1483.245117 72.0
1485.36145 44.0
1486.305054 180.0
1490.305542 180.0
1492.203979 132.0
1493.134399 112.0
1501.097168 220.0
1502.177002 84.0
