>compound MLS002153841-01!Iobenguane sulfate
>formula C8H10IN3
>ionization [M+H]+
>parentmass 275.99826
#inchi InChI=1S/C8H10IN3/c9-7-3-1-2-6(4-7)5-12-8(10)11/h1-4H,5H2,(H4,10,11,12)
#inchikey PDWUPXJEEYOOTR
#origInchi InChI=1S/C8H10IN3.H2O4S/c9-7-3-1-2-6(4-7)5-12-8(10)11;1-5(2,3)4/h1-4H,5H2,(H4,10,11,12);(H2,1,2,3,4)
#Ion_Source LC-ESI
#Instrument qTof
#Compound_Source NIH Pharmacologically Active Library
#PI Dorrestein
#Data_Collector VP/LMS
#Scan -1
#Precursor_MZ 276.003
#ExactMass 274.992
#Charge 1
#CAS_Number N/A
#Pubmed_ID N/A
#Smiles NC(=N)NCc1cccc(I)c1.OS(=O)(=O)O
#INCHI_AUX N/A
#Library_Class 1
#SpectrumID CCMSLIB00000086167
#IonMode Positive
#UpdateWorkflowName UPDATE-SINGLE-ANNOTATED-GOLD
#LibraryQualityString Gold
#TaskID d252d724072548979f1f6f1ced849daf
##Scan# 1318
#SpectrumFile p5-G05_GG5_01_18474.mzXML
#LibraryName Pharm_Active_Library.mgf
#MQScore -1
#Organism Pharm_Active_Library
#TIC_Query 0
#RT_Query -1
#MZErrorPPM -1
#SharedPeaks 0
#MassDiff 0
#LibMZ -1
#SpecMZ 276.003
#SpecCharge 0
#internalFilename spec-00000.mgf

>collision 10
45.707916 160.0
45.935608 96.0
46.066547 112.0
46.194969 52.0
46.268047 176.0
46.681885 180.0
46.928345 144.0
47.206902 156.0
47.316364 184.0
47.480793 124.0
47.770611 148.0
49.340515 96.0
49.390858 168.0
49.99416 48.0
50.154716 164.0
50.377674 168.0
50.564316 140.0
51.011116 132.0
51.089684 96.0
51.177567 132.0
51.322903 88.0
51.702881 200.0
52.071335 200.0
52.357536 104.0
52.514717 272.0
52.806385 148.0
52.858463 52.0
53.196163 164.0
53.309452 172.0
53.7463 168.0
53.765011 68.0
54.085354 180.0
54.756344 196.0
54.775494 136.0
54.881603 128.0
54.971584 144.0
55.138462 80.0
55.435921 196.0
55.455189 204.0
55.570854 116.0
55.612408 136.0
55.969196 216.0
56.316673 160.0
56.327129 152.0
56.458172 124.0
56.499043 168.0
56.509514 56.0
57.050922 236.0
57.10957 60.0
57.251041 124.0
57.407768 92.0
57.87772 108.0
57.912552 188.0
58.357189 180.0
58.483456 140.0
58.582432 152.0
58.79895 144.0
59.106113 160.0
59.438622 64.0
59.530727 192.0
59.559906 116.0
59.644421 128.0
59.996937 200.0
60.010815 208.0
60.165096 156.0
60.177444 212.0
60.263939 172.0
61.026516 76.0
61.609402 168.0
61.782932 120.0
61.928509 120.0
62.020954 152.0
62.195061 228.0
62.273567 168.0
62.454323 104.0
62.564472 116.0
62.762993 172.0
62.822926 44.0
62.911297 132.0
63.750763 184.0
63.815937 188.0
63.839787 200.0
63.857281 112.0
63.941605 140.0
64.100853 112.0
64.113602 128.0
64.253922 148.0
64.42794 164.0
64.90329 104.0
64.975464 204.0
65.225983 176.0
65.320854 196.0
65.652649 160.0
65.833389 160.0
65.983665 192.0
66.420723 180.0
66.458214 160.0
66.654686 120.0
66.766853 172.0
66.822159 116.0
66.963783 244.0
67.141434 200.0
67.482712 204.0
67.690521 156.0
68.054535 136.0
68.546349 172.0
68.701332 148.0
69.020096 164.0
69.033325 140.0
69.167336 224.0
69.251785 144.0
69.546913 128.0
69.648201 56.0
69.837685 148.0
70.122398 156.0
70.524643 100.0
70.778931 192.0
71.908638 160.0
72.444649 184.0
72.548027 172.0
72.578545 196.0
72.945259 168.0
73.100029 120.0
73.163002 192.0
73.485115 120.0
73.549965 176.0
73.590935 168.0
73.859238 136.0
73.975601 176.0
74.203453 184.0
74.249748 152.0
74.507225 156.0
74.600029 136.0
74.859833 160.0
75.001106 212.0
75.04248 144.0
75.28923 64.0
75.813416 144.0
76.167358 132.0
76.755608 116.0
77.216637 160.0
77.701851 140.0
77.726418 124.0
78.056656 200.0
78.130524 180.0
78.857025 152.0
79.030327 168.0
79.08342 60.0
79.187881 152.0
79.200279 144.0
79.469742 28.0
79.618851 128.0
79.777275 148.0
79.862343 152.0
79.990456 328.0
80.252342 60.0
80.312973 100.0
80.368279 212.0
81.04953 156.0
81.078201 112.0
81.227013 128.0
81.512474 220.0
81.596954 224.0
81.670685 88.0
81.902878 104.0
82.164268 124.0
82.635811 160.0
82.666573 192.0
82.900177 168.0
83.215797 124.0
83.250298 176.0
83.415634 140.0
83.522919 120.0
83.548386 252.0
83.692169 148.0
83.856125 120.0
83.925392 92.0
84.126083 160.0
84.219208 52.0
84.303253 100.0
84.705765 160.0
85.259872 164.0
85.331558 236.0
85.606987 152.0
86.342064 228.0
86.355011 152.0
86.385757 140.0
86.741997 140.0
86.843979 200.0
86.942307 124.0
87.153999 96.0
87.211617 116.0
87.224625 148.0
87.356651 52.0
87.427353 124.0
87.749603 188.0
87.813004 124.0
88.274284 128.0
88.31543 192.0
88.9375 132.0
88.992928 236.0
89.006966 192.0
89.039604 4752.0
89.061432 276.0
89.223038 36.0
89.320824 88.0
89.554222 120.0
89.910561 32.0
89.995506 156.0
90.018166 156.0
90.046394 2732.0
90.069153 316.0
90.256256 72.0
90.473831 104.0
90.559044 112.0
90.830093 148.0
90.934456 212.0
91.049812 168.0
91.26445 200.0
91.377213 192.0
91.672348 112.0
92.006775 168.0
92.061508 96.0
92.21817 220.0
92.420883 184.0
92.859573 128.0
92.891876 228.0
92.920952 216.0
92.936302 68.0
94.075661 88.0
94.433136 80.0
95.608849 148.0
95.663345 128.0
96.027725 188.0
96.823166 108.0
96.958351 100.0
97.401772 116.0
97.419449 128.0
97.913155 108.0
98.078659 120.0
98.595764 136.0
99.193504 136.0
99.604263 128.0
99.832825 96.0
99.856689 52.0
99.870613 180.0
100.037758 152.0
100.119392 152.0
100.486168 104.0
100.601921 172.0
100.773674 132.0
101.456139 180.0
101.490227 148.0
101.799248 112.0
101.817322 156.0
101.909721 116.0
102.446892 236.0
103.169357 128.0
103.201706 88.0
104.2883 180.0
104.330986 172.0
104.367584 168.0
104.406219 172.0
104.512001 84.0
104.573051 108.0
104.841881 116.0
105.029457 164.0
105.15596 132.0
105.315216 152.0
105.562958 144.0
106.06411 140.0
106.345108 124.0
106.482674 156.0
106.712822 148.0
107.087349 64.0
107.149147 152.0
107.165627 148.0
107.256302 192.0
107.44809 140.0
107.625587 108.0
108.03067 144.0
108.451019 192.0
108.55468 68.0
109.06749 192.0
109.500267 108.0
109.529427 184.0
110.583855 68.0
110.623627 168.0
110.960915 160.0
112.298332 160.0
112.841042 148.0
112.927742 144.0
113.38929 144.0
114.83078 156.0
114.847839 168.0
114.894768 180.0
116.077568 112.0
116.427361 152.0
116.487495 120.0
116.659409 152.0
116.713158 164.0
116.926132 140.0
117.003624 160.0
117.361275 68.0
117.443222 232.0
117.935516 156.0
117.963615 180.0
118.285927 84.0
118.33139 68.0
118.574005 132.0
118.929703 180.0
119.168579 124.0
119.229424 160.0
119.825645 204.0
120.860565 160.0
121.101379 156.0
121.39724 108.0
121.432335 112.0
121.561768 84.0
121.741776 180.0
122.062614 100.0
122.231987 160.0
122.304611 80.0
122.690109 160.0
122.99453 156.0
123.332481 136.0
123.524857 104.0
124.140579 148.0
124.544502 88.0
124.984688 236.0
125.191704 148.0
125.418961 176.0
125.662033 68.0
126.184654 100.0
126.824371 172.0
126.954926 148.0
127.080544 144.0
127.203979 84.0
127.246628 156.0
127.362228 180.0
127.520683 84.0
127.7118 240.0
128.139511 132.0
128.256699 184.0
128.518967 216.0
128.728226 196.0
128.816299 148.0
128.870529 88.0
129.383926 176.0
130.843719 100.0
131.000854 36.0
131.059052 216.0
131.863373 204.0
132.165222 52.0
132.181244 124.0
132.222443 180.0
132.313995 96.0
132.33461 148.0
132.469727 216.0
132.932861 168.0
132.985641 152.0
133.509476 108.0
134.500183 144.0
134.939102 188.0
134.971481 80.0
134.996918 100.0
135.325485 160.0
135.455185 116.0
135.561752 176.0
135.635925 184.0
135.791275 232.0
135.930466 188.0
136.34848 92.0
136.667053 128.0
136.783417 96.0
137.006973 220.0
137.330994 168.0
137.531647 92.0
137.842255 204.0
138.042603 136.0
138.471558 212.0
138.879379 160.0
138.977921 124.0
139.301895 104.0
139.393524 148.0
139.475784 140.0
139.680359 120.0
140.314789 184.0
140.485992 76.0
141.123657 148.0
141.336548 148.0
141.36731 196.0
142.035431 108.0
142.574387 176.0
143.26918 192.0
144.242798 136.0
144.73085 172.0
145.083054 152.0
145.250916 120.0
145.486084 108.0
145.889679 120.0
145.957001 204.0
145.973831 140.0
146.207169 136.0
146.320312 156.0
146.891449 164.0
146.975891 152.0
147.084488 188.0
147.34288 220.0
147.596664 172.0
147.683731 176.0
147.761139 52.0
147.836151 168.0
147.870026 100.0
147.925705 176.0
148.068558 184.0
148.526642 168.0
148.788254 184.0
149.095093 192.0
149.357361 156.0
149.476578 96.0
149.980713 68.0
150.595581 216.0
150.641983 92.0
151.863434 120.0
151.9272 140.0
151.959106 40.0
152.378937 136.0
152.582932 180.0
152.725555 92.0
152.844574 172.0
152.932236 108.0
153.136597 140.0
153.16861 192.0
153.309052 100.0
153.363266 208.0
153.397781 228.0
153.772705 104.0
154.0616 144.0
154.153015 108.0
154.202454 196.0
154.57341 176.0
155.415878 168.0
155.85289 152.0
156.18602 128.0
156.421021 172.0
156.526978 140.0
156.995453 84.0
157.107697 120.0
157.269897 164.0
157.577057 156.0
157.627029 156.0
157.817001 148.0
158.700851 144.0
158.92157 136.0
158.971756 160.0
159.225311 160.0
159.423782 88.0
159.479065 112.0
159.624893 256.0
160.438141 160.0
160.470917 108.0
160.607086 84.0
160.652496 172.0
161.448135 80.0
162.149399 148.0
162.697296 156.0
162.788712 196.0
162.852203 160.0
163.154587 168.0
163.594696 148.0
163.795868 152.0
165.084763 128.0
165.622223 172.0
165.988708 148.0
166.959396 168.0
167.170349 236.0
167.654495 196.0
167.720215 232.0
169.008896 180.0
169.147354 144.0
169.263855 180.0
169.42186 112.0
169.9767 188.0
170.197342 152.0
170.493469 156.0
170.847092 164.0
171.735352 104.0
171.782318 188.0
171.936249 172.0
171.967575 136.0
172.20256 144.0
172.22345 164.0
173.125763 124.0
174.232651 148.0
174.521759 96.0
175.612 156.0
175.912811 132.0
176.248215 140.0
176.47554 176.0
176.504623 164.0
177.192795 136.0
177.372986 172.0
177.510849 160.0
177.590424 124.0
178.270065 80.0
178.623672 124.0
178.778 308.0
178.833893 196.0
179.04422 112.0
179.457245 132.0
179.475906 152.0
179.862747 164.0
179.929489 172.0
180.632309 164.0
180.924011 144.0
181.086258 244.0
181.205215 136.0
181.277557 132.0
181.816589 176.0
182.101166 160.0
182.11998 220.0
182.707581 140.0
182.934723 148.0
182.96434 144.0
183.897018 84.0
183.991501 176.0
184.077896 272.0
184.110519 248.0
184.472366 124.0
184.61026 140.0
184.934906 148.0
185.068695 228.0
185.120941 120.0
185.530853 132.0
185.595917 84.0
186.130463 168.0
186.282562 148.0
186.396667 220.0
186.584213 208.0
186.61412 156.0
187.545135 44.0
187.624191 132.0
188.036072 120.0
188.281784 92.0
188.683472 132.0
189.093781 192.0
189.499054 92.0
189.594955 96.0
189.625107 184.0
190.135239 104.0
190.379562 204.0
190.643295 212.0
191.669708 156.0
191.870911 92.0
191.903992 128.0
192.08049 176.0
192.339874 100.0
192.881271 220.0
193.10524 152.0
193.276749 128.0
194.102203 124.0
194.138245 100.0
194.235321 120.0
194.340744 156.0
194.365723 160.0
194.397049 180.0
194.47673 148.0
194.826599 128.0
195.14621 172.0
195.571838 148.0
195.984009 116.0
196.689575 28.0
196.750992 136.0
196.792862 120.0
197.072174 172.0
197.653763 124.0
197.970078 104.0
198.068115 196.0
198.180176 96.0
198.387558 132.0
198.929108 168.0
199.105865 148.0
199.294083 160.0
199.802963 204.0
199.918335 160.0
200.112244 320.0
200.140717 52.0
200.397018 132.0
200.690155 112.0
201.000427 148.0
201.158478 140.0
201.466278 108.0
201.910065 128.0
202.07695 112.0
202.668716 84.0
203.218765 64.0
203.29538 68.0
203.400391 144.0
203.542343 156.0
203.786621 148.0
204.062317 116.0
204.215881 164.0
205.204025 208.0
205.332336 124.0
205.355148 200.0
205.660446 140.0
205.717545 124.0
205.923126 96.0
205.965973 132.0
206.185974 76.0
206.260284 112.0
206.735062 200.0
207.155945 48.0
207.31926 200.0
207.709183 84.0
207.772308 176.0
208.019104 200.0
208.179886 72.0
208.768997 144.0
209.15741 48.0
209.289841 100.0
209.5289 176.0
209.68161 88.0
210.697327 176.0
210.778229 152.0
210.997879 128.0
211.185852 76.0
211.258163 140.0
211.353638 128.0
211.417297 96.0
212.210983 176.0
212.730286 216.0
212.910309 144.0
213.192108 300.0
213.642792 160.0
213.689331 116.0
213.750443 164.0
214.114334 124.0
214.595139 196.0
214.743851 124.0
214.83429 44.0
215.52623 168.0
215.754196 108.0
216.040787 188.0
216.072968 44.0
216.154114 120.0
216.160217 88.0
216.172791 104.0
216.29538 160.0
216.330505 120.0
216.356857 244.0
216.403702 148.0
216.50943 132.0
216.543564 140.0
216.672592 168.0
216.722961 132.0
216.755188 168.0
216.796371 144.0
216.834869 168.0
216.87735 344.0
216.900681 380.0
216.951416 79272.0
217.052094 196.0
217.115997 80.0
217.156815 132.0
217.184845 80.0
217.234009 324.0
217.2948 112.0
217.397064 72.0
217.433289 272.0
217.490646 72.0
217.562073 120.0
217.588181 72.0
217.65683 116.0
217.685074 60.0
217.781982 36.0
217.824509 80.0
217.920059 176.0
217.9543 8804.0
218.047882 56.0
218.146347 60.0
218.175751 136.0
218.199265 44.0
218.263962 32.0
218.293365 96.0
218.349243 76.0
218.375702 80.0
218.42276 40.0
218.455124 88.0
218.499252 48.0
218.522797 48.0
218.605179 120.0
218.725845 64.0
218.893661 64.0
218.957596 400.0
219.02417 76.0
219.053909 116.0
219.111618 100.0
219.146973 96.0
219.211807 80.0
219.309479 56.0
219.338531 116.0
219.433853 100.0
219.482986 80.0
219.547134 64.0
219.574417 56.0
219.598007 96.0
219.624557 52.0
219.656998 108.0
219.704193 92.0
219.730743 260.0
220.005219 120.0
220.303482 80.0
220.324158 76.0
220.471893 92.0
220.560562 68.0
220.90062 196.0
221.483765 88.0
221.705963 48.0
222.548416 64.0
223.023727 72.0
223.701935 72.0
225.635086 32.0
226.416061 108.0
226.452011 168.0
226.820557 60.0
226.931473 48.0
227.090408 76.0
227.91597 80.0
228.460144 44.0
228.499252 76.0
228.848389 72.0
229.053177 68.0
229.11644 120.0
229.399719 76.0
231.060684 96.0
231.221069 56.0
231.954041 52.0
233.736801 152.0
233.898102 112.0
233.9785 204.0
234.470718 84.0
234.626175 32.0
234.952484 136.0
234.983002 132.0
235.370636 172.0
236.290634 148.0
236.749771 60.0
238.627686 48.0
240.945343 32.0
244.209503 56.0
246.194778 56.0
249.487915 68.0
253.433044 196.0
256.171631 152.0
257.981049 100.0
258.976196 160.0
260.997986 204.0
262.153625 128.0
263.773834 120.0
265.684448 60.0
274.183685 392.0
275.17868 164.0
275.615112 36.0
275.905975 172.0
275.99826 4456.0
276.091125 56.0
276.216797 72.0
276.999817 416.0
278.0159 136.0
278.460754 100.0
278.643463 116.0
278.992432 136.0
279.534576 96.0
280.083893 140.0
284.816986 32.0
293.1297 36.0
294.176788 96.0
310.632812 80.0
311.211884 44.0
315.552643 52.0
318.941681 176.0
345.113892 188.0
348.583374 104.0
359.246826 148.0
380.418762 92.0
383.593048 56.0
397.203094 144.0
436.524323 68.0
449.801697 56.0
451.035126 40.0
458.974121 104.0
476.023438 80.0
536.755615 136.0
601.079224 108.0
603.717163 112.0
629.948975 20.0
654.542114 56.0
708.750244 80.0
729.576416 84.0
739.718201 104.0
746.739441 136.0
761.666748 52.0
775.122864 124.0
788.484375 204.0
819.066467 156.0
834.368713 180.0
834.891968 208.0
838.599609 92.0
841.714905 192.0
842.14801 192.0
845.038391 140.0
856.795105 196.0
858.129761 168.0
872.32074 136.0
873.249756 124.0
884.48999 72.0
889.172363 176.0
892.849854 84.0
895.462585 60.0
898.43103 172.0
899.093384 264.0
900.645691 176.0
901.23114 160.0
909.477478 124.0
912.920044 152.0
926.197937 192.0
926.434204 160.0
927.173401 196.0
932.641846 264.0
940.328369 128.0
944.342407 224.0
946.839539 156.0
956.786926 164.0
965.010986 112.0
965.412903 140.0
971.563477 236.0
977.117554 160.0
979.668518 136.0
987.497498 136.0
988.836426 180.0
993.322693 228.0
997.54248 132.0
1004.210632 164.0
1012.483643 220.0
1013.997803 128.0
1014.397156 228.0
1015.02478 148.0
1015.221375 68.0
1022.661011 156.0
1028.780396 204.0
1030.932861 92.0
1033.055542 148.0
1036.173218 132.0
1040.142822 156.0
1041.112305 180.0
1050.793335 164.0
1053.149536 188.0
1053.860229 160.0
1054.202637 244.0
1054.435303 76.0
1059.165039 164.0
1059.773926 32.0
1063.243164 144.0
1064.437622 124.0
1067.017212 64.0
1071.488281 176.0
1071.879272 152.0
1073.854492 120.0
1073.913208 188.0
1084.924927 64.0
1114.101318 200.0
1123.207764 132.0
1124.615723 220.0
1126.832764 164.0
1133.68457 212.0
1136.245972 116.0
1136.480713 164.0
1137.816406 204.0
1137.957397 160.0
1140.947021 168.0
1145.294189 92.0
1148.71167 156.0
1148.907349 76.0
1150.358154 188.0
1150.702515 132.0
1151.364258 48.0
1151.526367 168.0
1153.337036 188.0
1155.203369 196.0
1155.893555 132.0
1156.881592 148.0
1160.483154 232.0
1163.532227 144.0
1170.94397 136.0
1175.948364 220.0
1191.107788 176.0
1198.482788 156.0
1199.523438 172.0
1202.006226 232.0
1203.179565 152.0
1204.201538 144.0
1204.685059 140.0
1206.156982 124.0
1208.169312 120.0
1216.172852 152.0
1219.124512 56.0
1223.861572 224.0
1226.292847 172.0
1227.136353 96.0
1227.261841 156.0
1229.270752 168.0
1231.532715 180.0
1231.595581 208.0
1240.958984 164.0
1244.270508 216.0
1244.593384 128.0
1254.266846 164.0
1256.452881 216.0
1257.010254 168.0
1258.718506 144.0
1267.291382 168.0
1270.917725 176.0
1274.01709 180.0
1274.507324 192.0
1275.445435 140.0
1276.063843 164.0
1277.19458 160.0
1282.378052 216.0
1282.983887 96.0
1286.251099 228.0
1297.855103 124.0
1305.783081 180.0
1306.394531 156.0
1307.35144 212.0
1314.911377 124.0
1324.940674 224.0
1326.360962 196.0
1331.737549 160.0
1334.862671 124.0
1351.508301 52.0
1354.092407 216.0
1354.3927 192.0
1355.57959 152.0
1361.022339 152.0
1377.408691 116.0
1383.317017 268.0
1384.657227 124.0
1384.923828 120.0
1390.417725 208.0
1392.986694 296.0
1394.844482 164.0
1395.520996 76.0
1396.911621 156.0
1397.700317 128.0
1405.180908 148.0
1406.598877 140.0
1407.733643 120.0
1408.854004 228.0
1410.774658 156.0
1411.200806 112.0
1411.552246 120.0
1413.871216 188.0
1414.814331 144.0
1421.807739 176.0
1427.547119 172.0
1428.351929 136.0
1430.263184 200.0
1432.476929 208.0
1452.083984 152.0
1455.833008 156.0
1456.265991 164.0
1457.420654 60.0
1458.454224 240.0
1458.933105 84.0
1459.830322 128.0
1460.119263 196.0
1461.648315 196.0
1464.23877 228.0
1464.655518 136.0
1466.400269 140.0
1475.614014 132.0
1485.738647 208.0
1487.442261 144.0
1500.188721 156.0
1505.134155 220.0
