>compound MLS000859973-01!Daidzein486-66-8
>formula C15H10O4
>ionization [M+H]+
>parentmass 255.064407
#inchi InChI=1S/C15H10O4/c16-10-3-1-9(2-4-10)13-8-19-14-7-11(17)5-6-12(14)15(13)18/h1-8,16-17H
#inchikey ZQSIJRDFPHDXIC
#Ion_Source LC-ESI
#Instrument qTof
#Compound_Source NIH Pharmacologically Active Library
#PI Dorrestein
#Data_Collector VP/LMS
#Scan -1
#Precursor_MZ 255.067
#ExactMass 254.058
#Charge 1
#CAS_Number N/A
#Pubmed_ID N/A
#Smiles Oc1ccc(cc1)c2coc3cc(O)ccc3c2=O
#INCHI_AUX N/A
#Library_Class 1
#SpectrumID CCMSLIB00000085703
#IonMode Positive
#UpdateWorkflowName UPDATE-SINGLE-ANNOTATED-GOLD
#LibraryQualityString Gold
#TaskID d252d724072548979f1f6f1ced849daf
##Scan# 1627
#SpectrumFile p4-E05_GE5_01_18377.mzXML
#LibraryName Pharm_Active_Library.mgf
#MQScore -1
#Organism Pharm_Active_Library
#TIC_Query 0
#RT_Query -1
#MZErrorPPM -1
#SharedPeaks 0
#MassDiff 0
#LibMZ -1
#SpecMZ 255.067
#SpecCharge 0
#internalFilename spec-00000.mgf

>collision 10
44.960316 196.0
44.970993 140.0
44.991016 140.0
45.121944 124.0
45.199524 108.0
45.442051 212.0
45.799644 220.0
46.149921 152.0
46.372547 140.0
46.551628 36.0
47.055443 120.0
47.104607 188.0
47.496101 208.0
47.713078 212.0
47.722702 152.0
48.116756 208.0
48.188576 124.0
48.565121 192.0
48.772011 228.0
48.851273 88.0
48.936169 36.0
48.987698 180.0
49.435894 72.0
49.477886 128.0
49.514294 156.0
49.575935 44.0
49.952229 208.0
50.023994 108.0
50.293232 96.0
50.781384 168.0
50.967358 140.0
51.212051 208.0
51.451622 164.0
51.474468 144.0
51.687458 120.0
52.137753 184.0
52.422699 200.0
52.503429 180.0
52.621758 220.0
52.672302 92.0
52.706635 204.0
53.606674 184.0
53.618332 48.0
53.916061 144.0
54.434662 120.0
54.549263 152.0
54.671341 124.0
55.394836 152.0
55.825268 228.0
56.358925 200.0
56.515926 176.0
56.965702 160.0
57.034828 184.0
57.464027 128.0
57.483643 184.0
57.516846 140.0
57.541 216.0
58.245197 180.0
58.371342 156.0
58.532642 108.0
58.829956 236.0
58.845222 80.0
59.091297 132.0
59.150982 228.0
59.30109 172.0
59.325619 100.0
59.397694 152.0
59.858772 136.0
60.443817 172.0
60.559929 132.0
60.576969 172.0
61.321266 88.0
61.534981 176.0
61.722481 92.0
61.803818 308.0
61.861729 44.0
62.07795 76.0
62.151676 212.0
62.303974 140.0
62.648506 176.0
62.741486 36.0
63.080902 196.0
63.161549 176.0
63.190025 176.0
63.410137 172.0
63.448181 176.0
63.789501 72.0
63.904007 240.0
64.085518 64.0
64.118988 160.0
64.278458 128.0
64.369446 188.0
65.33918 152.0
66.018265 108.0
66.343719 80.0
66.432907 136.0
66.44751 164.0
66.514046 112.0
66.868385 140.0
67.406563 176.0
67.517731 204.0
67.791122 184.0
68.486092 208.0
69.529381 88.0
69.733665 152.0
70.003181 132.0
70.091469 104.0
70.532074 168.0
70.704346 216.0
70.863426 184.0
71.014305 224.0
71.187164 116.0
71.277878 236.0
71.383781 124.0
72.049568 120.0
72.171257 200.0
72.472549 156.0
72.648872 268.0
73.133171 184.0
73.96273 84.0
74.212852 144.0
74.724693 180.0
74.827957 60.0
74.930374 276.0
75.20031 108.0
75.471535 92.0
75.673973 228.0
76.218613 56.0
76.671074 116.0
76.834984 164.0
77.271759 176.0
77.794022 184.0
78.032951 116.0
78.265213 256.0
78.312759 200.0
78.9552 180.0
78.967583 108.0
79.346535 188.0
79.889984 240.0
80.928711 140.0
81.032593 160.0
82.026421 168.0
82.315094 168.0
82.475883 236.0
82.908455 144.0
83.082527 128.0
83.55307 196.0
83.605835 124.0
84.169128 204.0
84.382912 204.0
84.532898 176.0
86.382011 128.0
86.600433 204.0
87.108681 160.0
87.127258 140.0
87.188576 80.0
87.86824 200.0
88.824203 160.0
89.038261 208.0
89.276855 164.0
89.43866 80.0
89.667183 156.0
89.708038 88.0
89.815521 148.0
89.907974 160.0
90.607605 168.0
90.721313 56.0
90.766823 200.0
91.055855 1008.0
91.123665 148.0
91.984467 148.0
92.060188 412.0
92.274849 144.0
92.416389 172.0
92.533142 144.0
92.603996 156.0
93.566055 180.0
93.938004 128.0
94.424759 112.0
94.699593 152.0
95.019447 144.0
95.604332 172.0
95.664665 188.0
95.826317 172.0
96.148064 172.0
96.298401 180.0
96.357002 92.0
96.589638 36.0
96.662033 148.0
96.853897 160.0
97.028305 64.0
97.204834 104.0
97.646858 152.0
97.804268 192.0
97.833794 184.0
97.942101 236.0
98.328552 124.0
98.373955 200.0
98.682152 216.0
98.717743 52.0
99.002716 108.0
99.083931 184.0
99.230591 116.0
99.268272 180.0
99.284134 148.0
99.524246 48.0
99.858109 168.0
99.931709 156.0
99.993401 212.0
100.094933 172.0
100.164635 160.0
100.216438 200.0
100.875038 196.0
100.88903 60.0
101.273239 184.0
101.297272 140.0
101.313301 148.0
101.662186 136.0
102.027756 272.0
102.214813 220.0
102.567261 152.0
103.05648 380.0
103.207245 148.0
103.245667 252.0
103.970947 64.0
104.052147 144.0
104.515556 236.0
104.751724 160.0
104.8638 144.0
104.990204 184.0
105.032127 464.0
105.065674 192.0
105.079956 196.0
105.200363 112.0
105.480232 72.0
105.885361 180.0
106.03775 368.0
106.248177 208.0
106.441116 192.0
106.492455 60.0
106.683563 132.0
106.897469 212.0
107.051048 212.0
107.268204 72.0
107.709793 148.0
107.753174 64.0
107.993919 140.0
108.230965 128.0
108.660011 224.0
108.807365 156.0
109.027687 372.0
109.516487 140.0
109.701942 264.0
109.960594 156.0
110.012772 136.0
110.031563 164.0
110.08168 116.0
110.328232 180.0
110.342865 48.0
110.541573 136.0
111.338203 120.0
111.42012 188.0
112.021797 88.0
112.251534 212.0
113.018311 152.0
113.117783 220.0
113.234238 140.0
113.533066 228.0
113.577606 184.0
113.75798 120.0
113.932579 204.0
114.034119 48.0
114.693947 176.0
114.896538 172.0
114.981888 164.0
115.054413 352.0
115.392029 172.0
115.757919 112.0
116.056595 296.0
116.105095 48.0
116.424866 96.0
116.543015 68.0
116.714966 112.0
116.908569 160.0
117.028152 128.0
117.087257 212.0
117.218674 152.0
117.302727 104.0
117.391129 104.0
118.037292 156.0
118.257469 152.0
118.723274 108.0
119.048347 928.0
119.083549 168.0
119.226944 188.0
119.387825 52.0
119.455246 128.0
119.474831 56.0
119.494408 60.0
119.509636 188.0
119.657639 148.0
119.967003 180.0
120.019333 156.0
120.051567 252.0
120.503883 184.0
120.637199 152.0
120.698418 136.0
120.897484 32.0
121.033844 256.0
121.052917 224.0
121.557106 124.0
121.585632 124.0
121.933701 120.0
122.027161 64.0
122.231728 140.0
122.249329 204.0
123.102463 156.0
123.170929 184.0
123.246048 112.0
123.730423 192.0
124.007324 148.0
124.151428 200.0
124.300064 156.0
124.344444 168.0
124.473206 124.0
124.488754 40.0
124.56427 172.0
124.675362 180.0
126.045868 168.0
126.520042 128.0
126.623047 96.0
126.744019 56.0
126.952492 172.0
127.015289 148.0
127.053383 956.0
127.851105 116.0
127.882614 244.0
127.936646 216.0
127.968163 300.0
128.022202 140.0
128.062134 2352.0
128.155106 56.0
128.265533 88.0
128.333176 72.0
128.926849 80.0
128.981094 68.0
129.069244 2040.0
129.635193 52.0
129.707718 132.0
129.968521 120.0
130.070648 92.0
130.145569 56.0
130.590988 204.0
130.606918 160.0
131.048355 808.0
131.088333 160.0
131.452164 320.0
131.543457 32.0
131.648483 108.0
131.922668 144.0
132.051941 324.0
132.079315 192.0
132.120239 144.0
132.63002 144.0
132.703369 196.0
132.900635 116.0
133.027374 336.0
133.079666 136.0
133.150848 96.0
133.672699 156.0
134.035019 844.0
134.089539 180.0
134.114899 196.0
134.913605 172.0
135.042618 172.0
135.577911 76.0
135.928085 172.0
136.123077 188.0
136.260117 28.0
136.497192 204.0
136.632111 176.0
136.6577 104.0
136.673981 84.0
136.778717 184.0
136.806641 164.0
136.883484 184.0
136.958008 140.0
136.985962 96.0
137.022598 8252.0
137.062851 40.0
137.226013 48.0
137.419601 36.0
137.479034 76.0
137.519943 100.0
137.554947 56.0
137.814194 192.0
137.931046 72.0
138.028442 664.0
138.273651 244.0
138.581635 144.0
138.644913 72.0
138.966171 60.0
139.02832 484.0
139.055344 164.0
140.062714 220.0
140.901505 164.0
141.070816 968.0
141.381516 36.0
141.511719 188.0
141.561447 212.0
142.074112 108.0
142.113739 108.0
142.26326 188.0
143.084229 1236.0
143.865433 148.0
144.054626 216.0
144.088547 200.0
144.123367 128.0
144.403076 224.0
144.611237 276.0
144.996841 168.0
145.029099 1328.0
145.063385 136.0
145.767181 104.0
145.815247 44.0
145.894577 56.0
146.036453 120.0
146.325226 124.0
146.344482 160.0
146.416718 208.0
147.038544 288.0
147.720123 164.0
148.20192 192.0
148.492813 192.0
148.53891 296.0
148.609253 40.0
148.740311 36.0
149.021667 788.0
149.440231 132.0
149.574081 124.0
149.610596 80.0
149.715286 176.0
150.027176 188.0
150.051559 236.0
150.410172 68.0
150.534683 56.0
150.710556 144.0
151.023483 144.0
151.052383 956.0
151.679718 140.0
152.000992 148.0
152.018173 120.0
152.061417 6804.0
152.123718 48.0
152.280869 76.0
152.466721 168.0
152.858597 164.0
153.068619 4044.0
153.109711 148.0
153.15686 56.0
153.602661 68.0
153.723557 44.0
153.869186 48.0
153.901291 172.0
154.032181 56.0
154.075134 1092.0
154.133469 60.0
154.232529 100.0
154.360886 144.0
154.405411 132.0
154.642929 76.0
155.025299 172.0
155.049881 144.0
155.078842 164.0
155.979874 52.0
156.054459 300.0
156.124084 40.0
156.435104 56.0
156.853607 212.0
157.018173 128.0
157.064636 1440.0
157.115448 96.0
158.027374 64.0
158.064651 292.0
158.092438 116.0
158.170029 48.0
159.047348 180.0
159.083939 248.0
159.351212 100.0
159.532166 72.0
160.058014 116.0
160.678055 136.0
160.74617 136.0
161.071869 144.0
161.453522 196.0
161.635666 172.0
162.215652 96.0
162.469254 204.0
163.059509 212.0
163.714737 48.0
163.92363 160.0
164.275482 36.0
164.558762 156.0
164.722214 116.0
164.821854 176.0
164.939713 176.0
165.066803 516.0
165.266769 220.0
165.868607 104.0
166.076309 136.0
166.232803 120.0
166.743866 276.0
167.284027 120.0
167.435944 144.0
168.021088 104.0
168.05751 176.0
169.031357 124.0
169.063538 1044.0
169.160767 248.0
169.375687 180.0
169.536331 132.0
170.044647 156.0
170.070007 520.0
171.040833 368.0
171.080215 2324.0
171.185959 188.0
171.895004 204.0
172.046387 152.0
172.077728 136.0
172.37027 136.0
172.621216 180.0
173.058197 124.0
173.136765 208.0
173.794739 100.0
175.039658 208.0
175.159195 116.0
175.2435 148.0
175.372635 140.0
176.042755 156.0
176.468185 232.0
177.046036 156.0
177.251678 104.0
177.768784 208.0
178.055496 224.0
178.283966 208.0
178.917038 176.0
178.988922 176.0
179.052521 168.0
179.178024 120.0
179.487213 188.0
179.553879 128.0
179.745956 40.0
179.970184 136.0
180.055634 92.0
180.852386 188.0
180.913956 48.0
180.996964 32.0
181.034439 148.0
181.063705 8180.0
181.112122 192.0
181.134552 64.0
181.238037 36.0
181.272858 100.0
181.296982 88.0
181.463181 72.0
181.487305 44.0
181.535568 200.0
181.557999 88.0
181.618713 212.0
181.726028 56.0
182.038589 172.0
182.069092 1632.0
182.383972 48.0
182.625977 88.0
182.768555 36.0
182.830444 196.0
182.962341 36.0
183.069794 396.0
183.102371 148.0
183.142761 92.0
183.167007 84.0
183.193954 108.0
183.218201 72.0
183.242447 84.0
183.33136 40.0
183.417618 140.0
183.563202 168.0
183.80867 132.0
183.93013 36.0
184.000305 88.0
184.049927 2000.0
184.086716 176.0
184.229874 184.0
185.054901 380.0
185.998184 128.0
186.057907 104.0
186.402863 160.0
187.04039 468.0
187.063766 184.0
187.158203 44.0
188.080536 136.0
191.400604 164.0
191.480469 100.0
192.017914 84.0
192.216537 84.0
193.05632 124.0
193.103348 176.0
193.463058 160.0
193.523972 128.0
193.637512 92.0
194.047638 112.0
194.075363 136.0
194.810837 64.0
195.056458 396.0
195.497604 180.0
195.531006 108.0
195.853989 108.0
196.113113 164.0
196.821457 124.0
197.058563 1992.0
197.112228 80.0
197.134583 164.0
198.064148 1368.0
198.203537 224.0
198.500671 28.0
198.660553 40.0
198.730682 160.0
198.81955 132.0
198.913101 160.0
199.002945 184.0
199.074402 8124.0
199.148972 52.0
199.334396 56.0
199.418701 76.0
199.52272 48.0
199.573318 44.0
199.77301 40.0
199.857849 52.0
200.077209 1120.0
201.047699 204.0
201.077637 192.0
201.35997 100.0
201.484253 108.0
201.585968 48.0
201.814941 188.0
201.916733 236.0
202.061005 68.0
203.112015 76.0
204.185654 84.0
207.26593 128.0
207.50383 168.0
208.056641 364.0
209.008911 132.0
209.062744 984.0
209.411942 88.0
210.064011 552.0
210.123978 148.0
210.383713 52.0
210.666718 120.0
211.074066 460.0
211.404022 48.0
212.044312 416.0
212.067856 192.0
212.87088 64.0
213.058289 300.0
214.060242 128.0
215.153641 100.0
215.66777 196.0
216.126923 196.0
217.096527 248.0
219.039307 128.0
219.776352 160.0
219.997711 68.0
220.050842 216.0
222.255951 144.0
223.36412 164.0
225.052444 316.0
225.56778 76.0
225.971512 44.0
226.059341 568.0
226.741104 148.0
226.837021 76.0
226.989929 144.0
227.06987 3960.0
228.071991 1056.0
228.302246 108.0
228.96434 56.0
229.036621 52.0
229.072861 136.0
229.422333 56.0
229.738998 56.0
232.204254 232.0
232.601746 48.0
237.052185 1796.0
237.109879 144.0
237.253952 164.0
237.643448 36.0
237.787689 76.0
237.888977 240.0
238.061813 376.0
238.100845 56.0
239.064346 312.0
239.626602 112.0
240.730865 144.0
243.897263 44.0
246.237228 92.0
247.572662 152.0
247.967407 156.0
250.581909 112.0
251.111496 120.0
252.324097 160.0
252.523315 100.0
253.679062 100.0
253.831253 124.0
254.059616 156.0
254.081833 144.0
254.11673 144.0
254.843124 184.0
254.947845 144.0
254.999527 228.0
255.064407 11452.0
255.117706 188.0
255.231598 92.0
255.298386 72.0
255.371536 48.0
255.406525 36.0
255.441513 56.0
256.067047 1040.0
256.111816 152.0
256.180054 132.0
256.278809 68.0
256.66449 44.0
256.705963 52.0
256.731476 112.0
256.766541 92.0
257.069275 376.0
257.481445 28.0
257.558105 52.0
257.641174 80.0
257.768982 40.0
257.810516 72.0
258.050262 156.0
258.226135 76.0
258.360474 56.0
259.37561 44.0
260.383118 56.0
268.017883 80.0
317.102844 120.0
340.404816 76.0
343.677246 80.0
345.628204 136.0
361.809509 60.0
383.504242 88.0
431.298035 56.0
483.787079 68.0
514.858154 32.0
546.33783 92.0
573.281982 72.0
576.116211 88.0
619.790283 136.0
626.054382 96.0
653.113403 88.0
670.516968 228.0
675.318604 116.0
675.944641 104.0
678.285583 60.0
740.636475 96.0
753.387512 140.0
782.564392 128.0
847.272949 160.0
907.618774 192.0
912.037354 64.0
943.243652 160.0
952.312317 208.0
962.603455 92.0
976.902344 164.0
997.180969 140.0
1002.385559 200.0
1014.838013 228.0
1016.639526 184.0
1023.492188 176.0
1035.152344 84.0
1035.805664 140.0
1053.58667 92.0
1057.356567 160.0
1122.133423 136.0
1131.172485 196.0
1131.33313 180.0
1133.12793 80.0
1137.017212 100.0
1143.731812 152.0
1152.809937 112.0
1155.386108 48.0
1155.501099 176.0
1165.89624 232.0
1168.718384 196.0
1172.36145 252.0
1172.804443 128.0
1194.160522 160.0
1199.807129 148.0
1201.531372 124.0
1202.248901 168.0
1203.781494 156.0
1204.285645 160.0
1209.388428 156.0
1210.115356 136.0
1210.281494 164.0
1213.087524 128.0
1214.189941 156.0
1216.507446 224.0
1218.139404 140.0
1221.0448 76.0
1223.626465 244.0
1224.719849 124.0
1238.655273 104.0
1244.019897 248.0
1245.031006 228.0
1245.772827 180.0
1246.927856 164.0
1246.991089 212.0
1248.340942 160.0
1254.903687 124.0
1255.228027 104.0
1257.499634 196.0
1258.106689 284.0
1258.283203 108.0
1279.496094 148.0
1282.110229 168.0
1282.495117 100.0
1286.689697 124.0
1290.462158 200.0
1293.917847 44.0
1298.504028 264.0
1298.590088 112.0
1301.991943 100.0
1303.737793 172.0
1310.026367 144.0
1311.381104 180.0
1312.101929 168.0
1312.621094 176.0
1315.990845 180.0
1317.94104 176.0
1324.328979 164.0
1325.299805 140.0
1331.712769 284.0
1334.168945 196.0
1337.347778 104.0
1338.367065 232.0
1340.406616 160.0
1343.271973 216.0
1349.019043 140.0
1356.874512 124.0
1360.755615 124.0
1360.895142 216.0
1362.547729 124.0
1363.885132 124.0
1386.870728 196.0
1388.746704 204.0
1391.804199 200.0
1394.902344 144.0
1395.675537 144.0
1398.830078 136.0
1399.425659 240.0
1399.522461 168.0
1400.12561 164.0
1403.17334 116.0
1408.621216 116.0
1409.517822 188.0
1410.74353 152.0
1415.554565 160.0
1418.244141 212.0
1419.368774 216.0
1420.561279 140.0
1421.439087 140.0
1426.614014 132.0
1428.441406 84.0
1432.807739 140.0
1434.744629 116.0
1435.197021 184.0
1443.858765 148.0
1445.560913 212.0
1448.384888 220.0
1449.983643 148.0
1450.787109 144.0
1450.991821 108.0
1457.192627 192.0
1458.532104 240.0
1460.225708 164.0
1461.561157 156.0
1463.55896 144.0
1466.126099 168.0
1467.460083 160.0
1471.862793 116.0
1472.825073 196.0
1473.466675 56.0
1476.516724 52.0
1478.184448 168.0
1479.493286 104.0
1479.646362 232.0
1485.831299 184.0
1490.661011 144.0
1492.682739 220.0
1494.005615 140.0
1495.367676 240.0
1501.32312 168.0
1502.171509 240.0
1504.656616 188.0
1505.166138 224.0
