>compound Etoposide
>formula C29H32O13 
>ionization [M+H]+
>parentmass 589.1915675360905
#inchi InChI=1S/C29H32O13/c1-11-36-9-20-27(40-11)24(31)25(32)29(41-20)42-26-14-7-17-16(38-10-39-17)6-13(14)21(22-15(26)8-37-28(22)33)12-4-18(34-2)23(30)19(5-12)35-3/h4-7,11,15,20-22,24-27,29-32H,8-10H2,1-3H3/t11?,15?,20?,21-,22+,24?,25?,26?,27?,29?/m1/s1
#inchikey VJJPUSNTGOMMGY
#Ion_Source LC-ESI
#Instrument qTof
#Compound_Source Isolated
#PI Sirenas
#Data_Collector Ed Esquenazi 
#Scan -1
#Precursor_MZ 589.193
#ExactMass 0.0
#Charge 1
#CAS_Number N/A
#Pubmed_ID N/A
#Smiles N/A
#INCHI_AUX N/A
#Library_Class 3
#SpectrumID CCMSLIB00000005536
#IonMode Positive
#UpdateWorkflowName UPDATE-SINGLE-ANNOTATED-BRONZE
#LibraryQualityString Bronze
#TaskID d19310cd93df49b68e9fcbec27720eb5
##Scan# 1
#SpectrumFile Etoposide.mgf
#LibraryName fda_library.mgf
#MQScore -1
#Organism fda_library
#TIC_Query 0
#RT_Query -1
#MZErrorPPM -1
#SharedPeaks 0
#MassDiff 0
#LibMZ -1
#SpecMZ 589.193
#SpecCharge 0
#internalFilename spec-00000.mgf

>collision 10
127.03759 182.331696
127.245224 32.530411
127.284416 12.0875
128.059204 85.82
128.157715 32.719509
129.054962 87.000458
144.240036 11.00833
145.048264 405.004486
145.097122 3.0625
155.281799 27.510229
155.508057 5.889423
168.07338 52.612068
170.25296 18.54044
171.063004 204.478394
171.617386 6.524457
171.681198 6.502976
173.061646 162.726196
173.129211 3.520833
174.087219 14.25
175.057739 54.40625
183.940155 30.30969
183.992035 21.031891
184.162094 43.56377
184.360352 54.210361
184.880844 6.890625
184.998932 51.183708
185.059235 2889.750977
185.117447 33.713131
185.135773 3.025
185.235428 30.36574
185.373001 13.8
185.40094 17.548611
185.432449 10.94643
185.459854 13.88461
185.480515 9.0625
185.516205 21.280519
185.547897 48.24194
185.576797 9.002976
185.675781 8.653846
185.704086 64.034477
185.757477 26.455641
186.302048 21.390631
187.424362 9.506945
189.009018 23.328409
189.075897 565.963074
189.116135 10.76563
189.128708 6.4375
189.281631 6.513889
189.328827 11.95924
189.70343 16.121321
190.535324 14.6875
199.039154 60.167992
199.161682 6.125
201.071014 47.018379
207.082199 41.440971
217.046967 244.142899
217.110275 2.5
217.407898 18.533331
227.593643 21.032141
227.666031 65.022346
227.71962 13.55921
227.746017 28.504471
227.762451 7.944853
227.808868 21.509529
227.828796 21.694441
227.863342 76.964973
227.905243 26.254801
227.940338 12.16667
228.039963 23.59111
228.069656 27.11731
228.103012 20.65765
228.234558 28.62398
228.350159 17.075001
228.45575 19.5322
228.491989 14.56618
228.507767 8.0
228.770782 30.0
228.814911 30.10417
228.888184 30.14271
228.999146 276.821686
229.049393 28491.859375
229.134491 120.764999
229.167755 26.26042
229.193802 17.174999
229.214874 48.072529
229.239532 83.762619
229.256836 28.2435
229.283203 56.313801
229.314224 77.717743
229.335266 106.730499
229.365936 57.613392
229.399872 40.943829
229.413177 14.51136
229.439499 47.003681
229.466202 97.626488
229.486954 24.191669
229.527969 105.405197
229.55899 27.891199
229.584122 32.269989
229.665573 30.520361
229.684952 17.202499
229.771194 37.325539
229.791031 34.444439
229.904236 28.692051
229.921616 50.946461
230.106918 7.9
230.192917 20.96023
230.257156 21.254471
230.282806 53.054241
230.558044 12.51197
230.574982 12.89286
230.590118 29.065161
230.797012 23.55769
230.954422 3.6
231.155334 16.214279
231.213516 20.538111
231.414154 29.16667
231.499268 4.571429
231.949738 3.625
232.060684 5.503676
232.087173 14.01923
232.139694 9.604167
235.744003 8.446428
238.603622 37.815788
244.464172 10.52632
245.771362 19.34914
245.811905 15.00893
245.854706 4.28125
246.240219 5.735577
247.059937 2782.250977
247.125809 2.580357
247.158524 12.09375
247.185852 23.023809
247.224228 11.11765
247.269119 19.566669
247.31723 11.06618
247.353378 17.754049
247.434586 8.125
247.46109 39.81591
247.514221 20.52273
247.919403 8.010417
248.001587 20.50099
248.76918 11.51815
267.063782 18.0152
298.075531 33.520828
299.001404 60.0
299.092651 272.176514
303.276062 5.0125
339.118286 56.51796
365.103821 53.511909
381.225555 14.32721
381.24295 5.520833
381.392883 55.797791
383.113007 1433.479004
383.331146 7.011364
383.405426 11.66118
383.474213 14.0504
383.597839 21.63908
383.635071 16.724541
383.871887 33.450958
384.014648 4.9
384.038361 9.3375
384.081573 30.582769
384.203491 17.08696
386.115173 19.27574
387.526031 26.5625
401.122406 36.837502
407.107422 48.66605
417.113007 10.01136
432.369568 17.714279
432.565704 12.9225
433.100464 7.0
433.165649 9.5
433.390137 4.551136
433.965302 33.04438
434.216125 8.533334
434.498901 11.28125
435.128693 2225.900879
435.289856 52.033588
435.350464 10.22321
435.421173 20.336281
435.44989 31.203211
435.500122 25.03064
435.609222 21.58737
435.667206 16.58882
435.696442 6.6875
435.73468 21.71875
435.834229 3.505682
435.968597 9.75
436.018311 21.235291
436.880646 8.645833
437.677277 16.9375
439.741943 9.847222
440.481049 5.0125
443.128296 36.01717
585.223083 10.00893
585.506226 3.5
585.549133 6.285714
586.39093 8.909091
587.680115 16.112499
588.447632 42.565109
589.139404 15.01563
589.187927 1308.689941
589.279297 6.5625
589.308899 8.086538
589.368896 13.07143
589.503113 9.5025
589.536987 22.9025
589.596008 10.05
589.747742 26.797791
589.779236 34.843449
589.934021 11.00735
589.959351 14.53325
590.302734 9.1875
590.526855 53.289982
590.728699 28.01786
591.337463 11.5875
592.736267 7.5625
599.997864 22.59766
1434.689575 11.34028
