>compound Isradipine (Dynacirc)
>formula C19H21N3O5
>ionization [M+H]+
>parentmass 372.155
#inchi InChI=1S/C19H21N3O5/c1-9(2)26-19(24)15-11(4)20-10(3)14(18(23)25-5)16(15)12-7-6-8-13-17(12)22-27-21-13/h6-9,16,20H,1-5H3
#inchikey HMJIYCCIJYRONP
#Ion_Source LC-ESI
#Instrument qTof
#Compound_Source Commercial
#PI Dorrestein
#Data_Collector Garg_Neha
#Scan -1
#Precursor_MZ 372.155
#ExactMass 371.148
#Charge 1
#CAS_Number 75695-93-1
#Pubmed_ID N/A
#Smiles C1C=C(C2C(C=1)=NON=2)C3C(=C(NC(=C3C(OC(C)C)=O)C)C)C(=O)OC
#INCHI_AUX N/A
#Library_Class 1
#SpectrumID CCMSLIB00000078230
#IonMode Positive
#UpdateWorkflowName UPDATE-SINGLE-ANNOTATED-GOLD
#LibraryQualityString Gold
#TaskID 77f51c88eb8b467eb4a01dd2d0cb90d2
##Scan# 1819
#SpectrumFile Plate3_61_88_GH1_01_16501.mzXML
#LibraryName FDALibrary_2_04302014.mgf
#MQScore -1
#Organism FDALibrary_2_04302014
#TIC_Query 0
#RT_Query -1
#MZErrorPPM -1
#SharedPeaks 0
#MassDiff 0
#LibMZ -1
#SpecMZ 372.155
#SpecCharge 0
#internalFilename spec-00000.mgf

>collision 10
46.491058 156.0
47.107841 176.0
47.126965 192.0
47.694317 152.0
48.107563 228.0
49.390163 160.0
49.924519 220.0
51.235233 164.0
53.436634 192.0
54.695183 152.0
55.111057 152.0
56.06073 144.0
57.208038 212.0
57.896549 232.0
58.268173 152.0
58.290962 196.0
58.34568 140.0
60.49192 160.0
61.711624 168.0
62.071754 188.0
62.487988 168.0
62.840904 168.0
64.042526 156.0
64.537231 188.0
64.988914 252.0
66.121758 172.0
66.5075 160.0
67.280724 232.0
69.529236 212.0
69.843254 144.0
70.747688 176.0
71.192009 140.0
72.599449 168.0
73.13121 172.0
73.615387 204.0
74.23143 180.0
75.734253 156.0
77.03537 148.0
77.807671 168.0
79.160049 176.0
80.04792 160.0
80.090668 144.0
81.12529 160.0
81.710739 164.0
82.249557 204.0
83.078339 160.0
83.370667 180.0
84.728203 204.0
85.067467 176.0
85.210709 156.0
85.355446 156.0
86.444252 152.0
90.404205 160.0
90.555664 164.0
90.729988 152.0
90.83239 144.0
93.00193 180.0
93.755852 208.0
94.137817 204.0
94.803276 236.0
94.894379 184.0
94.970009 240.0
95.753273 184.0
96.614075 148.0
97.964699 140.0
98.857132 204.0
99.415962 164.0
99.721809 192.0
99.992294 208.0
103.467026 208.0
104.186974 220.0
104.290604 232.0
106.828239 192.0
107.064934 156.0
107.803467 148.0
107.946106 140.0
108.766525 180.0
109.840225 144.0
110.31842 196.0
110.70549 152.0
110.940155 216.0
111.385025 160.0
112.31118 140.0
114.041046 164.0
115.012299 160.0
116.046806 192.0
117.896744 148.0
119.664589 176.0
120.661636 188.0
121.363571 120.0
121.605751 176.0
122.170471 156.0
122.450012 200.0
126.600883 176.0
127.039322 164.0
127.060387 180.0
127.565666 180.0
127.732071 204.0
127.828812 244.0
128.051682 176.0
129.058136 212.0
129.076233 240.0
129.096573 180.0
129.45639 164.0
130.027679 208.0
130.905182 192.0
131.73996 176.0
132.046249 196.0
132.075989 188.0
134.483978 196.0
135.559372 208.0
136.334457 140.0
136.981262 144.0
138.389511 172.0
139.158539 160.0
139.217239 264.0
139.386368 168.0
139.861435 148.0
140.049713 880.0
140.243011 144.0
141.038437 216.0
141.551819 148.0
143.066605 164.0
144.075363 236.0
144.094482 164.0
145.066101 200.0
145.087677 156.0
145.573669 216.0
146.45256 160.0
147.009476 188.0
147.048096 168.0
147.067398 172.0
147.901291 172.0
148.43428 164.0
148.6259 184.0
149.941483 140.0
149.97316 160.0
150.048737 188.0
151.059769 184.0
151.216354 152.0
153.057816 184.0
153.918076 144.0
154.063858 308.0
154.343079 144.0
156.071228 112.0
156.250397 224.0
157.080795 208.0
158.055878 240.0
159.101944 160.0
160.107925 224.0
160.676239 156.0
162.24028 164.0
162.844193 168.0
164.051636 160.0
165.043427 208.0
165.391357 164.0
166.065216 164.0
166.547745 140.0
166.755875 220.0
167.062744 524.0
168.066055 380.0
168.262787 160.0
168.84935 204.0
169.076523 124.0
171.057404 204.0
171.083435 180.0
172.077698 340.0
172.09761 144.0
173.049316 164.0
174.773743 200.0
176.031082 204.0
177.292923 140.0
178.506088 184.0
179.057358 156.0
179.088913 200.0
180.067749 332.0
180.95018 148.0
181.078278 1192.0
182.059601 160.0
182.079941 296.0
183.092422 652.0
183.505234 168.0
184.088852 496.0
184.24472 160.0
185.067719 188.0
186.04834 204.0
187.070496 216.0
187.291046 140.0
187.558075 152.0
189.071182 148.0
190.631577 168.0
191.061859 180.0
191.958405 220.0
192.05217 144.0
193.063812 492.0
193.702347 156.0
194.081894 500.0
195.053589 256.0
195.087082 376.0
195.270569 156.0
196.098358 556.0
197.034103 272.0
197.063583 416.0
197.860062 168.0
198.066299 604.0
198.086624 468.0
199.049026 144.0
199.081894 100.0
200.078781 324.0
201.078995 164.0
203.089645 128.0
203.222504 160.0
203.595413 180.0
205.090744 164.0
206.07341 236.0
207.020401 216.0
207.082947 788.0
207.751282 160.0
207.788574 148.0
208.000931 164.0
208.08638 5124.0
209.093552 2884.0
209.814682 144.0
210.074844 336.0
210.102844 716.0
211.084213 340.0
211.107819 244.0
212.080521 824.0
212.743805 140.0
213.037109 144.0
213.067078 164.0
213.0923 288.0
214.46875 172.0
216.516846 176.0
216.677948 180.0
219.1017 140.0
220.060211 184.0
220.633362 148.0
220.727966 172.0
221.074173 124.0
222.076141 344.0
222.27124 184.0
223.084061 300.0
223.471634 188.0
224.08139 1328.0
224.630508 256.0
225.086578 188.0
225.526291 140.0
225.547226 184.0
226.069321 196.0
226.098495 540.0
226.711456 220.0
227.083618 448.0
228.049988 212.0
228.078674 500.0
228.410812 172.0
229.081177 120.0
229.35495 172.0
231.067719 168.0
233.282364 176.0
233.400925 208.0
234.070358 156.0
235.402924 160.0
236.001312 172.0
236.081055 2652.0
236.414764 196.0
237.082092 820.0
237.119141 200.0
237.588287 160.0
238.030258 228.0
238.09726 484.0
239.0784 812.0
240.080368 912.0
241.039749 196.0
241.097458 1072.0
241.249084 104.0
241.682907 208.0
242.089188 1400.0
242.14624 148.0
243.079193 312.0
243.785278 236.0
244.071259 140.0
244.102356 168.0
245.787537 196.0
246.055954 184.0
246.112152 192.0
247.137344 156.0
249.05278 224.0
249.822906 208.0
250.073242 1320.0
251.041824 140.0
251.078812 192.0
251.142746 148.0
252.073593 272.0
253.007111 156.0
253.088654 360.0
253.894318 140.0
254.016327 144.0
254.09317 2140.0
255.090805 532.0
256.0802 332.0
256.28476 172.0
258.036987 260.0
258.971375 204.0
262.290527 156.0
263.072357 184.0
264.716858 192.0
265.058685 712.0
265.091492 148.0
265.442719 168.0
265.491364 176.0
266.069397 196.0
266.673126 152.0
267.083252 440.0
268.107941 2052.0
269.092743 384.0
270.086487 132.0
270.852814 144.0
271.124756 200.0
271.311584 156.0
274.593231 208.0
278.073761 168.0
278.130188 268.0
278.704712 164.0
280.071594 1756.0
280.615204 156.0
280.888641 160.0
281.076508 460.0
281.142212 156.0
282.064636 216.0
282.124207 104.0
283.07019 136.0
283.109741 156.0
284.136932 192.0
285.108368 208.0
286.079376 328.0
291.990601 268.0
292.466949 220.0
294.096191 160.0
294.324921 184.0
295.09491 440.0
295.132782 136.0
296.062042 164.0
296.10321 160.0
296.147675 140.0
297.072754 104.0
297.632568 228.0
297.907318 180.0
298.084167 924.0
299.083252 204.0
303.325073 144.0
308.092529 168.0
309.172943 144.0
311.088928 208.0
311.234131 176.0
311.269257 176.0
311.927887 244.0
312.036224 356.0
312.0979 22908.0
312.232544 176.0
312.324249 208.0
312.644897 180.0
312.785431 140.0
313.037994 180.0
313.100555 4420.0
313.751251 112.0
314.098145 756.0
314.725464 108.0
315.020172 192.0
315.217316 140.0
316.098511 208.0
319.117004 188.0
320.647644 176.0
328.093903 236.0
332.770599 224.0
333.242767 156.0
339.877075 140.0
339.916626 144.0
339.942688 120.0
340.007111 96.0
340.129059 15748.0
340.280823 240.0
341.13147 2696.0
342.03067 164.0
342.132507 480.0
343.135803 140.0
343.486145 140.0
343.545166 152.0
344.434784 188.0
356.085815 144.0
358.138855 168.0
369.289001 132.0
369.340454 132.0
370.141541 164.0
371.13678 152.0
372.160065 168.0
373.190948 148.0
373.287079 168.0
374.095032 148.0
374.252869 148.0
375.297058 156.0
393.831146 140.0
1541.351685 152.0
1547.233398 184.0
1565.512451 188.0
1608.676758 172.0
1688.120117 152.0
1729.834351 184.0
1741.127197 148.0
1770.575073 212.0
1790.074707 248.0
1831.199463 152.0
1906.159424 200.0
1973.196167 144.0
1981.302734 180.0
1983.332031 152.0
1989.532593 144.0
1994.693726 152.0
