>compound MLS001201787-01!Giparmen
>formula C13H10O3
>ionization [M+H]+
>parentmass 215.0702706320905
#inchi InChI=1S/C13H10O3/c1-3-6-15-10-4-5-11-9(2)7-13(14)16-12(11)8-10/h1,4-5,7-8H,6H2,2H3
#inchikey NTNZDKLXIBVSQQ
#Ion_Source LC-ESI
#Instrument qTof
#Compound_Source NIH Pharmacologically Active Library
#PI Dorrestein
#Data_Collector VP/LMS
#Scan -1
#Precursor_MZ 215.075
#ExactMass 214.063
#Charge 1
#CAS_Number N/A
#Pubmed_ID N/A
#Smiles Cc1cc(=O)oc2cc(OCC#C)ccc12
#INCHI_AUX N/A
#Library_Class 1
#SpectrumID CCMSLIB00000085547
#IonMode Positive
#UpdateWorkflowName UPDATE-SINGLE-ANNOTATED-GOLD
#LibraryQualityString Gold
#TaskID d252d724072548979f1f6f1ced849daf
##Scan# 1934
#SpectrumFile p4-C06_GC6_01_18354.mzXML
#LibraryName Pharm_Active_Library.mgf
#MQScore -1
#Organism Pharm_Active_Library
#TIC_Query 0
#RT_Query -1
#MZErrorPPM -1
#SharedPeaks 0
#MassDiff 0
#LibMZ -1
#SpecMZ 215.075
#SpecCharge 0
#internalFilename spec-00000.mgf

>collision 10
45.527611 236.0
46.209671 156.0
46.586555 140.0
46.676258 212.0
46.721138 148.0
46.865456 152.0
47.714024 136.0
47.738773 168.0
47.810307 100.0
47.822693 116.0
47.972836 164.0
49.035988 204.0
49.47879 80.0
49.663761 108.0
49.979847 172.0
50.240494 60.0
50.666019 132.0
51.094761 132.0
51.126064 192.0
52.065319 104.0
52.363022 168.0
52.465324 248.0
52.534546 156.0
52.673126 196.0
52.866863 200.0
53.04211 140.0
53.432747 180.0
53.539005 200.0
53.589989 164.0
53.678902 104.0
53.71682 196.0
53.802921 140.0
54.186729 176.0
54.329762 220.0
54.571712 156.0
54.608852 148.0
54.744247 212.0
55.096764 156.0
55.191353 196.0
55.288986 124.0
56.003643 224.0
56.429901 140.0
56.470276 196.0
56.561546 172.0
56.774998 188.0
56.817795 56.0
56.979935 144.0
56.996815 204.0
57.029522 180.0
57.110714 180.0
57.139297 100.0
57.222073 40.0
57.682186 164.0
57.959141 180.0
58.062222 136.0
58.318806 180.0
58.607948 180.0
58.676533 132.0
58.850464 132.0
58.920715 136.0
58.987957 132.0
59.027706 220.0
59.415211 44.0
59.817833 152.0
59.847084 72.0
59.930256 128.0
60.073635 180.0
60.19865 176.0
60.438244 208.0
60.603916 152.0
61.156757 148.0
61.276665 32.0
61.608963 48.0
61.644901 116.0
62.274689 164.0
62.697903 192.0
62.74519 188.0
63.141525 80.0
63.947487 152.0
63.95863 160.0
64.119415 168.0
64.301308 148.0
64.387512 188.0
64.659302 200.0
64.689713 136.0
64.787392 160.0
65.029518 164.0
65.294609 140.0
65.492577 184.0
65.608597 136.0
65.889404 80.0
66.064003 160.0
66.289055 136.0
66.389557 136.0
66.556694 68.0
66.668777 204.0
66.829758 224.0
66.950218 240.0
67.034927 144.0
67.354698 156.0
67.470718 232.0
67.524681 196.0
67.663765 164.0
67.724358 136.0
67.912842 124.0
67.955498 72.0
68.14595 120.0
68.551826 212.0
68.827843 400.0
69.100555 180.0
69.120415 108.0
69.172028 148.0
69.290955 180.0
69.712402 196.0
70.066803 200.0
70.305244 192.0
70.54409 200.0
70.637733 228.0
70.691681 196.0
71.078354 112.0
71.133736 192.0
71.15052 180.0
71.382385 224.0
71.402565 212.0
71.429482 156.0
71.746063 204.0
71.808456 184.0
71.938377 184.0
72.196884 204.0
72.215492 176.0
72.362709 36.0
72.601631 108.0
72.630463 192.0
72.852829 276.0
72.902107 104.0
73.026207 204.0
73.216827 232.0
73.271332 204.0
73.307114 160.0
73.441795 188.0
73.581726 236.0
73.769646 136.0
73.800415 248.0
74.516838 136.0
75.012466 124.0
75.39563 152.0
75.689705 128.0
75.897636 176.0
76.04509 132.0
76.062447 180.0
76.199638 164.0
76.401306 160.0
76.483093 164.0
76.573158 236.0
76.652023 136.0
76.784508 124.0
76.950279 152.0
77.771286 216.0
78.094574 128.0
78.416771 148.0
78.579002 128.0
78.637238 204.0
78.753761 204.0
78.956696 112.0
79.213654 176.0
79.300476 268.0
79.667778 64.0
79.737076 60.0
80.082237 84.0
80.142799 212.0
80.420998 180.0
80.596008 204.0
80.635323 200.0
80.767624 100.0
81.020027 160.0
81.454147 132.0
81.677032 176.0
81.700417 128.0
81.783195 140.0
82.02816 208.0
82.206711 80.0
82.674759 172.0
82.939178 140.0
83.07518 188.0
83.142311 188.0
83.476562 176.0
83.609367 184.0
83.964615 184.0
84.648079 152.0
84.834961 200.0
84.856956 156.0
86.178444 160.0
86.265305 92.0
86.896812 136.0
87.426384 140.0
87.588356 156.0
87.694565 132.0
87.757942 104.0
87.929558 160.0
88.029419 180.0
88.144318 144.0
88.288254 164.0
88.312569 124.0
88.942123 196.0
89.028488 128.0
89.071686 164.0
89.238945 144.0
89.38942 76.0
89.515541 204.0
89.551323 120.0
90.041679 132.0
90.376266 160.0
90.662201 156.0
90.709587 204.0
90.876472 196.0
90.895447 136.0
90.959969 228.0
91.055298 3076.0
91.079933 188.0
91.178177 176.0
91.298164 56.0
91.332397 80.0
91.766586 48.0
92.060783 800.0
92.081444 224.0
92.112 36.0
92.155937 72.0
92.425537 84.0
93.033081 188.0
93.058044 144.0
93.07148 136.0
93.084923 136.0
93.417419 160.0
93.706192 204.0
93.794838 84.0
94.153702 168.0
94.393326 196.0
94.836655 148.0
95.146233 208.0
95.185852 160.0
95.971954 44.0
96.160233 232.0
96.460014 180.0
96.526489 132.0
96.741699 112.0
96.802399 184.0
97.019882 168.0
97.053207 52.0
97.498802 140.0
97.917847 64.0
97.943451 148.0
98.36937 36.0
99.223984 208.0
99.364792 260.0
99.509674 124.0
99.527542 136.0
99.551369 216.0
99.92704 52.0
99.992706 160.0
100.311394 144.0
100.486885 228.0
101.038292 184.0
101.82003 136.0
102.044258 420.0
102.409309 116.0
102.51004 168.0
103.054016 1568.0
103.135674 132.0
103.200363 148.0
103.481598 176.0
103.552475 180.0
103.635529 228.0
103.738884 196.0
104.039116 176.0
104.063995 332.0
104.779381 88.0
105.034775 1784.0
105.066597 344.0
105.121918 80.0
105.197433 88.0
105.279106 92.0
105.311783 72.0
105.328125 32.0
105.675652 188.0
105.844154 176.0
106.040459 212.0
106.079094 204.0
106.163155 196.0
106.286942 68.0
106.39296 176.0
106.47509 224.0
106.526443 156.0
106.950027 128.0
107.049911 164.0
107.137413 100.0
107.320839 136.0
107.349289 100.0
107.41983 176.0
107.803848 184.0
108.555283 256.0
108.793892 252.0
108.866562 212.0
108.974571 152.0
109.068954 344.0
109.097191 52.0
109.446709 48.0
109.627937 48.0
110.216377 92.0
110.385689 156.0
110.419151 148.0
110.760307 184.0
110.774971 84.0
111.334984 148.0
111.526169 156.0
111.843773 192.0
111.927979 216.0
112.13443 224.0
112.309425 64.0
112.444458 64.0
112.615471 144.0
112.635574 232.0
112.805641 112.0
112.85215 44.0
112.921928 172.0
113.797104 188.0
113.814087 116.0
113.93515 164.0
113.96064 148.0
114.040421 228.0
114.554192 120.0
114.846214 144.0
114.908081 200.0
114.954475 140.0
115.027588 172.0
115.054237 4300.0
115.131851 120.0
115.27533 96.0
115.446342 48.0
115.48056 176.0
115.504089 68.0
115.598228 200.0
115.64959 184.0
115.889435 52.0
116.011589 164.0
116.062202 980.0
116.698593 100.0
116.930908 144.0
117.068314 608.0
117.575294 96.0
117.706978 92.0
117.74585 60.0
117.832253 160.0
117.964073 72.0
117.998665 216.0
118.083 148.0
118.295044 124.0
118.511612 220.0
118.663322 152.0
119.04998 1708.0
119.584366 164.0
119.882729 176.0
119.937912 124.0
120.057526 3804.0
120.08329 148.0
120.150917 136.0
120.342972 216.0
120.863167 156.0
120.904747 112.0
121.062668 584.0
121.279259 60.0
121.521751 152.0
121.975067 40.0
122.01683 184.0
122.069962 172.0
122.88678 212.0
122.906639 184.0
123.045685 188.0
123.13401 168.0
123.40802 200.0
123.557442 256.0
123.749428 208.0
124.247887 188.0
124.380547 276.0
125.1717 116.0
125.490631 168.0
125.890038 204.0
125.981613 232.0
126.046898 220.0
126.581017 156.0
126.746773 172.0
126.780388 176.0
126.796074 184.0
126.944031 148.0
127.053688 1012.0
127.291847 124.0
127.723351 176.0
127.822334 140.0
128.063507 1880.0
128.200638 188.0
128.220932 172.0
128.710449 188.0
129.069504 496.0
129.160172 160.0
129.390991 120.0
129.565369 116.0
129.925827 160.0
130.014328 68.0
130.042908 196.0
130.072159 332.0
130.121002 148.0
130.43222 148.0
130.997726 160.0
131.047516 1340.0
131.083389 336.0
131.124146 44.0
131.226715 36.0
131.292847 40.0
131.669403 156.0
132.055161 548.0
132.080231 224.0
132.108261 136.0
132.172318 64.0
132.206635 56.0
132.44017 120.0
132.557007 40.0
132.834412 60.0
133.025452 180.0
133.063492 136.0
133.30278 128.0
134.029907 176.0
134.052948 200.0
134.661987 180.0
135.503998 180.0
135.536438 132.0
136.009537 164.0
137.002457 260.0
137.023422 204.0
137.130615 60.0
137.15625 48.0
137.408096 156.0
137.529449 148.0
137.983902 228.0
138.328857 200.0
138.492752 56.0
138.83728 120.0
139.055115 216.0
139.548767 148.0
140.055817 160.0
140.8685 116.0
140.901566 180.0
140.979538 160.0
141.070084 1520.0
141.135559 140.0
141.197037 44.0
141.509384 204.0
142.077057 736.0
142.099365 168.0
142.332138 128.0
142.683762 140.0
142.724182 80.0
143.01918 192.0
143.053986 192.0
143.088211 148.0
143.156387 184.0
143.846298 92.0
143.879715 144.0
143.948959 196.0
143.984772 52.0
144.056595 1300.0
144.591385 60.0
144.829041 104.0
145.065155 752.0
145.095032 140.0
145.502884 188.0
145.68779 44.0
145.740646 136.0
146.029114 60.0
146.07251 384.0
146.484039 116.0
146.744308 204.0
147.044174 844.0
147.069717 116.0
147.078476 168.0
147.087296 204.0
147.449158 160.0
147.528915 92.0
147.560349 116.0
147.606293 172.0
147.659485 224.0
147.768341 160.0
147.959534 148.0
147.999908 136.0
148.052338 43216.0
148.102188 44.0
148.129578 88.0
148.188065 36.0
148.211426 52.0
148.238083 48.0
148.293808 40.0
148.342422 112.0
148.362289 48.0
148.425323 48.0
148.455673 84.0
148.49263 144.0
148.523804 56.0
148.606628 48.0
148.664383 40.0
148.747391 124.0
148.774094 172.0
148.793518 44.0
148.86879 68.0
148.912491 52.0
148.993988 212.0
149.024246 52.0
149.054749 3420.0
149.097137 200.0
149.123871 120.0
149.170059 132.0
149.206512 36.0
149.281891 64.0
149.386475 76.0
149.44487 44.0
149.471634 60.0
149.556808 68.0
149.576279 144.0
149.730637 60.0
149.800308 168.0
149.863647 136.0
149.880692 132.0
149.985489 136.0
150.056961 200.0
150.104843 96.0
150.148849 112.0
150.201324 108.0
150.241531 136.0
150.280563 184.0
150.414795 100.0
150.475815 80.0
150.567581 76.0
150.724945 68.0
151.053848 176.0
151.18956 36.0
151.581375 80.0
152.060699 380.0
152.270721 76.0
153.119202 36.0
153.146301 56.0
153.678772 132.0
154.076263 136.0
154.484161 60.0
154.580643 56.0
154.709351 152.0
155.053085 112.0
155.957062 88.0
156.031631 40.0
156.091309 52.0
156.295273 184.0
156.511826 88.0
156.726028 128.0
156.888031 104.0
157.060669 692.0
157.774261 64.0
157.911789 56.0
157.929291 56.0
158.036865 148.0
158.073639 176.0
158.492554 136.0
158.515106 92.0
158.72818 52.0
159.045105 256.0
159.081223 704.0
159.144699 104.0
159.951675 84.0
160.054901 96.0
160.085114 128.0
161.060471 1216.0
161.119232 44.0
162.058533 208.0
162.273285 28.0
162.801071 60.0
163.060196 160.0
163.306808 76.0
165.455383 72.0
168.056839 160.0
168.125992 132.0
169.067474 392.0
170.073349 384.0
170.604752 32.0
171.047928 308.0
171.078217 144.0
171.106491 176.0
171.385529 68.0
172.050598 180.0
173.05452 132.0
173.253571 84.0
173.287628 92.0
174.068161 576.0
174.797379 128.0
175.376755 48.0
175.703735 128.0
175.922775 176.0
175.983505 352.0
176.015182 172.0
176.048019 6712.0
176.10498 76.0
176.21785 104.0
176.54985 48.0
176.604507 72.0
176.776474 40.0
177.054703 2156.0
177.15509 52.0
177.208069 64.0
177.280457 112.0
178.05867 448.0
178.131271 100.0
178.192383 100.0
178.242859 40.0
178.381058 116.0
178.947708 104.0
179.051559 172.0
179.267334 68.0
179.493912 32.0
183.090164 188.0
185.060394 472.0
186.064514 148.0
187.07576 996.0
187.100937 172.0
187.135696 92.0
188.084381 140.0
188.106216 132.0
193.209412 84.0
193.68277 64.0
194.065201 156.0
194.745087 76.0
196.794647 56.0
198.123093 156.0
200.046722 188.0
213.051285 52.0
214.067032 208.0
214.153732 140.0
214.716217 88.0
215.022552 64.0
215.068054 428.0
215.148056 68.0
217.231644 148.0
228.563766 60.0
230.070724 80.0
230.934921 196.0
232.076584 64.0
234.615204 64.0
242.36969 100.0
256.707977 100.0
265.763031 76.0
270.321594 100.0
297.411774 92.0
348.998993 112.0
359.506256 72.0
379.839294 80.0
434.565613 76.0
471.156342 88.0
482.573639 68.0
497.82428 68.0
529.151733 116.0
736.454895 140.0
783.380981 188.0
805.381165 156.0
813.978027 204.0
815.239075 128.0
822.392212 180.0
835.014099 148.0
835.698669 80.0
841.398621 240.0
846.625671 88.0
848.671204 192.0
850.810425 176.0
856.802063 236.0
857.944275 200.0
858.142517 36.0
863.924255 120.0
873.962524 128.0
882.384827 228.0
896.636902 72.0
901.781494 124.0
909.411926 164.0
916.580383 200.0
918.177856 236.0
931.019897 176.0
931.311401 100.0
955.229858 180.0
960.015442 164.0
965.239563 228.0
978.610901 148.0
979.183777 160.0
985.334229 168.0
988.028748 40.0
989.937744 96.0
997.743103 168.0
999.554443 204.0
1004.159546 156.0
1006.784912 52.0
1008.275818 184.0
1013.306335 120.0
1017.61908 136.0
1021.947388 156.0
1026.928955 108.0
1028.192139 124.0
1038.11438 216.0
1043.642944 152.0
1046.75708 232.0
1051.482544 164.0
1054.569702 144.0
1058.159912 84.0
1065.598877 196.0
1065.962769 168.0
1067.698486 152.0
1070.959106 80.0
1087.757202 188.0
1091.889893 164.0
1094.482666 160.0
1098.29834 56.0
1100.931763 144.0
1108.950073 44.0
1111.821777 172.0
1112.08728 156.0
1113.109619 136.0
1115.401733 140.0
1117.889038 152.0
1119.873047 36.0
1126.362915 180.0
1130.240479 48.0
1132.556763 168.0
1132.750977 44.0
1133.561646 88.0
1144.651978 192.0
1146.612305 156.0
1148.40564 92.0
1148.500122 268.0
1149.343384 184.0
1162.13147 140.0
1163.081543 228.0
1165.472046 148.0
1165.811768 168.0
1167.898926 172.0
1171.894897 168.0
1172.072144 160.0
1173.148926 156.0
1176.63501 72.0
1184.45813 92.0
1190.198364 168.0
1193.083984 144.0
1193.723389 204.0
1196.358521 120.0
1200.864868 252.0
1204.23999 200.0
1208.318359 136.0
1208.802734 148.0
1210.519409 60.0
1218.391724 132.0
1218.676514 136.0
1229.15564 232.0
1229.867554 88.0
1233.994141 72.0
1234.065918 136.0
1235.170898 136.0
1238.089478 132.0
1238.159546 156.0
1240.787109 220.0
1241.460205 264.0
1246.212402 168.0
1247.217285 160.0
1247.751587 156.0
1248.299927 208.0
1248.433594 112.0
1251.402954 164.0
1252.635376 172.0
1253.100342 184.0
1254.178467 216.0
1255.137329 36.0
1257.359375 180.0
1258.474731 204.0
1258.552368 108.0
1260.311157 40.0
1263.054077 216.0
1267.535522 216.0
1272.308838 40.0
1276.394165 48.0
1277.261719 188.0
1285.183716 168.0
1286.304199 132.0
1288.25354 208.0
1288.85376 180.0
1290.161621 176.0
1290.297485 140.0
1292.099731 164.0
1293.867432 160.0
1294.612061 240.0
1295.091919 200.0
1297.800781 108.0
1299.92395 200.0
1302.178101 224.0
1304.693115 116.0
1306.64917 152.0
1306.901001 144.0
1307.786133 100.0
1308.90918 132.0
1312.043335 132.0
1315.145142 132.0
1315.455566 212.0
1320.173462 212.0
1322.44519 204.0
1324.009033 56.0
1325.37085 132.0
1326.36377 80.0
1327.161133 48.0
1327.630493 176.0
1327.879028 144.0
1329.867065 168.0
1330.752686 176.0
1331.602295 136.0
1337.760986 176.0
1338.270508 156.0
1339.202637 196.0
1341.454224 200.0
1341.898926 180.0
1346.07251 148.0
1346.262329 156.0
1347.847534 152.0
1349.484741 116.0
1349.740601 176.0
1351.174194 104.0
1353.128296 240.0
1353.860474 116.0
1354.40979 148.0
1357.861938 176.0
1360.628296 220.0
1361.186279 228.0
1361.524048 108.0
1362.493652 200.0
1364.205933 144.0
1366.61084 240.0
1370.365723 228.0
1370.89563 216.0
1373.727539 104.0
1375.144165 168.0
1375.897095 68.0
1377.329712 184.0
1379.006958 200.0
1380.256348 296.0
1381.484009 136.0
1383.385864 136.0
1385.807617 204.0
1387.015503 156.0
1387.667847 80.0
1389.358765 192.0
1390.694458 216.0
1391.793213 192.0
1392.008545 120.0
1392.817993 252.0
1393.204346 168.0
1394.920898 80.0
1397.241089 176.0
1400.196167 72.0
1400.650513 48.0
1403.885132 180.0
1403.996948 172.0
1406.145508 172.0
1411.845825 52.0
1413.611328 120.0
1416.254028 160.0
1416.403809 188.0
1416.980713 128.0
1419.199219 240.0
1424.369873 212.0
1426.331055 204.0
1426.398682 132.0
1427.533936 232.0
1427.67688 32.0
1428.037842 132.0
1428.391357 196.0
1429.92627 180.0
1430.784424 136.0
1430.919922 212.0
1431.703003 144.0
1433.684326 204.0
1436.217529 176.0
1436.858765 208.0
1437.266113 48.0
1437.628296 156.0
1438.805786 120.0
1439.711914 112.0
1441.630737 156.0
1442.394043 144.0
1442.628418 44.0
1445.109009 220.0
1446.690674 88.0
1447.606812 120.0
1448.023315 184.0
1448.848999 260.0
1452.275269 76.0
1454.301025 148.0
1454.672974 128.0
1454.817261 208.0
1456.191528 68.0
1457.513428 204.0
1459.630737 200.0
1462.90564 164.0
1465.525513 172.0
1467.400391 196.0
1467.865479 176.0
1469.67334 80.0
1469.986084 200.0
1472.115845 200.0
1476.464233 156.0
1480.060791 148.0
1480.78064 196.0
1481.033325 148.0
1481.155884 44.0
1482.052246 144.0
1482.113525 224.0
1482.749634 156.0
1482.933472 136.0
1487.121216 144.0
1487.251709 164.0
1488.43396 180.0
1489.102051 196.0
1490.876709 120.0
1491.530029 200.0
1491.783691 168.0
1493.160034 164.0
1495.498901 148.0
1497.70874 168.0
1498.532959 236.0
1499.480835 200.0
1501.639526 144.0
1502.503418 36.0
1504.965454 212.0
1505.104492 152.0
