>compound MLS001158477-01!(2Z)-2-[(2,4-dimethoxyphenyl)methylidene]-6-[2-[(2S)-2-(hydroxymethyl)pyrrolidin-1-yl]-2-oxoethoxy]-1-benzofuran-3-one
>formula C24H25NO7
>ionization [M+H]+
>parentmass 440.170074
#inchi InChI=1S/C24H25NO7/c1-29-17-6-5-15(20(11-17)30-2)10-22-24(28)19-8-7-18(12-21(19)32-22)31-14-23(27)25-9-3-4-16(25)13-26/h5-8,10-12,16,26H,3-4,9,13-14H2,1-2H3/b22-10-/t16-/m0/s1
#inchikey ZSIWRRRKOWLNIC
#Ion_Source LC-ESI
#Instrument qTof
#Compound_Source NIH Natural Product Library
#PI Dorrestein
#Data_Collector VVP/LMS
#Scan -1
#Precursor_MZ 440.171
#ExactMass 439.163
#Charge 1
#CAS_Number N/A
#Pubmed_ID N/A
#Smiles COc1ccc(/C=C/2\Oc3cc(OCC(=O)N4CCC[C@H]4CO)ccc3C2=O)c(OC)c1
#INCHI_AUX N/A
#Library_Class 1
#SpectrumID CCMSLIB00000079780
#IonMode Positive
#UpdateWorkflowName UPDATE-SINGLE-ANNOTATED-GOLD
#LibraryQualityString Gold
#TaskID b1d8e8f6646f4e71acdff9ca3d919d08
##Scan# 2132
#SpectrumFile p1-A11_GA11_01_17883.mzXML
#LibraryName NIH_Natural_Products_Library.mgf
#MQScore -1
#Organism NIH_Natural_Products_Library
#TIC_Query 0
#RT_Query -1
#MZErrorPPM -1
#SharedPeaks 0
#MassDiff 0
#LibMZ -1
#SpecMZ 440.171
#SpecCharge 0
#internalFilename spec-00000.mgf

>collision 10
95.68071 176.0
96.006104 160.0
96.064621 144.0
96.082214 464.0
96.24807 172.0
96.605721 216.0
96.623329 148.0
96.660507 108.0
96.78186 172.0
96.80732 144.0
97.086861 228.0
97.440857 232.0
97.474258 180.0
97.682663 208.0
97.960213 168.0
98.092239 208.0
98.824913 68.0
98.890213 152.0
99.022865 140.0
99.092194 112.0
99.288429 168.0
99.363808 260.0
99.661613 180.0
100.076088 1816.0
100.218727 152.0
100.346283 72.0
100.360237 120.0
100.497856 108.0
101.007278 192.0
101.07827 212.0
101.245453 340.0
101.586182 172.0
101.78688 140.0
101.800941 84.0
101.817001 144.0
102.092766 180.0
102.50499 148.0
102.775185 136.0
102.84581 180.0
102.98513 212.0
103.239777 132.0
103.262581 244.0
103.500809 220.0
103.687172 80.0
103.788528 56.0
104.052292 160.0
104.641876 216.0
105.068558 220.0
105.145355 88.0
105.161682 188.0
105.365883 188.0
105.946884 200.0
106.99424 212.0
107.016884 204.0
107.050125 836.0
107.13427 180.0
107.21669 52.0
107.418747 156.0
108.021919 240.0
108.05088 184.0
108.533455 156.0
108.983864 156.0
109.063278 188.0
109.121033 268.0
109.139748 196.0
109.597656 152.0
109.628914 160.0
110.27169 104.0
110.878616 132.0
111.008591 212.0
111.10717 232.0
111.191101 176.0
111.260368 32.0
112.030045 184.0
112.074875 684.0
112.162804 164.0
112.280869 120.0
112.57209 76.0
113.081581 144.0
113.132378 172.0
113.274261 56.0
113.337814 144.0
113.471336 120.0
113.558281 112.0
113.615555 164.0
113.838409 212.0
113.8554 112.0
114.004105 80.0
114.091568 10720.0
114.163544 80.0
114.203949 40.0
114.395454 168.0
114.435898 48.0
114.450806 44.0
114.623337 92.0
114.808792 92.0
115.009338 56.0
115.09214 684.0
115.398132 88.0
115.466553 180.0
115.595673 56.0
115.631294 204.0
115.838982 100.0
115.853973 152.0
115.873253 128.0
116.068298 120.0
116.248482 56.0
116.764061 160.0
117.078262 80.0
117.216133 192.0
117.606468 196.0
117.861298 180.0
118.304657 196.0
118.339294 176.0
118.399925 156.0
118.881187 164.0
119.00708 104.0
119.102631 208.0
119.890213 96.0
119.951241 116.0
120.086884 96.0
120.370125 96.0
120.553619 128.0
120.737251 72.0
121.066536 176.0
121.563118 144.0
121.905685 84.0
121.949638 172.0
122.149727 208.0
122.299347 216.0
122.865662 216.0
122.938065 88.0
123.006424 208.0
123.048363 480.0
123.110664 216.0
123.278549 160.0
123.466454 116.0
124.082016 200.0
124.261658 64.0
124.301598 192.0
124.372612 136.0
124.508041 192.0
125.081741 120.0
125.418007 68.0
125.966919 124.0
126.206047 136.0
126.340233 128.0
126.709618 172.0
127.153595 160.0
127.299515 196.0
127.348923 172.0
127.656815 148.0
128.003342 232.0
128.736206 176.0
129.069595 224.0
129.382874 204.0
129.624496 240.0
129.706802 68.0
130.274094 112.0
130.48317 188.0
130.890427 112.0
131.049866 192.0
131.178894 168.0
131.337112 124.0
131.855377 32.0
133.027527 560.0
133.581894 188.0
134.033691 216.0
134.240585 152.0
134.307465 64.0
134.39743 100.0
135.041946 276.0
135.080063 472.0
135.113663 196.0
135.289536 196.0
135.407623 68.0
135.479431 132.0
135.567474 164.0
136.015091 124.0
136.066162 56.0
136.089371 196.0
136.265884 180.0
136.326294 96.0
136.926498 132.0
137.023468 716.0
137.059921 3216.0
137.248077 64.0
137.306381 132.0
137.532684 204.0
137.64241 108.0
137.871338 104.0
138.063965 172.0
138.411697 120.0
138.629547 84.0
138.84288 136.0
138.873367 144.0
138.908539 128.0
139.032898 184.0
139.059921 176.0
139.19487 44.0
139.537903 80.0
139.904907 192.0
141.072617 356.0
141.12178 232.0
141.522125 212.0
141.650009 104.0
141.913055 96.0
142.085938 2132.0
142.337769 196.0
142.363892 140.0
142.418518 64.0
142.912979 196.0
143.065292 104.0
143.089981 236.0
143.556107 156.0
144.02388 96.0
144.086655 256.0
144.140945 68.0
144.348907 44.0
144.442169 80.0
144.777237 96.0
144.899261 132.0
145.071945 124.0
145.311768 144.0
146.039627 188.0
146.248947 128.0
146.761734 148.0
147.048065 164.0
147.189148 208.0
147.227783 176.0
147.278503 252.0
147.614426 76.0
147.633774 88.0
147.938629 168.0
148.052155 7736.0
148.096024 128.0
148.115402 148.0
148.163849 40.0
148.301956 48.0
148.379532 92.0
148.459549 116.0
148.62207 64.0
149.023529 308.0
149.0569 612.0
149.345993 208.0
149.450607 72.0
149.499268 148.0
149.528473 156.0
149.596619 132.0
149.898621 120.0
149.939301 180.0
150.028961 164.0
150.05864 160.0
150.207779 104.0
150.276566 160.0
150.457169 204.0
150.598785 164.0
151.040237 256.0
151.079956 412.0
151.197784 128.0
151.690079 112.0
151.780792 172.0
151.972107 172.0
152.052536 160.0
152.082535 48.0
152.310883 244.0
152.379669 60.0
152.426346 48.0
152.524658 180.0
152.873886 116.0
153.689743 204.0
154.588928 72.0
154.995026 196.0
155.066895 108.0
155.2677 52.0
156.457901 92.0
156.744324 40.0
157.060928 140.0
157.125793 176.0
157.732605 172.0
158.423248 140.0
158.618713 224.0
158.82933 208.0
159.095322 160.0
159.288681 168.0
159.635513 192.0
159.81662 156.0
160.181656 164.0
161.060089 636.0
161.284317 164.0
161.410843 184.0
161.780106 108.0
162.02829 136.0
162.068161 396.0
162.347656 144.0
162.591202 188.0
162.890793 144.0
162.987335 212.0
163.038696 2976.0
163.072296 288.0
163.104233 152.0
163.332809 188.0
164.044312 152.0
164.07666 116.0
165.05191 200.0
165.261703 80.0
166.232819 132.0
166.348312 112.0
166.841537 168.0
167.080704 128.0
167.101273 124.0
168.039078 156.0
168.060242 176.0
168.261032 148.0
168.372055 188.0
168.98468 168.0
169.064896 204.0
169.16066 116.0
169.33931 52.0
169.756546 136.0
170.015961 140.0
171.975693 84.0
172.720352 128.0
172.890411 188.0
173.610825 204.0
174.41684 52.0
174.969254 172.0
175.037613 732.0
175.077209 224.0
175.883972 104.0
176.047791 324.0
177.023438 132.0
177.049713 148.0
177.30954 96.0
177.471237 124.0
178.076691 208.0
178.389816 108.0
179.086807 152.0
179.574692 180.0
179.745422 156.0
180.065765 136.0
180.461243 112.0
181.061798 316.0
181.092773 192.0
181.13295 120.0
181.467941 164.0
181.551056 180.0
182.073181 220.0
182.724854 140.0
183.68927 164.0
183.70874 240.0
184.053604 204.0
184.526077 152.0
184.629181 128.0
185.018814 40.0
185.054001 116.0
185.09462 112.0
185.143356 72.0
185.43866 92.0
185.95668 188.0
186.192886 120.0
186.220032 120.0
186.239044 96.0
187.041168 184.0
187.076553 216.0
187.122833 200.0
187.286224 160.0
187.779541 124.0
188.404602 168.0
188.533035 132.0
188.738037 172.0
189.054916 200.0
189.304459 120.0
190.16803 160.0
190.90979 160.0
190.956543 144.0
191.405106 112.0
191.713623 120.0
191.920349 80.0
192.643433 124.0
193.047348 164.0
193.065186 228.0
193.545029 240.0
194.074234 84.0
194.78714 176.0
194.962494 92.0
195.023636 104.0
195.159851 140.0
196.048233 188.0
196.881607 140.0
196.93219 72.0
196.988052 228.0
197.060608 132.0
197.088623 148.0
197.124954 100.0
197.997757 92.0
198.059372 120.0
198.132202 124.0
199.068283 140.0
199.130783 144.0
199.498871 188.0
200.078384 164.0
200.802551 184.0
201.220169 116.0
201.33876 116.0
201.734329 160.0
201.833282 160.0
202.917679 144.0
203.036774 192.0
203.106308 192.0
203.235336 152.0
203.575958 224.0
204.938446 244.0
204.984039 148.0
205.083786 144.0
205.189255 140.0
205.594284 52.0
206.125427 68.0
206.271179 196.0
206.6315 120.0
206.811783 220.0
207.869278 144.0
208.050095 100.0
208.397598 176.0
208.561401 220.0
209.113632 140.0
211.038803 208.0
211.072784 348.0
212.051682 184.0
212.082443 148.0
212.311783 172.0
212.381393 236.0
213.050613 312.0
213.057892 496.0
213.09668 272.0
213.165237 228.0
213.621704 180.0
214.046616 124.0
214.12233 96.0
214.315063 124.0
215.108795 180.0
215.218765 132.0
215.239212 144.0
215.283005 100.0
215.364777 156.0
215.727112 180.0
215.800201 252.0
216.599106 116.0
216.763168 196.0
217.076828 172.0
217.176529 80.0
218.076462 180.0
218.110245 156.0
219.066574 132.0
219.429047 192.0
219.82724 128.0
220.654266 124.0
221.069336 128.0
222.040039 132.0
222.265488 72.0
222.535583 160.0
222.841492 172.0
223.034653 116.0
223.067352 116.0
223.995743 336.0
224.047348 476.0
224.11441 236.0
224.812668 140.0
224.857422 136.0
225.053833 136.0
225.087692 192.0
225.191818 56.0
225.257523 180.0
225.520462 40.0
226.054733 136.0
226.543808 56.0
227.069275 344.0
227.425369 52.0
227.521439 100.0
228.075424 180.0
228.558334 260.0
228.781036 164.0
228.808136 196.0
229.086548 264.0
229.262955 92.0
229.419678 184.0
230.08812 128.0
230.176971 68.0
230.533417 168.0
230.738937 152.0
230.772202 164.0
230.8992 168.0
230.938522 104.0
231.017166 212.0
231.101868 136.0
231.889206 140.0
232.428986 64.0
232.823608 44.0
233.982086 176.0
234.070389 196.0
235.073257 128.0
235.39682 132.0
235.5923 84.0
236.200607 116.0
236.500458 204.0
237.055817 272.0
237.701797 152.0
237.925842 108.0
238.01796 144.0
238.057037 132.0
238.084045 96.0
238.223724 112.0
238.460327 120.0
238.491058 132.0
238.716873 88.0
238.820038 176.0
239.069199 180.0
239.173874 180.0
239.281616 68.0
239.531067 180.0
239.734406 88.0
239.87413 72.0
239.934753 220.0
240.079559 700.0
241.048965 1956.0
241.364243 68.0
241.497223 144.0
241.943192 164.0
242.051559 412.0
242.491074 136.0
242.534454 104.0
242.55925 88.0
242.801086 96.0
243.100525 1248.0
243.282028 40.0
243.406204 84.0
243.819366 48.0
243.900177 208.0
244.024521 88.0
244.106079 540.0
244.562683 164.0
244.973694 184.0
245.431839 148.0
245.547211 200.0
246.386871 68.0
246.987045 192.0
248.393463 124.0
248.56601 132.0
249.054092 148.0
249.473679 72.0
249.737808 164.0
250.053925 144.0
250.515274 52.0
250.631851 164.0
251.069 624.0
251.47699 124.0
251.555893 60.0
251.675873 176.0
251.761124 140.0
252.041794 1892.0
252.102295 220.0
252.570206 124.0
252.668274 148.0
253.050034 1388.0
253.082611 188.0
253.288727 148.0
253.336243 172.0
253.757736 48.0
254.056442 484.0
254.128815 60.0
254.443008 200.0
254.760574 44.0
255.063797 684.0
255.085846 176.0
255.399506 196.0
255.549011 36.0
255.981888 48.0
256.072479 1076.0
256.104065 112.0
256.255829 56.0
256.600037 144.0
256.67337 76.0
257.077637 308.0
257.506256 180.0
257.582916 84.0
257.998322 120.0
258.097443 40.0
258.369293 184.0
258.622101 76.0
258.801361 204.0
259.105621 140.0
259.160095 112.0
259.782043 212.0
260.025879 164.0
260.996033 64.0
261.353058 112.0
262.512634 220.0
262.641663 64.0
262.751312 80.0
263.044983 144.0
263.445404 180.0
263.497101 228.0
263.542328 160.0
263.697449 148.0
263.820251 144.0
264.075958 320.0
264.784485 80.0
264.998291 148.0
265.260773 140.0
265.604492 176.0
266.061096 364.0
266.107483 48.0
266.20813 68.0
266.438751 176.0
266.578461 132.0
266.617462 92.0
266.890503 192.0
266.997803 144.0
267.06488 10028.0
267.163696 108.0
267.212494 208.0
267.277557 48.0
267.339386 60.0
267.365417 152.0
267.407745 96.0
267.433777 36.0
267.534668 64.0
267.56723 64.0
267.830994 140.0
267.9039 112.0
268.031952 172.0
268.068085 1924.0
268.117706 108.0
268.173126 160.0
268.381744 144.0
268.828613 128.0
269.045593 688.0
269.073914 688.0
269.134186 144.0
269.140961 88.0
269.153625 204.0
269.527405 52.0
269.586243 156.0
269.762726 48.0
269.847717 144.0
269.890228 88.0
269.926178 48.0
269.962158 32.0
269.988312 52.0
270.048615 264.0
270.090057 512.0
270.403809 136.0
270.872009 68.0
271.051208 276.0
271.09436 908.0
271.14978 164.0
271.503601 160.0
271.580017 116.0
271.727631 168.0
271.85788 160.0
272.062378 104.0
272.095734 472.0
272.624023 36.0
273.091644 200.0
273.963135 80.0
274.226746 144.0
274.282776 76.0
274.368469 56.0
276.369904 284.0
277.068481 40.0
278.116333 164.0
278.611115 80.0
278.687531 36.0
278.823761 32.0
279.062073 732.0
279.685181 168.0
280.075531 452.0
280.407928 64.0
280.664612 136.0
281.076965 916.0
281.298462 172.0
281.789368 228.0
281.852875 184.0
282.048676 452.0
282.087341 416.0
282.203827 144.0
282.304138 184.0
282.708893 84.0
282.839417 148.0
282.963287 120.0
283.061066 2592.0
283.147461 52.0
283.251282 112.0
283.281433 176.0
283.378571 104.0
283.452301 108.0
283.599731 144.0
283.693604 44.0
283.888062 40.0
283.983612 208.0
284.00946 180.0
284.066895 8172.0
284.164642 56.0
284.273834 60.0
284.366119 56.0
284.39444 60.0
284.463715 84.0
284.498718 68.0
284.713928 40.0
284.748535 100.0
284.775543 72.0
284.831146 148.0
284.908417 52.0
285.032715 64.0
285.071899 2448.0
285.159302 48.0
285.281433 92.0
285.311676 52.0
285.40918 80.0
285.71109 68.0
285.87674 116.0
285.970978 80.0
286.046936 296.0
286.06955 328.0
286.139282 56.0
286.597321 216.0
286.698425 56.0
286.779297 128.0
286.974823 132.0
287.160278 112.0
287.204132 112.0
287.237854 200.0
288.054749 156.0
288.088531 36.0
288.112152 100.0
288.166687 84.0
288.298004 120.0
289.05545 140.0
289.079163 220.0
289.44812 72.0
289.485352 140.0
290.054535 120.0
290.583557 156.0
291.10968 124.0
291.201355 144.0
292.183716 204.0
295.055145 184.0
295.092163 320.0
295.520386 152.0
295.777039 160.0
296.069397 232.0
296.294128 100.0
296.732788 64.0
297.071747 764.0
297.147797 48.0
297.442902 212.0
297.532166 128.0
297.710693 108.0
297.810303 152.0
297.834351 100.0
298.048615 216.0
298.083801 1216.0
298.128723 88.0
298.252411 208.0
298.287903 132.0
298.463226 76.0
298.545776 76.0
298.599792 168.0
298.74353 184.0
298.794769 164.0
298.860687 116.0
298.897461 168.0
298.924164 152.0
298.971558 132.0
299.000397 100.0
299.091278 37404.0
299.161346 48.0
299.170715 44.0
299.243744 60.0
299.255219 88.0
299.266907 124.0
299.326904 96.0
299.430206 40.0
299.47052 68.0
299.535248 120.0
299.605408 176.0
299.673004 140.0
299.698883 32.0
299.767822 48.0
299.806915 184.0
299.922882 120.0
299.953918 36.0
300.012512 32.0
300.095062 5344.0
300.150421 88.0
300.191803 88.0
300.237518 160.0
300.274567 120.0
300.341888 60.0
300.377533 80.0
300.38678 68.0
300.440125 36.0
300.557434 76.0
300.605743 44.0
300.63681 140.0
300.733429 48.0
300.771393 72.0
300.864594 60.0
300.940552 44.0
301.095184 792.0
301.244476 148.0
301.396484 68.0
301.427582 128.0
301.787048 76.0
301.893219 120.0
301.928833 60.0
302.029114 132.0
302.089172 188.0
302.184784 56.0
302.233246 52.0
302.343964 140.0
302.378571 164.0
302.444336 48.0
302.487946 100.0
302.731689 64.0
302.766327 84.0
303.119659 56.0
303.161224 84.0
303.188965 152.0
303.23056 80.0
303.355316 44.0
304.059418 36.0
304.198273 188.0
304.510742 96.0
304.802551 68.0
304.826874 52.0
304.868591 56.0
305.094513 208.0
305.233582 36.0
305.744934 32.0
305.828461 116.0
305.985107 36.0
307.05484 100.0
309.073944 164.0
309.308441 52.0
310.08606 512.0
310.520721 68.0
310.699615 88.0
311.090271 2056.0
311.422729 48.0
311.626465 68.0
312.092896 456.0
312.52301 56.0
312.825684 44.0
313.071014 416.0
313.105652 400.0
313.149628 116.0
313.731018 52.0
314.070679 320.0
314.7789 108.0
314.824799 68.0
315.107361 76.0
316.391144 36.0
316.596497 136.0
319.105164 160.0
320.087189 152.0
320.133484 180.0
320.194 84.0
321.541626 184.0
321.712952 68.0
324.066162 148.0
324.162903 200.0
324.618164 152.0
325.082153 148.0
327.075531 152.0
328.563812 60.0
328.67926 232.0
330.160309 84.0
331.695435 160.0
334.135742 164.0
335.975494 164.0
336.267395 152.0
336.866211 120.0
339.035889 192.0
339.08609 500.0
340.099457 152.0
342.062286 148.0
344.994904 68.0
349.31131 136.0
351.12146 204.0
351.25946 124.0
353.714447 104.0
355.097015 136.0
356.099091 100.0
356.756653 136.0
357.027344 192.0
357.097931 584.0
358.091705 256.0
359.106232 124.0
360.087524 136.0
363.63501 152.0
364.147552 68.0
366.132507 456.0
367.154114 180.0
368.662018 180.0
369.870575 76.0
374.343262 64.0
374.967346 44.0
376.097412 160.0
376.800201 112.0
377.117065 140.0
377.778259 56.0
380.095093 132.0
384.164642 152.0
386.982391 116.0
389.386139 144.0
392.140137 152.0
394.127899 232.0
394.165802 292.0
395.170013 168.0
399.835327 52.0
403.988922 124.0
404.156952 112.0
405.081757 68.0
405.746979 76.0
406.376648 120.0
407.127258 92.0
408.151917 180.0
409.133606 100.0
411.90799 96.0
412.186768 196.0
416.261719 80.0
419.202728 208.0
419.626648 164.0
422.165009 308.0
423.144287 112.0
423.172943 116.0
423.488251 148.0
424.170349 128.0
424.217621 144.0
428.211456 144.0
431.864075 140.0
432.137115 88.0
432.182617 128.0
432.422638 100.0
436.833252 40.0
437.141144 120.0
438.177887 84.0
438.248718 176.0
438.815552 64.0
439.370239 68.0
439.800018 164.0
439.866821 96.0
440.021271 120.0
440.170074 11084.0
440.276886 204.0
440.399506 124.0
440.468109 68.0
440.509857 76.0
440.551636 40.0
440.586761 64.0
440.702057 76.0
440.743835 76.0
440.941345 56.0
441.00293 248.0
441.032166 44.0
441.092377 180.0
441.171021 3052.0
441.242828 72.0
441.274628 84.0
441.341522 152.0
441.437714 44.0
441.69281 92.0
441.78067 76.0
441.901978 96.0
442.172424 616.0
442.261871 68.0
442.316284 92.0
442.441864 80.0
442.513031 32.0
442.95694 80.0
443.107758 32.0
443.182312 160.0
443.468109 76.0
443.577087 60.0
443.862183 68.0
443.983795 100.0
444.600464 84.0
444.810333 60.0
444.864899 108.0
445.065308 168.0
445.440186 108.0
446.167175 36.0
453.957214 100.0
454.610474 112.0
456.802795 48.0
457.304871 116.0
457.500671 96.0
461.352844 120.0
461.682068 92.0
465.375732 84.0
475.411652 64.0
482.166138 96.0
492.380554 64.0
494.759399 84.0
503.331421 80.0
509.907623 100.0
515.161377 68.0
535.851135 36.0
536.814453 108.0
545.904602 68.0
577.897522 60.0
585.058044 128.0
586.13208 40.0
628.916992 88.0
651.557678 112.0
655.021973 108.0
670.902588 116.0
676.735352 68.0
690.499146 108.0
703.086792 72.0
709.492188 40.0
730.258789 88.0
745.444702 72.0
747.151917 40.0
750.239685 80.0
753.656189 72.0
764.392334 40.0
767.642334 60.0
777.117371 144.0
780.48877 84.0
782.73114 64.0
799.42926 84.0
827.498413 80.0
832.383545 68.0
859.070984 60.0
885.421326 80.0
904.264404 72.0
908.374695 48.0
928.732422 184.0
930.261536 76.0
936.353943 196.0
958.320679 108.0
1004.329712 72.0
1008.376831 164.0
1014.668762 184.0
1016.692139 168.0
1024.066895 40.0
1059.674805 164.0
1062.825806 84.0
1069.141968 208.0
1098.139038 68.0
1106.464966 136.0
1121.524048 44.0
1133.017578 60.0
1133.178345 96.0
1137.671631 208.0
1149.96936 152.0
1150.178711 96.0
1155.300659 116.0
1162.516479 52.0
1167.115112 128.0
1174.660889 200.0
1183.476929 168.0
1189.963623 172.0
1191.810425 56.0
1194.856201 84.0
1198.691162 228.0
1204.500244 252.0
1211.465942 172.0
1240.111572 52.0
1244.130859 184.0
1247.748901 236.0
1251.731201 220.0
1252.653809 156.0
1268.780029 172.0
1272.490356 112.0
1277.294312 252.0
1286.665039 164.0
1289.643799 184.0
1295.625854 100.0
1297.216797 204.0
1302.907471 320.0
1305.401489 112.0
1326.244141 232.0
1328.085815 240.0
1333.080566 144.0
1336.301636 156.0
1337.567871 80.0
1340.400879 152.0
1344.083252 84.0
1347.631714 208.0
1349.92688 96.0
1361.358398 208.0
1363.797485 72.0
1364.025391 108.0
1366.717041 116.0
1370.752075 96.0
1376.343262 220.0
1380.769653 180.0
1385.662354 208.0
1386.655396 136.0
1389.154053 112.0
1390.081421 112.0
1392.353027 232.0
1394.931274 136.0
1396.113403 96.0
1398.345215 160.0
1401.130127 228.0
1401.405762 92.0
1403.582275 144.0
1403.955078 56.0
1404.201172 64.0
1409.224976 172.0
1416.758667 192.0
1423.268555 168.0
1424.402588 284.0
1424.823242 112.0
1426.010498 80.0
1444.256592 212.0
1445.345947 120.0
1446.465942 156.0
1447.003418 100.0
1454.273071 192.0
1461.553223 152.0
1462.29895 132.0
1466.038208 160.0
1473.240723 152.0
1476.015137 136.0
1484.123657 124.0
1490.37146 160.0
1490.886353 84.0
1494.077271 112.0
1502.173584 116.0
1504.102661 200.0
