>compound METHYLPREDNISOLONE
>formula C22H30O5 
>ionization [M+H]+
>parentmass 375.2166005120905
#inchi InChI=1S/C22H30O5/c1-12-8-14-15-5-7-22(27,18(26)11-23)21(15,3)10-17(25)19(14)20(2)6-4-13(24)9-16(12)20/h4,6,9,12,14-15,17,19,23,25,27H,5,7-8,10-11H2,1-3H3/t12-,14-,15-,17-,19+,20-,21-,22-/m0/s1
#inchikey VHRSUDSXCMQTMA
#Ion_Source LC-ESI
#Instrument qTof
#Compound_Source Commercial
#PI Dorrestein
#Data_Collector Garg_Neha
#Scan -1
#Precursor_MZ 375.219
#ExactMass 374.209
#Charge 1
#CAS_Number N/A
#Pubmed_ID N/A
#Smiles N/A
#INCHI_AUX N/A
#Library_Class 1
#SpectrumID CCMSLIB00000077143
#IonMode Positive
#UpdateWorkflowName UPDATE-SINGLE-ANNOTATED-GOLD
#LibraryQualityString Gold
#TaskID 48f7f52fc6d249b5abbcc6e7b3df5969
##Scan# 1211
#SpectrumFile NCP003195_E2E6F2F6G2G6H2H6_BB7_01_15711.mzXML
#LibraryName NIH_Clinical_Collection_2.mgf
#MQScore -1
#Organism NIHcollection2_04212014_2_mgf
#TIC_Query 0
#RT_Query -1
#MZErrorPPM -1
#SharedPeaks 0
#MassDiff 0
#LibMZ -1
#SpecMZ 375.219
#SpecCharge 0
#internalFilename spec-00000.mgf

>collision 10
55.174942 152.0
57.38316 172.0
57.547619 160.0
58.141003 168.0
59.405914 148.0
61.923306 172.0
63.578735 164.0
67.537773 184.0
68.049065 156.0
68.993088 152.0
69.812187 200.0
73.155609 148.0
74.250877 164.0
74.602875 192.0
76.54763 140.0
77.489098 256.0
78.997856 160.0
79.899063 164.0
80.25705 160.0
81.414825 176.0
82.674965 252.0
83.835403 152.0
83.953896 172.0
84.070648 208.0
85.033295 176.0
91.053986 300.0
92.290062 164.0
97.06144 172.0
99.048431 216.0
102.944214 196.0
103.057327 200.0
103.318138 156.0
104.456184 192.0
105.070953 280.0
105.479828 192.0
106.080009 200.0
106.718079 164.0
107.057602 164.0
107.084373 144.0
109.102699 176.0
111.043831 152.0
111.073196 172.0
114.638237 128.0
115.054695 176.0
115.254585 180.0
117.822105 156.0
118.075005 180.0
118.73555 140.0
119.087143 456.0
120.090523 140.0
121.066185 868.0
121.100296 140.0
122.068115 140.0
123.046402 168.0
123.079292 136.0
125.061783 148.0
126.0494 168.0
127.056946 144.0
127.072655 184.0
127.64991 208.0
128.064423 172.0
129.066925 328.0
131.085236 460.0
133.067047 372.0
133.102814 336.0
135.041901 164.0
135.081146 2748.0
135.107513 144.0
136.087845 244.0
137.044724 164.0
137.097946 388.0
138.092209 204.0
139.074905 184.0
141.071289 164.0
142.076355 180.0
143.083298 204.0
144.057678 144.0
144.08847 320.0
145.065353 684.0
145.101852 680.0
146.068314 280.0
147.08078 872.0
147.11586 172.0
148.07196 188.0
149.096313 420.0
149.918304 184.0
151.073532 208.0
151.112335 188.0
153.066132 172.0
153.089111 112.0
154.092194 168.0
155.073151 336.0
156.100586 204.0
157.098785 328.0
158.076218 368.0
159.08046 1588.0
159.117462 564.0
160.087219 188.0
161.096741 6596.0
162.100922 840.0
162.137619 176.0
162.246613 180.0
163.046173 148.0
163.108276 296.0
164.806366 156.0
165.070953 360.0
165.089554 476.0
166.0784 280.0
166.334412 136.0
168.093735 176.0
168.884277 172.0
169.096436 232.0
170.102112 160.0
171.081879 704.0
171.117767 396.0
171.647522 168.0
172.090698 504.0
173.094376 576.0
173.13147 320.0
173.176331 152.0
174.103088 496.0
174.131012 152.0
175.076874 296.0
175.110611 1176.0
175.589066 156.0
176.114288 168.0
177.091827 380.0
177.12529 216.0
179.07695 144.0
180.090469 172.0
181.071854 116.0
181.078583 108.0
181.098114 284.0
181.141296 144.0
181.951553 148.0
183.07872 168.0
183.100876 500.0
183.832993 168.0
184.1082 148.0
185.096146 3568.0
186.098816 760.0
186.960281 148.0
187.071884 140.0
187.111542 3084.0
188.115082 684.0
189.069839 144.0
189.093262 396.0
189.123505 296.0
190.09584 164.0
191.015137 148.0
191.09996 120.0
191.14328 208.0
192.045303 140.0
192.100479 156.0
193.100922 216.0
194.073502 164.0
194.108398 164.0
195.083389 188.0
195.118378 408.0
196.086136 548.0
196.118408 168.0
197.068298 176.0
197.095901 792.0
198.102493 380.0
199.111969 736.0
199.57576 152.0
200.123764 256.0
201.048676 144.0
201.105438 212.0
201.128555 412.0
202.124466 164.0
202.745804 188.0
203.115143 360.0
204.037292 144.0
205.120483 164.0
206.043655 140.0
206.987503 212.0
207.116669 276.0
208.071304 280.0
208.092697 276.0
208.140503 196.0
209.095596 1208.0
209.130341 380.0
210.101044 372.0
211.111526 2032.0
212.118286 404.0
212.80336 140.0
213.126236 972.0
213.180969 148.0
214.088593 204.0
214.131317 160.0
214.855179 140.0
215.147812 160.0
216.076355 196.0
216.61795 208.0
217.101898 268.0
218.064499 176.0
218.113373 224.0
219.059036 176.0
219.131027 164.0
220.128662 252.0
221.096344 360.0
221.122955 140.0
221.688599 180.0
222.103119 204.0
222.143188 148.0
223.11113 448.0
224.11821 1160.0
225.091675 148.0
225.125565 744.0
226.132446 300.0
227.106171 148.0
227.144836 736.0
228.138718 152.0
229.121811 328.0
229.152924 352.0
231.06102 172.0
231.13826 340.0
232.139297 140.0
232.321289 180.0
232.582245 148.0
233.104462 152.0
233.127945 156.0
234.106598 280.0
234.137833 176.0
235.108749 444.0
235.147537 220.0
235.499176 140.0
236.119675 440.0
236.196075 144.0
237.126999 1456.0
238.135315 416.0
239.0401 184.0
239.096848 136.0
239.142426 1000.0
240.147202 196.0
240.226273 192.0
241.155334 324.0
243.139389 192.0
243.178497 156.0
244.128845 176.0
245.094986 300.0
245.131622 176.0
246.10318 244.0
247.108017 152.0
247.151489 148.0
248.093262 152.0
248.11969 308.0
249.12645 1408.0
250.022766 192.0
250.134399 732.0
251.140884 1324.0
251.188538 152.0
252.117371 260.0
252.141129 404.0
252.704926 156.0
253.128738 340.0
253.157745 4104.0
253.217743 176.0
254.162552 1016.0
254.476639 168.0
255.108856 160.0
255.173401 692.0
256.052002 156.0
257.157501 152.0
259.116974 156.0
260.106995 216.0
261.071991 168.0
261.120026 488.0
262.132812 416.0
262.498535 224.0
263.141052 572.0
263.181885 360.0
264.115875 132.0
264.153595 116.0
265.159363 984.0
266.129059 140.0
266.159027 240.0
267.140656 704.0
268.145996 120.0
270.127838 148.0
270.167084 152.0
272.120361 148.0
273.130615 392.0
273.16214 180.0
274.115204 124.0
274.137238 244.0
275.144562 396.0
275.184052 160.0
276.158966 172.0
277.120453 164.0
277.158691 1244.0
277.186707 180.0
278.128326 108.0
278.159149 368.0
278.630005 172.0
279.137085 644.0
279.173584 3044.0
280.150024 216.0
280.181427 2528.0
281.153046 292.0
281.190308 1352.0
281.477753 164.0
281.728271 160.0
281.982208 160.0
282.196014 480.0
283.166901 176.0
284.749573 168.0
285.156372 316.0
286.633453 184.0
287.134735 132.0
288.149902 236.0
289.144287 368.0
290.14624 204.0
291.176514 372.0
292.138641 140.0
292.179657 128.0
293.150146 780.0
293.188385 1836.0
294.161224 140.0
294.194153 260.0
294.917694 164.0
295.170776 364.0
296.167664 188.0
297.150269 820.0
297.188507 804.0
298.158417 144.0
298.184326 180.0
299.195892 332.0
300.208282 156.0
301.188446 180.0
303.175323 1824.0
304.178894 1052.0
305.198792 180.0
307.17276 156.0
308.111816 172.0
308.180176 384.0
309.18277 1104.0
310.182312 148.0
311.163879 176.0
311.199646 892.0
312.213745 124.0
315.157257 436.0
315.778412 140.0
316.159241 212.0
317.106079 212.0
320.499817 152.0
321.184662 3280.0
322.1875 684.0
323.190308 248.0
327.200378 316.0
328.188263 144.0
329.214661 196.0
330.163513 176.0
332.176605 128.0
337.176453 156.0
338.061462 164.0
338.570312 164.0
339.19577 6140.0
339.551758 100.0
339.680267 100.0
340.19812 1784.0
341.201874 448.0
342.146667 144.0
342.378632 144.0
355.187988 140.0
357.206268 14316.0
358.210175 2828.0
358.762482 104.0
359.215271 372.0
360.873474 156.0
373.207336 148.0
375.213715 928.0
376.161926 904.0
376.218475 756.0
377.176086 384.0
377.240936 208.0
764.761719 144.0
963.556213 200.0
1295.17688 156.0
1329.503418 212.0
1342.532593 144.0
1421.779175 172.0
1535.345337 196.0
1536.109741 196.0
1673.877441 148.0
1687.650879 236.0
1811.896973 252.0
1913.741333 144.0
1928.125732 140.0
1966.276855 184.0
1979.289551 148.0
