>compound MLS001401443-01!roxatidine acetate??hydrochloride
>formula C19H28N2O4
>ionization [M+H]+
>parentmass 349.211487
#inchi InChI=1S/C19H28N2O4/c1-16(22)25-15-19(23)20-9-6-12-24-18-8-5-7-17(13-18)14-21-10-3-2-4-11-21/h5,7-8,13H,2-4,6,9-12,14-15H2,1H3,(H,20,23)
#inchikey SMTZFNFIKUPEJC
#origInchi InChI=1S/C19H28N2O4.ClH/c1-16(22)25-15-19(23)20-9-6-12-24-18-8-5-7-17(13-18)14-21-10-3-2-4-11-21;/h5,7-8,13H,2-4,6,9-12,14-15H2,1H3,(H,20,23);1H
#Ion_Source LC-ESI
#Instrument qTof
#Compound_Source NIH Pharmacologically Active Library
#PI Dorrestein
#Data_Collector VP/LMS
#Scan -1
#Precursor_MZ 349.215
#ExactMass 348.205
#Charge 1
#CAS_Number N/A
#Pubmed_ID N/A
#Smiles CC(=O)OCC(=O)NCCCOc1cccc(CN2CCCCC2)c1.Cl
#INCHI_AUX N/A
#Library_Class 1
#SpectrumID CCMSLIB00000085092
#IonMode Positive
#UpdateWorkflowName UPDATE-SINGLE-ANNOTATED-GOLD
#LibraryQualityString Gold
#TaskID d252d724072548979f1f6f1ced849daf
##Scan# 1322
#SpectrumFile p3-E08_GE8_01_18277.mzXML
#LibraryName Pharm_Active_Library.mgf
#MQScore -1
#Organism Pharm_Active_Library
#TIC_Query 0
#RT_Query -1
#MZErrorPPM -1
#SharedPeaks 0
#MassDiff 0
#LibMZ -1
#SpecMZ 349.215
#SpecCharge 0
#internalFilename spec-00000.mgf

>collision 10
44.921844 184.0
45.016613 92.0
45.046665 140.0
45.082714 152.0
45.104797 188.0
45.124851 140.0
45.162296 188.0
45.230541 208.0
45.241253 148.0
45.268032 236.0
45.297501 160.0
45.35244 80.0
45.371208 188.0
45.404732 80.0
45.42083 224.0
45.451687 192.0
45.477188 388.0
45.490875 164.0
45.524181 84.0
45.576572 164.0
45.592697 172.0
45.620926 92.0
45.631683 168.0
45.652901 140.0
45.680099 168.0
45.690861 112.0
45.753017 88.0
45.791824 116.0
45.883034 188.0
45.94384 188.0
45.963047 152.0
45.991386 232.0
46.149456 136.0
46.160275 144.0
46.246601 184.0
46.271233 168.0
46.299671 180.0
46.311859 172.0
46.337601 160.0
46.363346 220.0
46.377689 248.0
46.399948 168.0
46.448925 140.0
46.494904 156.0
46.516018 152.0
46.570942 108.0
46.58181 120.0
46.609921 168.0
46.693272 144.0
46.702793 148.0
46.822571 92.0
46.843002 156.0
46.93705 228.0
46.949322 164.0
46.97678 216.0
47.031189 144.0
47.094334 248.0
47.128155 220.0
47.175995 156.0
47.252583 240.0
47.304592 208.0
47.336632 200.0
47.481358 416.0
47.512905 204.0
47.585651 152.0
47.602127 124.0
47.624104 212.0
47.64883 156.0
47.67001 204.0
47.675728 84.0
47.678375 168.0
47.715836 176.0
47.746433 160.0
47.769054 204.0
47.81385 152.0
47.874428 324.0
47.908211 128.0
47.947826 316.0
47.987427 168.0
48.03294 56.0
48.072388 208.0
48.082611 132.0
48.133694 196.0
48.155792 216.0
48.193092 124.0
48.219349 164.0
48.263588 208.0
48.288483 148.0
48.399197 104.0
48.453217 204.0
48.466511 176.0
48.521133 168.0
48.56551 180.0
48.618233 136.0
48.636276 112.0
48.701542 184.0
48.76963 184.0
48.78492 168.0
48.830811 220.0
48.873936 140.0
48.967529 228.0
48.986713 168.0
49.064465 164.0
49.078705 108.0
49.107624 168.0
49.148449 212.0
49.235004 156.0
49.250618 224.0
49.332191 164.0
49.34972 176.0
49.390152 68.0
49.40694 132.0
49.41996 236.0
49.459023 204.0
49.479717 156.0
49.525932 212.0
49.566898 184.0
49.621231 120.0
49.632446 164.0
49.659096 160.0
49.761169 212.0
49.793839 120.0
49.844418 56.0
49.875336 204.0
49.909081 184.0
49.993484 144.0
50.005547 144.0
50.073734 188.0
50.08923 176.0
50.151802 228.0
50.207249 132.0
50.247131 48.0
50.286644 180.0
50.303581 176.0
50.313465 132.0
50.326172 132.0
50.353004 196.0
50.377018 180.0
50.412342 168.0
50.442856 116.0
50.480202 208.0
50.500004 112.0
50.5382 180.0
50.56226 180.0
50.573582 124.0
50.600479 192.0
50.61747 80.0
50.685505 168.0
50.710979 36.0
50.763435 188.0
50.779037 172.0
50.803448 152.0
50.881664 188.0
50.902512 148.0
50.986179 152.0
51.009071 48.0
51.024712 192.0
51.097897 176.0
51.115559 152.0
51.154179 132.0
51.188351 100.0
51.199741 152.0
51.211136 152.0
51.226807 144.0
51.259579 184.0
51.283806 236.0
51.319447 100.0
51.376499 68.0
51.419308 140.0
51.452141 148.0
51.484985 172.0
51.52927 176.0
51.546417 120.0
51.585007 152.0
51.62561 232.0
51.642208 176.0
51.65937 156.0
51.672249 160.0
51.69228 168.0
51.703732 200.0
51.766724 140.0
51.796112 216.0
51.884224 120.0
51.926476 148.0
51.95163 172.0
51.991806 164.0
52.090885 216.0
52.121056 164.0
52.133991 140.0
52.154114 136.0
52.190056 144.0
52.332508 192.0
52.357719 144.0
52.385448 148.0
52.486977 160.0
52.521786 168.0
52.554485 160.0
52.565861 168.0
52.623772 168.0
52.635323 248.0
52.718555 156.0
52.756695 144.0
52.769707 188.0
52.79863 108.0
52.823219 116.0
52.84058 152.0
52.869522 156.0
52.894978 116.0
52.915844 84.0
52.988262 136.0
53.02449 164.0
53.037537 160.0
53.088345 196.0
53.170982 200.0
53.204369 76.0
53.243576 156.0
53.348198 144.0
53.404911 176.0
53.50658 176.0
53.53299 120.0
53.669971 228.0
53.696224 36.0
53.724239 176.0
53.769176 100.0
53.837795 76.0
53.881618 240.0
53.89769 240.0
53.916687 216.0
53.957619 172.0
54.002953 120.0
54.061695 160.0
54.120033 32.0
54.178619 172.0
54.196201 168.0
54.218185 140.0
54.310375 160.0
54.357506 64.0
54.382458 200.0
54.426502 128.0
54.673477 140.0
54.726471 164.0
54.789806 204.0
54.835407 148.0
54.838715 148.0
54.88414 208.0
54.91806 160.0
54.968056 176.0
55.003876 152.0
55.046101 180.0
55.062706 148.0
55.074524 176.0
55.139538 88.0
55.195675 140.0
55.251923 188.0
55.311119 172.0
55.367043 156.0
55.378033 160.0
55.402939 176.0
55.440609 152.0
55.454803 188.0
55.511143 128.0
55.527454 168.0
55.549706 88.0
55.561554 160.0
55.594219 108.0
55.65147 212.0
55.668449 220.0
55.695183 148.0
55.713009 160.0
55.785831 144.0
55.800701 56.0
55.910782 48.0
55.958416 128.0
56.046051 220.0
56.114864 172.0
56.129776 144.0
56.159603 176.0
56.193916 240.0
56.205856 172.0
56.242241 208.0
56.270039 96.0
56.292439 240.0
56.302891 152.0
56.350693 180.0
56.373238 232.0
56.407917 208.0
56.422436 216.0
56.456581 192.0
56.536121 176.0
56.578033 116.0
56.597874 172.0
56.63644 132.0
56.648422 132.0
56.705364 128.0
56.745842 72.0
56.823837 244.0
56.862854 136.0
56.88475 204.0
56.897381 380.0
56.98439 116.0
57.029579 152.0
57.077686 40.0
57.089718 172.0
57.214611 208.0
57.271839 152.0
57.282383 168.0
57.35371 180.0
57.392406 168.0
57.425587 188.0
57.44067 44.0
57.47839 144.0
57.522034 192.0
57.538765 268.0
57.584068 144.0
57.617302 84.0
57.636948 144.0
57.655216 176.0
57.676243 340.0
57.732185 264.0
57.872921 224.0
57.910782 148.0
57.951683 176.0
57.985023 128.0
58.01989 120.0
58.067932 152.0
58.088135 80.0
58.116962 28.0
58.130619 140.0
58.141243 144.0
58.197411 160.0
58.26424 188.0
58.334152 280.0
58.370644 212.0
58.387634 116.0
58.404102 180.0
58.429516 220.0
58.44873 144.0
58.496185 188.0
58.52129 152.0
58.558647 172.0
58.658409 156.0
58.685852 132.0
58.740757 180.0
58.75296 80.0
58.772797 184.0
58.797215 196.0
58.82943 152.0
58.846062 220.0
58.871063 204.0
58.895653 188.0
58.909389 216.0
58.981552 324.0
59.040134 136.0
59.070728 176.0
59.147243 116.0
59.165611 76.0
59.190113 304.0
59.243721 100.0
59.289688 196.0
59.358677 160.0
59.38015 212.0
59.423103 196.0
59.43932 176.0
59.481422 156.0
59.49831 216.0
59.539768 72.0
59.710369 132.0
59.731907 184.0
59.747288 164.0
59.821163 180.0
59.83194 168.0
59.856575 148.0
59.870655 112.0
59.882755 204.0
59.967049 212.0
59.983959 252.0
60.030712 152.0
60.049221 48.0
60.12328 164.0
60.165222 208.0
60.197163 252.0
60.252991 120.0
60.283894 72.0
60.294712 192.0
60.365829 212.0
60.389027 72.0
60.446274 144.0
60.577881 284.0
60.748409 200.0
60.760265 228.0
60.815136 148.0
60.834419 284.0
60.871029 184.0
60.892773 164.0
60.916073 200.0
60.992218 120.0
61.119751 148.0
61.154942 176.0
61.1805 128.0
61.203682 148.0
61.268303 116.0
61.278576 120.0
61.314415 168.0
61.437603 156.0
61.451878 108.0
61.46389 208.0
61.500027 212.0
61.526566 196.0
61.578098 180.0
61.592155 192.0
61.690605 180.0
61.702915 220.0
61.729694 112.0
61.785671 132.0
61.834518 220.0
61.847443 220.0
61.903404 32.0
61.934727 244.0
61.956661 156.0
61.969193 124.0
61.994041 304.0
62.019344 232.0
62.119705 228.0
62.151558 252.0
62.190319 124.0
62.207588 164.0
62.243698 196.0
62.257832 164.0
62.27668 140.0
62.304893 168.0
62.377598 180.0
62.391399 196.0
62.421272 160.0
62.438644 172.0
62.457447 156.0
62.48473 152.0
62.673138 132.0
62.706234 120.0
62.748795 204.0
62.762985 256.0
62.958591 168.0
62.994999 252.0
63.007641 84.0
63.028179 196.0
63.063297 164.0
63.078758 184.0
63.100445 156.0
63.138969 180.0
63.151497 168.0
63.176807 200.0
63.224277 168.0
63.240105 144.0
63.325607 72.0
63.381058 148.0
63.407997 160.0
63.425045 164.0
63.459888 224.0
63.491528 152.0
63.503132 128.0
63.590397 120.0
63.638023 132.0
63.696785 228.0
63.788956 120.0
63.803265 152.0
63.819164 192.0
63.852562 216.0
63.871647 148.0
63.887554 352.0
63.924675 180.0
63.944382 148.0
63.957577 36.0
64.034004 140.0
64.045441 244.0
64.077019 204.0
64.126419 160.0
64.19976 112.0
64.215706 180.0
64.314636 160.0
64.370514 176.0
64.397667 176.0
64.42495 204.0
64.453583 220.0
64.488747 172.0
64.568687 180.0
64.599083 328.0
64.615082 288.0
64.650764 172.0
64.672691 208.0
64.701508 164.0
64.719116 112.0
64.747246 200.0
64.792801 124.0
64.804016 216.0
64.820038 168.0
64.908203 36.0
64.964989 228.0
64.993225 108.0
65.017296 148.0
65.060638 144.0
65.080185 184.0
65.099174 100.0
65.128082 164.0
65.264687 176.0
65.285599 148.0
65.312935 116.0
65.325806 152.0
65.338676 152.0
65.370857 156.0
65.4272 176.0
65.438469 308.0
65.53833 180.0
65.578621 100.0
65.602806 156.0
65.654404 140.0
65.697952 164.0
65.730225 44.0
65.801247 240.0
65.928864 140.0
65.941788 184.0
65.953102 224.0
65.978973 136.0
66.00161 204.0
66.014542 228.0
66.041885 168.0
66.067924 152.0
66.087341 136.0
66.105141 160.0
66.12635 228.0
66.169884 136.0
66.181221 228.0
66.200653 180.0
66.278412 192.0
66.297195 156.0
66.332626 240.0
66.374229 144.0
66.406487 204.0
66.455917 144.0
66.474625 100.0
66.529816 112.0
66.563911 172.0
66.638634 252.0
66.650009 212.0
66.67276 112.0
66.687386 192.0
66.765427 32.0
66.871185 52.0
66.897232 60.0
66.915138 68.0
66.935425 200.0
66.947708 104.0
66.959106 228.0
67.009605 112.0
67.03894 200.0
67.098801 160.0
67.161224 164.0
67.174271 192.0
67.200378 72.0
67.255806 116.0
67.261215 172.0
67.28688 136.0
67.350571 164.0
67.38488 104.0
67.396317 152.0
67.409393 240.0
67.515656 32.0
67.532387 208.0
67.550003 228.0
67.572906 76.0
67.592545 180.0
67.618729 200.0
67.664566 156.0
67.767754 64.0
67.809059 176.0
67.841507 172.0
67.874298 32.0
67.918579 140.0
67.985855 236.0
68.005547 176.0
68.038376 88.0
68.107735 172.0
68.1549 140.0
68.165268 176.0
68.207588 160.0
68.22567 128.0
68.241295 200.0
68.334602 192.0
68.650856 204.0
68.670288 148.0
68.698334 196.0
68.770943 224.0
68.810562 148.0
68.827072 132.0
68.854073 160.0
68.90966 228.0
68.929016 208.0
68.949326 136.0
68.975769 184.0
69.012138 100.0
69.028679 128.0
69.074989 120.0
69.113045 200.0
69.127937 140.0
69.27861 48.0
69.310089 88.0
69.331635 232.0
69.507423 140.0
69.592552 224.0
69.634987 172.0
69.637337 144.0
69.644073 208.0
69.68676 188.0
69.715004 200.0
69.754898 140.0
69.849686 144.0
69.909584 132.0
69.931221 228.0
70.006142 192.0
70.022797 152.0
70.053078 180.0
70.114433 76.0
70.162689 156.0
70.216911 232.0
70.234482 148.0
70.276192 156.0
70.314423 172.0
70.359642 212.0
70.388031 124.0
70.543419 152.0
70.575188 192.0
70.667183 180.0
70.678894 208.0
70.698975 124.0
70.716415 180.0
70.762589 208.0
70.812828 160.0
70.858055 168.0
70.886543 176.0
70.908325 88.0
70.931793 152.0
71.01564 108.0
71.035561 132.0
71.132538 164.0
71.18515 132.0
71.201942 168.0
71.213699 128.0
71.238899 180.0
71.255699 128.0
71.280907 172.0
71.366631 216.0
71.398582 180.0
71.460823 116.0
71.625816 84.0
71.64505 156.0
71.66288 84.0
71.790993 168.0
71.856781 64.0
71.87365 132.0
71.90065 112.0
71.941162 68.0
72.054321 184.0
72.121048 144.0
72.133751 112.0
72.145584 124.0
72.167564 176.0
72.179405 184.0
72.211807 144.0
72.375694 76.0
72.405807 184.0
72.453606 140.0
72.492577 164.0
72.531563 136.0
72.548622 124.0
72.567162 176.0
72.612953 56.0
72.662621 308.0
72.697784 104.0
72.77845 200.0
72.835312 352.0
72.879745 204.0
72.955963 52.0
72.990791 172.0
73.010124 248.0
73.073318 172.0
73.163521 116.0
73.182251 184.0
73.24527 212.0
73.291267 132.0
73.320236 176.0
73.354332 104.0
73.414009 200.0
73.482239 60.0
73.495888 168.0
73.520515 176.0
73.588066 152.0
73.600014 132.0
73.632462 180.0
73.737206 224.0
73.76403 196.0
73.791389 164.0
73.815331 136.0
73.880325 252.0
73.950485 240.0
73.969315 148.0
73.989861 184.0
74.022392 176.0
74.035507 148.0
74.079475 184.0
74.099472 56.0
74.123459 144.0
74.169739 40.0
74.236702 136.0
74.288063 128.0
74.362709 220.0
74.403046 40.0
74.437386 132.0
74.454559 220.0
74.48204 240.0
74.509529 172.0
74.586868 104.0
74.621246 224.0
74.645325 100.0
74.659081 208.0
74.731331 132.0
74.758865 160.0
74.79673 56.0
74.832886 176.0
74.851822 140.0
74.867325 112.0
74.91555 164.0
75.02565 68.0
75.048264 168.0
75.105179 160.0
75.117256 56.0
75.157028 148.0
75.178017 128.0
75.229424 176.0
75.284676 184.0
75.315765 304.0
75.327858 124.0
75.360733 152.0
75.39006 120.0
75.43428 172.0
75.46785 144.0
75.498978 176.0
75.557793 112.0
75.571793 180.0
75.58548 152.0
75.691071 256.0
75.708389 364.0
75.74823 96.0
75.777679 144.0
75.792366 176.0
75.867805 200.0
75.885147 52.0
75.930809 144.0
75.960083 264.0
76.016975 180.0
76.034332 152.0
76.129723 228.0
76.143715 72.0
76.155869 192.0
76.201035 124.0
76.249695 176.0
76.284462 176.0
76.303581 108.0
76.334885 184.0
76.379318 124.0
76.384399 68.0
76.389786 156.0
76.430557 96.0
76.507141 172.0
76.524696 148.0
76.562866 200.0
76.60453 208.0
76.630798 180.0
76.714455 84.0
76.813858 168.0
76.832008 184.0
76.899361 160.0
76.983162 136.0
76.995392 152.0
77.007614 104.0
77.025085 140.0
77.086235 152.0
77.103714 200.0
77.134293 208.0
77.1614 200.0
77.184128 152.0
77.212112 172.0
77.227852 108.0
77.252342 148.0
77.299583 212.0
77.315338 140.0
77.353844 184.0
77.474342 188.0
77.490448 176.0
77.528999 252.0
77.562302 180.0
77.595612 88.0
77.612587 212.0
77.620094 108.0
77.627747 208.0
77.635666 144.0
77.639748 212.0
77.668335 292.0
77.786842 148.0
77.86937 164.0
77.916801 180.0
77.969513 220.0
77.988853 176.0
78.004471 140.0
78.014572 336.0
78.080284 120.0
78.104454 140.0
78.170166 240.0
78.190277 208.0
78.206963 188.0
78.242172 152.0
78.266823 160.0
78.354889 348.0
78.409515 128.0
78.434196 200.0
78.497665 160.0
78.520592 116.0
78.550583 116.0
78.571754 200.0
78.678337 184.0
78.71434 204.0
78.71949 160.0
78.753105 120.0
78.799515 168.0
78.845459 116.0
78.859596 120.0
78.882576 192.0
78.900253 176.0
78.946228 120.0
78.967453 176.0
78.984451 236.0
79.032906 220.0
79.071846 172.0
79.128487 116.0
79.162132 220.0
79.213501 132.0
79.365921 140.0
79.389755 172.0
79.445732 224.0
79.506523 124.0
79.566422 64.0
79.69075 112.0
79.712074 148.0
79.742287 184.0
79.795616 144.0
79.824066 120.0
79.915207 180.0
79.96283 72.0
80.066101 160.0
80.087471 160.0
80.099937 40.0
80.212914 152.0
80.251427 184.0
80.294228 176.0
80.308495 72.0
80.344177 256.0
80.356667 208.0
80.429832 192.0
80.485184 100.0
80.539742 168.0
80.597717 92.0
80.622215 176.0
80.637032 144.0
80.656693 128.0
80.689232 180.0
80.72464 216.0
80.756828 196.0
80.824814 172.0
80.883553 176.0
80.890739 144.0
80.928635 204.0
80.959076 212.0
80.977242 196.0
80.996689 160.0
81.026192 188.0
81.044563 188.0
81.192062 140.0
81.229729 176.0
81.321243 216.0
81.414604 160.0
81.44873 220.0
81.461304 192.0
81.499039 188.0
81.551155 148.0
81.565536 228.0
81.587105 36.0
81.619469 196.0
81.637451 172.0
81.653641 128.0
81.722 84.0
81.754395 168.0
81.823616 156.0
81.863686 156.0
81.914642 188.0
81.939865 156.0
81.986717 164.0
82.031776 164.0
82.070923 264.0
82.120132 40.0
82.150803 36.0
82.22139 164.0
82.237419 148.0
82.268105 132.0
82.360199 224.0
82.399948 136.0
82.439697 112.0
82.454155 148.0
82.486389 188.0
82.493507 156.0
82.526466 248.0
82.54274 200.0
82.593384 104.0
82.665756 168.0
82.734535 192.0
82.814217 64.0
82.845009 136.0
82.908432 48.0
82.939247 168.0
82.98819 180.0
83.042595 204.0
83.077065 208.0
83.151459 176.0
83.207733 160.0
83.23497 188.0
83.258583 188.0
83.322159 128.0
83.392021 108.0
83.452225 292.0
83.491211 76.0
83.511223 164.0
83.523949 188.0
83.578529 76.0
83.600372 176.0
83.704132 100.0
83.72963 180.0
83.754959 172.0
83.838142 172.0
83.860817 148.0
83.875137 168.0
84.003052 184.0
84.063263 192.0
84.149055 196.0
84.189224 112.0
84.223122 172.0
84.237793 136.0
84.271431 140.0
84.316505 144.0
84.33905 216.0
84.360985 196.0
84.39785 220.0
84.426811 144.0
84.467049 120.0
84.499977 72.0
84.527428 192.0
84.569519 160.0
84.613457 84.0
84.628105 176.0
84.657722 160.0
84.672058 116.0
84.697701 320.0
84.71785 144.0
84.80764 124.0
84.85347 100.0
84.886475 112.0
84.912155 152.0
84.930496 128.0
84.94442 64.0
85.11219 76.0
85.126877 156.0
85.147079 232.0
85.191162 128.0
85.325325 160.0
85.345383 172.0
85.402565 156.0
85.457756 128.0
85.474319 172.0
85.487198 228.0
85.500084 172.0
85.518486 88.0
85.608704 236.0
85.654747 188.0
85.698463 220.0
85.715836 220.0
85.796646 184.0
85.823524 228.0
85.868568 160.0
86.019875 148.0
86.047569 140.0
86.087151 156.0
86.200882 144.0
86.248932 148.0
86.291458 172.0
86.350632 40.0
86.426483 128.0
86.441284 192.0
86.509766 112.0
86.539391 168.0
86.609764 100.0
86.68573 116.0
86.713448 192.0
86.880417 204.0
86.950935 144.0
87.019615 124.0
87.068626 196.0
87.103188 136.0
87.125481 164.0
87.199814 76.0
87.212822 144.0
87.225838 152.0
87.272575 172.0
87.387642 52.0
87.400665 108.0
87.549591 116.0
87.57267 224.0
87.587502 136.0
87.68187 176.0
87.799324 244.0
87.812027 148.0
87.831032 164.0
87.851555 112.0
87.884972 136.0
87.941124 180.0
87.970993 156.0
87.999001 88.0
88.040077 172.0
88.097649 156.0
88.128876 180.0
88.181335 172.0
88.204506 136.0
88.234413 148.0
88.254402 180.0
88.341019 152.0
88.394379 96.0
88.479507 252.0
88.561905 128.0
88.646217 204.0
88.663078 76.0
88.719315 176.0
88.783066 160.0
88.897507 120.0
89.047707 140.0
89.121895 204.0
89.147278 224.0
89.167953 220.0
89.207428 152.0
89.287163 148.0
89.34095 124.0
89.382347 32.0
89.421997 224.0
89.442574 136.0
89.465164 52.0
89.534828 200.0
89.596992 152.0
89.612068 216.0
89.649757 56.0
89.674255 152.0
89.700645 144.0
89.755318 156.0
89.776138 196.0
89.793037 128.0
89.827995 248.0
89.862839 60.0
89.908127 140.0
89.923225 180.0
89.955315 196.0
89.996849 252.0
90.010071 144.0
90.028954 124.0
90.047585 236.0
90.06295 100.0
90.217911 200.0
90.28656 128.0
90.306786 136.0
90.328384 172.0
90.397598 128.0
90.416527 124.0
90.446808 104.0
90.477715 160.0
90.554741 88.0
90.611572 120.0
90.657043 44.0
90.694954 192.0
90.751732 156.0
90.854248 28.0
90.871323 44.0
90.895988 156.0
90.920662 116.0
90.952927 184.0
90.999123 180.0
91.053207 1720.0
91.084709 160.0
91.095627 220.0
91.142853 164.0
91.167557 208.0
91.186562 64.0
91.226479 96.0
91.265617 164.0
91.302536 36.0
91.346283 180.0
91.439522 116.0
91.462364 204.0
91.508057 60.0
91.559471 216.0
91.584229 68.0
91.612801 128.0
91.647102 176.0
91.664246 116.0
91.677589 204.0
91.693718 112.0
91.730156 152.0
91.764061 140.0
91.84919 156.0
91.877808 96.0
91.923599 172.0
91.971916 364.0
91.998039 28.0
92.054413 228.0
92.122169 132.0
92.296097 300.0
92.370689 56.0
92.422348 260.0
92.449707 180.0
92.464447 144.0
92.512299 128.0
92.55825 84.0
92.6091 124.0
92.683945 188.0
92.71151 88.0
92.753677 36.0
92.805443 216.0
92.832291 88.0
92.855301 140.0
92.979424 156.0
93.071045 384.0
93.105324 208.0
93.140778 236.0
93.170113 200.0
93.191246 120.0
93.213882 72.0
93.240829 364.0
93.243805 196.0
93.251648 140.0
93.281578 32.0
93.343102 172.0
93.361786 196.0
93.365799 140.0
93.374565 168.0
93.378029 200.0
93.446976 196.0
93.558609 200.0
93.579781 200.0
93.705162 208.0
93.730026 144.0
93.747375 148.0
93.774353 252.0
93.805199 136.0
93.895821 188.0
93.949837 304.0
93.989128 188.0
94.036453 108.0
94.06176 104.0
94.09684 212.0
94.146721 120.0
94.198502 168.0
94.264565 148.0
94.334145 168.0
94.352417 80.0
94.382477 80.0
94.423714 200.0
94.461777 152.0
94.498535 176.0
94.527565 192.0
94.566269 260.0
94.579819 112.0
94.60305 192.0
94.639832 64.0
94.668884 288.0
94.831627 104.0
94.866516 148.0
94.928566 152.0
94.946022 212.0
94.962021 208.0
95.004211 48.0
95.099297 112.0
95.130356 188.0
95.143944 172.0
95.20414 100.0
95.219681 48.0
95.293495 180.0
95.359573 184.0
95.381683 180.0
95.423721 124.0
95.495781 156.0
95.515129 108.0
95.546249 168.0
95.625008 220.0
95.672752 148.0
95.692223 132.0
95.760384 168.0
95.801292 140.0
95.846786 168.0
95.89093 492.0
95.914314 172.0
95.943893 208.0
96.007904 164.0
96.022858 128.0
96.048866 204.0
96.090424 212.0
96.203865 140.0
96.296509 216.0
96.361084 160.0
96.3675 148.0
96.374062 176.0
96.44722 252.0
96.505867 96.0
96.625175 168.0
96.811134 156.0
96.869896 84.0
96.930984 180.0
96.958069 52.0
96.997276 92.0
97.115837 284.0
97.199348 128.0
97.224892 168.0
97.325722 136.0
97.399544 52.0
97.444733 196.0
97.464378 140.0
97.513069 212.0
97.535133 176.0
97.592148 160.0
97.645058 172.0
97.778877 148.0
97.808556 336.0
97.867622 132.0
97.913605 140.0
97.948372 112.0
98.02021 208.0
98.055382 180.0
98.094772 368.0
98.210533 168.0
98.277611 148.0
98.305237 200.0
98.360504 164.0
98.443291 176.0
98.465157 132.0
98.496758 160.0
98.514534 180.0
98.54686 144.0
98.581718 236.0
98.641014 196.0
98.78933 168.0
98.856606 172.0
98.908066 208.0
98.945679 140.0
98.997162 92.0
99.044327 172.0
99.065903 68.0
99.10215 212.0
99.14183 120.0
99.183403 96.0
99.2108 132.0
99.278572 176.0
99.319092 224.0
99.373894 152.0
99.40554 196.0
99.419434 176.0
99.46508 140.0
99.483139 124.0
99.496849 172.0
99.526756 124.0
99.584221 84.0
99.64183 240.0
99.694092 132.0
99.71933 164.0
99.773003 128.0
99.800842 180.0
99.846581 104.0
99.886703 140.0
99.926147 168.0
99.946045 92.0
100.033623 168.0
100.070938 156.0
100.089371 188.0
100.115196 140.0
100.169884 220.0
100.252716 172.0
100.272652 132.0
100.29258 180.0
100.324478 124.0
100.392273 208.0
100.408226 60.0
100.432159 68.0
100.476051 300.0
100.5224 156.0
100.561859 160.0
100.589073 132.0
100.616287 208.0
100.645706 96.0
100.671661 216.0
100.701103 136.0
100.751564 116.0
100.803513 176.0
100.845482 424.0
100.865471 136.0
100.919456 156.0
100.937447 292.0
101.000732 228.0
101.023109 1512.0
101.126328 88.0
101.156914 180.0
101.208588 204.0
101.259659 88.0
101.294655 192.0
101.415939 300.0
101.508675 168.0
101.538246 68.0
101.577713 288.0
101.638557 304.0
101.673897 232.0
101.694748 228.0
101.752968 352.0
101.869446 112.0
101.895569 192.0
101.940292 296.0
101.955849 140.0
101.977959 168.0
101.997017 152.0
102.025948 188.0
102.091049 316.0
102.198235 172.0
102.231377 208.0
102.394005 144.0
102.420631 116.0
102.456894 180.0
102.660477 192.0
102.684685 156.0
102.749229 108.0
102.795639 152.0
102.904648 164.0
102.957146 176.0
103.025826 152.0
103.052719 1208.0
103.086441 72.0
103.113503 212.0
103.171173 152.0
103.174225 140.0
103.188049 136.0
103.274162 212.0
103.38575 288.0
103.483566 212.0
103.515312 144.0
103.617447 180.0
103.65509 124.0
103.705757 200.0
103.740219 156.0
103.82132 156.0
103.851883 116.0
103.928841 216.0
103.979568 136.0
104.0075 256.0
104.032913 188.0
104.058441 136.0
104.074989 52.0
104.164345 80.0
104.192787 180.0
104.215141 216.0
104.229362 156.0
104.244431 124.0
104.316238 328.0
104.442841 220.0
104.577133 184.0
104.591377 152.0
104.673241 136.0
104.723732 200.0
104.771576 128.0
104.792999 196.0
104.81134 164.0
104.860245 204.0
104.884705 160.0
104.972382 208.0
104.998894 136.0
105.031982 152.0
105.068237 1712.0
105.094772 196.0
105.115837 180.0
105.21315 164.0
105.278488 184.0
105.298912 196.0
105.333641 52.0
105.370415 180.0
105.415367 172.0
105.476685 164.0
105.638237 132.0
105.652557 168.0
105.711891 120.0
105.732361 184.0
105.769203 240.0
105.801956 180.0
105.846062 188.0
105.86338 124.0
105.914589 172.0
105.949409 144.0
105.982193 180.0
106.002686 112.0
106.029327 168.0
106.068275 404.0
106.17733 148.0
106.234383 132.0
106.252998 160.0
106.279518 228.0
106.341797 184.0
106.472488 224.0
106.490967 180.0
106.547943 200.0
106.577255 176.0
106.597801 160.0
106.630684 76.0
106.671913 208.0
106.739647 316.0
106.785301 160.0
106.803131 92.0
106.812973 184.0
106.828087 248.0
106.849998 172.0
106.870316 168.0
106.897919 268.0
106.922737 164.0
106.949501 216.0
107.00354 356.0
107.019295 448.0
107.048912 94256.0
107.115967 164.0
107.148369 64.0
107.170197 168.0
107.181496 100.0
107.198334 108.0
107.221031 144.0
107.237869 68.0
107.262604 196.0
107.295494 180.0
107.328575 168.0
107.346382 132.0
107.3657 120.0
107.387741 352.0
107.423454 96.0
107.439957 84.0
107.457558 128.0
107.492775 120.0
107.516304 52.0
107.543907 100.0
107.567902 84.0
107.601776 88.0
107.642235 144.0
107.810829 192.0
107.834366 116.0
107.855042 136.0
107.88549 104.0
107.909309 64.0
107.951149 132.0
107.970825 44.0
108.051453 5872.0
108.074989 264.0
108.095444 168.0
108.117714 188.0
108.169464 76.0
108.192238 52.0
108.233643 84.0
108.267662 144.0
108.324776 148.0
108.362068 204.0
108.38279 44.0
108.402412 204.0
108.43045 36.0
108.482918 116.0
108.525291 84.0
108.552773 188.0
108.590103 64.0
108.649651 68.0
108.683456 132.0
108.717003 164.0
108.755226 172.0
108.800568 132.0
108.823784 264.0
108.852844 168.0
108.901581 280.0
108.927315 148.0
108.961685 164.0
109.063255 1940.0
109.123802 112.0
109.140434 88.0
109.160812 140.0
109.225708 64.0
109.244431 148.0
109.313087 36.0
109.367203 104.0
109.388023 140.0
109.477554 188.0
109.498375 108.0
109.581703 256.0
109.606712 104.0
109.63797 188.0
109.70369 128.0
109.740112 64.0
109.769302 168.0
109.800591 164.0
109.836044 164.0
109.866402 192.0
109.911156 248.0
110.0009 156.0
110.048759 204.0
110.068054 188.0
110.136635 60.0
110.178413 104.0
110.270355 164.0
110.435539 156.0
110.510849 172.0
110.584152 148.0
110.602936 56.0
110.688774 200.0
110.718094 180.0
110.755798 200.0
110.778839 300.0
110.812355 212.0
110.879417 128.0
110.906868 164.0
110.934204 144.0
110.965584 192.0
111.007301 108.0
111.044586 184.0
111.0923 76.0
111.286385 56.0
111.319984 160.0
111.43972 196.0
111.527985 100.0
111.588951 220.0
111.609978 128.0
111.639412 136.0
111.8414 136.0
111.917679 188.0
112.011826 120.0
112.062523 144.0
112.125748 188.0
112.165794 216.0
112.182655 204.0
112.256454 184.0
112.321838 228.0
112.383018 140.0
112.480103 52.0
112.551888 140.0
112.883652 88.0
112.924263 236.0
112.968254 148.0
113.038078 140.0
113.088875 184.0
113.116394 180.0
113.135445 284.0
113.179909 92.0
113.213791 64.0
113.228615 136.0
113.273857 152.0
113.357849 140.0
113.451111 116.0
113.46595 120.0
113.529564 192.0
113.610168 48.0
113.695045 100.0
113.756599 60.0
113.794815 112.0
113.83728 172.0
113.870117 216.0
113.892502 104.0
113.93924 184.0
113.960487 164.0
113.981735 148.0
114.019402 372.0
114.054573 49404.0
114.113686 196.0
114.136909 60.0
114.182808 48.0
114.21727 56.0
114.243256 120.0
114.26973 180.0
114.316467 260.0
114.341141 164.0
114.368652 56.0
114.376991 52.0
114.404427 76.0
114.454262 124.0
114.495522 148.0
114.53064 92.0
114.561783 436.0
114.623558 124.0
114.657242 76.0
114.722427 136.0
114.794922 132.0
114.815002 96.0
114.84053 124.0
114.880241 160.0
115.018944 220.0
115.056473 3144.0
115.132111 136.0
115.189781 36.0
115.236778 152.0
115.262421 96.0
115.388535 96.0
115.439156 196.0
115.45636 208.0
115.557503 44.0
115.574615 216.0
115.593178 140.0
115.634537 100.0
115.666649 140.0
115.690193 160.0
115.720406 72.0
115.752289 116.0
115.792931 172.0
115.836975 212.0
115.85228 152.0
115.876526 76.0
115.895805 208.0
115.919998 132.0
115.958382 192.0
115.976547 160.0
116.021744 412.0
116.070198 52832.0
116.106689 68.0
116.134071 116.0
116.157013 72.0
116.192451 68.0
116.221375 48.0
116.241043 140.0
116.268944 172.0
116.31617 56.0
116.33503 56.0
116.361252 128.0
116.381447 128.0
116.410637 356.0
116.425255 68.0
116.453003 212.0
116.509926 248.0
116.538162 152.0
116.5868 56.0
116.62307 292.0
116.666214 76.0
116.694283 52.0
116.718506 164.0
116.761322 148.0
116.781563 68.0
116.807465 68.0
116.823318 40.0
116.842682 68.0
116.87281 184.0
116.899803 176.0
116.920151 96.0
116.938049 216.0
116.964378 124.0
117.014023 92.0
117.0364 152.0
117.071312 4880.0
117.104233 176.0
117.120392 128.0
117.14193 188.0
117.174911 156.0
117.206566 48.0
117.250305 108.0
117.273376 212.0
117.340637 140.0
117.391953 228.0
117.42646 60.0
117.492844 88.0
117.534332 96.0
117.549438 120.0
117.564545 60.0
117.628059 140.0
117.71225 104.0
117.732933 72.0
117.817177 140.0
117.843102 128.0
117.903198 168.0
117.960503 188.0
117.994339 268.0
118.07135 1028.0
118.091713 52.0
118.160484 152.0
118.234512 96.0
118.277802 104.0
118.299446 160.0
118.370895 136.0
118.409882 244.0
118.431541 100.0
118.472458 120.0
118.498695 104.0
118.630898 228.0
118.665588 44.0
118.815239 76.0
118.841278 152.0
118.895531 216.0
118.912895 128.0
118.934601 164.0
119.004066 108.0
119.026207 184.0
119.048531 360.0
119.084824 19748.0
119.125694 36.0
119.199562 72.0
119.260208 84.0
119.273155 172.0
119.292671 116.0
119.314766 52.0
119.35173 116.0
119.369125 40.0
119.554039 160.0
119.623688 80.0
119.685234 164.0
119.726028 168.0
119.749985 88.0
119.787018 76.0
119.849594 144.0
119.874168 44.0
119.889427 56.0
119.937378 48.0
119.956245 128.0
119.992203 160.0
120.015862 124.0
120.049271 424.0
120.087044 868.0
120.13446 144.0
120.225281 72.0
120.260201 36.0
120.323509 236.0
120.351891 224.0
120.418495 192.0
120.493866 192.0
120.568161 160.0
120.596573 36.0
120.642479 196.0
120.727753 208.0
120.773682 48.0
120.788994 108.0
120.876823 84.0
120.900185 260.0
120.929039 188.0
120.950928 72.0
121.003471 80.0
121.036316 68.0
121.065056 2824.0
121.174309 100.0
121.204979 152.0
121.229088 80.0
121.305801 176.0
121.334305 144.0
121.351845 136.0
121.392082 148.0
121.443947 80.0
121.49221 60.0
121.528854 148.0
121.582176 84.0
121.65715 128.0
121.774368 156.0
121.810524 168.0
121.938751 124.0
122.012711 144.0
122.052139 120.0
122.057632 120.0
122.067451 308.0
122.095772 176.0
122.118263 88.0
122.149063 184.0
122.364738 252.0
122.432701 176.0
122.48806 80.0
122.516701 212.0
122.664352 68.0
122.693016 132.0
122.734909 148.0
122.761368 196.0
122.818588 136.0
122.871658 112.0
122.911377 92.0
122.970963 120.0
122.997452 96.0
123.032768 168.0
123.076927 292.0
123.1119 148.0
123.136559 96.0
123.21608 80.0
123.235962 204.0
123.264694 112.0
123.337906 188.0
123.412796 192.0
123.434906 244.0
123.571503 164.0
123.638435 88.0
123.680489 68.0
123.713692 192.0
123.732422 224.0
123.751328 172.0
123.828835 152.0
123.875351 128.0
123.990578 164.0
124.032692 196.0
124.10585 100.0
124.141327 60.0
124.387611 168.0
124.478645 104.0
124.523064 160.0
124.751938 84.0
124.993576 172.0
125.038879 140.0
125.169113 168.0
125.328384 172.0
125.366264 128.0
125.473259 144.0
125.513397 44.0
125.557999 40.0
125.589226 180.0
125.716393 108.0
125.776657 132.0
125.801682 172.0
125.822845 116.0
125.894997 108.0
125.921791 176.0
125.988808 64.0
126.042435 192.0
126.080421 52.0
126.122887 132.0
126.209503 140.0
126.216103 104.0
126.292831 248.0
126.317436 188.0
126.438263 168.0
126.516609 140.0
126.599457 124.0
126.617371 208.0
126.832474 152.0
126.927483 196.0
127.006958 108.0
127.049995 172.0
127.097115 132.0
127.155701 224.0
127.180153 132.0
127.207085 208.0
127.305885 152.0
127.48336 224.0
127.521568 148.0
127.573265 184.0
127.795921 156.0
127.831932 184.0
127.876938 168.0
127.906204 212.0
128.030045 236.0
128.058701 524.0
128.09761 96.0
128.174423 176.0
128.214783 136.0
128.231781 176.0
128.350037 144.0
128.374847 136.0
128.42569 184.0
128.450928 164.0
128.479263 176.0
128.521469 172.0
128.634323 156.0
128.660248 116.0
128.721191 100.0
128.765289 104.0
128.83757 76.0
128.988983 68.0
129.012451 84.0
129.067719 1920.0
129.194763 184.0
129.240021 168.0
129.307907 152.0
129.348648 176.0
129.364502 76.0
129.507156 184.0
129.541138 52.0
129.579651 84.0
129.634659 188.0
129.64502 52.0
129.653778 180.0
129.783646 212.0
129.863022 100.0
129.960571 104.0
130.017303 128.0
130.050507 692.0
130.068604 416.0
130.127319 104.0
130.426147 56.0
130.61261 176.0
130.630798 140.0
130.801468 128.0
131.049438 500.0
131.252579 124.0
131.323288 208.0
131.428223 172.0
131.55603 136.0
131.768433 140.0
131.786713 164.0
131.903275 200.0
131.975464 152.0
132.055511 1616.0
132.082397 144.0
132.326508 144.0
132.530365 36.0
132.564728 108.0
132.589935 152.0
132.741241 176.0
132.819229 200.0
132.858231 120.0
132.947708 212.0
132.968369 156.0
132.984436 92.0
133.05545 604.0
133.099106 156.0
133.165833 140.0
133.264603 104.0
133.294479 68.0
133.407104 144.0
133.427795 276.0
133.448486 220.0
133.494034 232.0
133.538177 48.0
133.710739 112.0
134.023926 136.0
134.061279 340.0
134.088364 108.0
134.096115 160.0
134.136856 40.0
134.176056 144.0
134.196808 224.0
134.372101 148.0
134.568283 232.0
134.616013 160.0
134.755371 208.0
134.7854 208.0
134.813141 100.0
134.854736 76.0
134.951828 168.0
134.972641 152.0
134.998077 52.0
135.044342 180.0
135.080261 800.0
135.106796 232.0
135.162323 204.0
135.250275 80.0
135.331299 76.0
135.379929 140.0
135.486481 252.0
135.901505 124.0
135.996643 140.0
136.031464 184.0
136.074081 1424.0
136.168259 140.0
136.21492 176.0
136.272995 232.0
136.296234 188.0
136.613846 160.0
136.814911 116.0
136.901062 116.0
137.015198 108.0
137.036179 152.0
137.059464 740.0
137.092102 48.0
137.145706 52.0
137.175186 124.0
137.208649 112.0
137.308914 236.0
137.423218 188.0
137.451218 148.0
137.514236 260.0
137.581055 168.0
137.691681 164.0
137.726715 164.0
137.908966 132.0
137.944031 116.0
138.007156 52.0
138.121964 204.0
138.19194 128.0
138.259796 220.0
138.454117 32.0
138.601715 32.0
138.74469 92.0
138.80603 196.0
138.944031 136.0
139.202225 148.0
139.235107 176.0
139.255524 168.0
139.326721 180.0
139.357269 160.0
139.400116 168.0
139.453613 136.0
139.486526 124.0
139.514328 256.0
139.592331 196.0
139.820526 220.0
139.84877 64.0
139.957062 256.0
140.02536 172.0
140.067749 168.0
140.138428 164.0
140.189713 168.0
140.220917 212.0
140.256271 128.0
140.338776 180.0
140.536911 108.0
140.553436 160.0
140.614792 40.0
140.850906 100.0
140.869812 136.0
141.058868 156.0
141.151077 160.0
141.276428 152.0
141.326111 132.0
141.347412 204.0
141.40657 100.0
141.446289 160.0
141.591248 48.0
141.607834 132.0
141.681259 204.0
141.783157 68.0
141.828186 192.0
141.994156 76.0
142.08905 264.0
142.132858 224.0
142.369141 132.0
142.400024 212.0
142.604355 144.0
142.623322 180.0
142.654282 140.0
142.72084 112.0
142.737488 180.0
143.042038 136.0
143.064468 208.0
143.090912 204.0
143.165848 144.0
143.280182 192.0
143.35405 28.0
143.510727 160.0
143.621078 160.0
143.690262 224.0
143.712952 164.0
143.761841 124.0
143.788101 168.0
143.838226 188.0
144.063766 184.0
144.093765 156.0
144.281738 160.0
144.347122 180.0
144.368652 92.0
144.414093 160.0
144.509781 172.0
144.679718 164.0
144.696472 260.0
144.797043 116.0
144.862 212.0
144.888077 120.0
145.062073 588.0
145.08699 168.0
145.182907 192.0
145.238068 104.0
145.273041 160.0
145.307648 156.0
145.521255 160.0
146.06134 316.0
146.095093 344.0
146.114914 88.0
146.138977 136.0
146.196732 136.0
146.213577 164.0
146.314682 80.0
146.394135 116.0
146.414581 204.0
146.483261 40.0
146.531433 200.0
146.575195 176.0
146.601318 132.0
146.661575 72.0
146.690506 144.0
146.724243 184.0
146.784531 220.0
146.814621 176.0
146.844818 124.0
146.878174 116.0
146.941315 88.0
146.970276 136.0
146.989944 160.0
147.010147 160.0
147.018402 152.0
147.039856 468.0
147.079956 62480.0
147.128281 144.0
147.174927 168.0
147.207855 152.0
147.237457 88.0
147.270767 152.0
147.32402 188.0
147.351761 96.0
147.404922 136.0
147.429092 48.0
147.476227 28.0
147.495499 76.0
147.520737 48.0
147.591049 56.0
147.610397 64.0
147.682953 156.0
147.735809 80.0
147.782135 52.0
147.806335 48.0
147.856476 152.0
147.871689 204.0
147.929779 104.0
147.963669 64.0
148.014511 108.0
148.055679 160.0
148.082581 6132.0
148.152573 52.0
148.174377 84.0
148.200317 204.0
148.234955 60.0
148.276154 176.0
148.35614 80.0
148.409485 44.0
148.438583 228.0
148.477386 48.0
148.556793 60.0
148.577271 116.0
148.617889 100.0
148.731705 260.0
148.763718 128.0
148.85112 44.0
148.885117 96.0
148.962845 132.0
148.98378 168.0
149.055878 548.0
149.086746 1088.0
149.124603 84.0
149.161652 64.0
149.183029 132.0
149.190918 132.0
149.199615 112.0
149.254501 96.0
149.295837 256.0
149.317734 60.0
149.361511 104.0
149.37854 104.0
149.424759 100.0
149.480728 148.0
149.544006 180.0
149.561035 172.0
149.587814 176.0
149.685211 36.0
149.760712 132.0
149.814301 164.0
150.055573 152.0
150.072647 156.0
150.116531 68.0
150.143372 100.0
150.172638 104.0
150.250183 116.0
150.284851 196.0
150.43129 124.0
150.44838 92.0
150.485001 152.0
150.592453 112.0
150.614883 236.0
150.643753 148.0
150.704834 136.0
150.802582 68.0
150.871033 128.0
150.954361 96.0
151.074005 132.0
151.260498 156.0
151.548172 180.0
151.596176 200.0
151.708298 80.0
151.956009 72.0
152.135162 148.0
152.248108 172.0
152.333572 212.0
152.594589 80.0
152.688034 140.0
152.771667 176.0
153.057175 148.0
153.293655 196.0
153.382385 316.0
153.426758 172.0
153.466217 132.0
153.638855 144.0
153.680801 84.0
153.833817 104.0
153.912827 156.0
153.959137 160.0
154.058548 216.0
154.419754 160.0
154.501083 168.0
154.530777 92.0
154.659454 148.0
154.687531 140.0
154.770325 200.0
154.882309 108.0
155.013626 128.0
155.059219 256.0
155.107803 112.0
155.345871 128.0
155.405411 136.0
155.437668 44.0
155.479858 164.0
155.680954 136.0
155.794159 228.0
155.834961 184.0
155.971649 208.0
156.064697 140.0
156.114151 140.0
156.400116 204.0
156.44928 192.0
156.484131 92.0
156.521484 140.0
156.546387 104.0
156.563828 116.0
156.845367 116.0
156.8703 72.0
156.90271 124.0
156.941605 200.0
157.0224 92.0
157.061295 196.0
157.084763 232.0
157.132156 88.0
157.15712 176.0
157.246948 120.0
157.316849 60.0
157.341812 172.0
157.416718 160.0
157.454178 92.0
157.561584 132.0
157.634048 124.0
157.701538 168.0
157.751114 312.0
157.814301 148.0
157.852631 292.0
157.90155 148.0
157.960571 148.0
158.026642 172.0
158.080307 54292.0
158.13443 144.0
158.172897 108.0
158.19281 80.0
158.265549 112.0
158.291962 76.0
158.318558 168.0
158.340118 192.0
158.39032 44.0
158.413193 72.0
158.454422 84.0
158.461456 72.0
158.502151 44.0
158.532043 68.0
158.537674 48.0
158.658783 140.0
158.696335 204.0
158.716263 112.0
158.753067 76.0
158.785675 32.0
158.803223 52.0
158.969925 180.0
158.998932 144.0
159.023544 124.0
159.083344 3700.0
159.130905 56.0
159.15361 104.0
159.255035 180.0
159.365768 48.0
159.393463 108.0
159.414871 72.0
159.523895 44.0
159.541504 44.0
159.654648 32.0
159.735138 32.0
159.765335 56.0
159.881073 100.0
159.923859 112.0
160.022049 160.0
160.055618 160.0
160.083405 632.0
160.131241 144.0
160.18071 44.0
160.20842 32.0
160.228577 128.0
160.248734 100.0
160.269836 200.0
160.291565 108.0
160.352936 68.0
160.372208 124.0
160.414658 124.0
160.465485 72.0
160.489441 168.0
160.62941 164.0
160.806046 136.0
160.86142 68.0
160.899445 64.0
160.931946 32.0
161.059921 196.0
161.094208 196.0
161.134323 112.0
161.154541 40.0
161.17981 112.0
161.217712 84.0
161.417419 196.0
161.470535 208.0
161.591965 40.0
161.672516 120.0
161.713425 104.0
161.756104 144.0
162.058182 144.0
162.089966 1480.0
162.506622 64.0
162.564987 132.0
162.620834 76.0
162.966202 144.0
163.017029 80.0
163.057693 100.0
163.099945 64.0
163.127594 116.0
163.164459 172.0
163.229996 160.0
163.263626 136.0
163.413712 112.0
163.738678 316.0
163.914688 204.0
163.963745 124.0
164.024918 80.0
164.069595 228.0
164.106293 11152.0
164.160049 32.0
164.277374 68.0
164.364136 68.0
164.402405 148.0
164.425385 252.0
164.468765 36.0
164.508408 76.0
164.670486 128.0
164.757339 52.0
164.821213 116.0
164.908096 116.0
164.951553 88.0
165.051895 580.0
165.107391 1056.0
165.325653 124.0
165.410477 180.0
165.44017 212.0
165.511856 92.0
165.555389 208.0
165.642487 116.0
165.673218 100.0
165.706528 40.0
165.783401 68.0
165.921021 128.0
166.06543 156.0
166.085938 168.0
166.115555 316.0
166.206528 196.0
166.227051 72.0
166.32785 140.0
166.357956 52.0
166.411865 72.0
166.488907 104.0
166.722687 148.0
166.774094 88.0
166.861496 120.0
166.954071 96.0
167.059525 192.0
167.203629 96.0
167.324615 176.0
167.396271 232.0
167.45079 188.0
167.481705 76.0
167.664642 164.0
167.744537 220.0
167.778061 196.0
167.937943 68.0
168.030807 128.0
168.115952 148.0
168.265671 152.0
168.28891 108.0
168.332809 52.0
168.358627 128.0
168.529129 68.0
168.68161 156.0
168.968674 132.0
169.017838 156.0
169.056641 224.0
169.082535 116.0
169.149826 160.0
169.302582 92.0
169.344025 204.0
169.416565 108.0
169.483917 172.0
169.522797 164.0
169.616104 68.0
169.686096 60.0
169.792419 108.0
169.82872 128.0
169.992172 64.0
170.07782 76.0
170.121948 144.0
170.290741 156.0
170.311523 32.0
170.36087 204.0
170.41803 104.0
170.623367 204.0
170.680573 188.0
170.786758 96.0
170.98494 108.0
171.099472 68.0
171.148941 64.0
171.219254 180.0
171.242691 172.0
171.440704 128.0
171.526718 68.0
171.641434 116.0
171.771835 252.0
171.886642 156.0
171.933609 88.0
172.335754 160.0
172.382797 128.0
172.560547 176.0
172.599762 120.0
172.625916 120.0
172.693909 124.0
172.727921 124.0
172.840424 140.0
172.976517 188.0
173.07338 72.0
173.238388 128.0
173.27507 120.0
173.547653 136.0
173.739563 120.0
173.791595 132.0
173.815216 56.0
174.051453 236.0
174.089096 1868.0
174.201157 104.0
174.840103 200.0
175.024384 172.0
175.070816 304.0
175.092041 96.0
175.203491 96.0
175.227203 68.0
175.295715 164.0
175.469681 64.0
175.94986 176.0
176.068634 484.0
176.107056 2600.0
176.282669 156.0
176.327606 112.0
176.523239 104.0
176.726913 84.0
176.763962 40.0
176.959839 152.0
177.080551 200.0
177.107361 192.0
177.314819 136.0
177.688705 148.0
178.052383 148.0
178.079544 148.0
178.100189 140.0
178.166595 128.0
178.217087 112.0
178.339325 208.0
178.525436 144.0
178.940552 208.0
179.023102 124.0
179.071259 148.0
179.116318 68.0
179.316162 36.0
179.550781 144.0
179.625458 212.0
179.644135 212.0
179.684158 40.0
179.817581 168.0
179.996445 76.0
180.055206 260.0
180.103287 172.0
180.148697 152.0
180.490799 176.0
180.707458 112.0
180.985825 204.0
181.578079 160.0
181.853851 128.0
181.92691 80.0
181.977921 148.0
182.136368 92.0
182.266815 160.0
182.313705 68.0
182.603455 124.0
182.951187 76.0
183.247452 156.0
183.312119 84.0
183.43071 124.0
184.137314 156.0
184.453796 264.0
184.551132 164.0
184.962357 160.0
185.016495 56.0
185.065231 148.0
185.195221 204.0
185.252106 48.0
185.325256 128.0
185.582748 128.0
185.653259 140.0
185.845856 40.0
185.959839 160.0
186.093979 280.0
186.22049 172.0
186.451431 180.0
186.489487 128.0
186.598221 44.0
186.617264 188.0
186.687958 116.0
186.76683 44.0
186.990433 200.0
187.074783 268.0
187.365738 132.0
187.388504 200.0
187.998337 192.0
188.020172 144.0
188.072357 200.0
188.097305 140.0
188.244034 184.0
188.29866 124.0
188.525421 160.0
188.563675 172.0
189.076996 484.0
189.099762 160.0
189.307831 152.0
189.334061 240.0
189.370316 172.0
189.526978 64.0
189.784637 132.0
189.88884 248.0
190.07814 120.0
190.124786 168.0
190.547668 120.0
190.968262 160.0
191.023285 68.0
191.134872 184.0
191.370056 132.0
191.394836 224.0
191.41687 164.0
191.59314 152.0
191.813614 88.0
191.945953 164.0
192.089371 192.0
192.137787 5980.0
192.265961 48.0
192.285278 148.0
192.357361 68.0
192.4095 116.0
192.555847 100.0
192.826614 156.0
192.981415 36.0
193.138443 556.0
193.182083 72.0
193.271851 200.0
193.388092 164.0
193.407471 148.0
193.568237 224.0
193.598511 64.0
193.731461 180.0
193.906036 260.0
194.08136 684.0
194.116638 464.0
194.191605 64.0
194.23877 92.0
194.335861 84.0
194.506729 248.0
194.531128 212.0
194.680069 172.0
194.793961 44.0
194.8134 116.0
195.17627 164.0
195.333252 104.0
195.695038 248.0
195.876068 44.0
196.034882 72.0
196.2724 156.0
196.299713 116.0
196.34433 156.0
196.534027 172.0
196.600998 68.0
196.676361 144.0
196.715439 164.0
197.165146 88.0
197.254593 132.0
197.45871 108.0
197.632156 136.0
197.808472 36.0
197.912064 136.0
198.012878 240.0
198.032486 124.0
198.534164 168.0
198.844406 180.0
198.95787 148.0
198.99437 80.0
199.32019 160.0
199.379868 200.0
199.567551 160.0
199.646286 176.0
200.169724 236.0
200.192261 60.0
200.214783 124.0
200.245758 140.0
200.296463 136.0
200.380981 160.0
200.434525 72.0
200.603622 96.0
200.750244 140.0
200.792542 168.0
200.812286 176.0
201.071854 184.0
201.162186 160.0
201.359848 200.0
201.382431 196.0
201.51239 168.0
201.549118 108.0
201.636719 184.0
201.9534 76.0
202.026947 180.0
202.069382 124.0
202.103226 596.0
202.165588 124.0
202.731995 112.0
202.777328 132.0
202.83844 172.0
202.893555 92.0
203.092926 236.0
203.111923 132.0
203.160141 72.0
203.637039 40.0
203.779068 120.0
204.101639 2780.0
204.174194 40.0
204.430237 228.0
204.509933 168.0
204.552628 152.0
204.720612 72.0
204.811752 100.0
205.104965 480.0
205.170822 200.0
205.373291 136.0
205.567307 100.0
205.598694 108.0
205.798508 180.0
206.049316 188.0
206.083527 168.0
206.119827 148.0
206.28421 108.0
206.550156 140.0
206.681747 100.0
207.0625 140.0
207.101608 172.0
207.285965 84.0
207.409195 148.0
207.624237 64.0
207.882431 52.0
207.968536 100.0
208.286072 164.0
208.373459 184.0
208.781631 168.0
209.037674 156.0
209.126892 148.0
209.351456 136.0
209.714478 220.0
209.953781 260.0
210.034546 200.0
210.093826 180.0
210.132629 152.0
210.441467 116.0
210.624847 176.0
210.684067 128.0
210.707184 176.0
210.762085 132.0
210.860336 112.0
211.120544 76.0
211.317245 80.0
211.618256 204.0
211.690643 56.0
211.789124 112.0
212.0383 144.0
212.299225 48.0
212.383331 120.0
212.510986 104.0
212.641571 148.0
212.801239 124.0
212.865112 172.0
213.067673 168.0
213.190475 88.0
213.263138 112.0
213.300934 56.0
213.553894 108.0
213.684814 224.0
213.757553 56.0
213.839035 148.0
213.920547 164.0
214.130203 204.0
214.666443 176.0
214.774353 144.0
214.908554 152.0
215.028198 64.0
215.182922 144.0
215.583099 76.0
215.641556 108.0
215.697083 200.0
215.884811 156.0
216.082321 204.0
216.124222 296.0
216.27626 36.0
216.545639 232.0
217.043854 176.0
217.117157 336.0
217.398804 176.0
217.571976 120.0
217.877426 140.0
218.127213 44.0
218.265396 140.0
218.341858 164.0
218.427155 128.0
218.533066 240.0
218.668442 52.0
218.783234 40.0
218.96196 156.0
219.039444 148.0
219.201492 164.0
219.230957 72.0
219.304642 64.0
219.357697 120.0
219.452042 64.0
219.540512 68.0
219.690933 180.0
219.997849 72.0
220.074615 136.0
220.22818 140.0
220.284302 212.0
220.36113 148.0
220.393631 172.0
220.420212 112.0
220.50528 92.0
220.626221 184.0
220.695114 44.0
220.772003 108.0
220.916946 132.0
221.05896 128.0
221.173431 136.0
221.201035 184.0
221.227676 88.0
221.266159 156.0
221.295776 128.0
221.319458 40.0
221.366837 48.0
221.413742 308.0
221.482346 160.0
221.506042 96.0
221.543655 384.0
221.572266 136.0
221.612701 112.0
221.666031 164.0
221.714783 124.0
221.754944 48.0
221.830093 156.0
221.87056 284.0
221.911392 408.0
221.962006 284.0
221.996353 112.0
222.050995 524.0
222.112183 122248.0
222.156403 628.0
222.203186 52.0
222.224182 204.0
222.250565 76.0
222.276901 108.0
222.311661 84.0
222.361481 244.0
222.369736 252.0
222.392593 228.0
222.43576 100.0
222.465988 68.0
222.50029 92.0
222.540939 180.0
222.567215 60.0
222.601776 812.0
222.634308 92.0
222.662369 132.0
222.695984 100.0
222.730682 128.0
222.769775 56.0
222.820877 100.0
222.840485 80.0
222.852615 68.0
222.893005 48.0
222.918137 124.0
222.97702 88.0
223.006271 144.0
223.028305 156.0
223.114822 15056.0
223.21553 216.0
223.237625 148.0
223.295898 64.0
223.346924 104.0
223.360458 108.0
223.387054 136.0
223.468018 112.0
223.522873 60.0
223.568558 68.0
223.605331 52.0
223.63736 136.0
223.731094 48.0
223.771469 64.0
223.828598 32.0
223.86731 52.0
223.894119 84.0
223.936127 76.0
223.985855 160.0
224.116898 1652.0
224.227798 36.0
224.29834 96.0
224.327957 80.0
224.354172 116.0
224.408966 148.0
224.489777 96.0
224.552994 116.0
224.600662 156.0
224.639282 48.0
224.663162 40.0
224.694244 128.0
224.727478 132.0
224.758636 132.0
224.777756 156.0
224.80545 128.0
224.85289 96.0
224.863892 132.0
224.898819 136.0
224.932526 76.0
224.980026 68.0
225.016525 60.0
225.060486 64.0
225.129669 244.0
225.236313 68.0
225.311005 84.0
225.370758 68.0
225.440704 176.0
225.463394 84.0
225.542267 124.0
225.917892 128.0
226.235123 48.0
226.588516 52.0
226.687012 92.0
226.720367 36.0
226.741348 88.0
226.777313 120.0
226.807281 36.0
226.888229 72.0
227.081024 68.0
227.145706 224.0
227.206131 40.0
227.245132 40.0
227.479233 88.0
227.746475 56.0
228.025909 60.0
228.113083 148.0
230.618011 180.0
230.714752 76.0
230.890137 68.0
230.93248 228.0
232.043854 48.0
232.154282 84.0
232.4048 112.0
232.726547 96.0
232.99382 112.0
233.091049 32.0
233.176147 120.0
233.215652 96.0
233.641388 56.0
233.793533 88.0
233.866577 136.0
233.951813 56.0
234.143829 100.0
234.423935 64.0
234.524506 140.0
234.682083 128.0
234.872116 88.0
234.914825 52.0
235.271881 124.0
235.348663 160.0
235.613937 84.0
235.714767 152.0
236.121368 148.0
236.194778 96.0
236.387527 112.0
236.733444 44.0
237.26355 104.0
237.413284 120.0
237.582489 116.0
237.91394 124.0
238.024475 76.0
238.239487 60.0
238.725128 52.0
238.946594 120.0
239.691727 256.0
239.836578 180.0
239.876663 160.0
240.055481 132.0
240.620163 76.0
241.287506 72.0
241.531815 60.0
241.90625 76.0
242.160156 116.0
242.203522 48.0
242.857559 132.0
243.180252 148.0
244.308243 172.0
244.454483 104.0
245.074158 168.0
245.170761 108.0
245.494034 212.0
245.753891 128.0
245.994202 172.0
246.104324 132.0
246.124695 176.0
246.765869 48.0
246.850296 192.0
246.959763 100.0
247.125565 168.0
247.272644 108.0
247.607651 84.0
247.645233 44.0
247.789337 196.0
247.823807 160.0
247.9711 112.0
248.384995 144.0
248.993912 48.0
249.195709 348.0
249.251511 156.0
249.735672 36.0
249.987366 68.0
250.128998 104.0
250.210846 108.0
251.105789 180.0
251.241425 100.0
251.304535 148.0
251.642258 132.0
253.077744 88.0
253.243134 140.0
253.346954 148.0
253.397644 104.0
253.537064 212.0
253.682877 108.0
255.404007 152.0
256.477081 108.0
257.073517 176.0
257.713287 144.0
258.086121 112.0
258.767639 176.0
259.179474 1412.0
259.501373 40.0
259.578339 72.0
259.636047 164.0
259.719452 152.0
260.181091 192.0
260.332458 80.0
260.364594 76.0
260.737274 128.0
260.791901 88.0
261.187408 156.0
262.19519 108.0
262.233887 40.0
262.478882 212.0
262.517578 52.0
263.024139 72.0
263.130676 116.0
263.479492 132.0
264.009583 160.0
264.122192 2092.0
264.174835 48.0
264.245728 64.0
264.310455 144.0
264.653564 72.0
264.941803 124.0
265.013092 40.0
265.123383 512.0
265.17511 36.0
265.408539 52.0
265.839966 96.0
265.904877 152.0
266.122864 124.0
266.593414 160.0
267.950287 148.0
268.025238 68.0
268.563171 56.0
269.297577 88.0
269.395569 52.0
269.424957 88.0
270.131104 140.0
270.291412 140.0
270.808685 176.0
270.8349 96.0
271.083893 96.0
271.733124 192.0
272.104004 120.0
272.646027 52.0
272.715027 136.0
273.17868 96.0
273.310303 56.0
273.455078 128.0
273.488007 92.0
273.965485 32.0
274.057739 184.0
274.103882 136.0
275.136261 124.0
275.241913 152.0
275.674652 152.0
277.011383 148.0
277.505188 136.0
277.760559 260.0
278.939392 192.0
279.611298 124.0
280.234009 80.0
281.818909 144.0
282.601318 100.0
282.648163 52.0
283.146973 92.0
283.502106 268.0
283.552368 56.0
284.125793 60.0
284.928192 140.0
285.180206 148.0
287.426544 216.0
287.598663 80.0
288.419464 152.0
288.798187 100.0
289.959503 132.0
290.963593 104.0
292.891815 52.0
294.40274 76.0
294.867401 128.0
294.95285 64.0
296.15387 92.0
296.853058 104.0
297.075989 180.0
298.983002 112.0
299.189545 180.0
299.802673 116.0
300.038818 204.0
300.851257 72.0
301.770264 52.0
302.240662 36.0
302.586792 64.0
302.818817 132.0
303.321228 192.0
303.369781 40.0
304.841431 152.0
304.903992 208.0
305.189056 120.0
305.216858 144.0
305.369904 148.0
305.923157 188.0
306.417694 136.0
306.602386 148.0
307.010284 136.0
307.198547 2580.0
307.502228 180.0
307.694214 136.0
307.736115 168.0
307.956116 64.0
308.053925 68.0
308.201172 868.0
309.207825 132.0
309.319824 92.0
309.86264 56.0
310.419983 56.0
310.616394 180.0
311.086609 168.0
311.241119 220.0
311.676666 72.0
312.087921 212.0
312.203979 96.0
312.865479 92.0
313.591156 56.0
314.222382 208.0
315.787292 108.0
316.190643 172.0
317.08316 192.0
318.211212 84.0
318.395874 96.0
318.669403 132.0
318.896851 44.0
320.833313 68.0
321.557465 56.0
321.882324 132.0
322.300262 88.0
323.43396 156.0
324.214783 32.0
324.817139 144.0
325.984039 200.0
327.228607 212.0
328.699249 48.0
329.013245 156.0
329.251587 184.0
329.891144 116.0
330.466187 192.0
331.203491 120.0
332.041992 120.0
332.201599 128.0
333.809692 180.0
334.127075 128.0
334.738556 32.0
335.084595 108.0
335.638641 152.0
336.306274 140.0
337.972748 80.0
338.027649 112.0
338.122803 84.0
338.287506 84.0
338.686646 56.0
338.774567 140.0
339.632355 164.0
339.973572 188.0
340.230499 124.0
340.594727 88.0
340.869629 52.0
341.141602 188.0
341.80365 180.0
342.285858 100.0
342.326355 120.0
342.506836 64.0
342.72052 144.0
342.952698 40.0
343.361969 116.0
344.661407 80.0
344.964478 80.0
345.002167 104.0
345.937408 96.0
346.026276 116.0
346.13736 96.0
346.192902 60.0
346.307709 60.0
346.541107 128.0
346.763428 52.0
346.819031 148.0
347.195862 308.0
347.375275 96.0
347.612732 80.0
347.694366 160.0
347.744476 56.0
347.820557 100.0
348.02475 132.0
348.065613 48.0
348.148499 100.0
348.184448 124.0
348.226868 156.0
348.288422 160.0
348.356689 108.0
348.448181 100.0
348.504639 100.0
348.611664 152.0
348.667419 132.0
348.712006 208.0
348.756622 168.0
348.784271 92.0
348.808655 192.0
348.834686 200.0
348.99585 104.0
349.022827 312.0
349.044922 168.0
349.087524 136.0
349.146881 204.0
349.156189 196.0
349.211487 56752.0
349.302032 188.0
349.438263 96.0
349.489594 132.0
349.601593 108.0
349.610718 56.0
349.625488 144.0
349.669281 132.0
349.74234 40.0
349.783264 220.0
349.825745 116.0
349.86145 64.0
349.913361 204.0
349.940674 224.0
350.000702 48.0
350.099762 60.0
350.213928 8268.0
350.267365 68.0
350.339172 164.0
350.36795 124.0
350.397736 88.0
350.440613 96.0
350.50058 180.0
350.54306 68.0
350.591522 48.0
350.626587 68.0
350.680389 76.0
350.720764 108.0
350.800232 72.0
350.824158 68.0
350.971741 84.0
351.122406 72.0
351.16568 44.0
351.21759 1040.0
351.273834 72.0
351.302338 152.0
351.381165 52.0
351.464111 56.0
351.546234 68.0
351.57608 40.0
351.687408 92.0
351.732849 48.0
351.785095 88.0
351.915771 48.0
351.999512 104.0
352.126862 68.0
352.224548 252.0
352.272034 88.0
352.317932 152.0
352.399658 108.0
352.461578 128.0
352.595642 92.0
352.634644 92.0
352.67041 120.0
352.767609 80.0
352.816193 64.0
352.898438 60.0
352.943329 96.0
353.182678 96.0
353.272461 96.0
353.321075 136.0
353.597992 36.0
353.740234 60.0
354.009796 92.0
354.163361 44.0
354.249512 64.0
354.328186 48.0
354.474335 60.0
354.665466 60.0
355.047913 100.0
355.10791 84.0
355.197937 52.0
355.640717 80.0
356.399323 64.0
356.910553 68.0
357.188843 28.0
360.593719 48.0
362.62619 76.0
362.993958 32.0
364.820251 80.0
364.900085 100.0
365.002747 64.0
365.877869 100.0
366.548248 48.0
367.085754 80.0
369.025513 72.0
371.699158 32.0
371.802765 92.0
372.643738 68.0
373.116486 92.0
375.207031 44.0
376.843506 52.0
380.853119 52.0
381.020172 32.0
382.856171 76.0
386.580505 40.0
387.148163 44.0
388.088654 68.0
388.928192 80.0
389.540771 92.0
389.957275 80.0
390.877563 36.0
396.299072 40.0
398.314484 88.0
401.267395 132.0
402.871796 84.0
408.468109 112.0
410.522217 48.0
411.793518 40.0
414.414948 80.0
417.065033 36.0
419.055054 48.0
419.613434 76.0
421.446075 96.0
427.683868 52.0
432.294006 116.0
434.643616 76.0
438.715485 112.0
440.535034 52.0
451.85672 52.0
453.932556 56.0
460.597656 36.0
460.905273 60.0
461.734619 72.0
462.02121 68.0
462.718811 68.0
462.817291 80.0
463.648346 120.0
465.669159 52.0
470.20285 116.0
470.880707 76.0
470.980042 84.0
474.940674 64.0
478.129852 72.0
484.632172 56.0
486.14505 88.0
488.52652 76.0
490.649231 80.0
493.019623 72.0
493.306915 104.0
497.164856 44.0
499.51532 60.0
503.817291 32.0
507.778809 32.0
510.986206 76.0
514.036743 44.0
519.647644 84.0
520.441956 64.0
531.603088 44.0
545.552429 36.0
547.581238 76.0
548.433899 72.0
549.576538 84.0
549.865845 64.0
551.860596 56.0
557.880493 88.0
561.246887 72.0
568.337402 32.0
568.603149 100.0
572.225403 108.0
576.63324 80.0
578.120605 92.0
592.523132 44.0
596.419983 36.0
607.819092 28.0
612.287781 172.0
615.666138 44.0
618.415039 120.0
622.624451 48.0
648.079224 88.0
653.792053 92.0
654.265442 88.0
660.112854 92.0
660.875 84.0
685.783447 92.0
692.335205 52.0
692.94281 108.0
693.320129 104.0
713.298584 96.0
725.185974 68.0
733.787231 36.0
744.599182 68.0
745.919556 72.0
755.40271 96.0
761.454163 144.0
762.21228 104.0
766.036133 72.0
767.970947 72.0
768.610901 28.0
771.853455 84.0
775.701355 88.0
776.333435 116.0
779.086548 220.0
779.50885 108.0
779.697754 140.0
808.707275 140.0
812.407593 132.0
815.547852 152.0
818.358154 68.0
821.920715 52.0
822.382935 116.0
823.307922 152.0
824.221924 132.0
825.828369 32.0
827.745605 140.0
830.152466 96.0
830.605591 248.0
837.27301 32.0
837.388184 60.0
841.673096 200.0
848.47168 96.0
850.304688 76.0
850.37439 52.0
857.382751 120.0
858.682922 168.0
865.210083 48.0
865.286194 156.0
866.422424 184.0
866.885315 84.0
882.892517 128.0
884.040222 256.0
886.148254 148.0
886.509705 72.0
889.309082 140.0
889.415894 132.0
893.843689 124.0
894.254333 168.0
894.450745 180.0
904.090149 152.0
911.291992 124.0
911.712646 76.0
913.185669 68.0
917.430969 128.0
921.190674 252.0
921.486694 120.0
924.740112 124.0
931.246033 160.0
931.385742 216.0
931.944641 88.0
934.151611 80.0
936.1297 172.0
937.37854 172.0
937.927063 108.0
938.487976 168.0
938.74408 92.0
939.616333 64.0
942.021729 136.0
944.28949 208.0
945.549866 48.0
945.660034 136.0
945.800781 144.0
946.033447 200.0
946.161987 112.0
946.35791 208.0
948.502136 152.0
948.741272 156.0
950.949585 72.0
952.054688 176.0
954.039368 112.0
955.195496 104.0
956.352356 168.0
956.746338 188.0
957.411316 176.0
957.848633 164.0
958.150513 136.0
958.335388 96.0
959.919556 148.0
960.826233 232.0
961.116272 188.0
961.90625 160.0
962.165527 104.0
962.820068 196.0
963.388367 204.0
965.768311 160.0
967.228577 160.0
968.764343 140.0
970.642334 80.0
971.622375 116.0
973.298218 116.0
974.211243 152.0
974.521851 156.0
975.317383 164.0
977.512817 152.0
977.867554 160.0
980.389954 152.0
982.853149 52.0
984.80719 88.0
984.882202 208.0
987.688782 164.0
990.637207 172.0
991.069519 136.0
994.512512 152.0
994.832642 180.0
995.517029 44.0
996.427856 164.0
997.131653 128.0
997.986633 128.0
998.275879 112.0
1001.800659 184.0
1002.632385 116.0
1002.714294 148.0
1004.063538 140.0
1005.65979 180.0
1005.729248 136.0
1006.423706 172.0
1008.047119 236.0
1009.399902 64.0
1010.481567 232.0
1010.734619 180.0
1011.899292 200.0
1012.260254 124.0
1012.456543 168.0
1013.438416 260.0
1014.287659 140.0
1015.092896 164.0
1016.634399 156.0
1016.716919 212.0
1018.259705 124.0
1019.581238 128.0
1022.984192 204.0
1023.08606 188.0
1023.130615 132.0
1024.869385 160.0
1026.431152 72.0
1027.7771 44.0
1027.987671 152.0
1029.615601 144.0
1030.676025 124.0
1030.727173 208.0
1030.822998 196.0
1032.248535 64.0
1032.990479 144.0
1033.380737 180.0
1034.455933 208.0
1035.531738 192.0
1035.851929 152.0
1036.172363 44.0
1037.056641 128.0
1037.319458 180.0
1037.390015 160.0
1037.646484 188.0
1038.217163 256.0
1039.307617 220.0
1040.058594 96.0
1040.334595 136.0
1040.983032 164.0
1042.287109 144.0
1042.402832 124.0
1043.270508 184.0
1043.321899 132.0
1044.511597 188.0
1045.058472 212.0
1045.637695 136.0
1045.74707 160.0
1046.410156 228.0
1048.110596 168.0
1048.484375 40.0
1048.90332 140.0
1049.193481 40.0
1049.425537 200.0
1050.792847 100.0
1051.857788 164.0
1052.936035 64.0
1053.394653 124.0
1053.530273 128.0
1053.821045 220.0
1054.182983 188.0
1054.40918 76.0
1054.473755 144.0
1054.897095 128.0
1056.165161 136.0
1056.536499 244.0
1057.636719 144.0
1058.316406 184.0
1058.439453 148.0
1059.385132 120.0
1059.462769 72.0
1059.527588 208.0
1060.039551 104.0
1060.11084 212.0
1060.700562 228.0
1060.843262 120.0
1061.204468 160.0
1061.335938 248.0
1061.588867 144.0
1061.815796 144.0
1062.075317 160.0
1062.360718 116.0
1063.476807 64.0
1064.561035 124.0
1064.801392 160.0
1065.379517 192.0
1065.749878 140.0
1067.563477 164.0
1068.8125 160.0
1069.137817 172.0
1069.515381 188.0
1069.599976 296.0
1069.938477 192.0
1070.127319 224.0
1070.719849 64.0
1071.42334 160.0
1072.400879 92.0
1073.952759 128.0
1074.141846 212.0
1075.068359 220.0
1075.694946 76.0
1076.387085 168.0
1076.556885 172.0
1077.236084 176.0
1077.334106 180.0
1077.771851 52.0
1078.654175 156.0
1079.360352 120.0
1080.734009 132.0
1082.160889 172.0
1082.658569 64.0
1083.38562 144.0
1084.45752 168.0
1084.617554 92.0
1086.84082 184.0
1087.274048 176.0
1087.588989 124.0
1088.002563 80.0
1088.061646 120.0
1088.133911 84.0
1088.961304 180.0
1089.026978 172.0
1089.467163 140.0
1090.380493 160.0
1090.689453 120.0
1091.037842 152.0
1091.261353 164.0
1092.464966 164.0
1092.853149 88.0
1093.425659 172.0
1096.890259 140.0
1098.558716 160.0
1098.848999 184.0
1100.129395 164.0
1100.789673 140.0
1100.915161 208.0
1101.047241 212.0
1101.536011 176.0
1101.707764 188.0
1102.031494 200.0
1104.133667 96.0
1104.934082 36.0
1105.430298 204.0
1106.939575 144.0
1107.164795 108.0
1107.429688 172.0
1109.251953 240.0
1109.689575 196.0
1110.724121 156.0
1111.148682 72.0
1111.925049 188.0
1113.870605 76.0
1114.189453 72.0
1114.275757 144.0
1115.472046 168.0
1115.91748 152.0
1116.535889 212.0
1116.875122 136.0
1117.121216 164.0
1117.567017 152.0
1118.172607 88.0
1119.677246 40.0
1120.716553 216.0
1122.056274 128.0
1123.303345 240.0
1123.703613 48.0
1123.93042 148.0
1124.80481 136.0
1125.051758 184.0
1125.23877 228.0
1126.801636 180.0
1127.803955 180.0
1128.566162 156.0
1128.953979 208.0
1129.101074 168.0
1129.455566 144.0
1129.535889 176.0
1129.609497 164.0
1130.780396 176.0
1131.101685 208.0
1131.208862 200.0
1131.48999 280.0
1131.804688 196.0
1133.613403 180.0
1133.707153 156.0
1134.209839 244.0
1134.256836 68.0
1134.524902 188.0
1134.632202 156.0
1135.11499 184.0
1135.161987 152.0
1135.483887 72.0
1135.654419 132.0
1136.671265 160.0
1136.798828 180.0
1137.141113 168.0
1137.194824 192.0
1137.402832 188.0
1137.604248 48.0
1137.986938 184.0
1138.409912 120.0
1138.83313 192.0
1139.847534 152.0
1140.102905 152.0
1140.311279 244.0
1140.398682 152.0
1140.889404 172.0
1141.104492 132.0
1141.481079 208.0
1141.790405 168.0
1143.270508 92.0
1143.512817 176.0
1143.862793 176.0
1144.172485 156.0
1144.233154 156.0
1144.522583 128.0
1145.041138 44.0
1145.889893 160.0
1146.759277 180.0
1146.968262 160.0
1148.02002 160.0
1148.519409 176.0
1148.782227 140.0
1149.058838 156.0
1149.160034 180.0
1149.888794 128.0
1150.169067 168.0
1150.550415 144.0
1150.813721 128.0
1151.549805 68.0
1151.86731 172.0
1152.036133 120.0
1152.941528 152.0
1153.353882 124.0
1154.063721 140.0
1154.111084 184.0
1154.219238 136.0
1155.314941 168.0
1156.357056 88.0
1156.621094 92.0
1157.216797 148.0
1157.663696 168.0
1158.171631 136.0
1159.49292 172.0
1160.701416 180.0
1161.879761 52.0
1162.381958 72.0
1162.65332 56.0
1162.904541 164.0
1163.067383 104.0
1163.43396 168.0
1163.685181 148.0
1163.800659 160.0
1164.792236 156.0
1165.240601 108.0
1166.729004 184.0
1166.89209 128.0
1167.014526 244.0
1168.436035 124.0
1168.5177 60.0
1168.69458 156.0
1169.204956 224.0
1169.906128 148.0
1170.389526 192.0
1170.723145 192.0
1171.377075 148.0
1171.956177 92.0
1172.467285 96.0
1173.135254 172.0
1173.353394 220.0
1173.646606 192.0
1173.973877 88.0
1174.179565 300.0
1174.430908 152.0
1174.724243 220.0
1176.157227 144.0
1176.30896 140.0
1176.792114 192.0
1177.495483 264.0
1177.611572 44.0
1177.755005 88.0
1178.000977 204.0
1178.501465 140.0
1178.827759 156.0
1179.306152 128.0
1179.572754 192.0
1179.805176 164.0
1180.20166 232.0
1180.598267 168.0
1180.700928 132.0
1181.774902 192.0
1181.877563 196.0
1182.623535 176.0
1182.746704 180.0
1184.061401 200.0
1184.113159 220.0
1184.383301 192.0
1184.451782 156.0
1184.876465 68.0
1185.19165 148.0
1186.960205 168.0
1187.076782 40.0
1188.5448 144.0
1188.86731 140.0
1188.970215 72.0
1189.409546 204.0
1189.69104 172.0
1190.013672 152.0
1190.212769 212.0
1190.63855 216.0
1190.741577 176.0
1191.256714 152.0
1191.401001 284.0
1191.778931 168.0
1191.923218 240.0
1192.060669 180.0
1192.17749 148.0
1193.174194 144.0
1194.377686 192.0
1194.487671 168.0
1195.161987 124.0
1195.333984 168.0
1195.629883 116.0
1195.678101 268.0
1195.756348 44.0
1196.586792 204.0
1196.827759 140.0
1197.516357 144.0
1197.867676 128.0
1198.915039 192.0
1199.804199 140.0
1200.259277 176.0
1200.631714 80.0
1200.928223 220.0
1201.314575 128.0
1201.493896 140.0
1201.625 212.0
1201.707764 160.0
1202.273193 184.0
1202.370239 208.0
1202.432373 176.0
1202.694702 280.0
1202.79126 160.0
1203.564575 144.0
1204.420898 76.0
1204.759399 200.0
1204.814697 128.0
1204.897583 132.0
1205.439697 160.0
1205.643921 184.0
1206.058594 116.0
1208.444458 132.0
1209.025757 168.0
1209.392578 84.0
1209.551758 172.0
1209.690186 196.0
1210.618042 96.0
1211.338379 132.0
1211.934204 156.0
1212.440063 80.0
1214.208008 212.0
1214.353638 176.0
1214.43689 136.0
1215.165283 136.0
1215.421997 140.0
1216.754761 160.0
1217.317139 160.0
1217.557251 220.0
1218.206177 152.0
1218.511841 116.0
1218.838501 156.0
1219.158081 156.0
1219.915771 128.0
1219.999146 120.0
1220.047852 116.0
1220.179932 196.0
1220.694458 132.0
1220.965698 44.0
1221.292603 204.0
1221.341309 132.0
1221.438721 180.0
1221.508301 272.0
1221.734863 144.0
1221.842163 128.0
1222.419678 172.0
1222.510132 172.0
1224.257568 188.0
1224.619751 76.0
1224.777832 212.0
1225.302368 112.0
1225.497559 72.0
1225.636841 172.0
1225.901611 212.0
1226.347656 228.0
1228.425659 152.0
1228.80249 64.0
1229.193237 116.0
1229.545776 228.0
1230.268066 128.0
1230.407715 140.0
1230.638062 208.0
1230.763794 228.0
1232.614868 140.0
1232.810547 172.0
1232.964355 124.0
1233.17395 176.0
1233.285767 168.0
1233.921997 204.0
1234.040894 108.0
1234.25061 188.0
1235.145874 76.0
1235.201782 200.0
1235.586548 156.0
1235.754517 240.0
1235.838379 184.0
1236.209351 180.0
1236.398315 184.0
1237.147217 116.0
1237.707397 52.0
1237.819458 196.0
1238.169556 220.0
1238.449707 256.0
1238.617798 232.0
1238.898071 48.0
1239.402466 220.0
1239.521606 64.0
1239.710815 208.0
1241.3302 160.0
1241.715942 216.0
1242.016724 140.0
1242.199951 140.0
1242.305176 232.0
1242.361328 132.0
1242.623657 248.0
1242.733154 212.0
1243.478516 184.0
1243.842041 56.0
1244.200073 212.0
1244.256226 192.0
1244.480835 188.0
1244.558105 148.0
1244.67749 124.0
1245.056763 200.0
1245.253418 96.0
1245.471069 184.0
1245.716919 144.0
1245.836426 148.0
1245.920654 116.0
1246.679565 168.0
1246.911499 204.0
1247.150513 172.0
1247.698853 156.0
1248.542603 144.0
1248.626953 196.0
1249.27417 124.0
1249.344482 76.0
1249.56958 160.0
1249.752563 144.0
1250.029907 224.0
1250.371826 124.0
1250.590088 208.0
1251.133789 200.0
1251.244751 32.0
1251.526367 168.0
1251.977051 136.0
1252.040405 208.0
1252.484131 332.0
1252.857544 68.0
1253.083374 168.0
1253.653809 148.0
1254.111816 124.0
1254.450195 208.0
1254.612427 136.0
1254.72876 172.0
1254.844971 176.0
1255.183472 84.0
1255.261108 132.0
1255.663086 132.0
1255.916992 164.0
1256.072144 160.0
1256.572998 72.0
1256.700073 100.0
1257.067017 132.0
1258.033936 108.0
1258.231689 180.0
1258.47876 116.0
1258.669434 184.0
1258.923584 124.0
1259.38269 156.0
1259.502808 28.0
1259.552246 188.0
1260.513062 168.0
1261.347046 128.0
1262.110718 232.0
1262.414673 100.0
1263.645508 232.0
1263.829468 156.0
1264.285034 176.0
1264.784912 192.0
1265.365479 136.0
1266.895264 212.0
1267.058105 192.0
1267.384033 180.0
1267.454956 176.0
1267.717163 84.0
1268.135254 120.0
1268.782471 216.0
1269.156128 72.0
1269.780273 140.0
1269.936279 88.0
1270.610229 180.0
1271.114014 128.0
1271.220459 188.0
1271.419067 196.0
1271.880493 208.0
1272.107666 164.0
1272.746582 104.0
1273.101685 128.0
1273.158447 148.0
1274.546875 120.0
1274.707153 112.0
1274.813843 144.0
1275.837402 136.0
1276.057739 160.0
1276.292358 180.0
1276.363525 116.0
1276.519897 68.0
1276.575684 192.0
1276.655029 156.0
1277.039062 136.0
1277.245361 140.0
1277.978882 172.0
1278.254517 152.0
1278.426514 164.0
1278.504761 200.0
1278.89624 72.0
1278.99585 124.0
1279.067017 188.0
1279.171021 212.0
1279.661377 224.0
1279.722046 164.0
1279.928467 152.0
1280.206299 88.0
1280.334473 200.0
1280.469727 168.0
1280.761841 80.0
1281.018188 120.0
1281.096558 164.0
1281.210571 188.0
1282.030029 148.0
1282.215332 184.0
1282.809448 208.0
1283.54126 208.0
1283.740967 152.0
1283.855103 128.0
1283.926392 208.0
1284.168945 140.0
1284.411377 200.0
1284.789551 140.0
1285.170776 216.0
1285.62439 192.0
1285.981201 180.0
1286.530884 148.0
1286.802124 76.0
1286.973511 152.0
1287.466309 168.0
1287.901978 212.0
1288.730713 160.0
1288.787842 168.0
1288.952148 68.0
1289.066528 120.0
1289.238037 72.0
1289.321289 216.0
1290.353149 92.0
1290.467529 100.0
1290.567627 44.0
1290.667725 172.0
1290.889404 168.0
1290.96814 144.0
1291.118286 144.0
1291.633301 208.0
1291.726196 164.0
1291.998047 136.0
1292.835327 148.0
1293.20752 232.0
1293.301758 208.0
1294.245483 88.0
1294.557739 172.0
1294.725342 236.0
1294.96167 164.0
1295.033325 140.0
1295.362793 164.0
1295.713867 120.0
1295.885864 248.0
1295.957397 120.0
1296.10791 216.0
1296.20105 240.0
1296.73877 184.0
1297.742188 132.0
1298.122314 128.0
1298.394775 140.0
1298.475098 176.0
1298.538208 168.0
1298.63147 172.0
1298.898804 196.0
1299.135742 136.0
1299.284302 208.0
1299.886963 60.0
1300.023315 112.0
1301.085693 136.0
1301.168579 176.0
1301.983276 28.0
1302.047852 44.0
1302.187988 140.0
1302.328003 100.0
1302.917114 240.0
1303.915894 144.0
1304.002197 132.0
1304.109985 216.0
1304.332764 72.0
1304.505249 160.0
1304.864746 136.0
1305.022949 184.0
1306.08728 100.0
1306.264404 184.0
1306.662842 256.0
1307.281616 132.0
1307.674561 236.0
1307.77832 148.0
1307.85022 200.0
1308.699707 176.0
1308.951782 180.0
1309.290283 76.0
1309.44873 76.0
1309.794434 164.0
1309.852295 164.0
1310.061035 64.0
1310.335693 196.0
1310.579712 164.0
1310.824707 108.0
1310.990479 152.0
1311.336426 104.0
1311.603149 200.0
1311.819336 220.0
1311.877075 184.0
1312.172607 160.0
1312.295166 152.0
1312.706299 180.0
1312.828857 152.0
1312.89856 148.0
1313.268799 196.0
1313.434692 212.0
1313.557373 172.0
1314.516968 136.0
1315.310791 216.0
1315.368652 144.0
1315.794556 36.0
1316.025635 180.0
1316.148315 80.0
1317.116089 184.0
1317.629028 140.0
1318.611816 220.0
1318.994873 108.0
1319.074341 88.0
1319.284058 180.0
1319.334595 144.0
1319.558716 144.0
1319.855225 188.0
1319.978149 112.0
1320.245728 136.0
1320.36145 208.0
1320.723145 116.0
1321.171631 176.0
1321.370361 368.0
1321.620239 108.0
1321.714233 148.0
1321.99646 224.0
1322.314941 188.0
1322.474121 172.0
1322.618896 64.0
1322.727539 412.0
1322.86499 60.0
1323.104004 160.0
1323.885986 220.0
1324.414673 172.0
1324.668213 200.0
1324.950806 192.0
1326.13916 156.0
1326.45813 160.0
1326.769897 224.0
1327.009155 164.0
1327.110596 104.0
1327.437012 172.0
1327.582031 104.0
1327.683472 140.0
1328.067871 116.0
1328.155029 196.0
1328.416138 76.0
1328.822388 140.0
1328.945801 156.0
1329.206909 76.0
1329.265015 176.0
1329.424683 204.0
1329.685913 168.0
1330.310181 152.0
1330.854736 128.0
1330.905518 132.0
1331.108887 124.0
1331.384888 156.0
1332.627075 136.0
1332.779663 168.0
1333.797119 160.0
1334.109619 140.0
1334.364136 136.0
1335.193115 208.0
1335.280396 192.0
1335.411255 192.0
1335.571289 176.0
1335.949585 40.0
1336.648071 188.0
1337.041016 44.0
1337.142944 160.0
1337.361328 180.0
1337.936401 168.0
1338.103882 184.0
1338.32959 152.0
1338.438843 148.0
1338.66394 220.0
1338.802856 140.0
1339.210815 120.0
1339.356445 60.0
1339.53125 116.0
1339.932007 184.0
1339.997559 160.0
1340.281738 132.0
1340.63147 144.0
1341.353027 188.0
1342.140503 216.0
1342.898926 168.0
1343.037476 164.0
1343.117798 144.0
1343.424194 112.0
1343.47522 148.0
1343.839966 132.0
1344.650024 188.0
1344.905518 180.0
1345.044189 200.0
1345.131836 40.0
1345.365356 136.0
1345.922119 156.0
1346.329224 156.0
1347.03772 244.0
1347.578369 160.0
1347.943726 60.0
1348.272583 216.0
1348.499146 180.0
1348.608765 216.0
1348.725708 68.0
1348.789307 180.0
1348.937744 60.0
1349.166016 120.0
1349.383667 212.0
1349.442139 156.0
1350.224609 36.0
1350.275879 144.0
1350.72937 132.0
1350.912231 208.0
1351.117065 248.0
1351.578003 184.0
1351.636597 180.0
1352.236694 152.0
1352.880859 180.0
1353.766846 72.0
1353.920654 144.0
1354.110962 216.0
1354.601807 168.0
1354.740967 176.0
1354.843506 188.0
1355.204834 144.0
1355.766846 116.0
1355.972046 76.0
1356.133301 180.0
1356.293335 276.0
1356.322021 156.0
1356.954346 52.0
1357.247559 200.0
1357.672974 196.0
1358.369751 88.0
1358.692505 124.0
1358.831909 52.0
1359.081421 188.0
1359.191528 152.0
1359.436401 168.0
1359.495361 108.0
1359.802002 196.0
1360.395142 132.0
1360.563965 148.0
1360.953125 140.0
1361.819702 120.0
1362.042725 188.0
1362.097168 184.0
1362.326538 92.0
1362.708618 236.0
1362.826172 148.0
1362.943726 180.0
1363.039307 128.0
1363.186279 208.0
1363.45813 200.0
1363.597778 248.0
1363.855103 224.0
1364.453491 180.0
1364.524048 172.0
1364.575562 120.0
1365.22998 152.0
1365.39917 208.0
1365.52417 188.0
1366.134766 212.0
1366.430542 220.0
1366.612915 144.0
1367.253174 52.0
1367.680054 164.0
1368.176147 220.0
1368.438354 244.0
1368.688721 188.0
1368.80542 220.0
1368.880127 168.0
1369.270508 140.0
1369.881836 224.0
1370.161743 184.0
1370.382812 172.0
1370.994385 160.0
1371.252441 180.0
1371.598877 164.0
1372.328735 232.0
1372.564697 128.0
1372.911255 208.0
1373.678345 208.0
1374.349731 160.0
1375.309082 140.0
1375.493652 128.0
1375.715088 176.0
1375.823853 148.0
1375.95874 160.0
1376.268921 132.0
1376.460815 152.0
1376.667603 200.0
1377.435791 200.0
1377.595215 244.0
1377.952881 160.0
1378.085938 176.0
1378.233765 188.0
1378.684448 168.0
1378.994873 120.0
1379.329712 220.0
1379.630615 164.0
1379.867188 184.0
1380.074219 148.0
1380.776733 92.0
1381.331543 148.0
1382.004761 188.0
1382.082275 148.0
1382.493164 92.0
1383.100098 164.0
1383.248169 204.0
1383.862671 180.0
1384.025513 200.0
1384.151367 124.0
1384.299561 232.0
1384.432861 124.0
1384.521729 192.0
1384.936401 40.0
1385.062378 180.0
1385.232788 180.0
1385.825439 144.0
1386.788818 240.0
1386.892578 140.0
1386.981567 140.0
1387.937988 92.0
1388.968872 104.0
1389.13208 100.0
1389.261841 172.0
1389.584595 152.0
1389.814697 112.0
1390.727417 208.0
1391.172852 144.0
1391.610962 184.0
1391.945068 40.0
1392.139404 168.0
1392.383179 160.0
1393.579224 108.0
1393.839233 180.0
1394.44873 168.0
1394.86499 132.0
1394.916992 144.0
1395.132568 92.0
1395.206909 204.0
1395.348145 140.0
1395.41687 132.0
1395.496826 116.0
1395.608398 144.0
1396.694214 224.0
1396.753784 212.0
1396.843018 116.0
1396.962036 160.0
1397.549805 156.0
1397.601807 152.0
1397.67627 136.0
1398.070679 132.0
1398.152588 56.0
1398.360962 164.0
1398.47998 104.0
1398.643799 144.0
1398.859619 136.0
1399.157471 144.0
1400.147827 84.0
1400.207397 88.0
1400.36377 176.0
1400.646851 172.0
1400.765991 48.0
1400.855469 112.0
1401.086426 156.0
1402.204102 124.0
1402.395264 156.0
1402.62085 128.0
1402.763184 96.0
1402.942139 80.0
1403.225464 116.0
1403.648315 88.0
1403.814453 196.0
1403.881592 148.0
1403.971069 196.0
1404.075562 168.0
1404.1427 100.0
1404.343994 220.0
1404.894409 224.0
1405.089966 228.0
1405.324097 212.0
1405.485474 196.0
1405.769043 176.0
1405.940674 128.0
1406.007812 192.0
1406.069214 92.0
1406.133057 92.0
1406.216797 152.0
1406.700317 192.0
1407.456055 124.0
1407.799561 180.0
1409.136719 88.0
1409.540161 124.0
1409.839111 208.0
1410.254272 208.0
1411.087402 160.0
1411.880127 204.0
1412.29895 152.0
1412.530884 144.0
1412.650513 116.0
1412.841919 132.0
1412.972168 120.0
1413.481079 56.0
1413.54834 180.0
1414.13208 140.0
1414.356689 156.0
1414.566284 132.0
1414.691406 200.0
1414.905273 260.0
1415.666992 220.0
1415.854126 236.0
1416.003906 168.0
1416.405029 164.0
1417.976074 224.0
1418.424194 220.0
1418.634033 208.0
1418.866455 248.0
1419.796265 196.0
1420.201294 144.0
1420.658936 228.0
1420.86145 64.0
1421.596802 156.0
1421.760498 208.0
1422.114746 152.0
1422.707764 176.0
1423.023071 260.0
1423.203247 144.0
1423.481079 116.0
1423.991821 172.0
1425.268921 236.0
1425.321533 220.0
1425.592041 156.0
1425.697266 160.0
1425.779907 156.0
1426.501465 248.0
1426.839844 172.0
1426.900024 216.0
1427.524048 164.0
1427.831421 176.0
1428.022339 252.0
1428.293823 188.0
1428.38147 140.0
1428.599609 160.0
1428.810303 156.0
1429.329468 80.0
1429.382202 236.0
1429.758423 128.0
1430.127197 200.0
1430.481079 28.0
1430.63916 188.0
1430.94458 188.0
1431.053223 152.0
1432.009644 92.0
1432.634888 240.0
1433.071777 108.0
1433.426025 172.0
1433.523926 208.0
1433.667114 172.0
1433.757568 116.0
1434.081665 140.0
1434.858154 148.0
1435.423584 48.0
1435.574463 44.0
1435.642334 256.0
1435.732788 140.0
1435.90625 140.0
1436.268311 132.0
1436.373901 144.0
1436.803955 196.0
1437.181274 160.0
1437.286865 192.0
1438.353882 168.0
1438.909668 168.0
1439.022949 128.0
1439.204102 200.0
1439.377808 224.0
1439.536377 84.0
1439.747803 180.0
1440.412476 164.0
1440.767578 188.0
1440.963989 164.0
1441.176636 152.0
1441.236084 160.0
1441.362549 184.0
1441.719727 176.0
1441.863281 144.0
1442.347046 216.0
1442.724976 56.0
1442.838379 160.0
1442.950806 88.0
1443.133301 220.0
1443.246704 228.0
1443.314697 176.0
1443.390381 172.0
1443.450806 204.0
1444.078613 160.0
1444.17688 80.0
1444.39624 180.0
1444.570068 188.0
1444.729126 188.0
1444.93335 36.0
1445.06958 180.0
1445.826294 168.0
1445.894409 204.0
1445.947388 116.0
1446.530273 104.0
1446.658936 128.0
1447.469116 216.0
1447.999146 124.0
1448.37793 152.0
1448.574829 144.0
1448.705566 96.0
1448.885498 168.0
1449.393188 196.0
1449.772095 168.0
1449.878174 172.0
1450.075195 164.0
1450.241943 156.0
1450.530029 200.0
1450.805542 156.0
1451.012329 204.0
1451.121338 152.0
1451.288086 124.0
1451.629395 92.0
1451.7052 180.0
1451.811401 164.0
1452.266479 96.0
1452.529907 136.0
1452.774658 148.0
1453.062988 240.0
1453.169189 84.0
1453.336182 200.0
1453.427246 232.0
1454.831299 108.0
1455.294434 52.0
1455.50708 180.0
1455.871582 208.0
1456.236206 188.0
1456.479248 232.0
1457.140137 140.0
1457.284546 256.0
1457.421265 84.0
1457.732788 188.0
1457.968384 112.0
1458.074829 200.0
1458.280029 180.0
1458.477661 196.0
1458.553711 156.0
1458.812134 164.0
1459.184692 204.0
1459.291138 40.0
1460.074341 80.0
1460.431885 120.0
1461.043579 160.0
1461.443604 164.0
1461.56543 148.0
1461.883423 132.0
1462.093018 192.0
1462.364502 204.0
1462.661377 168.0
1462.737427 164.0
1462.959961 240.0
1463.194214 76.0
1463.31604 72.0
1463.704346 264.0
1463.917603 152.0
1464.085205 168.0
1464.168945 116.0
1464.641235 136.0
1464.892578 104.0
1465.2854 120.0
1465.425903 176.0
1465.665527 160.0
1466.035522 220.0
1466.126953 196.0
1466.317505 380.0
1466.599487 208.0
1466.919678 180.0
1467.674438 140.0
1467.926147 248.0
1469.074097 148.0
1469.222778 164.0
1469.299072 152.0
1469.421143 176.0
1469.489746 192.0
1469.924683 172.0
1470.131348 176.0
1470.436035 136.0
1470.573486 172.0
1470.733765 192.0
1470.939819 116.0
1471.031494 128.0
1471.321533 52.0
1471.550659 212.0
1471.626953 136.0
1472.061523 184.0
1472.534546 136.0
1472.627319 140.0
1472.726685 200.0
1472.871826 156.0
1473.070435 184.0
1473.13916 180.0
1473.32251 132.0
1473.490601 156.0
1473.964355 104.0
1474.338745 164.0
1474.415161 156.0
1474.560425 136.0
1474.889038 224.0
1475.33252 144.0
1475.522095 228.0
1475.859985 136.0
1476.173584 160.0
1476.389893 108.0
1476.578857 164.0
1476.655396 332.0
1476.833984 160.0
1477.596313 228.0
1477.810547 100.0
1477.948242 144.0
1478.208374 224.0
1478.408936 160.0
1478.483887 260.0
1478.560425 200.0
1478.889526 120.0
1479.088623 148.0
1479.249878 208.0
1479.570923 192.0
1480.459106 200.0
1480.711914 164.0
1480.86499 84.0
1480.93396 284.0
1481.163818 176.0
1481.349854 252.0
1481.585083 144.0
1481.681763 212.0
1482.493286 180.0
1483.501099 192.0
1483.761719 164.0
1484.2677 112.0
1484.528442 108.0
1484.888916 200.0
1484.958008 172.0
1485.080688 132.0
1485.487305 128.0
1485.548462 176.0
1485.702026 168.0
1485.993652 348.0
1488.150391 184.0
1488.449829 204.0
1488.641846 240.0
1488.895264 272.0
1488.980591 148.0
1489.310059 200.0
1489.409912 128.0
1489.598755 176.0
1489.840088 128.0
1489.893799 132.0
1490.247314 168.0
1490.477783 136.0
1490.808228 140.0
1491.040771 184.0
1491.10791 172.0
1491.476929 164.0
1491.653687 172.0
1491.730591 152.0
1492.038086 196.0
1492.299561 172.0
1492.976196 188.0
1493.72998 152.0
1493.906982 144.0
1494.391602 196.0
1494.560913 136.0
1494.630127 116.0
1494.68396 144.0
1495.276611 152.0
1495.692261 180.0
1495.746094 204.0
1495.830811 40.0
1495.915527 184.0
1496.716187 156.0
1496.970337 120.0
1497.139771 264.0
1497.332275 156.0
1497.571045 188.0
1497.787231 172.0
1497.933105 136.0
1498.241211 60.0
1498.433838 168.0
1498.557129 188.0
1499.065674 152.0
1499.828735 184.0
1499.98291 156.0
1500.207397 168.0
1500.306641 156.0
1500.530273 148.0
1500.669067 160.0
1501.108521 56.0
1501.293701 164.0
1502.206177 184.0
1502.265503 216.0
1502.936768 104.0
1503.39209 128.0
1503.731689 168.0
1503.986328 188.0
1504.148438 48.0
1504.534424 172.0
1504.688843 64.0
1505.036377 204.0
