>compound R(+)-SCH-23390 hydrochloride
>formula C17H18ClNO
>ionization [M+H]+
>parentmass 288.116058
#inchi InChI=1S/C17H18ClNO/c1-19-8-7-13-9-16(18)17(20)10-14(13)15(11-19)12-5-3-2-4-6-12/h2-6,9-10,15,20H,7-8,11H2,1H3/t15-/m1/s1
#inchikey GOTMKOSCLKVOGG
#Ion_Source LC-ESI
#Instrument qTof
#Compound_Source Commercial
#PI Dorrestein
#Data_Collector Garg_Neha
#Scan -1
#Precursor_MZ 288.115
#ExactMass 287.108
#Charge 1
#CAS_Number N/A
#Pubmed_ID N/A
#Smiles CN1CCc2cc(Cl)c(O)cc2[C@H](C1)c3ccccc3
#INCHI_AUX N/A
#Library_Class 1
#SpectrumID CCMSLIB00000079229
#IonMode Positive
#UpdateWorkflowName UPDATE-SINGLE-ANNOTATED-GOLD
#LibraryQualityString Gold
#TaskID 278b19f5865741e282cec7349aa7e7a1
##Scan# 1076
#SpectrumFile NCP003672_A27B27C27D27_BE4_01_15740.mzXML
#LibraryName NIHcollectionI_05062014.mgf
#MQScore -1
#Organism NIHcollectionI_05062014
#TIC_Query 0
#RT_Query -1
#MZErrorPPM -1
#SharedPeaks 0
#MassDiff 0
#LibMZ -1
#SpecMZ 288.115
#SpecCharge 0
#internalFilename spec-00000.mgf

>collision 10
45.077271 172.0
46.128307 180.0
53.179783 140.0
59.653206 140.0
63.523266 168.0
64.58094 144.0
65.578018 152.0
65.878151 176.0
66.133636 172.0
67.803078 200.0
68.346626 188.0
68.628288 188.0
68.719002 180.0
69.405418 228.0
70.714821 196.0
76.683594 168.0
82.044662 176.0
83.364159 188.0
86.334053 148.0
86.685783 196.0
90.0364 240.0
90.482651 176.0
91.054527 692.0
91.083374 232.0
93.606468 156.0
93.926392 244.0
96.38427 176.0
97.055656 176.0
98.150879 204.0
103.057732 316.0
104.068123 212.0
105.070122 1312.0
106.075607 144.0
110.620689 188.0
111.42598 140.0
112.090866 184.0
112.643631 168.0
112.950127 152.0
115.057076 416.0
116.065041 172.0
117.071602 168.0
119.078812 184.0
120.05732 188.0
120.081909 140.0
121.060799 184.0
122.920715 188.0
125.018166 104.0
127.01445 164.0
128.062927 444.0
128.650406 220.0
129.069916 1604.0
130.073135 180.0
131.049896 140.0
132.055527 316.0
132.080582 156.0
134.095047 920.0
137.010315 300.0
139.970993 260.0
140.246643 184.0
141.011734 1484.0
142.014954 140.0
142.074524 140.0
143.006958 668.0
143.049652 548.0
144.058167 1768.0
145.06456 508.0
146.060806 192.0
146.078384 160.0
146.81781 148.0
147.074722 412.0
147.585709 164.0
147.926819 152.0
148.073959 136.0
149.010849 192.0
149.643204 184.0
151.536057 152.0
153.009613 504.0
153.16478 160.0
154.015762 140.0
154.928543 152.0
155.02565 1456.0
156.031158 228.0
156.777161 140.0
157.024353 432.0
158.031158 392.0
159.067734 176.0
160.075195 408.0
161.081818 320.0
162.087723 280.0
165.012573 196.0
165.070557 296.0
165.641174 140.0
166.074356 296.0
166.207764 152.0
167.025681 236.0
167.087326 240.0
167.110855 120.0
169.022614 600.0
173.553864 212.0
173.902771 140.0
174.091858 152.0
174.115433 188.0
174.706833 152.0
176.109039 164.0
177.069244 172.0
177.769119 152.0
178.077606 152.0
179.025101 1824.0
179.08786 128.0
179.11441 180.0
180.028061 400.0
180.085297 148.0
180.676056 184.0
181.023239 680.0
181.100021 216.0
182.038452 536.0
182.583176 252.0
183.047104 132.0
184.053635 380.0
185.040131 144.0
185.906052 168.0
186.049911 180.0
186.37854 208.0
188.585938 152.0
189.016754 240.0
189.061813 160.0
189.516373 160.0
190.078476 152.0
192.095139 140.0
193.025879 172.0
193.098709 456.0
194.072601 124.0
194.114548 132.0
195.044052 268.0
195.086288 212.0
196.05188 2012.0
196.089706 248.0
196.804855 168.0
197.059464 712.0
197.49791 192.0
198.050293 156.0
199.056122 140.0
199.092636 252.0
201.026611 144.0
201.060471 192.0
203.088974 496.0
204.082977 152.0
204.973907 152.0
205.076492 156.0
207.080475 1124.0
207.150955 140.0
207.448975 160.0
208.085938 168.0
209.097778 284.0
210.068466 388.0
210.103683 148.0
211.108475 320.0
211.487473 188.0
212.066315 136.0
213.655121 188.0
214.505447 144.0
215.030457 188.0
216.023041 132.0
218.935532 172.0
221.094833 1124.0
221.528549 220.0
222.072739 240.0
222.103973 2584.0
223.107788 372.0
223.348434 152.0
224.12027 272.0
224.142181 152.0
225.139755 148.0
227.910522 192.0
228.031769 384.0
229.040085 120.0
229.916046 140.0
230.03096 252.0
230.054108 236.0
231.054733 320.0
231.091919 140.0
234.072159 220.0
235.588562 168.0
236.587982 148.0
238.111923 152.0
238.15799 152.0
240.022949 256.0
240.967438 216.0
242.053421 676.0
242.105728 144.0
244.020248 152.0
245.077911 252.0
245.150146 188.0
246.292023 172.0
246.560715 148.0
247.589981 164.0
248.088165 184.0
248.128922 148.0
248.750076 164.0
249.475723 148.0
250.124649 192.0
250.633911 188.0
251.226639 176.0
251.902176 168.0
252.285416 132.0
253.149963 108.0
255.051636 152.0
256.05954 200.0
257.073273 1024.0
257.818329 168.0
257.891846 192.0
258.081696 340.0
259.073181 692.0
259.165497 172.0
260.073059 156.0
261.085083 284.0
262.88266 144.0
266.580811 156.0
267.768707 120.0
269.131317 260.0
271.122253 116.0
272.416199 204.0
277.124023 212.0
278.134705 2024.0
278.319183 240.0
278.635315 728.0
278.769836 144.0
279.14563 416.0
279.408234 168.0
279.667786 188.0
280.014038 160.0
280.098602 136.0
280.430511 156.0
282.126221 204.0
286.088104 152.0
286.153076 168.0
286.387817 248.0
286.69101 220.0
287.140259 192.0
287.497009 152.0
287.628448 360.0
287.70163 180.0
287.828247 156.0
287.856842 176.0
287.897369 204.0
287.948578 116.0
287.989929 164.0
288.045715 140.0
288.116058 81868.0
288.202759 144.0
288.254761 256.0
288.434875 152.0
288.500763 176.0
288.532318 156.0
288.669525 160.0
288.79187 208.0
288.941132 112.0
289.04599 136.0
289.118347 12564.0
289.349213 140.0
289.433746 124.0
289.628845 128.0
289.7789 128.0
290.113037 23252.0
290.330719 156.0
290.634613 312.0
290.733765 100.0
290.959534 140.0
291.041168 144.0
291.115662 2492.0
291.225525 136.0
292.028046 108.0
292.159332 156.0
292.238861 184.0
292.2789 112.0
299.127777 116.0
302.180878 188.0
303.143463 176.0
306.109528 152.0
309.413086 160.0
317.138275 216.0
318.610901 188.0
327.119934 216.0
333.128693 140.0
359.093292 112.0
360.100922 140.0
361.117279 104.0
362.117188 216.0
472.187805 140.0
557.268494 584.0
558.283813 136.0
1114.477417 172.0
1227.125977 160.0
1301.63269 188.0
1495.938965 140.0
1558.989136 148.0
1626.453491 252.0
1643.684082 140.0
1667.582397 188.0
1677.610596 240.0
1755.606201 160.0
1763.219849 140.0
1767.242065 156.0
1778.882812 192.0
1787.758301 224.0
1846.920044 200.0
1855.466309 164.0
1884.479126 180.0
1944.654297 152.0
1964.028931 148.0
1981.567749 156.0
1984.501343 176.0
