>compound MLS001165757-01!mirtazapine
>formula C17H19N3
>ionization [M+H]+
>parentmass 266.1651740600905
#inchi InChI=1S/C17H19N3/c1-19-9-10-20-16(12-19)15-7-3-2-5-13(15)11-14-6-4-8-18-17(14)20/h2-8,16H,9-12H2,1H3/t16-/m0/s1
#inchikey RONZAEMNMFQXRA
#Ion_Source LC-ESI
#Instrument qTof
#Compound_Source NIH Pharmacologically Active Library
#PI Dorrestein
#Data_Collector VP/LMS
#Scan -1
#Precursor_MZ 266.167
#ExactMass 265.158
#Charge 1
#CAS_Number N/A
#Pubmed_ID N/A
#Smiles CN1CCN2[C@@H](C1)c3ccccc3Cc4cccnc24
#INCHI_AUX N/A
#Library_Class 1
#SpectrumID CCMSLIB00000085385
#IonMode Positive
#UpdateWorkflowName UPDATE-SINGLE-ANNOTATED-GOLD
#LibraryQualityString Gold
#TaskID d252d724072548979f1f6f1ced849daf
##Scan# 1278
#SpectrumFile p4-A02_GA2_01_18326.mzXML
#LibraryName Pharm_Active_Library.mgf
#MQScore -1
#Organism Pharm_Active_Library
#TIC_Query 0
#RT_Query -1
#MZErrorPPM -1
#SharedPeaks 0
#MassDiff 0
#LibMZ -1
#SpecMZ 266.167
#SpecCharge 0
#internalFilename spec-00000.mgf

>collision 10
44.924229 168.0
44.953583 224.0
44.997669 132.0
45.025028 164.0
45.048378 252.0
45.085793 132.0
45.112522 100.0
45.135254 204.0
45.156651 140.0
45.18243 132.0
45.219532 116.0
45.248981 164.0
45.275764 260.0
45.33408 232.0
45.395035 212.0
45.64706 140.0
45.651459 80.0
45.656319 184.0
45.72821 240.0
45.776676 184.0
45.799572 212.0
45.826515 192.0
45.850769 136.0
45.888512 168.0
45.924923 152.0
45.989689 172.0
46.008587 172.0
46.058552 232.0
46.127468 116.0
46.145042 220.0
46.176144 108.0
46.251915 160.0
46.344002 112.0
46.367039 160.0
46.415844 128.0
46.577347 128.0
46.588348 204.0
46.599083 152.0
46.616745 136.0
46.702396 164.0
46.774513 124.0
46.790852 180.0
46.850773 176.0
46.940731 140.0
47.25489 164.0
47.284996 88.0
47.341125 224.0
47.382217 204.0
47.401402 228.0
47.430298 188.0
47.463085 76.0
47.478168 88.0
47.503387 204.0
47.549511 188.0
47.696476 116.0
47.754227 156.0
47.880848 136.0
47.90564 124.0
47.918037 184.0
47.958447 244.0
48.046257 204.0
48.118023 200.0
48.141495 196.0
48.247887 148.0
48.257568 132.0
48.31012 140.0
48.456871 116.0
48.510921 204.0
48.54697 148.0
48.695465 184.0
48.709358 120.0
48.721859 136.0
48.736118 212.0
48.86784 88.0
48.919334 148.0
48.944397 72.0
49.100101 180.0
49.157669 144.0
49.167439 104.0
49.231659 44.0
49.25959 148.0
49.276215 196.0
49.291725 128.0
49.40078 140.0
49.633274 32.0
49.685982 228.0
49.776402 168.0
49.793251 140.0
50.03511 68.0
50.059048 68.0
50.101303 120.0
50.152035 184.0
50.17318 176.0
50.341743 240.0
50.365093 168.0
50.420197 136.0
50.513515 56.0
50.71175 168.0
50.72876 220.0
50.768459 164.0
50.908955 164.0
50.952988 120.0
50.977142 32.0
51.153507 168.0
51.2589 108.0
51.268875 120.0
51.435749 112.0
51.464302 428.0
51.540005 44.0
51.651516 168.0
51.708752 52.0
51.972427 156.0
52.005436 104.0
52.072918 48.0
52.08728 200.0
52.111702 140.0
52.140442 136.0
52.153378 144.0
52.220955 180.0
52.308727 184.0
52.343281 220.0
52.362003 132.0
52.409542 104.0
52.419628 192.0
52.461426 220.0
52.692337 196.0
52.712563 224.0
52.74147 168.0
52.758816 104.0
52.809425 228.0
52.925198 176.0
53.048347 168.0
53.295071 172.0
53.324135 188.0
53.380833 72.0
53.600639 224.0
53.656025 104.0
53.679356 108.0
53.719757 148.0
53.788776 148.0
53.872013 124.0
53.920231 132.0
53.947548 220.0
54.202671 228.0
54.217377 224.0
54.248104 140.0
54.265697 180.0
54.278893 224.0
54.330227 108.0
54.380119 124.0
54.454998 36.0
54.512295 132.0
54.594616 108.0
54.657871 136.0
54.679947 112.0
54.847855 112.0
54.862598 312.0
54.886189 88.0
54.91568 228.0
55.042599 52.0
55.138622 100.0
55.151924 176.0
55.211063 192.0
55.23177 196.0
55.357571 100.0
55.3946 144.0
55.416821 256.0
55.605148 136.0
55.63335 84.0
55.679382 172.0
55.694424 188.0
55.720974 260.0
55.732861 52.0
55.761097 164.0
55.84259 192.0
55.932144 124.0
55.951496 52.0
55.982765 132.0
56.115379 168.0
56.203381 392.0
56.280998 156.0
56.30788 144.0
56.331776 144.0
56.434898 160.0
56.482754 224.0
56.524647 152.0
56.696861 212.0
56.723839 76.0
56.76582 164.0
56.876842 172.0
56.968441 136.0
56.984966 144.0
57.004501 168.0
57.049591 64.0
57.066128 216.0
57.237659 168.0
57.25573 156.0
57.334072 204.0
57.42725 224.0
57.638901 68.0
57.685753 176.0
57.719013 132.0
57.758335 208.0
57.797672 176.0
57.935448 92.0
58.012737 40.0
58.064289 108.0
58.135593 112.0
58.211494 36.0
58.267696 268.0
58.281368 80.0
58.380177 200.0
58.40451 136.0
58.5019 164.0
58.512554 212.0
58.622223 92.0
58.826603 76.0
58.851028 36.0
58.876991 132.0
58.894234 152.0
58.938095 184.0
59.005344 112.0
59.109352 156.0
59.123127 212.0
59.150677 180.0
59.161392 120.0
59.36364 112.0
59.492523 108.0
59.666122 80.0
59.853832 96.0
59.924686 200.0
60.022732 164.0
60.094284 136.0
60.117432 136.0
60.173 144.0
60.223961 52.0
60.299442 164.0
60.330582 108.0
60.469795 236.0
60.620018 224.0
60.683571 104.0
60.697525 164.0
60.768875 124.0
60.846478 180.0
60.922573 164.0
60.97385 180.0
60.992504 120.0
61.057804 132.0
61.16983 140.0
61.269497 348.0
61.305336 88.0
61.317802 200.0
61.352097 192.0
61.844154 108.0
61.878593 144.0
61.906776 104.0
62.022816 124.0
62.096409 64.0
62.18898 60.0
62.215664 108.0
62.295753 168.0
62.311466 144.0
62.424637 136.0
62.474968 32.0
62.578838 264.0
62.670193 172.0
62.719048 176.0
62.760036 244.0
62.837318 200.0
62.935177 128.0
62.999931 108.0
63.025211 184.0
63.056816 72.0
63.067879 160.0
63.085266 156.0
63.211796 108.0
63.252945 136.0
63.283028 176.0
63.32103 192.0
63.382812 192.0
63.430359 80.0
63.452553 112.0
63.477119 140.0
63.500126 148.0
63.552475 196.0
63.66518 132.0
63.676296 52.0
63.708065 184.0
63.819317 192.0
63.876568 44.0
63.983112 156.0
64.029373 200.0
64.06369 176.0
64.183945 196.0
64.460098 188.0
64.584801 192.0
64.667999 244.0
64.714424 152.0
64.78009 108.0
64.874634 136.0
65.094444 152.0
65.131386 160.0
65.147453 128.0
65.169945 104.0
65.254684 136.0
65.316238 136.0
65.383812 120.0
65.420837 116.0
65.479668 164.0
65.514236 68.0
65.52713 196.0
65.564186 132.0
65.636726 160.0
65.780319 200.0
65.806152 212.0
65.823914 124.0
65.864288 144.0
66.00489 132.0
66.221748 168.0
66.353004 104.0
66.382187 204.0
66.424362 212.0
66.43605 192.0
66.507111 100.0
66.536331 176.0
66.594795 156.0
66.620781 176.0
66.736488 188.0
66.791466 184.0
66.819122 40.0
66.937943 208.0
66.949341 328.0
67.033272 276.0
67.202003 60.0
67.254219 168.0
67.275444 208.0
67.437157 188.0
67.486198 164.0
67.522179 176.0
67.559799 196.0
67.625252 156.0
67.643257 172.0
67.661263 104.0
67.910751 224.0
67.949356 204.0
68.108948 56.0
68.120445 104.0
68.136871 164.0
68.245346 136.0
68.406578 188.0
68.424683 236.0
68.444443 104.0
68.457619 80.0
68.647125 124.0
68.681763 136.0
68.696609 200.0
68.749405 192.0
68.807175 68.0
68.84185 236.0
68.901314 160.0
68.970718 168.0
69.076546 84.0
69.094749 92.0
69.13446 128.0
69.153084 156.0
69.175835 212.0
69.379601 128.0
69.461151 136.0
69.485741 236.0
69.55378 176.0
69.646767 164.0
69.734825 192.0
69.809944 176.0
69.851219 92.0
69.919991 40.0
69.939407 100.0
70.037651 100.0
70.137627 132.0
70.179306 148.0
70.214317 128.0
70.296066 172.0
70.32444 200.0
70.351143 80.0
70.51651 228.0
70.596756 172.0
70.737305 200.0
70.872955 64.0
70.911499 176.0
70.935936 228.0
71.05571 152.0
71.183281 180.0
71.248779 148.0
71.405106 136.0
71.467354 116.0
71.539719 244.0
71.564972 128.0
71.778969 180.0
71.952759 208.0
72.027061 52.0
72.169022 156.0
72.21299 168.0
72.240494 200.0
72.280655 56.0
72.307732 108.0
72.33744 148.0
72.47538 88.0
72.563515 104.0
72.62796 144.0
72.72467 108.0
72.738251 148.0
72.953995 204.0
73.042419 152.0
73.059425 92.0
73.198997 124.0
73.342102 192.0
73.370354 144.0
73.394951 124.0
73.456352 116.0
73.468292 116.0
73.562149 140.0
73.584106 200.0
73.938187 136.0
73.957008 224.0
73.999809 112.0
74.011795 148.0
74.042618 196.0
74.259315 220.0
74.347778 136.0
74.465309 160.0
74.493721 160.0
74.533241 176.0
74.588234 216.0
74.65873 148.0
74.755066 128.0
74.773994 160.0
74.808418 140.0
74.873848 144.0
75.101357 176.0
75.160744 272.0
75.177261 188.0
75.31366 104.0
75.374123 72.0
75.388977 208.0
75.607574 252.0
75.631805 184.0
75.671623 264.0
75.683014 228.0
75.689674 132.0
75.773811 176.0
75.808464 128.0
76.002678 108.0
76.329231 180.0
76.364014 212.0
76.451004 228.0
76.510185 196.0
76.564163 128.0
76.66346 136.0
76.682632 60.0
76.727959 160.0
76.801193 132.0
76.813408 104.0
76.893669 184.0
77.117226 160.0
77.129463 132.0
77.157433 180.0
77.325356 176.0
77.407639 248.0
77.451424 228.0
77.514496 184.0
77.539032 216.0
77.649483 184.0
77.867111 124.0
77.969009 200.0
77.986588 112.0
78.16333 176.0
78.183563 140.0
78.195885 164.0
78.231087 152.0
78.303726 236.0
78.35965 192.0
78.375511 180.0
78.417801 232.0
78.433662 244.0
78.56945 152.0
78.638268 184.0
78.677101 164.0
78.700058 104.0
78.882027 156.0
78.997917 172.0
79.149178 112.0
79.278458 216.0
79.439835 132.0
79.517906 136.0
79.915962 120.0
79.964012 88.0
79.987152 152.0
80.045906 188.0
80.205246 200.0
80.241188 120.0
80.33107 208.0
80.379242 168.0
80.524117 156.0
80.538132 144.0
80.555992 132.0
80.579224 220.0
80.639977 196.0
80.767609 220.0
80.813438 168.0
80.831329 204.0
80.885025 192.0
80.903641 180.0
81.035454 132.0
81.052155 200.0
81.080254 136.0
81.118355 140.0
81.168091 124.0
81.191406 152.0
81.211136 76.0
81.22728 52.0
81.345711 160.0
81.41214 188.0
81.428307 124.0
81.446266 152.0
81.690735 152.0
81.831108 160.0
81.852715 212.0
81.87793 140.0
82.182571 184.0
82.299896 120.0
82.339622 100.0
82.536598 88.0
82.554596 176.0
82.837029 108.0
82.972946 152.0
83.051933 216.0
83.18325 180.0
83.208801 180.0
83.315956 196.0
83.3741 356.0
83.494087 172.0
83.541374 136.0
83.55542 212.0
83.636002 248.0
83.737961 92.0
83.763466 120.0
83.803543 244.0
83.865501 204.0
83.900139 204.0
83.912903 168.0
83.975212 188.0
83.991318 180.0
84.04422 144.0
84.086197 164.0
84.193413 176.0
84.246124 164.0
84.398575 172.0
84.436974 144.0
84.530273 72.0
84.652924 48.0
84.702377 140.0
84.88932 84.0
84.905823 160.0
84.957184 164.0
84.977364 108.0
85.003052 88.0
85.019569 196.0
85.03241 84.0
85.076469 184.0
85.109512 152.0
85.205017 112.0
85.635468 272.0
85.759392 232.0
85.904587 56.0
85.945175 144.0
86.00238 232.0
86.035606 108.0
86.055916 120.0
86.094696 168.0
86.181511 204.0
86.310898 180.0
86.346039 164.0
86.414482 136.0
86.429283 92.0
86.475548 188.0
86.492203 132.0
86.64122 248.0
86.688522 188.0
86.755249 132.0
86.771935 160.0
86.840546 184.0
87.141273 160.0
87.226761 136.0
87.258362 204.0
87.32032 176.0
87.355072 148.0
87.403442 176.0
87.444382 136.0
87.625008 176.0
87.677185 164.0
87.891632 196.0
87.935287 184.0
88.011093 188.0
88.080193 100.0
88.143715 124.0
88.244652 360.0
88.287659 104.0
88.378281 36.0
88.403641 164.0
88.497238 168.0
88.527512 236.0
88.549469 184.0
88.562782 148.0
88.600243 116.0
88.643341 164.0
88.753937 168.0
88.774559 132.0
88.938705 188.0
88.994102 204.0
89.044807 112.0
89.161285 92.0
89.240242 156.0
89.397186 164.0
89.430367 232.0
89.507423 236.0
89.718445 188.0
89.765587 228.0
89.861778 204.0
89.916504 124.0
89.958031 144.0
90.075104 144.0
90.167694 200.0
90.186592 236.0
90.230263 116.0
90.44194 212.0
90.474121 216.0
90.536606 248.0
90.603386 188.0
90.705109 184.0
90.756416 148.0
90.800034 96.0
90.974602 164.0
91.006226 384.0
91.057037 144.0
91.107536 208.0
91.168335 180.0
91.377502 176.0
91.394623 184.0
91.55072 92.0
91.573448 128.0
91.611664 132.0
91.666924 60.0
91.701225 136.0
91.809898 28.0
91.987335 36.0
92.011848 224.0
92.050896 1924.0
92.087227 216.0
92.224197 96.0
92.251259 152.0
92.274483 236.0
92.530266 344.0
92.631767 72.0
92.683495 104.0
92.752487 180.0
92.783157 152.0
92.902061 116.0
92.94043 160.0
92.96154 76.0
93.005684 160.0
93.054573 168.0
93.190041 156.0
93.212021 100.0
93.259224 136.0
93.305359 144.0
93.443832 160.0
93.457298 160.0
93.478462 96.0
93.520805 196.0
93.565079 136.0
93.657509 28.0
93.775047 160.0
93.825165 188.0
94.021912 112.0
94.182159 284.0
94.205338 224.0
94.307755 148.0
94.336746 108.0
94.384483 180.0
94.535965 188.0
94.61145 84.0
94.667603 176.0
94.717957 176.0
94.743141 124.0
94.779953 224.0
94.813477 200.0
94.911766 136.0
95.086357 204.0
95.183861 232.0
95.241684 108.0
95.31356 156.0
95.385475 160.0
95.539101 148.0
95.576065 164.0
95.651962 60.0
95.760803 196.0
95.85257 128.0
95.875954 112.0
95.95002 104.0
96.078735 120.0
96.127518 164.0
96.252449 168.0
96.273926 96.0
96.322754 124.0
96.414589 184.0
96.479088 128.0
96.557724 192.0
96.700127 128.0
96.721657 72.0
96.770599 132.0
97.015488 140.0
97.04882 124.0
97.078232 200.0
97.241066 140.0
97.39225 152.0
97.451187 176.0
97.504242 184.0
97.576973 164.0
97.663498 200.0
97.718582 60.0
97.809517 152.0
98.019836 204.0
98.073044 152.0
98.216988 84.0
98.272224 156.0
98.331421 140.0
98.366951 204.0
98.43013 116.0
98.459755 108.0
98.522957 176.0
98.560501 124.0
98.578285 184.0
98.933418 152.0
99.044754 180.0
99.074913 48.0
99.116516 152.0
99.136337 84.0
99.245361 200.0
99.388168 124.0
99.431824 236.0
99.725769 116.0
99.968407 68.0
99.986313 112.0
100.016174 204.0
100.191406 128.0
100.293037 148.0
100.364807 132.0
100.460091 196.0
100.502434 168.0
100.843925 112.0
100.90789 64.0
101.049896 116.0
101.085907 176.0
101.101921 188.0
101.125938 160.0
101.196671 168.0
101.387817 200.0
101.466476 168.0
101.522621 124.0
101.582787 152.0
101.7388 216.0
101.786407 168.0
101.881905 212.0
101.986397 168.0
102.050446 172.0
102.091797 188.0
102.139214 104.0
102.199562 176.0
102.264633 204.0
102.292145 172.0
102.354553 152.0
102.43914 148.0
102.519737 192.0
102.547951 196.0
102.640686 152.0
102.675621 160.0
102.802063 160.0
102.846161 184.0
103.053436 324.0
103.137329 116.0
103.485283 148.0
103.53112 184.0
103.896706 68.0
103.979897 140.0
104.048622 364.0
104.067261 168.0
104.160606 168.0
104.178543 188.0
104.245934 152.0
104.288612 120.0
104.402466 140.0
104.441109 196.0
104.508247 200.0
104.68737 196.0
104.728104 160.0
104.781067 168.0
104.801445 148.0
104.825897 204.0
104.911499 192.0
104.999176 172.0
105.070091 1012.0
105.090973 120.0
105.215469 204.0
105.260391 160.0
105.33596 200.0
105.405426 256.0
105.442123 204.0
105.445709 196.0
105.470825 204.0
105.521927 72.0
105.550552 164.0
105.634407 148.0
105.675323 180.0
105.834976 176.0
106.06781 204.0
106.15258 112.0
106.320801 96.0
106.372116 156.0
106.404961 156.0
106.446022 184.0
106.468613 228.0
106.522018 164.0
106.680244 212.0
106.754814 164.0
106.952003 144.0
107.011955 136.0
107.032066 204.0
107.060989 620.0
107.126801 160.0
107.141228 64.0
107.405083 104.0
107.463982 136.0
107.48761 224.0
107.53714 164.0
107.678169 208.0
107.727104 192.0
107.783981 204.0
107.880028 224.0
107.960663 172.0
108.04924 200.0
108.06604 316.0
108.161354 172.0
108.177917 68.0
108.225533 136.0
108.401604 96.0
108.552933 172.0
108.907089 148.0
109.069893 80.0
109.240402 168.0
109.329872 172.0
109.375664 224.0
109.402725 160.0
109.421455 212.0
109.56308 316.0
109.671432 136.0
109.758995 124.0
109.846588 180.0
109.863281 96.0
109.892487 216.0
109.915436 160.0
110.007271 156.0
110.060516 340.0
110.111671 156.0
110.134407 172.0
110.174339 124.0
110.404259 180.0
110.544228 172.0
110.588371 160.0
110.657448 184.0
110.678391 160.0
110.783104 212.0
110.889969 152.0
110.919678 256.0
110.961243 48.0
111.013664 160.0
111.063995 324.0
111.164284 160.0
111.238106 156.0
111.580589 76.0
111.652084 200.0
111.668907 188.0
111.761467 140.0
111.856171 188.0
111.961449 200.0
112.189011 36.0
112.428246 176.0
112.459015 76.0
112.530785 108.0
112.575127 256.0
112.638489 124.0
112.685753 176.0
112.879425 220.0
112.947105 196.0
113.055008 128.0
113.133324 48.0
113.175667 128.0
113.205307 248.0
113.2752 184.0
113.359947 140.0
113.444733 212.0
113.525299 204.0
113.627113 184.0
113.737465 176.0
113.866982 156.0
113.968948 180.0
114.013573 204.0
114.085838 160.0
114.100723 52.0
114.236824 80.0
114.330444 152.0
114.630714 208.0
114.752205 136.0
114.77993 112.0
114.818314 192.0
114.847778 172.0
114.902557 176.0
115.014603 104.0
115.054008 3600.0
115.127762 200.0
115.266617 80.0
115.285843 140.0
115.305664 160.0
115.322174 144.0
115.337143 124.0
115.39724 176.0
115.444038 128.0
115.548851 48.0
115.593781 144.0
115.623741 184.0
115.780029 184.0
115.829285 112.0
115.95356 36.0
116.051804 1212.0
116.155106 408.0
116.350395 60.0
116.547989 236.0
116.771561 184.0
116.825333 120.0
116.885574 192.0
116.918373 200.0
116.937225 48.0
116.956596 224.0
117.010414 52.0
117.044746 1140.0
117.069984 576.0
117.159012 124.0
117.242439 156.0
117.381012 156.0
117.428459 100.0
117.514748 200.0
117.560059 56.0
117.823479 140.0
117.858055 124.0
118.009354 132.0
118.053764 452.0
118.251633 128.0
118.357712 164.0
118.403183 144.0
118.424843 228.0
118.468163 120.0
118.786827 148.0
118.847572 192.0
118.890976 68.0
118.910507 216.0
118.9673 120.0
119.064575 520.0
119.201515 184.0
119.308014 164.0
119.491035 172.0
119.566856 164.0
119.669167 152.0
119.732315 152.0
119.773697 48.0
119.845589 180.0
119.974182 168.0
120.033989 176.0
120.078957 156.0
120.146461 144.0
120.224503 188.0
120.338524 48.0
120.445534 156.0
120.714348 128.0
120.764648 188.0
120.797462 88.0
120.990044 44.0
121.076134 492.0
121.143333 304.0
121.178391 136.0
121.249405 196.0
121.328674 244.0
121.353729 140.0
121.478149 180.0
121.533585 48.0
121.900284 116.0
121.926659 172.0
121.95829 184.0
121.975014 152.0
122.054527 248.0
122.075623 152.0
122.12233 124.0
122.161926 280.0
122.199326 196.0
122.255623 144.0
122.351181 244.0
122.366592 80.0
122.459084 152.0
122.593712 148.0
122.617714 148.0
122.675026 212.0
122.740433 204.0
122.844826 208.0
122.911011 140.0
122.968391 132.0
123.094078 376.0
123.114319 304.0
123.321777 212.0
123.49202 128.0
123.638046 152.0
123.686737 144.0
123.726585 180.0
123.95472 216.0
123.981308 220.0
124.074402 124.0
124.169754 172.0
124.31617 88.0
124.349464 188.0
124.482666 388.0
124.753731 168.0
124.835991 176.0
124.876022 160.0
124.936081 144.0
124.967232 176.0
125.020638 128.0
125.129707 184.0
125.241051 212.0
125.305649 200.0
125.334618 40.0
125.365814 148.0
125.392555 80.0
125.510712 72.0
125.533005 152.0
125.825302 156.0
125.932487 72.0
125.97493 128.0
126.045479 180.0
126.102295 148.0
126.176064 172.0
126.294579 188.0
126.433296 64.0
126.605675 104.0
126.751282 120.0
126.948547 296.0
126.988914 196.0
127.011345 196.0
127.033775 184.0
127.057968 216.0
127.143723 112.0
127.220039 36.0
127.242485 132.0
127.300865 168.0
127.315269 164.0
127.419914 104.0
127.601959 152.0
127.619949 144.0
127.763885 144.0
127.779633 140.0
127.901154 212.0
127.948425 44.0
128.062225 544.0
128.1241 148.0
128.17366 164.0
128.414871 164.0
128.480286 172.0
128.523773 148.0
128.63826 172.0
128.681152 44.0
128.715027 88.0
128.771484 228.0
128.864105 160.0
129.035873 56.0
129.069931 604.0
129.232635 136.0
129.275497 64.0
129.406921 192.0
129.47258 108.0
129.522415 168.0
129.662888 144.0
129.733154 200.0
129.780762 92.0
129.855606 128.0
129.921387 164.0
129.978104 324.0
130.000793 208.0
130.06514 2000.0
130.100662 124.0
130.127914 152.0
130.230103 212.0
130.270187 172.0
130.391418 56.0
130.627426 216.0
130.673386 220.0
130.707504 84.0
130.753021 200.0
130.823593 168.0
130.85318 232.0
130.932877 156.0
130.957932 148.0
131.023987 172.0
131.06926 1304.0
131.11438 132.0
131.182678 108.0
131.200165 172.0
131.235947 52.0
131.281555 36.0
131.304367 136.0
131.3591 180.0
131.557648 104.0
131.59874 220.0
131.797455 132.0
131.824875 140.0
131.895721 64.0
132.070129 224.0
132.077377 756.0
132.112961 84.0
132.188461 112.0
132.215927 156.0
132.245682 152.0
132.454041 216.0
132.479248 64.0
132.5159 128.0
132.615234 208.0
132.653397 180.0
132.680908 92.0
132.719894 152.0
132.751984 148.0
132.816208 108.0
133.032898 160.0
133.047974 192.0
133.07814 1156.0
133.25238 60.0
133.392563 164.0
133.51442 148.0
133.586136 248.0
133.650146 260.0
133.682358 60.0
133.822769 364.0
133.843491 164.0
133.914886 184.0
134.057663 172.0
134.071747 236.0
134.096893 144.0
134.143906 152.0
134.249054 136.0
134.399002 192.0
134.472839 144.0
134.505157 88.0
134.551529 188.0
134.807709 124.0
134.923279 140.0
135.015778 156.0
135.056641 364.0
135.093292 480.0
135.184647 60.0
135.22168 136.0
135.241013 240.0
135.318909 200.0
135.337204 128.0
135.374481 44.0
135.404587 144.0
135.467117 136.0
135.529678 116.0
135.851944 160.0
135.878494 160.0
135.928497 64.0
136.044556 120.0
136.112411 140.0
136.151352 116.0
136.300034 160.0
136.490631 120.0
136.60228 148.0
136.648804 96.0
136.711624 144.0
136.834991 148.0
136.860611 188.0
136.897858 240.0
137.074905 192.0
137.196106 132.0
137.212418 96.0
137.240402 156.0
137.27771 176.0
137.408325 132.0
137.43866 108.0
137.494659 48.0
137.522675 80.0
137.753845 80.0
138.034302 156.0
138.092773 140.0
138.331436 128.0
138.399323 220.0
138.474075 200.0
138.610138 212.0
138.732025 52.0
139.039291 156.0
139.05571 200.0
139.31871 124.0
139.450287 160.0
139.466995 156.0
139.636032 228.0
139.687775 212.0
139.73381 240.0
139.763062 132.0
139.796005 132.0
139.908981 144.0
139.941956 136.0
139.963135 152.0
140.048035 352.0
140.085602 108.0
140.123306 168.0
140.410889 96.0
140.465134 224.0
140.500519 144.0
140.610245 164.0
140.672791 100.0
140.830994 172.0
141.069656 1080.0
141.308517 188.0
141.632828 92.0
141.774994 68.0
141.985977 192.0
142.06926 288.0
142.126404 228.0
142.190018 64.0
142.370438 176.0
142.431213 280.0
142.465454 56.0
142.484451 60.0
142.600891 88.0
142.638931 188.0
142.731644 200.0
142.774445 176.0
142.802994 188.0
142.990952 156.0
143.01712 192.0
143.068588 264.0
143.086014 124.0
143.092224 388.0
143.124252 152.0
143.157593 228.0
143.214752 164.0
143.367233 128.0
143.522171 144.0
143.548401 68.0
143.627106 52.0
143.643814 152.0
143.703445 196.0
143.751175 172.0
143.817993 196.0
143.841858 140.0
143.889618 100.0
143.949417 140.0
143.975571 392.0
143.992294 56.0
144.079453 2056.0
144.22644 148.0
144.252319 92.0
144.594772 100.0
144.661789 68.0
144.779114 196.0
145.011505 140.0
145.048874 188.0
145.086533 740.0
145.181732 212.0
145.256073 156.0
145.361649 36.0
145.652069 132.0
145.71701 112.0
145.911682 152.0
145.947739 164.0
146.000641 48.0
146.054962 192.0
146.097885 656.0
146.125732 124.0
146.154602 192.0
146.225357 180.0
146.32309 228.0
146.467575 112.0
146.621765 88.0
146.650696 148.0
146.884583 108.0
146.997971 200.0
147.059433 232.0
147.096436 176.0
147.21524 212.0
147.285278 216.0
147.31427 168.0
147.384323 140.0
147.435074 172.0
147.466492 168.0
147.559555 160.0
147.581284 156.0
147.671997 160.0
147.734894 140.0
147.812317 184.0
147.962387 80.0
148.148865 104.0
148.417877 184.0
148.466064 152.0
148.505997 144.0
148.604645 132.0
148.648315 60.0
148.689575 184.0
149.199112 172.0
149.287201 128.0
149.40152 104.0
149.464783 128.0
149.608383 144.0
149.654633 144.0
149.77153 128.0
149.798325 128.0
149.82756 56.0
149.873856 168.0
149.893341 164.0
149.971329 56.0
150.045807 240.0
150.149307 220.0
150.172623 136.0
150.19809 104.0
150.222488 84.0
150.249329 164.0
150.305435 124.0
150.351807 36.0
150.459198 256.0
150.593506 156.0
150.65947 140.0
150.989441 220.0
151.053574 1216.0
151.398148 88.0
151.466721 40.0
151.675003 224.0
151.706863 140.0
151.812302 44.0
151.858902 48.0
151.93985 196.0
151.99382 124.0
152.06076 1280.0
152.094452 172.0
152.155823 148.0
152.285965 136.0
152.421082 168.0
152.474136 176.0
152.531677 52.0
152.556259 120.0
152.893234 92.0
152.92276 240.0
152.949844 52.0
153.067062 744.0
153.124649 180.0
153.257675 56.0
153.324219 152.0
153.410477 168.0
153.467499 156.0
153.571548 176.0
153.634903 168.0
153.713852 172.0
153.733597 180.0
153.787888 68.0
153.844666 192.0
153.963181 48.0
154.065567 1068.0
154.178116 40.0
154.264618 76.0
154.544083 196.0
154.596054 160.0
154.700012 176.0
154.88324 200.0
154.925354 176.0
154.969955 252.0
154.990707 224.0
155.008194 156.0
155.039337 220.0
155.07341 368.0
155.148392 128.0
155.284775 128.0
155.423706 76.0
155.644608 40.0
155.796112 192.0
155.920349 52.0
155.960129 56.0
156.080276 184.0
156.098129 172.0
156.161514 152.0
156.188873 160.0
156.211273 196.0
156.246094 164.0
156.36554 100.0
156.452652 208.0
156.497467 180.0
156.61203 136.0
156.634445 48.0
156.711319 144.0
156.746552 56.0
156.832062 180.0
156.896103 240.0
156.954819 124.0
156.98587 148.0
157.030746 96.0
157.064148 164.0
157.090897 404.0
157.75737 136.0
157.777374 140.0
157.932419 116.0
157.974014 220.0
158.090149 368.0
158.130066 152.0
158.17012 80.0
158.212677 144.0
158.297806 56.0
158.387878 108.0
158.410507 88.0
158.651093 208.0
158.858704 212.0
158.9897 240.0
159.039902 148.0
159.082565 176.0
159.105164 152.0
159.132782 172.0
159.162918 140.0
159.243271 92.0
159.34375 160.0
159.391495 56.0
159.507889 204.0
159.702255 164.0
159.93219 196.0
159.995132 152.0
160.080231 180.0
160.106277 196.0
160.272171 152.0
160.372986 124.0
160.443558 144.0
160.880005 216.0
160.948883 212.0
161.028976 104.0
161.35495 152.0
161.37265 132.0
161.46875 120.0
161.50415 88.0
161.585098 88.0
161.66861 244.0
161.853394 168.0
161.898972 196.0
161.982559 132.0
162.306961 132.0
162.350067 164.0
162.37796 180.0
162.509872 160.0
162.644379 164.0
162.782639 244.0
163.162598 108.0
163.419479 144.0
163.46019 176.0
163.488174 236.0
163.592529 136.0
163.826813 76.0
164.063828 140.0
164.122467 140.0
164.170914 108.0
164.36734 200.0
164.47963 256.0
164.517914 264.0
164.535782 144.0
164.676559 64.0
164.742645 180.0
164.863129 132.0
165.069458 956.0
165.159317 156.0
165.374237 120.0
165.394714 152.0
165.632843 180.0
165.781448 104.0
165.812195 196.0
165.840393 204.0
165.928558 92.0
166.040375 176.0
166.067017 932.0
166.099365 132.0
166.117325 160.0
166.140411 124.0
166.26358 244.0
166.384216 88.0
166.410049 68.0
166.443268 204.0
166.481796 64.0
166.530579 128.0
166.621002 180.0
166.707855 120.0
166.847458 180.0
166.882645 168.0
166.926361 60.0
166.999466 240.0
167.073059 5596.0
167.108978 168.0
167.132141 160.0
167.196472 44.0
167.217056 44.0
167.237656 68.0
167.31488 176.0
167.428177 96.0
167.448776 124.0
167.542511 220.0
167.644577 264.0
167.688385 148.0
167.754257 172.0
167.791489 164.0
167.845963 160.0
167.889481 184.0
167.943634 76.0
168.080215 6008.0
168.14093 128.0
168.193924 60.0
168.251236 220.0
168.338501 140.0
168.434067 148.0
168.526428 180.0
168.555496 128.0
168.625259 176.0
168.706345 152.0
168.741592 184.0
168.819168 196.0
168.860535 156.0
168.88382 44.0
168.989227 180.0
169.077148 976.0
169.124741 180.0
169.248657 284.0
169.31604 68.0
169.398926 144.0
169.432602 132.0
169.476868 184.0
169.531067 72.0
169.617538 132.0
169.627609 176.0
169.676224 220.0
169.712509 124.0
169.764374 128.0
169.814575 236.0
169.873306 228.0
169.955429 136.0
170.026398 156.0
170.094254 1168.0
170.158783 80.0
170.190155 188.0
170.215897 76.0
170.249664 156.0
170.473068 76.0
170.495117 124.0
170.610825 180.0
170.644623 216.0
170.766846 112.0
170.915131 184.0
170.998398 108.0
171.058395 176.0
171.09993 188.0
171.214493 72.0
171.295242 224.0
171.563644 72.0
171.660126 272.0
171.928818 204.0
171.974594 252.0
172.035828 236.0
172.069839 148.0
172.114151 160.0
172.145493 164.0
172.357071 84.0
172.422409 200.0
172.474686 112.0
172.526962 196.0
172.547882 172.0
172.581863 192.0
172.621094 32.0
172.963821 180.0
172.982147 76.0
173.051285 176.0
173.068542 208.0
173.139236 172.0
173.440552 60.0
173.525406 172.0
173.558517 124.0
173.723755 140.0
173.983551 136.0
174.007187 140.0
174.030807 188.0
174.330261 112.0
174.509003 152.0
174.537933 200.0
174.645752 152.0
174.79834 200.0
174.850967 104.0
174.929932 192.0
175.143219 172.0
175.25914 164.0
175.375092 148.0
175.512177 156.0
175.720551 144.0
175.976562 228.0
175.997681 160.0
176.100677 168.0
176.153503 132.0
176.171997 148.0
176.261826 56.0
176.290894 48.0
176.330536 152.0
176.647827 148.0
176.79071 116.0
176.846283 104.0
176.883743 160.0
176.952164 188.0
177.05809 316.0
177.132248 132.0
177.198486 72.0
177.276718 144.0
177.431702 232.0
177.515228 112.0
177.5802 164.0
177.605469 236.0
177.731415 144.0
177.75795 192.0
177.880035 152.0
177.941101 176.0
177.959686 192.0
178.019699 160.0
178.064636 3444.0
178.145584 204.0
178.19075 132.0
178.251862 188.0
178.286407 44.0
178.339569 224.0
178.453873 132.0
178.499069 232.0
178.711197 144.0
178.730499 40.0
178.759766 204.0
178.844467 184.0
178.966095 232.0
179.028625 236.0
179.071198 2864.0
179.175125 144.0
179.391388 196.0
179.517822 196.0
179.593643 32.0
179.684341 212.0
179.711029 132.0
179.76973 208.0
179.843124 128.0
179.988617 96.0
180.032059 60.0
180.080872 6316.0
180.118057 172.0
180.137512 48.0
180.188934 60.0
180.253067 124.0
180.3172 72.0
180.365311 140.0
180.413437 136.0
180.472046 160.0
180.520386 168.0
180.577682 188.0
180.638062 56.0
180.712967 148.0
180.739731 204.0
180.870865 96.0
180.900314 68.0
180.96991 52.0
180.988663 52.0
181.083542 2292.0
181.160065 196.0
181.200256 132.0
181.232407 56.0
181.269913 180.0
181.35675 156.0
181.390518 100.0
181.465591 52.0
181.605026 156.0
181.631851 148.0
181.682816 176.0
181.806244 116.0
181.859924 344.0
181.884079 152.0
182.05603 220.0
182.096222 2688.0
182.168716 140.0
182.262756 176.0
182.292313 56.0
182.365021 152.0
182.399826 28.0
182.429382 188.0
182.51004 148.0
182.547684 196.0
182.569199 140.0
182.588593 172.0
182.717148 232.0
182.999741 52.0
183.048203 64.0
183.067062 188.0
183.098923 760.0
183.209808 184.0
183.252914 100.0
183.48201 120.0
183.560196 68.0
183.608734 180.0
183.641098 116.0
183.935211 100.0
183.987518 196.0
184.021591 80.0
184.102936 132.0
184.159317 160.0
184.229553 164.0
184.31601 124.0
184.402481 68.0
184.580917 212.0
184.599838 132.0
184.618774 132.0
184.723236 192.0
184.778366 192.0
184.829376 168.0
184.938019 144.0
185.208786 64.0
185.241287 188.0
185.482452 128.0
185.661407 120.0
185.767181 80.0
185.794312 112.0
185.848572 128.0
185.886566 180.0
185.924561 104.0
186.038559 148.0
186.09285 128.0
186.114853 224.0
186.168884 72.0
186.309082 168.0
186.459564 36.0
186.682495 176.0
186.736893 128.0
186.829376 80.0
186.864746 244.0
186.981354 56.0
187.248566 88.0
187.769104 224.0
187.968262 180.0
188.099258 80.0
188.224854 140.0
188.263077 168.0
188.309509 152.0
188.599121 208.0
188.713943 112.0
188.8452 192.0
188.921799 120.0
189.073044 160.0
189.332367 52.0
189.499466 192.0
189.518646 164.0
189.592621 176.0
189.776291 212.0
189.839355 208.0
190.067062 540.0
190.102707 160.0
190.196014 160.0
190.261902 212.0
190.484344 204.0
190.503571 144.0
190.625198 180.0
190.860855 272.0
190.974457 340.0
191.071259 1668.0
191.196793 232.0
191.518982 84.0
191.551651 176.0
191.58876 152.0
191.626022 56.0
191.750031 144.0
191.849258 236.0
191.868561 164.0
191.992645 84.0
192.029327 160.0
192.07962 908.0
192.160904 216.0
192.237045 208.0
192.298172 236.0
192.345795 140.0
192.467407 144.0
192.522003 200.0
192.566696 52.0
192.660614 212.0
192.749939 240.0
192.964615 140.0
193.022675 184.0
193.080276 1256.0
193.148834 188.0
193.310364 132.0
193.401688 172.0
193.433731 140.0
193.505829 136.0
193.524521 248.0
193.573349 104.0
193.59549 56.0
193.622101 152.0
193.64534 160.0
193.717453 124.0
193.803253 180.0
193.823502 124.0
193.858414 132.0
193.892349 156.0
193.91861 176.0
193.949692 296.0
193.980621 180.0
194.084427 43380.0
194.144211 152.0
194.169159 68.0
194.195511 56.0
194.221863 64.0
194.277344 48.0
194.286285 36.0
194.31279 288.0
194.358444 224.0
194.401245 128.0
194.417526 208.0
194.462021 108.0
194.494644 220.0
194.55896 168.0
194.58371 92.0
194.622208 156.0
194.703186 188.0
194.72702 196.0
194.762177 224.0
194.778992 56.0
194.789719 132.0
194.843506 168.0
194.877991 240.0
194.912079 252.0
194.951889 176.0
194.989761 84.0
195.01564 208.0
195.092346 173364.0
195.166489 72.0
195.208206 136.0
195.265381 152.0
195.276062 176.0
195.317032 216.0
195.398071 356.0
195.425201 168.0
195.445923 88.0
195.476929 96.0
195.495224 148.0
195.54921 892.0
195.581482 196.0
195.607697 76.0
195.660141 100.0
195.720352 80.0
195.771805 132.0
195.832092 112.0
195.863953 100.0
195.90535 160.0
195.94577 92.0
195.979004 132.0
196.000015 60.0
196.036789 224.0
196.094894 20608.0
196.159866 136.0
196.23671 184.0
196.278214 108.0
196.300278 188.0
196.325012 200.0
196.352371 28.0
196.400513 68.0
196.441498 176.0
196.462204 128.0
196.487854 80.0
196.515213 76.0
196.5354 144.0
196.574722 80.0
196.638153 112.0
196.659286 100.0
196.680527 72.0
196.698364 140.0
196.771591 68.0
196.815536 76.0
196.853958 108.0
196.904312 68.0
196.962463 96.0
197.055817 64.0
197.096313 960.0
197.136856 48.0
197.177216 60.0
197.206726 96.0
197.249359 156.0
197.283829 84.0
197.290421 72.0
197.314423 136.0
197.343521 148.0
197.373459 56.0
197.400238 36.0
197.457123 100.0
197.487869 188.0
197.523453 116.0
197.560074 168.0
197.591461 68.0
197.652893 240.0
197.669403 144.0
197.723602 108.0
197.753052 140.0
197.778778 84.0
197.819305 52.0
197.855698 36.0
197.879745 88.0
197.919281 84.0
198.006897 96.0
198.046112 56.0
198.098129 188.0
198.155365 60.0
198.205795 28.0
198.254318 164.0
198.272247 180.0
198.351532 108.0
198.380737 76.0
198.458069 112.0
198.477692 148.0
198.525757 56.0
198.575836 160.0
198.606689 84.0
198.651871 80.0
198.72171 92.0
198.828339 76.0
198.86203 116.0
199.022034 52.0
199.086624 48.0
199.272018 112.0
199.311356 40.0
199.347885 116.0
199.460297 136.0
199.522141 48.0
199.820267 64.0
200.039764 76.0
200.307281 92.0
200.473511 64.0
200.5327 56.0
200.919022 68.0
201.079849 232.0
201.141953 76.0
201.507309 172.0
201.526031 144.0
201.549133 68.0
201.811493 128.0
202.063217 60.0
202.106979 112.0
202.159424 164.0
202.55014 56.0
202.836334 184.0
203.068405 156.0
203.156769 144.0
203.239044 152.0
203.270264 116.0
203.503006 52.0
203.534241 120.0
203.599564 92.0
203.713165 76.0
204.081482 696.0
204.170792 72.0
204.660233 168.0
204.927963 112.0
204.97641 168.0
205.076431 812.0
205.386948 36.0
205.592361 132.0
205.620911 48.0
205.906403 32.0
206.085617 1056.0
206.209259 84.0
206.332504 104.0
206.480865 84.0
206.844238 152.0
207.093536 2292.0
207.162094 44.0
207.276688 104.0
207.543274 72.0
207.577682 136.0
207.629303 192.0
207.70961 124.0
207.812881 100.0
208.098907 824.0
208.447449 76.0
208.51355 72.0
208.573914 104.0
208.711899 56.0
208.976517 192.0
209.025436 172.0
209.043442 140.0
209.106934 19912.0
209.185654 104.0
209.208679 48.0
209.261459 68.0
209.287384 112.0
209.31041 32.0
209.330566 64.0
209.43425 56.0
209.461395 104.0
209.513657 84.0
209.723694 88.0
209.782913 56.0
209.912659 48.0
209.964569 196.0
210.039551 80.0
210.11058 3036.0
210.146301 184.0
210.173386 108.0
210.225571 76.0
210.356979 44.0
210.497131 140.0
210.53598 80.0
210.703522 48.0
210.830658 48.0
210.900192 68.0
210.998306 76.0
211.053238 56.0
211.117432 40.0
211.166016 80.0
211.43219 84.0
211.620346 212.0
211.660889 60.0
212.2491 68.0
212.849747 88.0
212.951385 68.0
213.40181 92.0
213.619934 92.0
214.108917 52.0
214.199219 68.0
214.840546 124.0
215.114853 60.0
215.155716 120.0
215.383499 116.0
215.988556 144.0
216.078705 344.0
216.105576 72.0
216.357285 32.0
216.491959 48.0
216.866974 136.0
217.085709 452.0
217.397812 52.0
218.090561 1128.0
218.187927 172.0
218.405548 112.0
218.570297 48.0
218.82637 216.0
218.879364 184.0
219.029556 204.0
219.053131 84.0
219.092377 4412.0
219.474579 44.0
219.796082 168.0
219.884613 44.0
219.937744 100.0
220.09668 1380.0
220.224152 28.0
220.522568 176.0
220.708801 116.0
221.04306 132.0
221.107239 1384.0
221.496033 48.0
221.52269 112.0
221.727142 52.0
221.819016 132.0
222.113831 516.0
222.145218 116.0
222.477585 92.0
222.789398 76.0
223.121033 2752.0
223.156494 132.0
223.36908 64.0
223.40477 136.0
223.482132 116.0
223.574371 112.0
223.633896 108.0
223.770828 164.0
224.129639 852.0
224.617188 84.0
224.638062 60.0
225.043945 84.0
225.127548 136.0
225.486053 92.0
225.506973 76.0
225.614594 104.0
225.817917 72.0
226.018356 40.0
226.164993 68.0
227.360855 180.0
228.117752 124.0
228.340256 164.0
228.966263 212.0
231.091385 140.0
232.103043 156.0
233.068283 180.0
233.105591 900.0
233.560791 144.0
234.110046 404.0
234.529053 68.0
234.772964 44.0
235.121582 3648.0
235.309998 48.0
235.426041 68.0
235.865997 120.0
236.121902 588.0
236.168701 68.0
236.480789 68.0
236.548126 32.0
236.884979 188.0
237.016708 96.0
237.137604 452.0
237.583923 52.0
237.795654 112.0
238.133377 152.0
238.16716 284.0
239.563705 72.0
240.124695 92.0
240.507278 152.0
241.545517 36.0
242.186249 80.0
242.455795 196.0
242.492981 144.0
243.818207 84.0
244.110428 64.0
244.290833 100.0
247.204971 64.0
247.405289 92.0
248.119568 192.0
249.129623 236.0
250.139542 156.0
251.144699 36.0
251.570694 44.0
255.093323 112.0
258.114685 196.0
258.76532 68.0
260.371826 84.0
261.590424 36.0
262.129364 180.0
263.073303 52.0
263.405914 124.0
264.144714 1100.0
265.155792 256.0
265.35733 116.0
265.393005 168.0
265.814697 152.0
266.067841 168.0
266.162628 2836.0
266.211578 128.0
266.347137 128.0
266.493317 40.0
266.616791 92.0
267.05896 64.0
267.171173 576.0
267.429871 60.0
268.055176 92.0
268.16922 148.0
268.602905 100.0
271.225342 36.0
272.317963 52.0
274.615295 44.0
276.67395 132.0
276.700439 68.0
277.293396 76.0
277.548645 40.0
278.80011 44.0
279.165802 36.0
280.084381 88.0
280.480896 60.0
280.98111 76.0
281.618683 32.0
286.64093 48.0
287.460358 52.0
290.960175 108.0
303.809814 48.0
311.345825 48.0
312.213867 80.0
312.618439 52.0
313.037354 76.0
314.45105 128.0
315.05838 40.0
316.487244 48.0
318.444763 76.0
321.806396 92.0
323.998779 108.0
324.830475 104.0
327.519196 128.0
329.05545 68.0
331.77243 72.0
334.653503 84.0
339.033295 80.0
341.860992 48.0
342.483185 96.0
342.582642 104.0
346.139404 92.0
346.999023 104.0
349.774048 56.0
353.970459 116.0
360.194885 100.0
365.928925 52.0
367.289398 56.0
382.939056 48.0
384.674194 60.0
386.202026 124.0
387.168762 52.0
389.600647 52.0
390.890259 148.0
392.552612 40.0
394.206635 68.0
402.037872 116.0
404.495941 56.0
408.271454 144.0
435.741547 104.0
449.675812 92.0
452.588501 104.0
453.43573 108.0
455.425598 112.0
482.193024 52.0
486.476837 136.0
502.935303 92.0
505.464813 56.0
506.091492 32.0
515.506287 104.0
520.307495 64.0
522.775635 84.0
526.79248 48.0
531.076965 80.0
531.223694 92.0
533.653198 92.0
537.97467 92.0
543.301208 116.0
548.388367 72.0
548.747314 60.0
552.460144 76.0
555.322144 140.0
563.73053 84.0
564.501038 44.0
565.144348 48.0
566.687866 68.0
568.480225 88.0
579.394531 128.0
583.488281 52.0
585.229919 144.0
585.701904 116.0
590.499573 36.0
599.144836 112.0
605.867126 56.0
619.830505 32.0
629.89032 56.0
659.476807 48.0
663.331116 68.0
665.531128 68.0
675.509766 92.0
679.156372 80.0
680.022888 124.0
682.594421 56.0
694.685486 120.0
697.479126 60.0
710.644836 76.0
716.940735 44.0
747.035034 60.0
752.031799 132.0
770.609802 64.0
780.192261 72.0
782.790649 52.0
785.398926 120.0
807.930969 96.0
827.68103 100.0
839.236145 140.0
857.934021 36.0
874.440857 56.0
877.167969 108.0
891.431824 100.0
905.990356 92.0
920.757385 168.0
931.380981 36.0
935.522095 148.0
955.571472 248.0
964.056091 172.0
968.393005 100.0
969.594971 112.0
970.630188 136.0
979.206177 136.0
989.027588 44.0
990.110718 44.0
992.178528 200.0
1009.835449 212.0
1012.974976 176.0
1016.335083 136.0
1017.585449 72.0
1024.339355 168.0
1024.434814 40.0
1028.29895 184.0
1028.81604 124.0
1039.241699 92.0
1039.723022 176.0
1039.774414 128.0
1049.662109 80.0
1050.184448 36.0
1054.924072 112.0
1059.823242 188.0
1061.476196 108.0
1064.818359 160.0
1066.748169 176.0
1071.081909 128.0
1076.958862 64.0
1078.389771 208.0
1080.973022 184.0
1087.520142 184.0
1090.258911 144.0
1092.080078 128.0
1095.812622 148.0
1097.018677 88.0
1097.473511 176.0
1105.764038 168.0
1109.069092 180.0
1111.091675 216.0
1111.157959 168.0
1111.562744 144.0
1119.88623 144.0
1125.868652 140.0
1127.291626 144.0
1131.860352 116.0
1132.478394 148.0
1132.791382 128.0
1135.854736 100.0
1136.384766 56.0
1137.532349 104.0
1137.706909 208.0
1139.291748 144.0
1143.3396 128.0
1144.221436 156.0
1146.356567 60.0
1147.657593 64.0
1149.242554 60.0
1160.694092 124.0
1162.061279 184.0
1165.146606 168.0
1169.280884 212.0
1173.047607 156.0
1177.325562 160.0
1180.523804 208.0
1180.612671 212.0
1183.507324 40.0
1185.267578 116.0
1186.138062 160.0
1186.727661 120.0
1186.830444 140.0
1192.700195 152.0
1194.164673 100.0
1195.602661 192.0
1195.905518 180.0
1199.370117 72.0
1201.609863 168.0
1207.655762 68.0
1208.928711 124.0
1210.659424 212.0
1213.729248 104.0
1215.463379 192.0
1218.442017 148.0
1219.275879 172.0
1220.262939 144.0
1220.83313 216.0
1222.238281 152.0
1224.013306 140.0
1225.545654 188.0
1229.527466 192.0
1231.398438 80.0
1235.697632 120.0
1236.054443 240.0
1237.9375 168.0
1238.805908 176.0
1239.21936 164.0
1241.294067 196.0
1241.756958 168.0
1242.682861 132.0
1242.907471 132.0
1243.370605 48.0
1243.581177 140.0
1243.911011 180.0
1245.469849 60.0
1247.346069 64.0
1247.528809 172.0
1248.386597 212.0
1251.588379 108.0
1256.881958 52.0
1257.411255 112.0
1257.728882 164.0
1269.437866 164.0
1269.575073 116.0
1269.735718 200.0
1271.473877 200.0
1271.764893 148.0
1273.326904 160.0
1273.731689 124.0
1275.813843 124.0
1278.210815 260.0
1282.526611 196.0
1283.146729 128.0
1285.793213 168.0
1294.178345 168.0
1295.059204 176.0
1298.277222 84.0
1301.283813 48.0
1301.736084 212.0
1303.10083 56.0
1304.308228 76.0
1305.659912 132.0
1308.876587 172.0
1310.403564 128.0
1312.847168 176.0
1316.040161 156.0
1318.413208 156.0
1318.557739 172.0
1320.010864 180.0
1321.037842 216.0
1321.536987 136.0
1321.703491 132.0
1322.311279 152.0
1322.752808 132.0
1322.86145 196.0
1326.512451 184.0
1328.177734 208.0
1330.316895 200.0
1331.366455 172.0
1331.431763 136.0
1331.838501 232.0
1333.749512 144.0
1334.854614 148.0
1336.200195 128.0
1337.022461 68.0
1338.463867 168.0
1340.503418 148.0
1342.187256 84.0
1342.427979 164.0
1342.894653 228.0
1345.149414 172.0
1346.755737 184.0
1347.230591 72.0
1351.668579 80.0
1355.542358 148.0
1359.20874 160.0
1367.141602 192.0
1368.035767 128.0
1368.286011 136.0
1368.470093 120.0
1369.41272 124.0
1371.623169 132.0
1374.351929 148.0
1374.720825 36.0
1379.262939 76.0
1380.172363 224.0
1381.200317 44.0
1384.353149 152.0
1385.43457 56.0
1388.770264 160.0
1388.911255 240.0
1389.571533 160.0
1390.209595 260.0
1390.810791 168.0
1391.308105 136.0
1391.86499 32.0
1393.967163 132.0
1395.059692 96.0
1395.334839 100.0
1398.920654 48.0
1400.283203 168.0
1400.447144 164.0
1400.596069 44.0
1400.916382 44.0
1405.800049 232.0
1406.949585 124.0
1409.967285 116.0
1410.654907 216.0
1413.826294 216.0
1414.769409 56.0
1415.697754 140.0
1416.686523 48.0
1416.911255 204.0
1418.814819 92.0
1422.475708 168.0
1423.271484 152.0
1423.887329 124.0
1425.307129 196.0
1426.223999 116.0
1428.028564 88.0
1428.096191 48.0
1428.724121 248.0
1429.939575 76.0
1430.511597 140.0
1434.180054 164.0
1438.147461 160.0
1438.434326 180.0
1438.524902 136.0
1442.808228 144.0
1442.951904 160.0
1443.246826 228.0
1443.768555 120.0
1444.411377 152.0
1444.532471 236.0
1444.948486 140.0
1445.077148 284.0
1446.530151 156.0
1449.21875 168.0
1449.590088 36.0
1451.121216 136.0
1451.62915 120.0
1452.751709 120.0
1456.296631 208.0
1456.911865 48.0
1457.595703 124.0
1457.785645 112.0
1460.910645 212.0
1462.531494 136.0
1462.752197 224.0
1464.579712 188.0
1464.831055 156.0
1466.652222 136.0
1467.284912 216.0
1468.482178 76.0
1470.48877 132.0
1470.768433 228.0
1470.946655 156.0
1472.175903 156.0
1473.971069 172.0
1475.117554 192.0
1475.805542 256.0
1476.708008 164.0
1476.815063 260.0
1481.361816 160.0
1482.764038 36.0
1483.262207 176.0
1484.182251 192.0
1485.286621 164.0
1486.283936 160.0
1489.508423 212.0
1489.623657 144.0
1490.437988 216.0
1492.305786 108.0
1494.197754 136.0
1494.736328 156.0
1495.390503 168.0
1496.853271 44.0
1497.115112 188.0
1499.395386 188.0
1500.559448 184.0
1500.883301 68.0
1501.754639 152.0
1502.873291 160.0
1503.042969 272.0
1503.575439 96.0
1504.100342 232.0
1504.162109 192.0
