>compound MLS000028616-01!ATROPINE METHYL NITRATE
>formula C18H26NO3
>ionization [M+H]+
>parentmass 305.19854514409053
#inchi InChI=1S/C18H26NO3/c1-19(2)14-8-9-15(19)11-16(10-14)22-18(21)17(12-20)13-6-4-3-5-7-13/h3-7,14-17,20H,8-12H2,1-2H3/q+1/t14-,15+,16+,17?
#inchikey PIPAJLPNWZMYQA
#origInchi InChI=1S/C18H26NO3.NO3/c1-19(2)14-8-9-15(19)11-16(10-14)22-18(21)17(12-20)13-6-4-3-5-7-13;2-1(3)4/h3-7,14-17,20H,8-12H2,1-2H3;/q+1;-1/t14-,15+,16+,17?;
#Ion_Source LC-ESI
#Instrument qTof
#Compound_Source NIH Pharmacologically Active Library
#PI Dorrestein
#Data_Collector VP/LMS
#Scan -1
#Precursor_MZ 304.191
#ExactMass 304.191
#Charge 1
#CAS_Number N/A
#Pubmed_ID N/A
#Smiles C[N+]1(C)[C@H]2CC[C@@H]1C[C@@H](C2)OC(=O)C(CO)c3ccccc3.[O-][N+](=O)[O-]
#INCHI_AUX N/A
#Library_Class 1
#SpectrumID CCMSLIB00000085011
#IonMode Positive
#UpdateWorkflowName UPDATE-SINGLE-ANNOTATED-GOLD
#LibraryQualityString Gold
#TaskID d252d724072548979f1f6f1ced849daf
##Scan# 1267
#SpectrumFile p3-D09_GD9_01_18266.mzXML
#LibraryName Pharm_Active_Library.mgf
#MQScore -1
#Organism Pharm_Active_Library
#TIC_Query 0
#RT_Query -1
#MZErrorPPM -1
#SharedPeaks 0
#MassDiff 0
#LibMZ -1
#SpecMZ 304.191
#SpecCharge 0
#internalFilename spec-00000.mgf

>collision 10
44.891357 120.0
44.964733 116.0
45.012573 144.0
45.062222 160.0
45.07959 136.0
45.22002 84.0
45.280273 176.0
45.423698 160.0
45.435772 32.0
45.652008 196.0
45.6884 124.0
45.726032 148.0
45.831078 124.0
46.072594 104.0
46.167217 44.0
46.184799 44.0
46.20509 176.0
46.341785 188.0
46.390633 252.0
46.508652 164.0
46.590134 176.0
46.61731 164.0
46.751945 180.0
46.829552 40.0
47.018539 184.0
47.341022 148.0
47.400635 164.0
47.422562 48.0
47.467808 104.0
47.500725 180.0
47.544632 200.0
47.56934 240.0
47.617397 208.0
47.628387 92.0
47.659988 120.0
47.710842 48.0
47.739719 96.0
47.752094 192.0
47.797337 172.0
47.874008 192.0
47.998615 204.0
48.049652 148.0
48.059311 212.0
48.089672 204.0
48.15733 180.0
48.284489 192.0
48.44783 164.0
48.461685 196.0
48.497719 76.0
48.535149 160.0
48.558727 144.0
48.682247 212.0
48.715584 208.0
48.758659 100.0
48.81501 188.0
48.830959 156.0
48.844307 172.0
48.865738 124.0
48.944508 168.0
49.041206 220.0
49.077454 264.0
49.138828 136.0
49.180695 116.0
49.197445 136.0
49.296619 124.0
49.324574 168.0
49.436466 144.0
49.51907 288.0
49.558296 128.0
49.629784 100.0
49.669052 156.0
49.743427 172.0
49.795383 160.0
49.890938 160.0
49.957035 60.0
49.972511 156.0
50.005623 212.0
50.055561 176.0
50.069645 116.0
50.095001 192.0
50.336052 204.0
50.382801 104.0
50.511448 68.0
50.575127 168.0
50.735203 184.0
50.845848 64.0
50.885597 168.0
50.958035 140.0
51.129932 200.0
51.14576 184.0
51.161419 152.0
51.212685 88.0
51.357903 232.0
51.520813 148.0
51.535103 168.0
51.55368 176.0
51.572128 216.0
51.589413 140.0
51.700985 176.0
51.741325 176.0
51.882164 240.0
51.967525 228.0
52.036419 112.0
52.055088 228.0
52.093868 116.0
52.2439 248.0
52.256329 80.0
52.331177 172.0
52.359978 200.0
52.498333 160.0
52.595005 148.0
52.606552 156.0
52.671535 160.0
52.755352 132.0
52.766918 176.0
52.933323 180.0
53.070984 140.0
53.216084 136.0
53.341129 168.0
53.431129 180.0
53.445744 140.0
53.547649 204.0
53.578239 32.0
53.600098 112.0
53.611755 148.0
53.637993 172.0
53.741539 96.0
53.779484 128.0
53.821823 68.0
53.966484 60.0
54.003044 64.0
54.419243 128.0
54.450081 120.0
54.464771 132.0
54.485336 184.0
54.608818 120.0
54.677971 72.0
54.850307 92.0
54.878319 216.0
54.89159 48.0
54.931412 160.0
54.952667 204.0
55.006676 128.0
55.022915 220.0
55.053925 156.0
55.158829 180.0
55.217976 64.0
55.456131 184.0
55.487488 148.0
55.517147 156.0
55.530495 188.0
55.601711 148.0
55.638821 196.0
55.7859 120.0
55.80077 180.0
55.822933 172.0
55.863232 156.0
55.879597 156.0
56.176079 172.0
56.283539 156.0
56.299965 76.0
56.401566 132.0
56.43745 172.0
56.509247 164.0
56.534683 276.0
56.545158 144.0
56.582584 308.0
56.597557 260.0
56.706921 200.0
56.792389 112.0
56.887119 184.0
56.906818 192.0
57.019108 168.0
57.28426 188.0
57.332157 164.0
57.393963 172.0
57.430157 172.0
57.548107 180.0
57.621883 208.0
57.661171 336.0
57.691402 240.0
58.018414 140.0
58.042675 84.0
58.074524 172.0
58.126106 220.0
58.15646 116.0
58.233898 148.0
58.288589 160.0
58.417828 96.0
58.500008 208.0
58.65844 108.0
58.694996 176.0
58.772827 120.0
58.900402 164.0
59.225365 168.0
59.268261 44.0
59.290756 100.0
59.397045 280.0
59.415775 208.0
59.472233 128.0
59.558224 232.0
59.67041 244.0
59.685783 148.0
59.741154 176.0
59.811943 92.0
59.876614 184.0
59.998348 104.0
60.095516 168.0
60.166515 168.0
60.206661 152.0
60.27309 136.0
60.355015 180.0
60.443188 108.0
60.562397 108.0
60.579437 168.0
60.607845 204.0
60.728252 148.0
60.74221 164.0
60.788757 156.0
60.812038 108.0
60.894329 180.0
60.920738 172.0
60.959221 120.0
61.085522 112.0
61.122864 84.0
61.141541 120.0
61.21315 156.0
61.234955 208.0
61.284515 236.0
61.306622 124.0
61.333118 156.0
61.422001 192.0
61.434483 240.0
61.529682 136.0
61.614021 236.0
61.682785 196.0
61.919056 188.0
61.980152 148.0
62.119694 192.0
62.144794 156.0
62.227985 160.0
62.253109 152.0
62.569164 124.0
62.75193 60.0
62.786621 196.0
62.850338 144.0
62.939697 144.0
62.979183 192.0
62.996559 208.0
63.179947 184.0
63.308548 228.0
63.584019 112.0
63.595131 176.0
63.676105 196.0
63.687225 140.0
63.776207 136.0
63.90184 196.0
63.992565 116.0
64.183777 136.0
64.202911 208.0
64.255554 120.0
64.289062 56.0
64.34333 220.0
64.517479 220.0
64.591042 180.0
64.610237 204.0
64.898537 124.0
65.073433 148.0
65.084671 136.0
65.257774 240.0
65.300018 164.0
65.357933 156.0
65.39978 204.0
65.415878 164.0
65.456123 208.0
65.48658 220.0
65.623711 168.0
65.759216 124.0
65.797958 56.0
65.93203 156.0
65.983757 144.0
66.119644 172.0
66.134209 44.0
66.242699 124.0
66.339935 228.0
66.4077 172.0
66.555725 104.0
66.567093 128.0
66.604446 104.0
66.64019 156.0
66.762108 184.0
66.947632 172.0
67.006271 156.0
67.101868 172.0
67.161148 212.0
67.325996 120.0
67.337425 168.0
67.585915 308.0
67.607193 124.0
67.710335 68.0
67.766029 148.0
67.784058 268.0
67.885689 144.0
67.993973 360.0
68.123688 136.0
68.242027 164.0
68.281494 124.0
68.34565 152.0
68.36869 192.0
68.381851 140.0
68.5103 196.0
68.544899 112.0
68.627319 64.0
68.736183 156.0
68.902954 116.0
69.005424 164.0
69.256973 92.0
69.306671 184.0
69.338158 124.0
69.349762 108.0
69.455887 168.0
69.487404 156.0
69.721542 180.0
69.801338 184.0
69.92778 164.0
69.954414 224.0
69.971062 148.0
70.067657 232.0
70.078789 188.0
70.218422 136.0
70.386238 212.0
70.397934 196.0
70.558342 80.0
70.576736 68.0
70.777534 68.0
70.797623 108.0
70.817726 192.0
70.978615 128.0
71.104431 32.0
71.131294 244.0
71.198456 52.0
71.326149 136.0
71.40686 176.0
71.529694 144.0
71.576836 200.0
71.612198 100.0
71.935959 108.0
71.951157 196.0
72.071075 136.0
72.218155 204.0
72.229996 172.0
72.265526 144.0
72.304443 180.0
72.443291 32.0
72.66539 56.0
72.755341 152.0
72.810989 192.0
72.817619 148.0
72.988113 164.0
73.098686 252.0
73.132729 56.0
73.163368 92.0
73.287697 176.0
73.36068 176.0
73.389969 156.0
73.412994 152.0
73.459724 156.0
73.478668 44.0
73.544472 220.0
73.72419 204.0
73.771698 172.0
73.883575 156.0
74.008522 228.0
74.047913 156.0
74.063324 188.0
74.18499 36.0
74.241577 128.0
74.291321 144.0
74.351379 176.0
74.487022 124.0
74.533409 236.0
74.562378 196.0
74.672661 148.0
74.865417 108.0
74.955002 84.0
74.995712 224.0
75.180908 160.0
75.268951 176.0
75.384781 152.0
75.427902 324.0
75.484955 176.0
75.897087 144.0
75.926567 56.0
76.049751 136.0
76.081001 72.0
76.194305 168.0
76.22567 180.0
76.388596 168.0
76.414696 176.0
76.532845 168.0
76.597061 160.0
76.669365 160.0
76.714249 172.0
76.78051 136.0
77.063309 88.0
77.287117 100.0
77.336121 164.0
77.369133 192.0
77.511253 188.0
77.579613 136.0
77.669044 144.0
77.811195 168.0
77.886711 124.0
78.041367 136.0
78.229622 108.0
78.275398 76.0
78.395187 168.0
78.488617 176.0
78.532707 96.0
78.673882 108.0
78.707428 164.0
78.765709 184.0
78.809875 40.0
78.822243 192.0
78.998856 324.0
79.091072 168.0
79.342216 156.0
79.345879 120.0
79.361923 140.0
79.509369 136.0
79.562622 112.0
79.663849 140.0
79.742035 164.0
79.894958 268.0
79.948341 168.0
80.128189 156.0
80.158478 176.0
80.190559 144.0
80.2173 80.0
80.265434 152.0
80.281487 72.0
80.343918 148.0
80.433144 160.0
80.542068 112.0
80.599243 152.0
80.631409 196.0
80.674309 56.0
80.690399 172.0
80.763718 252.0
80.785187 76.0
80.797707 120.0
80.912254 168.0
80.935532 232.0
80.987465 76.0
81.259956 132.0
81.437683 196.0
81.480797 52.0
81.527512 100.0
81.718124 96.0
81.734314 156.0
81.777512 200.0
81.798607 256.0
82.071159 132.0
82.34005 188.0
82.743294 108.0
82.761406 124.0
82.803055 160.0
82.841095 96.0
83.033234 308.0
83.212883 176.0
83.280075 172.0
83.594604 188.0
83.634445 184.0
83.98085 204.0
84.148224 136.0
84.252846 228.0
84.283905 128.0
84.307663 76.0
84.378952 104.0
84.404549 168.0
84.450546 160.0
84.512466 168.0
84.616798 164.0
84.684555 112.0
84.785324 148.0
84.823814 180.0
84.974197 184.0
85.007225 168.0
85.075569 172.0
85.17247 160.0
85.369125 180.0
85.407753 140.0
85.525513 216.0
85.540245 164.0
85.626785 196.0
85.639679 148.0
85.737328 28.0
85.775002 192.0
85.888519 212.0
85.914345 232.0
86.019531 148.0
86.04538 148.0
86.065689 144.0
86.158035 144.0
86.287415 120.0
86.405777 192.0
86.448341 168.0
86.592743 152.0
86.633499 168.0
86.648209 196.0
86.689087 140.0
86.922745 224.0
86.989555 144.0
87.247787 200.0
87.400299 184.0
87.452408 176.0
87.480331 144.0
87.493362 68.0
87.508263 200.0
87.71505 128.0
87.774902 196.0
87.793365 176.0
87.85305 192.0
88.194786 108.0
88.271439 132.0
88.554031 172.0
88.586174 200.0
88.672073 120.0
88.762573 200.0
88.780853 192.0
88.899002 340.0
88.914017 204.0
88.970329 164.0
88.987228 152.0
89.094276 192.0
89.184479 84.0
89.250282 192.0
89.314224 160.0
89.368782 144.0
89.555153 140.0
89.70385 136.0
89.756813 160.0
89.794525 472.0
89.869987 172.0
89.930374 140.0
89.958733 184.0
90.01722 224.0
90.08522 180.0
90.121117 196.0
90.183479 176.0
90.217506 212.0
90.240196 168.0
90.300705 136.0
90.444916 204.0
90.461548 52.0
90.63958 168.0
90.654739 288.0
90.817795 148.0
90.846245 128.0
90.922142 128.0
90.958206 148.0
90.97802 212.0
91.053726 3940.0
91.189369 224.0
91.245071 172.0
91.31543 136.0
91.342056 204.0
91.41349 184.0
91.485847 244.0
91.534286 116.0
91.621902 136.0
91.755318 180.0
91.843948 132.0
91.860207 100.0
91.932709 152.0
91.995697 152.0
92.012878 68.0
92.057396 220.0
92.150398 52.0
92.22493 220.0
92.253601 244.0
92.298912 172.0
92.320526 148.0
92.379814 56.0
92.402779 176.0
92.45253 48.0
92.502289 52.0
92.517609 184.0
92.532921 228.0
92.553986 208.0
92.60952 84.0
92.701485 192.0
92.714905 136.0
92.728317 188.0
92.810753 192.0
92.863457 188.0
93.039238 140.0
93.069229 6876.0
93.152374 72.0
93.225388 180.0
93.248451 188.0
93.267952 184.0
93.471535 200.0
93.531204 212.0
93.608215 140.0
93.891502 244.0
93.985992 204.0
94.070747 648.0
94.173294 156.0
94.250572 132.0
94.265572 168.0
94.540642 104.0
94.623878 212.0
94.681969 96.0
94.773018 40.0
94.833778 136.0
94.854416 160.0
94.914513 208.0
95.085899 3512.0
95.180359 52.0
95.207542 204.0
95.310501 208.0
95.324104 140.0
95.347427 236.0
95.368805 48.0
95.448517 48.0
95.504913 344.0
95.561333 180.0
95.862007 224.0
95.896286 160.0
95.962746 176.0
96.046425 260.0
96.081291 956.0
96.196678 136.0
96.249397 136.0
96.372063 200.0
96.46431 128.0
96.567947 56.0
96.693169 240.0
96.83609 60.0
97.090195 512.0
97.278336 164.0
97.491379 216.0
97.511032 64.0
97.526756 104.0
97.625061 80.0
97.660461 32.0
97.786385 28.0
97.861191 168.0
97.901245 176.0
98.090279 180.0
98.210014 192.0
98.29287 128.0
98.322472 200.0
98.411308 148.0
98.545616 32.0
98.964943 84.0
99.002563 124.0
99.024353 168.0
99.043098 336.0
99.081795 56.0
99.150963 208.0
99.196739 164.0
99.254234 56.0
99.329605 152.0
99.406982 176.0
99.420876 136.0
99.476448 212.0
99.692947 152.0
99.722755 72.0
99.820175 168.0
99.905701 108.0
100.029083 156.0
100.100761 52.0
100.196373 252.0
100.266113 68.0
100.469505 132.0
100.607208 168.0
100.683083 180.0
100.852913 168.0
100.928886 200.0
101.029892 168.0
101.064903 176.0
101.156967 112.0
101.307159 136.0
101.505585 148.0
101.587822 136.0
101.623932 144.0
101.694168 140.0
101.771545 140.0
101.804596 180.0
101.903023 180.0
102.012245 92.0
102.049744 164.0
102.090775 188.0
102.254936 192.0
102.271042 164.0
102.343513 164.0
102.391846 180.0
102.484512 148.0
102.506676 184.0
102.565125 184.0
102.637703 148.0
102.698204 144.0
102.742584 148.0
102.756706 216.0
102.805138 112.0
102.901634 204.0
103.019165 164.0
103.053345 1960.0
103.104027 196.0
103.185379 148.0
103.261726 148.0
103.299606 160.0
103.316345 140.0
103.373001 116.0
103.502556 192.0
103.522804 196.0
103.577492 40.0
103.73555 156.0
103.782181 172.0
103.871422 120.0
103.942429 104.0
104.056702 248.0
104.137657 196.0
104.14167 228.0
104.411705 68.0
104.71212 152.0
104.831085 112.0
104.867775 168.0
104.961555 144.0
104.996223 180.0
105.018654 188.0
105.070877 176.0
105.112503 80.0
105.177811 244.0
105.375549 160.0
105.518974 148.0
105.750137 116.0
105.78698 220.0
105.821785 264.0
105.846359 172.0
106.012291 144.0
106.047127 248.0
106.06144 200.0
106.120926 184.0
106.190651 188.0
106.209114 40.0
106.272713 212.0
106.422546 176.0
106.547836 148.0
106.671143 216.0
106.714317 196.0
106.743103 164.0
106.920021 216.0
106.990005 176.0
107.031189 188.0
107.069702 256.0
107.08535 320.0
107.14653 108.0
107.340279 140.0
107.385651 156.0
107.573425 244.0
107.697327 100.0
107.990829 248.0
108.079239 1192.0
108.131523 84.0
108.270241 176.0
108.332382 164.0
108.375885 220.0
108.444275 176.0
108.473297 260.0
108.641273 160.0
108.7388 128.0
108.909058 52.0
108.931908 128.0
108.992493 172.0
109.088577 716.0
109.189651 124.0
109.44062 220.0
109.73732 180.0
109.856201 168.0
109.920883 60.0
109.973961 176.0
110.096169 1348.0
110.263374 192.0
110.328178 200.0
110.439003 56.0
110.482933 160.0
110.520599 44.0
110.625244 148.0
110.639412 52.0
110.8284 132.0
110.882881 56.0
110.926903 104.0
110.964638 196.0
111.010773 224.0
111.042229 204.0
111.07579 152.0
111.101006 192.0
111.124039 68.0
111.151321 180.0
111.181053 196.0
111.602936 224.0
111.62606 208.0
111.800667 68.0
111.897499 48.0
111.926979 72.0
112.01754 152.0
112.111336 528.0
112.264725 160.0
112.42659 240.0
112.555359 92.0
112.57859 128.0
112.618713 116.0
112.638367 184.0
112.785645 176.0
112.83638 112.0
112.942116 128.0
113.110718 224.0
113.208794 184.0
113.30835 208.0
113.401588 200.0
113.460945 180.0
113.50547 132.0
113.670929 168.0
113.749458 180.0
113.774933 148.0
113.852196 200.0
113.987335 108.0
114.019211 40.0
114.0681 48.0
114.195679 232.0
114.444672 216.0
114.508553 196.0
114.525597 108.0
114.549026 124.0
114.634254 216.0
114.83252 168.0
115.005478 316.0
115.171898 132.0
115.223167 208.0
115.327881 204.0
115.605919 276.0
115.627319 116.0
115.657288 192.0
115.686249 128.0
115.784103 208.0
115.858582 160.0
115.918571 48.0
116.004311 160.0
116.045044 168.0
116.102066 404.0
116.128677 208.0
116.165146 148.0
116.665512 184.0
116.721413 68.0
116.74292 52.0
116.76873 156.0
116.839714 108.0
117.1605 144.0
117.212204 92.0
117.335068 160.0
117.434265 160.0
117.464462 196.0
117.496819 176.0
117.593925 180.0
117.675957 152.0
117.952484 180.0
117.991402 96.0
118.209862 188.0
118.244492 192.0
118.491348 36.0
118.606209 160.0
118.766663 160.0
118.80629 196.0
118.851273 128.0
118.883827 72.0
118.92289 192.0
119.007561 156.0
119.055046 184.0
119.153076 96.0
119.170456 152.0
119.292168 164.0
119.66201 140.0
119.703384 168.0
120.156761 136.0
120.259323 160.0
120.639412 132.0
120.680954 124.0
120.731697 76.0
120.897514 212.0
120.998199 112.0
121.024475 136.0
121.044128 164.0
121.064224 1108.0
121.128265 276.0
121.230385 88.0
121.256683 188.0
121.357529 184.0
121.403572 148.0
121.684448 200.0
121.723969 196.0
121.875534 132.0
122.007408 160.0
122.067947 380.0
122.096405 864.0
122.12616 204.0
122.180405 176.0
122.352814 196.0
122.407867 168.0
122.526802 52.0
122.595116 128.0
122.636986 156.0
122.81575 56.0
122.859711 56.0
122.930313 164.0
123.10141 1104.0
123.212944 192.0
123.418503 196.0
123.560051 180.0
123.579964 128.0
123.675125 52.0
123.759254 180.0
123.794685 140.0
123.936455 140.0
123.998505 132.0
124.110222 700.0
124.202492 32.0
124.446609 196.0
124.684303 60.0
124.722084 180.0
124.779884 148.0
124.864388 116.0
124.924446 60.0
124.997871 216.0
125.037926 188.0
125.053505 228.0
125.080215 128.0
125.118118 156.0
125.242767 148.0
125.307373 164.0
125.586029 92.0
125.684105 216.0
125.777924 112.0
125.824806 136.0
125.9655 148.0
126.032524 176.0
126.119682 172.0
126.305275 216.0
126.347778 76.0
126.444 120.0
126.47757 192.0
126.520103 192.0
126.54158 156.0
126.656708 88.0
126.75753 144.0
127.036194 404.0
127.089394 44.0
127.174782 168.0
127.206696 212.0
127.419449 208.0
127.52282 68.0
127.659958 212.0
127.790428 80.0
127.910126 148.0
127.929962 104.0
128.040298 236.0
128.301682 160.0
128.473083 104.0
128.549789 164.0
128.893036 188.0
128.960831 112.0
129.021866 192.0
129.055786 132.0
129.44046 108.0
129.505035 224.0
129.542374 156.0
129.58316 196.0
129.619415 168.0
129.660202 152.0
129.703262 144.0
130.16156 136.0
130.24295 124.0
130.416 180.0
130.488754 40.0
130.538773 156.0
130.568344 156.0
130.718491 156.0
130.738968 100.0
130.782211 148.0
130.864166 216.0
131.135254 128.0
131.251526 184.0
131.299408 100.0
131.472382 192.0
131.591507 148.0
131.774216 80.0
131.847351 156.0
132.13089 208.0
132.174362 96.0
132.229294 192.0
132.387253 156.0
132.460556 132.0
132.602386 240.0
132.648453 172.0
132.819321 132.0
132.847961 140.0
132.916794 276.0
132.994827 192.0
133.06369 128.0
133.079773 36.0
133.17392 36.0
133.219864 120.0
133.495682 148.0
133.53212 180.0
133.578476 124.0
133.688919 136.0
133.983658 92.0
134.018326 168.0
134.087357 120.0
134.112701 152.0
134.128845 176.0
134.172638 132.0
134.308701 60.0
134.400986 176.0
134.419434 80.0
134.733459 88.0
134.862869 196.0
135.031647 100.0
135.098068 180.0
135.151947 220.0
135.207489 108.0
135.311646 180.0
135.367218 144.0
135.476089 48.0
135.717117 136.0
135.735672 132.0
135.772781 72.0
135.809891 136.0
136.021957 112.0
136.112228 588.0
136.346222 200.0
136.66713 176.0
136.697388 156.0
136.792816 84.0
136.861771 168.0
136.906906 52.0
137.039673 160.0
137.114243 64.0
137.144547 112.0
137.188843 176.0
137.240128 128.0
137.335739 164.0
137.479126 176.0
137.529694 164.0
137.580765 188.0
137.615784 176.0
137.660156 60.0
137.704529 152.0
137.734894 192.0
137.76059 128.0
137.805725 152.0
137.835358 188.0
137.89769 172.0
137.928833 212.0
137.980942 228.0
137.998123 180.0
138.029037 192.0
138.037949 156.0
138.052948 224.0
138.100967 296.0
138.127884 120424.0
138.21579 148.0
138.227798 228.0
138.23468 240.0
138.269913 176.0
138.304916 176.0
138.332748 144.0
138.3591 108.0
138.395859 64.0
138.421295 116.0
138.459976 76.0
138.482574 92.0
138.512314 460.0
138.548981 92.0
138.581787 104.0
138.600525 72.0
138.634567 76.0
138.684891 60.0
138.70787 68.0
138.757568 148.0
138.79274 48.0
138.842758 60.0
138.85173 52.0
138.861435 68.0
138.905777 60.0
138.988083 172.0
139.029663 492.0
139.101532 220.0
139.131042 14496.0
139.193283 92.0
139.238617 48.0
139.256348 80.0
139.273849 108.0
139.323883 40.0
139.358414 80.0
139.41272 64.0
139.464172 76.0
139.544098 36.0
139.562912 68.0
139.593475 36.0
139.613632 84.0
139.694611 152.0
139.723969 84.0
139.742783 76.0
139.764191 64.0
139.812271 76.0
139.884445 36.0
139.920547 92.0
139.99353 156.0
140.038284 68.0
140.075577 48.0
140.085953 120.0
140.095184 76.0
140.136993 476.0
140.179489 120.0
140.185104 176.0
140.217346 120.0
140.243149 132.0
140.276581 92.0
140.337921 80.0
140.410675 100.0
140.427185 72.0
140.51683 60.0
140.613358 44.0
140.651337 44.0
140.686752 120.0
140.837891 96.0
140.896942 72.0
140.930023 56.0
140.946564 140.0
141.010361 304.0
141.051575 248.0
141.128571 88.0
141.270477 88.0
141.405457 88.0
141.445587 84.0
141.973953 48.0
142.600739 196.0
142.748138 44.0
143.08725 196.0
143.12886 52.0
143.15506 88.0
143.419525 132.0
143.443359 160.0
143.720016 96.0
144.09726 156.0
144.317154 60.0
144.589859 156.0
144.640121 80.0
144.874802 180.0
145.057724 520.0
145.548767 96.0
145.764969 76.0
146.031815 72.0
146.250778 80.0
146.701233 124.0
146.906219 160.0
147.041336 32.0
147.310349 88.0
147.529282 72.0
147.768707 52.0
148.001068 84.0
148.112473 212.0
148.398438 140.0
148.473618 184.0
148.611877 36.0
149.095123 100.0
149.282318 108.0
149.384476 120.0
149.559677 148.0
149.793442 184.0
150.688782 208.0
151.032425 140.0
151.866272 116.0
152.204956 136.0
152.222137 152.0
152.391632 120.0
152.711212 180.0
153.432724 144.0
153.652222 180.0
153.711441 88.0
153.866943 132.0
154.044754 120.0
154.121292 1256.0
154.142349 224.0
155.131577 156.0
155.411392 128.0
155.530518 80.0
155.719208 124.0
155.813614 76.0
156.05719 172.0
156.137375 4072.0
156.246201 32.0
156.293488 48.0
156.388046 32.0
156.427872 108.0
156.73671 88.0
157.141693 596.0
157.190552 44.0
157.555084 76.0
157.860031 132.0
158.150238 128.0
158.247879 96.0
158.288727 104.0
158.937164 72.0
159.705917 56.0
159.836746 80.0
160.897873 160.0
160.988785 116.0
161.173187 220.0
161.393097 92.0
161.514481 208.0
162.342697 104.0
162.865524 108.0
163.01796 100.0
164.970367 200.0
165.638275 76.0
166.307526 180.0
166.471832 116.0
167.320358 244.0
168.51709 88.0
168.656647 180.0
168.775558 132.0
169.046753 1120.0
169.81662 172.0
170.608627 144.0
171.710083 88.0
172.054535 60.0
172.514328 112.0
173.22612 116.0
173.676987 96.0
173.721588 108.0
174.651489 92.0
175.705215 84.0
176.111755 144.0
176.156662 112.0
176.545197 100.0
176.688034 128.0
177.418991 104.0
177.800949 120.0
178.188644 80.0
178.901398 128.0
179.831696 116.0
180.27504 140.0
180.775116 148.0
181.091034 124.0
181.308044 108.0
181.817612 120.0
182.075333 144.0
182.712402 140.0
183.097321 144.0
183.21315 212.0
183.730774 80.0
184.405869 200.0
184.757004 112.0
184.814209 88.0
185.076767 180.0
185.279907 120.0
187.328278 96.0
188.086365 136.0
188.321182 172.0
188.485092 144.0
189.694809 36.0
189.851105 204.0
189.94162 56.0
190.196808 60.0
190.658234 40.0
191.453308 192.0
192.741577 148.0
194.139526 164.0
194.183899 172.0
194.250473 124.0
194.505768 96.0
195.172531 144.0
196.548569 108.0
196.936615 164.0
197.182495 144.0
197.632721 180.0
198.080673 208.0
200.057648 440.0
202.033127 76.0
202.100693 204.0
202.134979 208.0
202.253845 116.0
202.30481 144.0
203.114014 196.0
203.768204 144.0
203.864822 32.0
204.109283 144.0
205.707626 112.0
205.887512 124.0
206.147491 188.0
206.230362 76.0
206.739456 180.0
208.224533 144.0
209.253998 136.0
209.464233 212.0
209.683212 144.0
209.864822 200.0
210.029205 104.0
211.337906 180.0
211.540497 100.0
212.05899 108.0
212.903259 220.0
213.435059 204.0
214.99939 208.0
215.694534 136.0
215.817322 88.0
216.592865 176.0
217.725006 196.0
217.813126 176.0
218.671707 32.0
218.957291 64.0
219.03093 132.0
219.688293 92.0
219.79747 104.0
220.067566 752.0
220.119217 52.0
220.399841 144.0
220.541702 212.0
220.816666 88.0
221.695953 196.0
222.26532 64.0
222.300934 188.0
222.446365 104.0
223.748474 80.0
223.998627 172.0
224.29364 104.0
224.392014 148.0
224.702194 172.0
225.108139 236.0
226.223389 192.0
226.298233 88.0
226.849487 116.0
227.614548 156.0
227.812775 268.0
228.062195 176.0
228.988907 180.0
230.376465 184.0
232.128922 152.0
232.344284 148.0
232.50206 140.0
232.64473 148.0
232.933212 236.0
233.328278 148.0
235.345276 140.0
235.662933 184.0
235.812683 160.0
236.568222 208.0
236.782562 140.0
237.726807 68.0
237.821945 148.0
238.082916 368.0
238.528427 96.0
238.885147 156.0
241.473099 196.0
241.714401 96.0
242.172592 40.0
243.388275 132.0
243.627426 120.0
244.78447 80.0
245.039886 48.0
245.136475 40.0
245.966095 112.0
246.493912 156.0
247.078613 176.0
247.460449 160.0
247.945984 60.0
248.544952 116.0
251.033173 40.0
252.824402 200.0
253.35318 124.0
256.097778 196.0
256.486511 68.0
257.683228 68.0
258.729065 112.0
259.937408 164.0
261.821259 120.0
262.61734 208.0
263.214386 144.0
263.598785 228.0
263.624634 96.0
264.514099 128.0
265.752106 172.0
266.749146 176.0
267.367126 184.0
267.412689 132.0
267.464783 140.0
267.891357 48.0
268.925018 112.0
268.977264 152.0
269.522675 176.0
269.895294 192.0
269.931274 144.0
271.437592 100.0
273.174469 140.0
273.517273 92.0
273.635773 128.0
273.958527 56.0
274.176392 764.0
274.208954 168.0
275.185455 272.0
275.297668 48.0
275.436371 44.0
276.097412 148.0
276.580475 72.0
277.199829 120.0
278.002319 148.0
279.098541 108.0
279.763947 92.0
281.471039 104.0
281.551178 212.0
282.303131 176.0
283.317291 80.0
283.417816 132.0
283.451324 164.0
283.672546 152.0
284.279602 72.0
284.58844 160.0
284.833588 176.0
285.60672 176.0
286.166199 176.0
286.374146 144.0
286.401093 72.0
286.825653 136.0
287.179688 148.0
288.371582 124.0
288.537201 148.0
289.173584 180.0
289.311951 140.0
290.453949 124.0
290.515015 92.0
290.725372 44.0
290.976562 128.0
291.221069 108.0
292.343018 92.0
292.485962 92.0
292.59491 140.0
292.758331 164.0
293.139893 164.0
293.702423 40.0
293.951477 172.0
295.75943 80.0
296.722046 60.0
297.205658 128.0
297.500824 128.0
298.009125 152.0
298.376892 204.0
298.559143 88.0
298.789581 156.0
298.830872 116.0
299.264557 208.0
299.512512 212.0
299.564667 204.0
299.719238 160.0
300.526093 152.0
300.760742 60.0
301.451508 52.0
301.506775 244.0
302.392181 200.0
302.419861 124.0
302.478394 136.0
302.554871 156.0
302.63797 100.0
302.750519 120.0
302.956604 76.0
303.018951 36.0
303.074402 92.0
303.119446 128.0
303.226868 124.0
303.443878 176.0
303.535431 140.0
303.661926 116.0
303.712982 180.0
303.89151 152.0
304.000244 108.0
304.027527 196.0
304.073608 148.0
304.144775 348.0
304.190033 56884.0
304.246735 244.0
304.317566 200.0
304.376648 56.0
304.404358 68.0
304.474701 60.0
304.509125 168.0
304.552277 168.0
304.60437 72.0
304.660461 112.0
304.693451 44.0
304.741333 144.0
304.764984 216.0
304.809357 72.0
304.846191 84.0
304.917999 100.0
304.948395 108.0
305.024841 240.0
305.079834 168.0
305.192322 6604.0
305.257782 48.0
305.28595 80.0
305.336151 60.0
305.376038 72.0
305.424744 72.0
305.449097 40.0
305.501251 80.0
305.529083 72.0
305.562561 104.0
305.706543 68.0
305.877106 72.0
305.953674 60.0
306.051758 72.0
306.145203 60.0
306.192749 780.0
306.315857 52.0
306.350677 64.0
306.385529 56.0
306.413391 56.0
306.497009 48.0
306.53186 44.0
306.615509 28.0
306.729187 84.0
306.739899 52.0
306.753418 120.0
306.786316 104.0
306.901367 32.0
306.932739 140.0
306.9711 236.0
307.002472 76.0
307.056152 92.0
307.086182 108.0
307.114075 44.0
307.138519 92.0
307.173004 100.0
307.198242 284.0
307.225128 72.0
307.257111 116.0
307.282867 104.0
307.319611 112.0
307.35022 76.0
307.407166 40.0
307.459503 76.0
307.522308 136.0
307.628937 80.0
307.658447 76.0
307.717804 88.0
307.752716 128.0
307.895905 104.0
308.025146 40.0
308.133423 60.0
308.206818 56.0
308.437469 36.0
308.538849 60.0
308.83609 88.0
309.039001 140.0
309.213959 160.0
309.613068 112.0
309.947418 136.0
310.103577 72.0
311.373657 108.0
311.605499 52.0
311.893677 140.0
312.980774 80.0
315.153564 48.0
315.842957 40.0
317.567932 76.0
318.071777 100.0
318.352264 80.0
318.59024 132.0
319.176697 100.0
320.012848 48.0
323.905579 80.0
324.217285 108.0
328.229156 32.0
329.817688 148.0
330.04184 44.0
331.210785 160.0
331.247009 76.0
332.280212 104.0
333.642151 64.0
341.257935 92.0
359.576141 124.0
371.605286 56.0
386.7742 132.0
391.35965 116.0
401.600159 36.0
411.855774 148.0
414.396301 72.0
423.710205 72.0
424.34137 84.0
432.742493 76.0
433.467346 40.0
434.752899 104.0
441.138123 60.0
450.780029 56.0
454.145782 84.0
458.84906 116.0
467.282227 100.0
491.395355 128.0
503.027435 124.0
512.815002 92.0
516.843323 72.0
534.452332 116.0
538.827881 100.0
543.031128 80.0
548.727661 80.0
556.325439 72.0
558.021484 36.0
566.540283 120.0
567.673096 128.0
569.072876 48.0
573.092041 188.0
574.116882 40.0
574.770447 84.0
600.738708 100.0
603.102112 120.0
618.478516 92.0
623.985046 56.0
644.439941 60.0
664.993774 56.0
668.74585 48.0
672.699463 56.0
673.473999 92.0
678.115173 56.0
684.322998 140.0
696.550293 172.0
700.37439 64.0
701.475708 116.0
703.649231 80.0
722.1745 44.0
729.821899 176.0
731.032227 64.0
737.644714 56.0
741.36853 228.0
752.896545 188.0
753.814331 44.0
760.495911 148.0
770.181335 196.0
775.659485 132.0
784.821594 156.0
790.15564 172.0
793.773987 208.0
794.239502 56.0
813.839844 124.0
814.61792 76.0
822.105225 196.0
823.926697 64.0
831.209778 156.0
840.110657 124.0
842.154114 176.0
847.40686 180.0
848.937134 112.0
849.401123 196.0
851.107422 156.0
851.984436 180.0
853.821289 180.0
857.506653 60.0
859.127686 36.0
861.480347 60.0
869.015259 168.0
869.073914 68.0
870.494446 172.0
872.721497 200.0
873.415466 32.0
874.292114 228.0
874.651123 136.0
875.440125 160.0
876.547607 88.0
876.777405 92.0
878.050903 180.0
878.918091 144.0
880.990417 164.0
882.994263 156.0
884.384644 184.0
885.610352 228.0
886.825012 68.0
890.07605 220.0
895.106689 132.0
895.279419 100.0
895.493835 188.0
902.093323 96.0
903.636353 204.0
906.888062 200.0
909.209167 100.0
909.28717 144.0
910.193665 76.0
912.681335 196.0
914.61853 152.0
915.38916 148.0
915.587891 36.0
917.889954 208.0
920.261353 144.0
920.58136 152.0
923.415771 152.0
928.989746 260.0
934.085266 200.0
934.511108 236.0
935.028381 72.0
936.903809 140.0
938.903137 216.0
940.062256 164.0
942.706482 168.0
943.586731 176.0
945.268799 196.0
946.578796 172.0
949.931335 144.0
951.82782 44.0
954.642273 136.0
956.094177 156.0
956.999084 48.0
959.124451 184.0
959.777954 196.0
962.641235 212.0
965.075806 148.0
965.255127 32.0
965.619995 228.0
966.331421 228.0
971.138611 184.0
973.049927 168.0
973.627441 156.0
981.025696 208.0
985.263184 148.0
986.75061 240.0
986.794434 176.0
988.0578 136.0
988.620911 168.0
988.827454 136.0
989.572388 124.0
990.048279 120.0
992.636475 236.0
993.997681 208.0
994.185974 212.0
995.246826 160.0
996.06958 136.0
996.63501 156.0
998.615234 156.0
1002.335876 284.0
1005.110413 168.0
1005.192444 184.0
1006.1203 240.0
1006.240234 276.0
1007.427551 168.0
1009.475464 64.0
1013.152893 140.0
1017.421021 56.0
1019.097778 204.0
1020.082825 156.0
1020.286255 148.0
1023.193726 188.0
1025.289429 152.0
1032.516479 180.0
1035.524536 152.0
1036.120361 144.0
1036.504761 176.0
1040.609863 176.0
1041.470459 188.0
1042.813354 132.0
1047.832642 140.0
1051.345459 180.0
1051.611572 144.0
1051.863281 224.0
1053.839478 148.0
1054.240112 196.0
1057.823364 156.0
1058.056396 164.0
1058.930664 92.0
1063.943115 136.0
1064.137939 132.0
1065.579834 172.0
1067.386719 216.0
1068.219238 196.0
1068.297363 104.0
1068.987061 180.0
1071.441772 120.0
1072.549561 144.0
1074.395142 232.0
1075.269531 116.0
1075.373901 176.0
1081.374023 176.0
1082.126831 216.0
1082.310181 172.0
1082.729248 196.0
1083.882202 152.0
1085.639038 132.0
1085.86853 156.0
1085.921021 164.0
1086.609863 104.0
1089.997925 184.0
1090.69458 180.0
1091.00354 152.0
1091.628174 184.0
1094.115356 148.0
1095.913452 192.0
1096.031982 196.0
1098.80127 176.0
1100.794678 108.0
1102.756836 68.0
1103.444336 148.0
1105.018433 144.0
1107.096924 228.0
1107.51416 180.0
1108.063965 148.0
1108.706787 96.0
1108.845947 124.0
1109.124268 180.0
1109.535278 128.0
1109.661255 96.0
1110.045898 124.0
1112.626953 96.0
1113.709351 176.0
1118.743286 184.0
1120.035156 64.0
1121.047852 208.0
1121.294434 172.0
1121.674316 140.0
1122.414429 92.0
1123.161377 132.0
1126.839722 180.0
1129.306519 204.0
1130.203003 92.0
1130.443848 200.0
1130.631226 180.0
1130.711548 252.0
1132.090698 148.0
1133.912964 176.0
1134.154297 112.0
1134.221313 200.0
1135.220215 96.0
1136.763184 188.0
1137.531494 180.0
1137.622314 204.0
1138.145996 160.0
1138.253418 156.0
1139.973145 168.0
1140.268799 200.0
1140.497314 188.0
1141.317505 100.0
1141.539429 156.0
1141.721069 76.0
1142.00354 132.0
1143.322266 212.0
1143.497192 224.0
1145.618286 208.0
1145.692383 204.0
1147.748047 208.0
1148.564087 92.0
1149.535645 116.0
1152.155518 120.0
1152.250122 160.0
1153.615234 212.0
1154.40625 224.0
1154.913574 148.0
1158.711304 180.0
1159.117798 84.0
1160.202271 144.0
1161.721436 160.0
1162.508423 204.0
1162.834229 204.0
1163.832153 228.0
1165.645752 200.0
1165.910889 156.0
1168.072998 208.0
1168.127441 188.0
1168.365479 284.0
1169.318237 72.0
1171.585693 116.0
1172.239746 200.0
1172.382935 140.0
1172.485107 196.0
1173.200806 148.0
1175.103638 52.0
1176.980713 152.0
1177.233398 220.0
1179.419678 40.0
1180.903442 44.0
1180.99231 220.0
1181.211182 172.0
1182.396118 164.0
1183.325928 140.0
1183.709351 144.0
1184.120239 228.0
1184.202515 120.0
1184.853271 188.0
1185.07251 68.0
1185.401367 160.0
1185.771484 120.0
1186.628296 208.0
1187.403198 96.0
1190.628906 228.0
1191.501221 224.0
1192.057861 164.0
1192.208984 100.0
1192.889526 196.0
1195.68396 204.0
1196.136353 228.0
1196.611328 112.0
1197.155396 196.0
1198.519287 132.0
1198.677734 132.0
1200.231689 192.0
1203.064453 136.0
1203.340576 48.0
1203.872314 136.0
1203.920654 184.0
1204.949829 256.0
1205.350586 224.0
1206.86438 132.0
1208.095459 212.0
1208.905029 112.0
1208.988159 152.0
1209.389526 248.0
1210.511108 240.0
1210.711914 168.0
1212.430054 168.0
1214.614136 196.0
1216.487793 56.0
1217.029297 124.0
1218.842163 164.0
1219.092407 240.0
1220.155884 216.0
1221.268555 72.0
1222.317261 80.0
1223.530151 264.0
1223.662354 188.0
1224.337891 156.0
1226.330444 184.0
1226.678955 152.0
1229.001465 48.0
1229.071167 176.0
1231.109619 172.0
1231.856934 180.0
1232.185303 72.0
1233.869629 244.0
1234.449951 224.0
1234.718872 164.0
1235.002563 212.0
1235.107422 216.0
1235.828003 148.0
1236.611816 48.0
1237.507812 188.0
1237.878906 172.0
1238.698364 120.0
1238.922607 160.0
1239.089233 212.0
1239.966675 140.0
1240.674683 208.0
1244.652832 124.0
1244.737183 164.0
1246.338745 192.0
1250.262695 188.0
1250.656738 140.0
1251.395996 116.0
1252.403076 160.0
1252.536865 208.0
1253.593628 72.0
1253.967163 180.0
1255.617065 216.0
1256.611694 124.0
1258.227905 132.0
1258.369141 148.0
1258.552612 148.0
1259.297974 176.0
1260.93335 176.0
1261.039307 172.0
1261.576538 176.0
1261.668457 84.0
1262.651367 228.0
1263.995483 140.0
1264.561646 188.0
1265.340332 208.0
1265.623535 212.0
1266.820557 160.0
1266.891357 180.0
1269.074219 136.0
1269.86853 208.0
1270.010376 104.0
1271.301636 144.0
1271.571289 92.0
1271.833984 188.0
1271.997192 160.0
1272.252808 256.0
1272.487061 184.0
1273.026733 136.0
1274.404785 220.0
1275.236206 116.0
1275.449463 124.0
1276.046631 164.0
1277.518799 168.0
1277.575684 104.0
1279.447388 236.0
1280.073975 200.0
1280.444336 192.0
1280.665161 72.0
1281.427368 136.0
1283.194946 144.0
1285.955688 128.0
1287.121216 180.0
1289.090942 52.0
1289.877075 184.0
1289.955688 168.0
1290.070068 196.0
1290.427612 92.0
1290.656372 128.0
1291.736328 84.0
1292.079712 144.0
1292.265747 168.0
1292.723755 176.0
1292.902588 192.0
1293.561157 148.0
1294.047974 180.0
1296.196777 124.0
1296.519287 188.0
1297.917114 84.0
1298.225464 100.0
1299.265625 132.0
1299.853882 212.0
1300.277344 176.0
1301.002319 188.0
1301.583862 188.0
1302.129639 180.0
1302.237427 148.0
1302.977295 216.0
1303.681519 136.0
1303.782104 76.0
1303.8396 140.0
1304.766846 140.0
1305.169556 128.0
1306.2771 144.0
1309.127319 208.0
1309.739502 192.0
1309.854736 156.0
1309.92688 184.0
1310.474365 220.0
1311.079712 172.0
1311.353516 64.0
1313.307495 208.0
1313.422974 140.0
1315.154663 196.0
1316.165405 152.0
1316.533691 136.0
1316.743164 128.0
1316.865967 176.0
1317.060913 200.0
1318.043457 108.0
1318.137451 244.0
1318.672241 164.0
1319.583008 208.0
1319.843384 152.0
1321.065674 164.0
1321.478027 176.0
1321.622803 84.0
1322.151001 240.0
1322.339233 416.0
1322.990723 132.0
1323.273071 192.0
1323.381592 192.0
1323.461304 160.0
1323.685791 48.0
1323.866821 152.0
1325.018555 116.0
1325.532959 232.0
1326.112793 152.0
1326.388184 176.0
1326.663696 140.0
1326.924683 184.0
1327.252686 164.0
1328.563721 188.0
1328.94104 180.0
1329.839355 200.0
1330.501465 152.0
1330.987915 224.0
1331.80127 176.0
1332.418701 48.0
1333.486938 260.0
1336.505005 200.0
1337.676758 188.0
1338.600708 208.0
1338.703369 68.0
1338.812622 68.0
1340.393311 180.0
1341.100342 192.0
1341.632446 132.0
1342.71167 152.0
1344.141479 168.0
1344.447998 168.0
1346.784302 204.0
1348.019043 168.0
1348.194458 64.0
1348.25293 180.0
1350.855957 236.0
1351.324097 176.0
1351.463135 236.0
1352.612183 236.0
1353.292969 132.0
1354.274292 124.0
1354.494141 220.0
1354.706543 132.0
1358.100464 124.0
1358.988159 144.0
1361.138794 128.0
1361.344482 224.0
1363.320679 164.0
1363.732178 124.0
1363.960083 108.0
1364.248291 200.0
1364.732056 204.0
1366.12207 140.0
1366.96814 208.0
1367.122681 172.0
1369.508179 116.0
1369.920654 44.0
1370.281616 216.0
1371.40918 72.0
1372.043091 244.0
1372.692017 180.0
1372.891113 72.0
1373.783569 200.0
1375.569458 116.0
1375.717041 176.0
1376.04187 76.0
1376.758179 96.0
1377.747925 160.0
1378.553345 228.0
1378.627319 172.0
1378.974609 72.0
1379.395996 192.0
1379.477295 220.0
1380.463257 128.0
1380.77124 120.0
1381.940063 256.0
1382.85022 128.0
1383.242554 196.0
1385.567993 132.0
1385.901367 144.0
1386.219971 168.0
1386.746216 56.0
1387.368896 208.0
1387.982422 164.0
1388.35498 180.0
1388.525635 184.0
1392.266113 224.0
1392.347778 188.0
1394.428101 104.0
1394.530151 208.0
1394.784912 144.0
1395.178101 180.0
1395.320068 204.0
1395.781128 212.0
1396.19751 148.0
1396.249634 176.0
1397.558838 192.0
1397.849121 216.0
1399.270752 176.0
1399.844116 164.0
1399.978149 184.0
1400.395264 156.0
1400.991211 176.0
1401.385986 176.0
1401.9375 148.0
1402.585938 56.0
1403.488037 120.0
1404.502197 64.0
1405.390015 124.0
1405.566895 172.0
1406.905151 72.0
1407.457642 44.0
1407.547241 160.0
1407.606934 52.0
1407.823608 60.0
1408.010254 172.0
1408.129761 176.0
1408.518188 180.0
1409.220459 100.0
1409.780884 172.0
1412.794189 196.0
1414.822266 196.0
1414.979492 224.0
1415.29541 232.0
1415.870605 180.0
1416.003906 248.0
1416.032227 200.0
1416.185181 156.0
1417.413818 88.0
1417.676147 204.0
1418.275635 108.0
1418.73291 212.0
1419.977661 200.0
1420.135254 180.0
1420.802856 168.0
1420.855347 276.0
1421.72229 132.0
1422.664062 180.0
1422.941772 160.0
1423.384888 144.0
1423.747559 120.0
1423.827881 60.0
1424.594116 144.0
1425.638428 160.0
1425.939087 184.0
1428.327271 148.0
1428.412842 84.0
1428.811646 216.0
1429.947876 164.0
1430.565063 240.0
1430.926514 144.0
1431.039429 244.0
1431.852661 132.0
1432.071167 76.0
1432.545654 196.0
1432.703857 176.0
1433.457397 172.0
1434.271362 76.0
1434.768921 268.0
1435.522827 176.0
1436.133789 208.0
1436.631592 204.0
1436.948486 196.0
1438.623901 164.0
1438.82019 48.0
1440.549683 188.0
1441.116333 156.0
1441.222046 40.0
1442.166748 172.0
1442.710938 84.0
1443.504883 72.0
1445.282471 152.0
1445.789551 140.0
1446.781128 208.0
1447.883545 156.0
1448.989502 208.0
1449.492676 236.0
1450.144409 224.0
1450.690186 168.0
1450.765991 164.0
1451.084473 36.0
1451.228516 188.0
1451.569702 168.0
1452.637085 220.0
1452.950195 108.0
1453.640625 176.0
1453.79248 184.0
1454.55896 148.0
1454.741211 48.0
1455.029663 76.0
1455.318237 120.0
1456.989136 156.0
1457.049927 144.0
1458.007324 200.0
1458.592651 180.0
1458.737061 156.0
1458.95752 156.0
1459.223633 136.0
1459.542969 116.0
1460.075317 192.0
1460.569702 156.0
1462.289307 204.0
1463.827148 184.0
1463.971802 160.0
1465.563843 124.0
1465.861084 148.0
1465.975342 40.0
1466.386841 116.0
1466.630859 164.0
1467.644775 204.0
1468.313477 168.0
1468.773438 160.0
1471.200195 196.0
1471.41394 164.0
1471.810913 128.0
1472.131714 168.0
1472.273438 208.0
1474.094971 180.0
1474.920532 192.0
1475.157349 176.0
1475.516724 164.0
1476.388428 196.0
1476.732544 216.0
1476.8396 48.0
1477.987183 128.0
1478.147827 168.0
1478.446289 208.0
1480.015625 164.0
1480.321899 148.0
1481.524414 184.0
1481.578125 224.0
1481.631714 64.0
1481.899902 200.0
1483.202637 44.0
1483.256348 140.0
1483.754639 184.0
1484.398682 156.0
1484.521362 176.0
1484.613403 136.0
1486.554321 228.0
1486.661743 200.0
1487.206665 128.0
1487.314209 204.0
1487.997437 152.0
1488.16626 128.0
1488.742188 176.0
1488.872803 84.0
1489.494873 180.0
1490.025024 136.0
1490.288574 196.0
1490.524414 164.0
1490.609009 148.0
1491.431274 124.0
1492.161621 256.0
1492.630615 88.0
1494.292114 128.0
1494.576782 164.0
1494.730713 216.0
1495.130859 204.0
1495.200073 148.0
1495.538696 180.0
1495.631104 216.0
1496.516479 136.0
1496.886108 136.0
1497.232544 212.0
1498.565308 208.0
1499.343506 200.0
1500.361084 208.0
1500.422729 104.0
1500.893066 136.0
1501.209229 116.0
1501.702759 112.0
1502.242798 240.0
1503.454224 260.0
1504.009888 200.0
1505.206543 136.0
