>compound MLS001201776-01!4-Chloro-N-(2,6-dimethyl-piperidin-1-yl)-3-sulfamoyl-benzamide
>formula C14H20ClN3O3S
>ionization [M+H]+
>parentmass 346.098724
#inchi InChI=1S/C14H20ClN3O3S/c1-9-4-3-5-10(2)18(9)17-14(19)11-6-7-12(15)13(8-11)22(16,20)21/h6-10H,3-5H2,1-2H3,(H,17,19)(H2,16,20,21)
#inchikey LBXHRAWDUMTPSE
#Ion_Source LC-ESI
#Instrument qTof
#Compound_Source NIH Pharmacologically Active Library
#PI Dorrestein
#Data_Collector VP/LMS
#Scan -1
#Precursor_MZ 346.107
#ExactMass 345.091
#Charge 1
#CAS_Number N/A
#Pubmed_ID N/A
#Smiles CC1CCCC(C)N1NC(=O)c2ccc(Cl)c(c2)S(=O)(=O)N
#INCHI_AUX N/A
#Library_Class 1
#SpectrumID CCMSLIB00000085525
#IonMode Positive
#UpdateWorkflowName UPDATE-SINGLE-ANNOTATED-GOLD
#LibraryQualityString Gold
#TaskID d252d724072548979f1f6f1ced849daf
##Scan# 1494
#SpectrumFile p4-C03_GC3_01_18351.mzXML
#LibraryName Pharm_Active_Library.mgf
#MQScore -1
#Organism Pharm_Active_Library
#TIC_Query 0
#RT_Query -1
#MZErrorPPM -1
#SharedPeaks 0
#MassDiff 0
#LibMZ -1
#SpecMZ 346.107
#SpecCharge 0
#internalFilename spec-00000.mgf

>collision 10
44.905113 136.0
44.941132 164.0
45.033241 68.0
45.075993 200.0
45.11475 164.0
45.158878 76.0
45.184292 68.0
45.200348 156.0
45.283348 124.0
45.312817 52.0
45.461655 156.0
45.472389 124.0
45.519375 112.0
45.53952 128.0
45.665859 208.0
45.686035 132.0
45.844913 172.0
45.882656 40.0
45.920532 176.0
45.956833 144.0
46.081047 160.0
46.298824 108.0
46.373341 68.0
46.409943 132.0
46.457409 144.0
46.488617 180.0
46.648884 100.0
46.768585 192.0
46.810787 48.0
46.909893 124.0
46.967518 172.0
47.004353 212.0
47.090355 244.0
47.108112 208.0
47.119041 100.0
47.138172 84.0
47.163513 244.0
47.180401 140.0
47.474922 152.0
47.52293 112.0
47.587135 144.0
47.635506 220.0
47.673977 196.0
47.734459 132.0
47.770218 204.0
47.877579 208.0
48.060913 120.0
48.140972 176.0
48.153404 200.0
48.18103 172.0
48.223866 140.0
48.279167 200.0
48.312363 180.0
48.33173 156.0
48.520092 148.0
48.533421 196.0
48.575562 176.0
48.756062 124.0
48.775517 232.0
48.904816 188.0
48.950817 224.0
49.031612 188.0
49.25066 164.0
49.519203 340.0
49.618694 124.0
49.660763 200.0
49.687412 176.0
49.767414 128.0
49.785667 468.0
49.801117 176.0
49.905643 168.0
49.966991 200.0
50.112003 128.0
50.12891 52.0
50.212086 148.0
50.28545 172.0
50.372993 48.0
50.409725 124.0
50.49596 132.0
50.528496 188.0
50.722504 60.0
50.933926 76.0
50.989338 36.0
51.091717 256.0
51.101677 68.0
51.130135 116.0
51.154331 44.0
51.178532 180.0
51.20274 176.0
51.303905 168.0
51.34383 128.0
51.589417 108.0
51.632313 180.0
51.666641 124.0
51.692394 140.0
51.733902 152.0
51.86282 204.0
51.904396 256.0
51.92017 128.0
52.036396 192.0
52.058601 172.0
52.073734 160.0
52.214577 140.0
52.346973 160.0
52.406029 164.0
52.483864 148.0
52.641144 88.0
52.665695 144.0
52.67725 140.0
52.818035 172.0
52.870995 100.0
52.889812 104.0
52.954967 108.0
53.088684 240.0
53.121655 152.0
53.159378 132.0
53.23196 200.0
53.249386 164.0
53.266815 144.0
53.359821 168.0
53.387447 216.0
53.451454 80.0
53.498646 160.0
53.557728 152.0
53.658279 152.0
53.691814 148.0
53.745789 172.0
53.771656 204.0
53.832497 100.0
53.950256 144.0
54.098007 176.0
54.124363 144.0
54.178043 196.0
54.399147 216.0
54.497623 160.0
54.518959 156.0
54.548351 132.0
54.560112 200.0
54.624817 92.0
54.733727 172.0
54.772015 128.0
54.817688 68.0
54.856007 168.0
54.945965 108.0
55.027134 172.0
55.132011 144.0
55.210361 248.0
55.325771 156.0
55.376266 200.0
55.416111 64.0
55.433895 44.0
55.446564 180.0
55.473911 252.0
55.558437 68.0
55.586628 252.0
55.678665 216.0
55.764835 176.0
55.803486 136.0
55.824303 204.0
55.891239 176.0
56.032684 68.0
56.102726 204.0
56.178783 176.0
56.50296 176.0
56.541866 160.0
56.554123 212.0
56.607735 120.0
56.702114 176.0
56.788197 128.0
56.84758 152.0
56.8806 144.0
56.928642 120.0
57.020283 132.0
57.08643 140.0
57.148098 48.0
57.20462 176.0
57.247444 212.0
57.428295 108.0
57.642666 140.0
57.731853 160.0
57.742443 156.0
57.754539 204.0
57.802952 192.0
57.834732 148.0
57.922554 64.0
57.966492 172.0
57.987709 128.0
58.034698 236.0
58.045315 156.0
58.112053 168.0
58.274509 160.0
58.291222 112.0
58.312496 168.0
58.347458 164.0
58.449364 188.0
58.763233 152.0
58.838017 164.0
58.856339 140.0
58.882298 208.0
58.983139 228.0
59.013714 148.0
59.103958 156.0
59.120789 52.0
59.19733 132.0
59.240215 164.0
59.287712 196.0
59.358227 176.0
59.373562 116.0
59.43523 140.0
59.548523 180.0
59.594604 188.0
59.629948 228.0
59.75758 160.0
59.785278 84.0
59.799129 144.0
60.019421 136.0
60.053345 56.0
60.076485 184.0
60.139748 152.0
60.161358 148.0
60.201954 220.0
60.244751 184.0
60.26329 184.0
60.285114 160.0
60.43491 196.0
60.600578 192.0
60.626923 196.0
60.697884 72.0
60.721489 216.0
60.861938 248.0
61.019627 188.0
61.23904 160.0
61.354347 120.0
61.365261 236.0
61.42432 156.0
61.454163 200.0
61.561867 132.0
61.610149 140.0
61.710308 128.0
61.772861 160.0
61.827625 208.0
61.869884 160.0
61.896503 200.0
62.092388 148.0
62.161411 152.0
62.272873 148.0
62.338856 168.0
62.483509 96.0
62.632137 236.0
62.700806 168.0
62.760708 264.0
62.795403 192.0
62.837311 148.0
63.003761 200.0
63.44846 204.0
63.473827 108.0
63.626144 216.0
63.689663 208.0
63.759571 168.0
63.781822 224.0
63.796127 140.0
63.896317 144.0
63.998177 108.0
64.036392 112.0
64.10968 172.0
64.163872 188.0
64.176628 124.0
64.18779 140.0
64.301056 132.0
64.460747 124.0
64.523079 164.0
64.692657 124.0
64.73909 132.0
64.854439 188.0
64.928192 156.0
64.976311 44.0
64.990753 136.0
65.029099 196.0
65.054947 172.0
65.140053 188.0
65.170578 200.0
65.281494 156.0
65.373184 124.0
65.392494 180.0
65.516479 48.0
65.711555 172.0
65.761581 40.0
66.002739 156.0
66.044327 176.0
66.08477 44.0
66.105804 152.0
66.317963 116.0
66.42498 48.0
66.476898 156.0
66.549881 112.0
66.668518 140.0
66.701027 148.0
66.751419 156.0
66.796959 152.0
66.813225 124.0
66.907616 100.0
67.098228 68.0
67.129211 236.0
67.421417 132.0
67.472137 128.0
67.514603 96.0
67.571854 212.0
67.771599 232.0
67.881416 164.0
68.017303 184.0
68.144035 116.0
68.206482 128.0
68.288696 184.0
68.321594 132.0
68.334755 188.0
68.375893 176.0
68.457138 240.0
68.47467 144.0
68.563637 120.0
68.644608 168.0
68.735138 148.0
68.779694 168.0
68.811066 72.0
68.845734 160.0
68.860603 144.0
68.883728 196.0
68.91346 88.0
69.010979 164.0
69.0457 152.0
69.619102 80.0
69.672249 148.0
69.745369 152.0
69.786926 80.0
69.823509 168.0
69.984764 172.0
70.024887 168.0
70.044876 140.0
70.117493 96.0
70.139854 136.0
70.370064 152.0
70.610695 168.0
70.674255 180.0
70.761292 80.0
70.777344 184.0
70.846703 60.0
71.032776 264.0
71.180466 156.0
71.219093 200.0
71.287971 140.0
71.333351 68.0
71.419106 136.0
71.594139 152.0
71.703644 184.0
71.838531 156.0
71.882401 136.0
71.995499 128.0
72.110382 236.0
72.183075 36.0
72.26088 40.0
72.326874 152.0
72.535019 232.0
72.694649 44.0
72.755745 164.0
72.771027 112.0
72.786308 132.0
73.003815 192.0
73.055824 236.0
73.180779 180.0
73.240379 160.0
73.307808 368.0
73.369232 140.0
73.400581 200.0
73.453445 196.0
73.56778 56.0
73.590706 224.0
73.794998 56.0
73.88401 168.0
73.98661 100.0
74.094025 216.0
74.125427 168.0
74.140762 148.0
74.186104 240.0
74.267639 152.0
74.283073 132.0
74.312241 52.0
74.391182 224.0
74.434105 236.0
74.525139 168.0
74.648895 224.0
74.748665 112.0
74.920837 76.0
74.951851 144.0
75.215714 132.0
75.333138 160.0
75.397751 212.0
75.486961 176.0
75.772545 188.0
75.881737 96.0
75.994469 28.0
76.263634 144.0
76.279274 160.0
76.294922 196.0
76.36274 120.0
76.519348 232.0
76.613388 148.0
76.69429 160.0
77.189354 128.0
77.341553 180.0
77.632385 252.0
77.713806 156.0
77.767471 108.0
77.818375 100.0
77.842957 152.0
78.145287 168.0
78.203354 156.0
78.289619 172.0
78.360077 152.0
78.538124 156.0
78.555763 52.0
78.647514 176.0
78.707542 160.0
78.787453 196.0
78.928841 132.0
78.986771 192.0
79.268265 168.0
79.298393 104.0
79.406548 120.0
79.4823 172.0
79.528969 168.0
79.568016 172.0
79.681679 176.0
79.811424 212.0
79.838097 116.0
79.934158 340.0
79.983994 116.0
80.005356 168.0
80.215553 116.0
80.249428 180.0
80.277954 164.0
80.329681 200.0
80.352875 176.0
80.388557 148.0
80.420677 172.0
80.445671 124.0
80.556381 92.0
80.643936 116.0
80.672791 172.0
80.781624 100.0
80.856766 140.0
81.017921 208.0
81.039421 236.0
81.055542 408.0
81.121857 76.0
81.365829 120.0
81.579613 168.0
81.595795 188.0
81.736084 196.0
82.224442 224.0
82.237068 300.0
82.303864 216.0
82.643669 204.0
82.69796 100.0
82.804779 76.0
82.877235 108.0
82.8974 160.0
82.909607 148.0
82.940666 160.0
83.031319 68.0
83.073036 128.0
83.481697 200.0
83.554451 80.0
83.567184 160.0
83.592659 164.0
83.607216 52.0
83.660004 144.0
83.712799 56.0
83.735825 180.0
83.875076 176.0
83.949699 140.0
84.168671 196.0
84.323944 168.0
84.355019 120.0
84.373299 188.0
84.444611 128.0
84.486687 216.0
84.503151 208.0
84.561707 108.0
84.636765 108.0
84.651413 172.0
84.794304 152.0
84.819962 148.0
84.873131 212.0
84.887794 132.0
85.001381 204.0
85.221863 196.0
85.262291 116.0
85.352364 144.0
85.376266 140.0
85.70945 188.0
85.816353 132.0
85.85508 124.0
85.910416 220.0
85.973145 124.0
85.989754 148.0
86.03775 212.0
86.091293 204.0
86.131927 108.0
86.167023 308.0
86.216911 260.0
86.259422 128.0
86.657303 144.0
86.724556 224.0
86.81115 196.0
86.864937 136.0
86.952141 224.0
86.998978 188.0
87.098816 168.0
87.258636 80.0
87.334877 124.0
87.548904 152.0
87.771622 208.0
87.807945 156.0
87.822868 224.0
87.864075 132.0
87.916153 244.0
88.026291 60.0
88.056168 108.0
88.09166 276.0
88.179474 168.0
88.214989 32.0
88.345894 188.0
88.598618 116.0
88.641708 200.0
88.744804 220.0
88.814186 124.0
88.859207 56.0
88.898613 92.0
89.110786 132.0
89.385307 60.0
89.530251 160.0
89.733757 156.0
89.906128 160.0
90.032539 836.0
90.099884 176.0
90.160347 172.0
90.181137 180.0
90.281334 32.0
90.326729 156.0
90.413765 112.0
90.480011 212.0
90.593636 48.0
90.667534 140.0
90.695961 136.0
90.948227 112.0
91.003281 180.0
91.040321 232.0
91.064049 148.0
91.31144 164.0
91.335846 168.0
91.484268 208.0
91.514732 72.0
91.703064 152.0
91.722382 92.0
91.743347 176.0
92.241577 72.0
92.333351 136.0
92.555328 40.0
92.582138 44.0
92.80825 184.0
93.005844 232.0
93.105682 164.0
93.132568 164.0
93.212593 128.0
93.251694 244.0
93.330505 180.0
93.363197 196.0
93.384354 184.0
93.594109 176.0
93.698112 160.0
93.746284 164.0
93.800247 60.0
94.042656 196.0
94.122437 52.0
94.348488 160.0
94.527573 216.0
94.572868 108.0
94.613525 188.0
94.68129 172.0
94.721962 136.0
94.813026 48.0
94.876991 156.0
94.947609 200.0
94.965088 148.0
95.022446 132.0
95.049568 212.0
95.152473 140.0
95.166069 184.0
95.243744 200.0
95.282593 188.0
95.381706 108.0
95.47892 220.0
95.729958 144.0
95.790329 236.0
95.979378 168.0
96.084976 180.0
96.156891 88.0
96.426407 88.0
96.477234 80.0
96.492874 120.0
96.739365 168.0
96.756981 104.0
96.986176 112.0
97.09993 560.0
97.151527 136.0
97.274513 196.0
97.402153 192.0
97.472878 200.0
97.494492 180.0
97.586876 152.0
97.606537 156.0
97.723785 184.0
97.752106 176.0
97.954887 112.0
97.974586 108.0
97.994186 156.0
98.097237 7440.0
98.13028 356.0
98.15197 260.0
98.165771 64.0
98.203239 196.0
98.226913 176.0
98.248611 168.0
98.264397 160.0
98.370964 196.0
98.410446 196.0
98.440063 128.0
98.509186 36.0
98.55265 144.0
98.600075 56.0
98.710777 124.0
98.815613 152.0
98.902679 108.0
98.931091 204.0
99.000732 8824.0
99.030685 352.0
99.099831 204.0
99.136383 80.0
99.174034 164.0
99.201782 76.0
99.267365 160.0
99.352501 132.0
99.378288 56.0
99.392181 76.0
99.443779 128.0
99.466667 92.0
99.604607 136.0
99.682083 208.0
99.704285 216.0
99.735748 224.0
99.776115 208.0
99.874931 184.0
99.898796 140.0
99.960472 232.0
100.002762 516.0
100.022171 172.0
100.036102 132.0
100.135658 164.0
100.162689 176.0
100.213348 176.0
100.440613 304.0
100.488487 132.0
100.518417 160.0
100.588272 124.0
100.670128 148.0
100.721519 160.0
100.76001 144.0
100.829948 180.0
100.877914 196.0
100.913902 96.0
100.99794 2432.0
101.051903 200.0
101.143959 128.0
101.368263 100.0
101.534653 244.0
101.626923 120.0
101.667053 132.0
101.709564 156.0
101.763405 64.0
101.863815 144.0
101.932121 220.0
101.997574 296.0
102.014526 208.0
102.03463 168.0
102.066803 268.0
102.215645 100.0
102.261932 56.0
102.294136 148.0
102.45121 120.0
102.636627 124.0
102.676964 116.0
103.056023 168.0
103.108994 160.0
103.248489 140.0
103.849998 88.0
103.878395 176.0
103.933174 60.0
104.008263 152.0
104.022469 84.0
104.056778 120.0
104.23304 212.0
104.438004 192.0
104.453255 64.0
104.626228 168.0
104.746376 240.0
104.764709 176.0
104.869263 180.0
104.884933 128.0
104.92366 172.0
105.045601 1720.0
105.074577 108.0
105.152122 44.0
105.184776 208.0
105.217438 160.0
105.517761 52.0
105.611824 140.0
105.67524 92.0
105.959824 112.0
106.009155 396.0
106.029152 332.0
106.053551 684.0
106.07196 144.0
106.134033 204.0
106.184296 180.0
106.209915 180.0
106.36586 96.0
106.398705 220.0
106.468513 172.0
106.54451 112.0
106.595314 204.0
106.710983 48.0
106.877579 200.0
106.906387 148.0
106.95372 228.0
107.037392 364.0
107.159653 168.0
107.194679 184.0
107.210426 212.0
107.250328 156.0
107.314232 180.0
107.380219 144.0
107.452415 244.0
107.53495 188.0
107.683609 52.0
107.884033 136.0
107.999832 60.0
108.070168 168.0
108.105347 144.0
108.262672 124.0
108.360023 108.0
108.405609 120.0
108.426331 148.0
108.814224 124.0
108.879906 228.0
108.984673 164.0
109.174408 128.0
109.324669 208.0
109.360931 136.0
109.383827 172.0
109.677521 136.0
109.796364 188.0
109.833908 164.0
109.863113 92.0
109.992981 2188.0
110.097702 252.0
110.182518 168.0
110.249382 120.0
110.270805 144.0
110.345535 212.0
110.519127 76.0
110.560974 104.0
110.619583 132.0
110.711708 172.0
110.791298 196.0
110.856247 108.0
110.979919 152.0
110.999054 2276.0
111.101303 280.0
111.360107 208.0
111.519424 156.0
111.553055 140.0
111.719185 128.0
111.75705 188.0
111.864685 224.0
111.915474 140.0
111.946495 188.0
111.987534 552.0
112.049706 196.0
112.112991 5728.0
112.144531 228.0
112.159279 140.0
112.184578 56.0
112.224312 52.0
112.247826 92.0
112.302658 236.0
112.473564 200.0
112.539009 44.0
112.573906 76.0
112.623482 80.0
112.63826 136.0
112.653053 136.0
112.699532 136.0
112.803085 68.0
112.841133 196.0
112.980713 244.0
112.999725 328.0
113.026932 152.0
113.116844 820.0
113.359711 184.0
113.399323 168.0
113.472046 140.0
113.544144 36.0
113.561111 72.0
113.612015 104.0
113.941071 176.0
113.991295 268.0
114.011269 3124.0
114.031158 276.0
114.091446 132.0
114.13047 144.0
114.151497 96.0
114.206787 44.0
114.270607 216.0
114.314354 200.0
114.438744 208.0
114.45607 204.0
114.946037 168.0
114.996132 336.0
115.015251 312.0
115.045532 200.0
115.080505 68.0
115.189423 124.0
115.259918 156.0
115.366783 160.0
115.621315 204.0
115.636292 56.0
115.683388 192.0
115.931831 212.0
116.009209 756.0
116.050179 204.0
116.10762 180.0
116.41021 268.0
116.511154 72.0
116.603554 204.0
116.698135 72.0
116.719635 104.0
116.879997 180.0
116.935921 208.0
116.957436 624.0
116.990845 136.0
117.016365 156.0
117.059738 1816.0
117.104843 156.0
117.130692 120.0
117.221176 36.0
117.264275 152.0
117.546921 124.0
117.613686 124.0
117.838272 108.0
117.980904 100.0
118.010513 220.0
118.027252 380.0
118.053421 676.0
118.151566 140.0
118.182045 144.0
118.467819 124.0
118.565315 176.0
118.584824 164.0
118.701889 208.0
118.793831 268.0
118.82769 216.0
118.871086 188.0
118.901237 192.0
118.95356 124.0
119.012177 188.0
119.038101 264.0
119.077324 32.0
119.348953 56.0
119.368523 88.0
119.483185 156.0
119.533844 144.0
119.675323 128.0
119.967255 184.0
120.017403 152.0
120.032661 52.0
120.05011 108.0
120.093727 212.0
120.296654 140.0
120.532524 172.0
120.84584 244.0
120.886765 104.0
120.913025 180.0
120.963371 192.0
121.04155 724.0
121.070648 152.0
121.355515 160.0
121.380516 224.0
121.410332 44.0
121.495872 244.0
121.754875 164.0
121.8032 144.0
121.98558 164.0
122.025146 144.0
122.231903 124.0
122.410202 156.0
122.533546 92.0
122.584221 60.0
122.615074 92.0
122.756157 176.0
122.782623 80.0
122.899536 160.0
122.952499 136.0
123.014297 132.0
123.211777 244.0
123.339005 228.0
123.721695 180.0
123.741615 168.0
123.777046 148.0
123.867844 176.0
123.956467 168.0
123.995209 3908.0
124.047333 168.0
124.090752 136.0
124.182587 140.0
124.264664 36.0
124.41114 76.0
124.508835 104.0
124.719902 188.0
124.746574 120.0
124.997734 288.0
125.020149 360.0
125.066887 112.0
125.084694 132.0
125.193787 204.0
125.238327 148.0
125.291786 136.0
125.309616 140.0
125.441093 132.0
125.510208 80.0
125.615028 196.0
125.657158 176.0
125.717659 164.0
125.76899 104.0
125.802406 140.0
125.820328 184.0
125.847626 160.0
125.879372 180.0
125.90741 152.0
126.010323 5688.0
126.057083 44.0
126.074966 44.0
126.101784 52.0
126.180016 64.0
126.24144 128.0
126.408157 144.0
126.493202 244.0
126.584999 120.0
126.694748 88.0
126.809021 256.0
126.885239 224.0
126.93232 100.0
126.948021 148.0
126.995712 512.0
127.01252 1112.0
127.064651 60.0
127.117172 256.0
127.18 268.0
127.349739 56.0
127.367706 152.0
127.385674 240.0
127.405891 124.0
127.514778 236.0
127.632889 52.0
127.731842 128.0
128.009415 1884.0
128.064972 40.0
128.222672 200.0
128.324112 224.0
128.416565 148.0
128.533875 36.0
128.617371 128.0
128.734772 120.0
128.993408 112.0
129.012909 424.0
129.098602 176.0
129.123474 60.0
129.270523 216.0
129.4086 164.0
129.703094 192.0
129.798309 84.0
129.855011 176.0
129.879959 104.0
130.093262 200.0
130.113693 68.0
130.147751 184.0
130.214355 180.0
130.284012 188.0
130.336273 132.0
130.42717 208.0
130.445358 120.0
130.563583 160.0
130.706894 168.0
130.81842 220.0
130.93454 188.0
130.97554 272.0
131.007431 168.0
131.050781 1476.0
131.094009 108.0
131.214813 212.0
131.253571 140.0
131.340225 132.0
131.529007 76.0
131.755692 184.0
131.812805 112.0
131.828796 60.0
132.066101 236.0
132.162643 172.0
132.313705 52.0
132.345749 40.0
132.398422 128.0
132.469421 88.0
132.494629 140.0
132.588562 144.0
132.675674 76.0
132.75592 116.0
132.918777 68.0
133.04805 412.0
133.828995 204.0
133.898071 184.0
133.918808 176.0
133.997131 196.0
134.022446 200.0
134.048477 1228.0
134.181503 160.0
134.269119 60.0
134.370621 120.0
134.550629 160.0
134.673019 112.0
134.763107 148.0
134.800171 96.0
135.028946 136.0
135.051315 272.0
135.126099 144.0
135.413132 124.0
135.461761 84.0
135.561386 152.0
135.744522 116.0
135.785034 196.0
135.872086 108.0
135.991257 388.0
136.01944 112.0
136.273727 224.0
136.313232 156.0
136.573608 176.0
136.722519 100.0
136.750443 192.0
136.978363 1096.0
137.006348 160.0
137.009415 168.0
137.055511 204.0
137.202332 180.0
137.619949 176.0
137.687668 168.0
137.72049 144.0
137.790451 200.0
137.895599 156.0
137.987244 6952.0
138.054565 144.0
138.203552 144.0
138.372787 184.0
138.403229 200.0
138.448151 196.0
138.489868 76.0
138.614044 252.0
138.670288 48.0
138.705444 120.0
138.771072 108.0
138.95636 212.0
138.997421 1848.0
139.06665 160.0
139.148697 84.0
139.214554 60.0
139.332001 100.0
139.373566 144.0
139.468292 84.0
139.527054 132.0
139.562317 100.0
139.693695 116.0
139.818726 88.0
139.854034 168.0
139.950546 116.0
139.984375 2636.0
140.008194 248.0
140.017288 220.0
140.105225 224.0
140.403549 132.0
140.476089 216.0
140.504395 188.0
140.686111 100.0
140.865585 120.0
140.908112 84.0
140.934662 232.0
140.999298 748.0
141.021713 4408.0
141.099533 208.0
141.279007 192.0
141.456757 44.0
141.478058 68.0
141.523041 152.0
141.549088 188.0
141.634338 120.0
141.693558 60.0
141.800201 116.0
141.916 92.0
142.004379 912.0
142.049789 588.0
142.196259 124.0
142.314957 156.0
142.647552 100.0
142.709045 236.0
142.817261 172.0
142.909149 356.0
142.961502 184.0
142.990753 1136.0
143.017914 1404.0
143.092407 76.0
143.192429 184.0
143.216232 52.0
143.287704 176.0
143.46405 136.0
143.56897 160.0
143.630981 160.0
143.752655 148.0
143.891083 268.0
143.965103 180.0
144.000885 340.0
144.052414 188.0
144.101257 220.0
144.297241 124.0
144.328323 100.0
144.438324 128.0
144.597641 144.0
144.651291 64.0
144.754242 152.0
144.895554 180.0
144.960907 216.0
144.98555 712.0
145.019974 164.0
145.094131 144.0
145.391891 148.0
145.523911 132.0
145.824188 136.0
145.992737 168.0
146.019363 268.0
146.059814 168.0
146.088684 148.0
146.107925 116.0
146.235458 228.0
146.319702 176.0
146.48587 152.0
146.529236 68.0
146.794373 28.0
146.866714 92.0
146.94632 156.0
146.968033 196.0
146.989761 200.0
147.050079 276.0
147.151474 60.0
147.339844 176.0
147.395416 124.0
147.779861 160.0
147.937164 180.0
148.0298 156.0
148.443542 164.0
148.564804 52.0
148.654587 80.0
148.926483 120.0
148.953201 80.0
149.012878 276.0
149.031708 516.0
149.062531 180.0
149.164612 156.0
149.244827 104.0
149.329941 40.0
149.410217 156.0
149.446716 128.0
149.719345 68.0
149.855743 160.0
149.964569 184.0
150.010864 948.0
150.034271 208.0
150.150696 92.0
150.21167 184.0
150.743912 104.0
150.971252 160.0
151.005325 3696.0
151.033783 184.0
151.076416 36.0
151.375015 36.0
151.416656 148.0
151.455063 152.0
151.475433 124.0
151.495026 176.0
151.58078 176.0
151.72731 56.0
151.764618 116.0
151.818558 228.0
151.850449 184.0
151.990295 8692.0
152.01268 1048.0
152.061432 40.0
152.169449 32.0
152.189087 68.0
152.405228 56.0
152.43718 168.0
152.572357 40.0
152.852737 112.0
153.000275 1236.0
153.019241 392.0
153.108749 80.0
153.175247 44.0
153.352661 128.0
153.379776 84.0
153.426605 100.0
153.557297 28.0
153.658493 140.0
153.811432 116.0
153.843521 104.0
153.887955 148.0
153.917587 152.0
153.987534 2608.0
154.004669 2680.0
154.048477 56.0
154.070709 56.0
154.112717 188.0
154.23381 132.0
154.290665 52.0
154.31044 92.0
154.753311 176.0
154.916763 152.0
154.990463 1404.0
155.152954 168.0
155.234009 136.0
155.34848 176.0
155.382828 152.0
155.544128 200.0
155.618607 108.0
155.727859 60.0
155.884369 136.0
155.974625 204.0
156.004059 1396.0
156.093185 64.0
156.239929 96.0
156.493774 252.0
156.588409 168.0
156.730392 156.0
156.959717 128.0
156.996246 312.0
157.003235 284.0
157.051987 152.0
157.07692 204.0
157.312744 216.0
157.451309 140.0
157.558716 152.0
157.638672 92.0
157.997314 136.0
158.12883 44.0
158.233963 132.0
158.29155 76.0
158.354156 108.0
158.701859 112.0
158.835388 104.0
158.925705 152.0
158.94696 196.0
158.968369 92.0
159.036118 144.0
159.066574 184.0
159.116455 204.0
159.307938 156.0
159.358368 112.0
159.737167 156.0
160.062271 716.0
160.094559 148.0
160.1147 160.0
160.139893 136.0
160.195297 176.0
160.265839 184.0
160.291046 180.0
160.341446 72.0
160.525467 80.0
160.739883 76.0
160.792877 124.0
160.858505 176.0
160.971954 132.0
161.255051 152.0
161.453384 124.0
162.074966 112.0
162.2397 140.0
162.259979 196.0
162.46286 116.0
162.518677 76.0
162.597336 160.0
162.945221 120.0
163.27565 88.0
163.871292 176.0
164.00087 416.0
164.207779 172.0
164.485886 148.0
164.807663 112.0
164.833221 72.0
164.930328 252.0
164.963562 168.0
165.009018 496.0
165.083725 112.0
165.263184 52.0
165.413773 64.0
165.557159 168.0
165.582764 140.0
165.602356 148.0
165.986435 168.0
166.015167 808.0
166.0569 172.0
166.126144 60.0
166.144104 148.0
166.295502 140.0
166.331436 192.0
166.372513 188.0
166.552261 136.0
166.59079 164.0
166.61293 148.0
166.796356 48.0
166.998734 364.0
167.010742 180.0
167.017838 384.0
167.040466 140.0
167.241333 204.0
167.390656 204.0
167.421555 140.0
167.47049 28.0
167.516861 128.0
167.678391 144.0
168.009949 936.0
168.086624 124.0
168.259552 76.0
168.406738 88.0
168.466156 152.0
168.508423 176.0
168.543655 120.0
168.669128 156.0
168.856461 220.0
168.918869 336.0
169.0168 37012.0
169.073563 152.0
169.104172 32.0
169.125534 212.0
169.186035 96.0
169.226486 72.0
169.260147 152.0
169.381866 60.0
169.402588 96.0
169.421432 176.0
169.45163 56.0
169.532135 76.0
169.560654 76.0
169.585129 144.0
169.604706 116.0
169.631622 64.0
169.738617 176.0
169.879562 56.0
169.9254 60.0
169.946457 164.0
169.976501 9744.0
170.019318 2576.0
170.043381 260.0
170.127396 32.0
170.153061 64.0
170.223236 164.0
170.247604 60.0
170.268661 44.0
170.29071 80.0
170.341629 144.0
170.362411 132.0
170.397217 80.0
170.424759 72.0
170.526047 168.0
170.671677 60.0
170.704636 208.0
170.723694 80.0
170.752304 100.0
170.823898 128.0
170.866745 44.0
170.886414 56.0
170.91098 140.0
170.947403 52.0
170.980728 872.0
171.014084 9032.0
171.083221 44.0
171.138123 60.0
171.179077 140.0
171.216415 288.0
171.255112 104.0
171.298889 100.0
171.322327 100.0
171.374435 168.0
171.433014 100.0
171.470856 72.0
171.614227 168.0
171.650726 152.0
171.744614 68.0
171.835922 28.0
171.973541 2412.0
172.015823 512.0
172.125626 84.0
172.193527 60.0
172.224869 160.0
172.290176 44.0
172.543671 72.0
172.582886 76.0
172.601196 88.0
172.773819 60.0
172.881088 64.0
172.94574 612.0
172.976379 276.0
173.009338 172.0
173.029251 184.0
173.100983 100.0
173.133362 120.0
173.505951 156.0
173.951355 124.0
174.013428 216.0
174.139481 92.0
174.187683 180.0
174.304977 136.0
174.446899 164.0
174.683563 76.0
174.717758 112.0
174.836166 132.0
174.880905 152.0
174.909866 156.0
174.961533 8868.0
175.019257 108.0
175.096802 36.0
175.183716 84.0
175.204788 40.0
175.225876 120.0
175.299652 28.0
175.460419 44.0
175.679306 232.0
175.769012 112.0
175.967087 816.0
176.022415 88.0
176.058212 180.0
176.079102 164.0
176.492752 180.0
176.537704 32.0
176.852524 116.0
176.905472 156.0
176.92598 160.0
176.959259 3220.0
177.021088 1084.0
177.128937 144.0
177.196777 44.0
177.247116 32.0
177.27626 52.0
177.302765 48.0
177.326614 68.0
177.366379 128.0
177.703171 52.0
177.96077 176.0
178.003983 580.0
178.141205 172.0
178.175735 104.0
178.50531 176.0
178.771332 180.0
178.937943 148.0
179.014236 1180.0
179.074814 28.0
179.184036 48.0
179.397232 120.0
179.765289 64.0
179.909424 96.0
180.004547 196.0
180.267319 200.0
180.542664 92.0
180.692459 48.0
180.73526 244.0
180.783432 164.0
180.919937 148.0
181.013077 844.0
181.356552 52.0
181.418198 56.0
181.469147 212.0
181.560303 184.0
181.962799 160.0
181.988556 1260.0
182.024033 164.0
182.162628 40.0
182.207199 44.0
182.357666 152.0
182.46788 116.0
182.578125 64.0
182.859589 212.0
182.983841 164.0
183.001175 148.0
183.043671 124.0
183.321121 192.0
183.399277 204.0
183.755234 124.0
183.997681 172.0
184.060226 88.0
184.532639 128.0
184.554688 80.0
184.584427 96.0
184.668274 36.0
184.760239 96.0
184.998383 160.0
185.133759 124.0
185.163544 152.0
185.74086 148.0
185.963348 136.0
186.009491 204.0
186.218552 136.0
186.386978 132.0
186.810394 200.0
186.933548 136.0
187.026611 260.0
187.132233 40.0
187.295639 96.0
187.420944 144.0
187.565384 140.0
187.958099 40.0
187.988113 240.0
188.43045 196.0
188.583481 176.0
188.703751 100.0
188.766632 180.0
189.004608 160.0
189.031982 104.0
189.135971 80.0
189.215363 144.0
189.396088 84.0
189.724915 272.0
189.975266 220.0
190.015625 220.0
190.089706 148.0
191.084351 60.0
191.128372 124.0
191.238449 104.0
191.833405 124.0
191.957474 168.0
191.986893 2308.0
192.134003 132.0
192.236084 132.0
192.898941 132.0
192.918289 140.0
192.990158 392.0
193.075882 144.0
193.145035 80.0
193.468796 48.0
193.529694 144.0
193.726822 224.0
193.859314 224.0
193.987549 820.0
194.027405 268.0
194.31813 144.0
194.375092 40.0
194.419495 148.0
194.452789 84.0
194.990311 180.0
195.033676 860.0
195.091644 88.0
195.136139 148.0
195.188965 36.0
195.250137 52.0
195.450424 128.0
195.723206 76.0
196.040756 132.0
196.286057 132.0
196.333466 136.0
196.352982 156.0
196.59848 204.0
197.032211 440.0
197.279984 140.0
198.862579 48.0
199.598602 112.0
199.781418 212.0
199.924911 240.0
199.959488 472.0
200.057205 60.0
200.105057 196.0
200.206421 52.0
200.226135 164.0
200.468414 188.0
200.942734 512.0
201.007843 268.0
201.142471 100.0
201.696106 188.0
201.789383 52.0
201.948608 420.0
202.009262 276.0
202.185394 140.0
202.49115 80.0
202.945312 188.0
202.989914 208.0
203.077835 164.0
203.722168 172.0
203.945694 192.0
204.394241 112.0
204.481354 32.0
204.59726 144.0
204.609985 84.0
204.619339 160.0
204.894226 140.0
204.956909 180.0
204.982422 164.0
205.36171 100.0
205.992523 192.0
206.88472 152.0
206.982071 160.0
207.629364 176.0
207.66098 176.0
207.72435 104.0
207.744431 76.0
207.850586 180.0
207.932602 48.0
207.98175 332.0
208.232376 188.0
208.519684 96.0
209.103516 112.0
209.394287 128.0
209.472061 116.0
209.535431 112.0
209.621872 228.0
209.711212 204.0
210.021194 176.0
210.054337 216.0
210.221664 132.0
210.309021 196.0
210.455475 204.0
210.504562 120.0
210.68074 68.0
211.025803 160.0
211.088272 172.0
211.273376 248.0
212.00882 140.0
212.217514 160.0
212.319 136.0
212.617813 88.0
212.931366 148.0
213.288727 56.0
213.445724 164.0
213.596954 144.0
213.940323 236.0
213.99855 208.0
214.272324 56.0
214.689133 160.0
214.861221 216.0
214.966644 552.0
215.015869 184.0
215.202682 216.0
215.597031 132.0
215.661331 176.0
215.769485 60.0
215.789948 148.0
216.714813 160.0
216.982727 3480.0
217.019073 212.0
217.119339 180.0
217.180923 112.0
217.224915 52.0
217.318802 100.0
217.371613 124.0
217.397064 196.0
217.480194 152.0
217.515427 148.0
217.591751 172.0
217.659271 124.0
217.691574 40.0
217.811996 148.0
217.83255 60.0
217.857468 208.0
217.886871 188.0
217.917755 204.0
217.967545 16288.0
218.108765 108.0
218.188126 80.0
218.251114 104.0
218.32338 52.0
218.461624 80.0
218.544006 84.0
218.661713 72.0
218.797104 64.0
218.848572 52.0
218.917831 120.0
218.972397 2260.0
219.040741 224.0
219.165253 144.0
219.191772 80.0
219.389252 144.0
219.633987 108.0
219.669388 120.0
219.9655 5512.0
220.23613 268.0
220.377914 68.0
220.460663 112.0
220.540451 64.0
220.599564 84.0
220.7267 80.0
220.753311 40.0
220.965759 308.0
220.995865 164.0
221.030258 192.0
221.105347 100.0
221.238541 164.0
221.348083 76.0
221.37178 124.0
221.454697 36.0
221.644302 236.0
221.724304 152.0
222.231369 56.0
222.367874 88.0
222.450974 84.0
222.77005 188.0
223.018311 40.0
223.259125 136.0
223.675659 128.0
224.178986 120.0
224.220718 124.0
224.533752 188.0
224.662003 168.0
224.903702 200.0
224.993256 176.0
225.575775 160.0
225.767136 156.0
225.803024 152.0
225.871811 64.0
226.027374 164.0
226.365631 172.0
226.389587 172.0
226.958908 136.0
227.020905 356.0
227.192841 184.0
227.336868 168.0
227.447906 88.0
227.71814 192.0
227.745163 40.0
228.027588 212.0
228.077179 40.0
228.430496 84.0
228.650131 72.0
229.107819 180.0
229.164459 80.0
229.27655 84.0
229.363953 60.0
229.641342 176.0
229.994354 92.0
230.027557 320.0
230.374832 220.0
231.418198 156.0
231.751358 188.0
231.82106 116.0
231.993271 1256.0
232.084763 168.0
232.26976 112.0
232.503372 172.0
232.770523 228.0
232.979233 3572.0
233.256607 132.0
233.32045 96.0
233.432953 144.0
233.734085 64.0
233.928864 112.0
233.986328 292.0
234.087189 76.0
234.233368 28.0
234.471024 52.0
234.608185 92.0
234.70575 156.0
234.861282 92.0
234.97438 1952.0
235.044327 84.0
235.090088 108.0
235.120605 52.0
235.190811 144.0
235.517517 36.0
235.554169 60.0
235.630539 148.0
236.003418 148.0
236.639801 80.0
236.682678 84.0
236.82048 216.0
236.924622 116.0
236.988815 444.0
237.335312 96.0
237.853775 40.0
237.982712 120.0
238.468063 192.0
238.492661 152.0
238.907776 48.0
239.16626 44.0
239.686707 148.0
239.880875 136.0
240.633606 200.0
240.787994 116.0
240.825058 68.0
241.600922 92.0
241.897995 48.0
241.938248 40.0
243.240204 160.0
243.355072 184.0
244.032379 132.0
244.23262 188.0
244.318497 108.0
244.461624 68.0
244.891251 120.0
245.486496 76.0
246.507263 204.0
246.619766 36.0
246.788574 192.0
246.957443 168.0
247.273438 88.0
247.467514 56.0
248.326126 148.0
248.65242 92.0
248.734024 188.0
248.963211 148.0
248.997757 52.0
249.066849 68.0
249.195648 184.0
249.308777 56.0
249.403061 176.0
249.440781 108.0
249.515717 172.0
249.557098 104.0
249.648285 152.0
249.808685 128.0
249.865311 108.0
249.915375 324.0
249.920166 296.0
250.005325 48408.0
250.087738 312.0
250.14032 72.0
250.183167 88.0
250.222519 64.0
250.253815 56.0
250.311081 108.0
250.338974 132.0
250.40358 48.0
250.425629 44.0
250.476013 32.0
250.52269 68.0
250.544769 92.0
250.607697 60.0
250.655594 168.0
250.680801 56.0
250.734375 36.0
250.772202 188.0
250.822632 52.0
250.855072 68.0
251.006073 4056.0
251.052383 128.0
251.056992 240.0
251.12532 80.0
251.186066 124.0
251.232559 96.0
251.2854 48.0
251.343964 108.0
251.442551 184.0
251.516556 52.0
251.589157 64.0
251.633362 68.0
251.70282 132.0
251.807037 128.0
251.829147 124.0
251.884552 156.0
251.914764 76.0
251.948654 196.0
252.002289 14180.0
252.088852 116.0
252.122955 32.0
252.151398 84.0
252.220932 60.0
252.258865 120.0
252.287323 44.0
252.359818 116.0
252.365295 108.0
252.379944 80.0
252.387283 132.0
252.414993 52.0
252.587723 68.0
252.61319 80.0
252.679459 96.0
252.793365 88.0
252.831848 100.0
252.894638 180.0
252.947479 108.0
252.995071 988.0
253.075089 48.0
253.147919 48.0
253.296234 48.0
253.413986 40.0
253.616791 80.0
253.738419 76.0
253.810165 80.0
253.841888 36.0
253.872452 100.0
253.99057 204.0
254.044861 84.0
254.240341 224.0
254.387589 84.0
254.66066 52.0
254.797241 100.0
254.867142 100.0
254.949768 92.0
255.159546 108.0
255.560287 136.0
256.20517 64.0
256.754822 40.0
256.895142 116.0
257.016388 72.0
257.142029 96.0
257.476044 88.0
257.827484 116.0
258.008057 380.0
258.220703 52.0
258.739075 116.0
258.777496 208.0
258.819122 124.0
258.928009 80.0
258.993683 156.0
259.049713 136.0
259.495178 76.0
259.835114 76.0
260.000488 224.0
260.008057 120.0
260.019409 212.0
260.422546 76.0
260.977661 168.0
261.341949 72.0
261.518921 92.0
261.805481 88.0
262.001953 108.0
262.188843 68.0
262.817627 56.0
263.250153 40.0
264.258636 36.0
265.045441 108.0
265.110229 112.0
265.282013 76.0
265.93399 48.0
266.115784 116.0
266.138489 148.0
266.248901 64.0
268.006561 160.0
268.057617 168.0
268.794556 148.0
269.062195 148.0
270.016296 108.0
272.146271 128.0
272.717896 28.0
273.642242 96.0
273.86618 84.0
274.96405 136.0
275.115906 96.0
275.750092 72.0
275.931885 168.0
276.021515 4268.0
276.087311 132.0
276.312225 112.0
276.441254 40.0
276.557098 104.0
276.861694 48.0
276.944489 196.0
277.018829 400.0
277.103485 80.0
277.226074 56.0
277.477692 224.0
277.577454 112.0
277.945648 112.0
278.016785 780.0
278.088348 92.0
278.274231 44.0
279.009125 100.0
279.507355 136.0
280.136597 44.0
280.283173 60.0
281.634277 124.0
282.086792 236.0
282.878174 136.0
282.918335 212.0
283.125916 152.0
283.172821 36.0
284.070343 160.0
284.261353 108.0
285.182526 132.0
288.08371 148.0
289.145416 124.0
289.948059 148.0
289.985321 132.0
290.034454 1124.0
291.016571 116.0
291.043732 160.0
291.835388 76.0
292.035461 168.0
293.023224 96.0
295.453979 52.0
296.296143 108.0
298.118103 180.0
298.18338 48.0
301.167084 68.0
301.415802 60.0
302.269897 124.0
302.571014 64.0
303.114777 112.0
303.426727 64.0
304.04364 112.0
304.231567 156.0
305.05835 96.0
306.046387 148.0
306.33197 144.0
306.572357 164.0
306.966278 72.0
307.866608 52.0
310.78595 180.0
311.094788 120.0
312.268372 108.0
313.035553 136.0
313.666199 272.0
313.942078 144.0
315.54776 52.0
320.566681 224.0
325.176453 80.0
325.24823 52.0
328.050354 104.0
328.266693 116.0
328.328003 48.0
330.068542 136.0
330.824707 140.0
331.962372 188.0
332.891327 136.0
336.912354 36.0
340.483643 140.0
342.197174 144.0
342.653839 128.0
343.197784 184.0
343.612396 144.0
344.014648 84.0
344.079132 676.0
345.081573 140.0
345.137787 68.0
345.267212 52.0
345.896179 124.0
346.006073 192.0
346.043671 124.0
346.098724 14768.0
346.173859 144.0
346.266449 68.0
346.462769 96.0
346.691742 60.0
346.720184 92.0
346.844421 32.0
346.879944 56.0
346.977875 72.0
347.104034 1980.0
347.204071 72.0
347.26712 68.0
347.382111 68.0
347.624939 80.0
347.859833 172.0
348.093292 4716.0
348.140045 168.0
348.202393 28.0
348.321228 32.0
348.416443 76.0
348.506989 36.0
348.707672 112.0
349.045959 100.0
349.099396 852.0
349.161224 140.0
349.246765 36.0
349.35849 108.0
349.468536 112.0
349.577881 28.0
349.987335 228.0
350.076691 208.0
350.121399 116.0
350.154907 52.0
350.553528 68.0
350.587067 56.0
351.325317 96.0
351.411102 128.0
351.467072 108.0
352.288422 104.0
354.128754 64.0
356.620026 76.0
358.837219 104.0
359.80304 36.0
362.905396 80.0
364.556549 36.0
364.655365 60.0
365.161041 72.0
365.743164 48.0
366.104828 56.0
367.213867 120.0
369.467529 80.0
371.125854 60.0
376.115448 68.0
377.900818 108.0
382.087036 100.0
386.386261 96.0
387.52948 96.0
391.205414 88.0
393.416931 68.0
393.906586 56.0
395.892029 36.0
397.59668 136.0
404.664093 132.0
415.773468 128.0
420.714783 100.0
427.09906 92.0
427.621613 72.0
427.716278 120.0
431.834045 112.0
435.722229 80.0
440.738586 80.0
444.616211 56.0
461.822235 48.0
465.112885 48.0
471.625519 64.0
474.005737 116.0
474.985535 84.0
482.322571 84.0
483.455322 44.0
487.221741 148.0
489.033386 48.0
493.338501 32.0
493.78067 52.0
502.74585 48.0
508.505585 60.0
511.40451 140.0
521.249817 96.0
521.636108 60.0
532.997803 112.0
536.468018 92.0
542.009399 92.0
542.398682 76.0
545.29425 108.0
550.601379 88.0
553.332153 92.0
554.409485 128.0
566.097107 68.0
570.02002 80.0
589.649536 112.0
594.264282 104.0
600.690796 116.0
623.617249 44.0
638.285034 72.0
641.829834 52.0
642.662109 80.0
670.34082 92.0
674.764221 84.0
689.877075 44.0
690.907288 20.0
692.891418 100.0
711.747253 100.0
713.064697 52.0
720.914734 108.0
731.512878 64.0
737.283997 216.0
775.504333 52.0
781.802246 152.0
789.618164 192.0
798.24884 88.0
827.161743 212.0
853.31842 164.0
854.440918 96.0
857.900146 92.0
858.156677 200.0
859.474792 172.0
862.640198 80.0
874.12384 144.0
875.224548 212.0
884.073059 60.0
884.653076 152.0
887.449402 168.0
899.830627 176.0
904.170227 100.0
907.458801 124.0
914.691772 228.0
921.041138 72.0
925.031982 164.0
930.900879 168.0
934.712158 152.0
935.576416 148.0
935.953918 240.0
938.311829 136.0
945.27478 164.0
947.105286 276.0
953.676636 196.0
954.229919 80.0
958.957458 216.0
966.930786 196.0
968.280396 176.0
971.199585 132.0
971.956482 208.0
975.030334 156.0
976.441589 216.0
977.779175 96.0
978.905945 276.0
979.964844 164.0
980.47583 160.0
982.496033 140.0
986.705261 188.0
989.001038 68.0
994.673645 160.0
996.325134 164.0
997.575745 168.0
999.802246 204.0
1000.607971 164.0
1001.149475 148.0
1001.439148 88.0
1007.343079 112.0
1011.383606 228.0
1011.858398 172.0
1012.662598 48.0
1018.745544 180.0
1023.063477 48.0
1024.06958 100.0
1024.209717 160.0
1025.624146 232.0
1026.803711 160.0
1029.317993 156.0
1030.122681 100.0
1031.432617 184.0
1033.331909 188.0
1034.900024 172.0
1038.321899 200.0
1039.091675 148.0
1045.510742 220.0
1048.595581 148.0
1049.233765 200.0
1049.510986 184.0
1050.317139 164.0
1050.542847 256.0
1053.396118 112.0
1053.874146 152.0
1054.559082 124.0
1054.733643 116.0
1056.091431 132.0
1058.291748 208.0
1059.068848 176.0
1060.241455 156.0
1062.452515 144.0
1069.776367 112.0
1072.90979 152.0
1073.164062 80.0
1076.217651 132.0
1079.281982 192.0
1081.224854 260.0
1082.317993 216.0
1082.638916 188.0
1084.32251 172.0
1086.49292 184.0
1088.002319 44.0
1088.094238 152.0
1093.918823 112.0
1094.847168 156.0
1095.222534 148.0
1097.04126 136.0
1097.733521 60.0
1097.94458 220.0
1098.742676 56.0
1099.283691 128.0
1100.907593 84.0
1107.183472 96.0
1108.322876 64.0
1108.428833 208.0
1108.813232 116.0
1113.138428 160.0
1114.327393 156.0
1114.427124 152.0
1116.141968 72.0
1116.274902 96.0
1117.372314 84.0
1117.878052 96.0
1119.668823 136.0
1120.474731 164.0
1122.160889 248.0
1122.354248 40.0
1122.541016 140.0
1123.341309 132.0
1123.981812 176.0
1124.742676 156.0
1124.909546 96.0
1127.42749 180.0
1128.349854 80.0
1129.680786 128.0
1130.276123 152.0
1131.922852 84.0
1131.969727 184.0
1132.143799 212.0
1133.11499 100.0
1133.604126 212.0
1136.487427 204.0
1137.541138 160.0
1138.057983 120.0
1138.185547 268.0
1139.992554 148.0
1144.001099 152.0
1144.883179 200.0
1145.388306 128.0
1153.174683 120.0
1154.217163 184.0
1155.067871 104.0
1156.042114 180.0
1156.779785 112.0
1157.524536 200.0
1158.228882 168.0
1159.556885 200.0
1162.289795 192.0
1162.500122 168.0
1164.400879 160.0
1166.826782 128.0
1169.112183 128.0
1170.548584 192.0
1170.950317 172.0
1171.181885 164.0
1173.778442 100.0
1174.460327 72.0
1179.027954 28.0
1179.410645 64.0
1179.909668 184.0
1180.907959 148.0
1181.37915 168.0
1182.3927 128.0
1183.33728 240.0
1184.179565 188.0
1186.310547 128.0
1190.949097 164.0
1191.237549 140.0
1192.206299 56.0
1194.489014 208.0
1194.715942 252.0
1198.041016 108.0
1198.516357 136.0
1198.681763 160.0
1200.894653 88.0
1201.073975 84.0
1202.33667 188.0
1208.023071 68.0
1208.984741 128.0
1209.57312 192.0
1209.621582 164.0
1210.978638 136.0
1211.089478 156.0
1213.826904 140.0
1215.845581 28.0
1216.491089 132.0
1216.997925 172.0
1218.3573 172.0
1219.019165 108.0
1221.19519 128.0
1222.496094 124.0
1223.825684 192.0
1223.957886 180.0
1224.438354 208.0
1225.364868 116.0
1225.936157 144.0
1228.551758 160.0
1231.084473 132.0
1231.838745 232.0
1232.020386 96.0
1232.306885 140.0
1232.418579 188.0
1234.221924 168.0
1235.746704 176.0
1235.935669 208.0
1236.453491 104.0
1237.027344 160.0
1237.111328 128.0
1237.223389 140.0
1239.093262 168.0
1241.378296 164.0
1242.802124 140.0
1243.279297 136.0
1245.181885 148.0
1246.488525 120.0
1247.549805 96.0
1249.061646 84.0
1251.5177 148.0
1252.186768 152.0
1255.223999 144.0
1255.484985 124.0
1256.119751 188.0
1256.571167 184.0
1256.825195 100.0
1257.495605 252.0
1257.643799 192.0
1258.250854 156.0
1259.465454 156.0
1260.934204 164.0
1261.189575 160.0
1262.122681 104.0
1267.041626 136.0
1267.821045 52.0
1268.154175 164.0
1269.75647 176.0
1271.835327 148.0
1272.779541 188.0
1273.766602 188.0
1276.776123 224.0
1277.5271 184.0
1278.70105 152.0
1280.708862 212.0
1283.583984 236.0
1284.871826 144.0
1285.913696 216.0
1286.020752 148.0
1286.784546 32.0
1287.491455 224.0
1287.827148 124.0
1288.2771 44.0
1288.670044 200.0
1291.036011 224.0
1291.093262 148.0
1291.25061 108.0
1291.629639 96.0
1293.769287 120.0
1293.883789 184.0
1293.962524 180.0
1294.299072 84.0
1295.351807 236.0
1295.667114 220.0
1296.018066 160.0
1296.111328 144.0
1296.491089 144.0
1297.86731 136.0
1300.342285 148.0
1300.449951 120.0
1301.088745 144.0
1301.325684 228.0
1301.454956 128.0
1305.601074 264.0
1309.545044 164.0
1309.912354 184.0
1312.182373 96.0
1312.744873 160.0
1314.324585 180.0
1314.800781 172.0
1315.385376 152.0
1315.616455 52.0
1316.30957 48.0
1320.334717 160.0
1321.036255 112.0
1321.644043 224.0
1321.998535 140.0
1322.374878 172.0
1322.968384 172.0
1325.126587 164.0
1325.256958 220.0
1325.858398 104.0
1326.655762 216.0
1326.89502 232.0
1327.235718 204.0
1327.619995 112.0
1327.736084 152.0
1329.150635 156.0
1330.515137 148.0
1330.87085 68.0
1331.037842 148.0
1331.633423 220.0
1333.558716 156.0
1333.638672 168.0
1333.973022 160.0
1334.945312 220.0
1335.463623 144.0
1335.517944 192.0
1337.886719 172.0
1338.687622 252.0
1340.18811 96.0
1342.75415 172.0
1342.8927 124.0
1343.498169 204.0
1343.651367 164.0
1344.731323 140.0
1345.505005 112.0
1346.241821 208.0
1350.013184 80.0
1350.115601 196.0
1350.247314 128.0
1351.476196 160.0
1352.40564 156.0
1352.595947 180.0
1354.543701 164.0
1354.756104 224.0
1355.100464 176.0
1358.377319 72.0
1359.309082 216.0
1360.050293 160.0
1360.138428 136.0
1360.233887 180.0
1362.686646 140.0
1364.083008 184.0
1367.297119 168.0
1367.525269 164.0
1368.364502 200.0
1368.850464 132.0
1368.916748 116.0
1369.14502 120.0
1369.262817 188.0
1372.202881 192.0
1373.699951 140.0
1374.017212 196.0
1374.415649 184.0
1375.862183 96.0
1376.105835 236.0
1376.844238 212.0
1377.257812 192.0
1378.233032 84.0
1378.329102 200.0
1378.462036 76.0
1378.935059 180.0
1379.282349 120.0
1381.249268 216.0
1382.29248 216.0
1382.50708 192.0
1382.884521 132.0
1383.795044 204.0
1384.513184 76.0
1384.63916 120.0
1384.735474 160.0
1387.484497 152.0
1388.144409 100.0
1388.871216 192.0
1390.058228 32.0
1390.228882 232.0
1391.023071 156.0
1391.343994 156.0
1392.173828 112.0
1392.248047 220.0
1393.287964 56.0
1394.30957 156.0
1394.907959 80.0
1395.153931 228.0
1396.268677 140.0
1397.503418 232.0
1397.980835 212.0
1398.031738 144.0
1399.170532 180.0
1399.565186 216.0
1401.978638 124.0
1402.410889 112.0
1404.162964 164.0
1404.983521 120.0
1405.13269 160.0
1405.513184 96.0
1405.572876 168.0
1406.714844 168.0
1408.40979 176.0
1409.239014 136.0
1410.606567 160.0
1411.825317 212.0
1412.842529 144.0
1414.848145 84.0
1416.03125 152.0
1419.156128 76.0
1419.291016 192.0
1421.578857 160.0
1421.676514 152.0
1422.036743 152.0
1423.275391 172.0
1425.61145 56.0
1425.70166 172.0
1425.964722 56.0
1426.340454 92.0
1426.415649 172.0
1427.464844 260.0
1428.445923 240.0
1428.641479 80.0
1429.213257 76.0
1430.259399 184.0
1430.583008 88.0
1431.607056 108.0
1431.704956 176.0
1432.088989 132.0
1434.017822 176.0
1438.747314 148.0
1439.207886 160.0
1440.461548 232.0
1440.922363 132.0
1440.982788 244.0
1442.955322 200.0
1443.219971 196.0
1443.318237 176.0
1444.445068 140.0
1444.717407 236.0
1444.815796 188.0
1445.353027 140.0
1445.534546 40.0
1445.822144 164.0
1446.003784 188.0
1446.526611 164.0
1446.586548 80.0
1446.775879 172.0
1447.283081 172.0
1447.472412 236.0
1448.964478 112.0
1449.176636 88.0
1449.585815 144.0
1450.101074 232.0
1451.048706 112.0
1451.913086 256.0
1452.322632 124.0
1452.990234 120.0
1455.722656 176.0
1455.889648 184.0
1456.679565 136.0
1456.816284 136.0
1457.644409 224.0
1458.792114 224.0
1459.3927 40.0
1460.008667 88.0
1460.236816 96.0
1461.339722 236.0
1462.161621 172.0
1463.196777 120.0
1464.15625 112.0
1464.651245 180.0
1465.100708 68.0
1465.466431 136.0
1465.786377 72.0
1466.106445 148.0
1467.280273 232.0
1467.638672 180.0
1468.210571 168.0
1469.385254 160.0
1469.583618 168.0
1471.048828 176.0
1473.714233 168.0
1473.763916 156.0
1474.241455 152.0
1474.646484 196.0
1474.81311 204.0
1475.118896 248.0
1475.464355 144.0
1476.86377 136.0
1477.269165 180.0
1477.712891 160.0
1477.858276 212.0
1478.126099 160.0
1478.807129 140.0
1478.860718 156.0
1479.052124 188.0
1479.23584 260.0
1479.564941 236.0
1479.725708 96.0
1481.747681 252.0
1483.814331 152.0
1484.184937 140.0
1484.60791 188.0
1484.944092 216.0
1485.089844 228.0
1485.787842 220.0
1486.77771 136.0
1486.908203 120.0
1487.836914 144.0
1488.044189 184.0
1490.747925 180.0
1491.032227 160.0
1491.516479 128.0
1491.723999 160.0
1493.961792 132.0
1494.777344 172.0
1495.493042 212.0
1496.463013 228.0
1496.809448 212.0
1497.510254 104.0
1498.064819 168.0
1498.165039 136.0
1498.658081 148.0
1499.405518 144.0
1500.330566 100.0
1500.831665 192.0
1501.240356 144.0
1501.36377 208.0
1502.011597 164.0
1502.243042 188.0
1503.685913 124.0
1503.871094 120.0
1504.056396 156.0
