>compound Clozapine (Clozaril)
>formula C18H19ClN4
>ionization [M+H]+
>parentmass 327.136444
#inchi InChI=1S/C18H19ClN4/c1-22-8-10-23(11-9-22)18-14-4-2-3-5-15(14)20-16-7-6-13(19)12-17(16)21-18/h2-7,12,20H,8-11H2,1H3
#inchikey QZUDBNBUXVUHMW
#Ion_Source LC-ESI
#Instrument qTof
#Compound_Source Commercial
#PI Dorrestein
#Data_Collector Garg_Neha
#Scan -1
#Precursor_MZ 327.137
#ExactMass 326.13
#Charge 1
#CAS_Number 5786-21-0
#Pubmed_ID N/A
#Smiles N1C2=C(C(=NC3=C1C=CC(=C3)Cl)N4CCN(CC4)C)C=CC=C2
#INCHI_AUX N/A
#Library_Class 1
#SpectrumID CCMSLIB00000078475
#IonMode Positive
#UpdateWorkflowName UPDATE-SINGLE-ANNOTATED-GOLD
#LibraryQualityString Gold
#TaskID 77f51c88eb8b467eb4a01dd2d0cb90d2
##Scan# 1063
#SpectrumFile Plate7_41_60_GD4_01_15769.mzXML
#LibraryName FDALibrary_2_04302014.mgf
#MQScore -1
#Organism FDALibrary_2_04302014
#TIC_Query 0
#RT_Query -1
#MZErrorPPM -1
#SharedPeaks 0
#MassDiff 0
#LibMZ -1
#SpecMZ 327.137
#SpecCharge 0
#internalFilename spec-00000.mgf

>collision 10
49.635738 168.0
54.176071 148.0
66.91362 140.0
67.736717 176.0
73.852928 152.0
80.485031 192.0
83.656586 188.0
90.353745 148.0
94.293152 184.0
99.091751 160.0
99.907745 140.0
120.375069 176.0
122.892838 148.0
126.741882 180.0
148.852264 160.0
151.491318 224.0
152.876129 220.0
153.011505 164.0
155.054382 152.0
160.227112 148.0
165.021606 180.0
165.049744 140.0
168.512039 144.0
176.162079 168.0
187.794586 156.0
187.993744 164.0
192.067703 2796.0
193.074646 848.0
202.542923 212.0
205.071793 140.0
206.04541 128.0
206.087738 276.0
207.080032 184.0
215.97261 184.0
218.510178 176.0
219.075424 160.0
220.082245 212.0
221.802994 168.0
226.028015 232.0
227.035019 1888.0
228.034744 272.0
229.035507 280.0
230.030777 116.0
230.053696 144.0
234.100082 168.0
234.631729 208.0
235.106522 296.0
241.040375 184.0
242.046036 272.0
243.028641 164.0
243.050369 176.0
244.059875 140.0
253.049118 176.0
254.055771 352.0
255.054077 148.0
256.066895 108.0
257.057373 144.0
264.158661 180.0
268.058075 264.0
269.778168 180.0
269.951447 140.0
270.078674 10216.0
271.08252 1868.0
272.075134 2388.0
273.079498 228.0
273.139435 164.0
281.071106 276.0
281.565186 140.0
285.2901 196.0
285.98761 144.0
286.095306 180.0
296.095886 2360.0
297.094025 328.0
298.091064 348.0
298.695923 108.0
299.095032 96.0
324.967621 152.0
325.122894 308.0
325.269897 160.0
326.397217 240.0
327.005188 152.0
327.073578 144.0
327.136444 16936.0
327.222656 128.0
327.564362 176.0
327.644928 128.0
328.138916 2632.0
328.227142 120.0
329.134338 3340.0
330.135284 608.0
330.994415 200.0
797.46051 156.0
