>compound NCGC00160268-01!3-(4-Methyl-thiazol-2-yl)-7-(3,4,5-trihydroxy-6-hydroxymethyl-tetrahydro-pyran-2-yloxy)-chromen-4-one
>formula C19H19NO8S
>ionization [M+H]+
>parentmass 422.091
#inchi InChI=1S/C19H19NO8S/c1-8-7-29-18(20-8)11-6-26-12-4-9(2-3-10(12)14(11)22)27-19-17(25)16(24)15(23)13(5-21)28-19/h2-4,6-7,13,15-17,19,21,23-25H,5H2,1H3/t13-,15-,16-,17-,19-/m1/s1
#inchikey KPYJUZGASBQBNI
#Ion_Source LC-ESI
#Instrument qTOF
#Compound_Source Prestwick Phytochem Lib
#PI Dorrestein
#Data_Collector VVP/LMS
#Scan -1
#Precursor_MZ 422.091
#ExactMass 421.083
#Charge 1
#CAS_Number N/A
#Pubmed_ID N/A
#Smiles CC1=CSC(=N1)C2=COC3=CC(O[C@@H]4O[C@H](CO)[C@@H](O)[C@@H](O)[C@H]4O)=CC=C3C2=O
#INCHI_AUX N/A
#Library_Class 1
#SpectrumID CCMSLIB00000078755
#IonMode Positive
#UpdateWorkflowName UPDATE-SINGLE-ANNOTATED-GOLD
#LibraryQualityString Gold
#TaskID 67c915c6594c435cadc1fe2b5358144d
##Scan# 1586
#SpectrumFile p1-D03_GD3_01_17911.mzXML
#LibraryName phytochem_lib.mgf
#MQScore -1
#Organism phytochem_lib
#TIC_Query 0
#RT_Query -1
#MZErrorPPM -1
#SharedPeaks 0
#MassDiff 0
#LibMZ -1
#SpecMZ 422.091
#SpecCharge 0
#internalFilename spec-00000.mgf

>collision 10
95.038254 76.0
95.475311 188.0
95.710938 220.0
95.775024 140.0
96.194252 116.0
96.284065 168.0
96.358292 112.0
96.485321 196.0
96.862999 136.0
97.049171 172.0
97.705139 96.0
98.136452 144.0
98.416618 96.0
98.509438 128.0
98.8871 84.0
98.974197 128.0
99.08313 192.0
99.34481 128.0
99.473793 200.0
99.817497 188.0
99.996536 264.0
100.191673 180.0
100.422897 184.0
100.496704 188.0
100.79863 244.0
101.500786 20.0
101.968513 96.0
102.473587 160.0
102.497765 124.0
102.74575 164.0
103.175911 168.0
103.746788 300.0
103.955696 172.0
103.998314 136.0
104.160751 200.0
104.553146 196.0
104.606064 204.0
105.05233 204.0
105.419838 152.0
105.677467 156.0
105.882164 92.0
105.933372 120.0
106.052216 88.0
106.152664 132.0
106.306519 68.0
106.368462 196.0
106.483063 212.0
106.797791 152.0
106.97448 188.0
107.128922 108.0
107.187332 184.0
107.266983 232.0
107.900734 164.0
108.031021 128.0
108.070328 132.0
108.37883 172.0
108.447212 152.0
108.465866 148.0
108.953522 160.0
109.658913 76.0
109.758972 216.0
109.967583 68.0
110.452316 80.0
112.146759 28.0
112.342857 180.0
112.406151 144.0
112.477905 100.0
112.86451 128.0
112.940636 64.0
113.156479 228.0
113.283546 176.0
113.495476 132.0
113.58667 208.0
113.639702 144.0
113.981544 188.0
114.117577 136.0
115.140388 132.0
115.396805 104.0
115.534142 184.0
115.653503 196.0
115.668488 204.0
115.908348 180.0
115.934059 120.0
116.51123 228.0
117.303146 160.0
117.572746 72.0
118.013397 184.0
118.279488 152.0
118.33577 124.0
119.322914 240.0
119.499077 128.0
120.37529 220.0
120.740234 208.0
121.145149 196.0
122.652557 144.0
122.888519 136.0
123.425232 168.0
123.947609 96.0
124.02179 1200.0
124.324577 104.0
124.682114 152.0
124.924469 116.0
124.964508 136.0
125.026711 168.0
126.332069 112.0
127.633148 152.0
127.798431 96.0
127.884811 140.0
128.094208 164.0
128.940308 184.0
129.152832 224.0
130.283951 100.0
130.379379 164.0
130.52713 108.0
130.67247 192.0
131.130402 96.0
131.360687 108.0
131.520416 132.0
131.851578 184.0
132.0466 248.0
132.091644 212.0
132.467056 60.0
132.764999 164.0
132.836105 160.0
133.47226 172.0
133.775955 164.0
134.020065 132.0
134.67984 56.0
134.765305 100.0
134.853119 76.0
135.64212 168.0
135.716583 60.0
135.881256 184.0
136.934235 100.0
137.021729 308.0
137.087997 188.0
137.398102 132.0
137.428421 44.0
138.215836 132.0
138.297745 164.0
138.515488 112.0
138.71701 228.0
139.280167 216.0
139.609192 164.0
140.235428 196.0
140.268417 52.0
140.296707 132.0
140.541977 148.0
140.629303 124.0
140.709549 176.0
141.248337 132.0
141.305115 140.0
141.496811 120.0
142.053711 128.0
142.160477 184.0
142.336136 44.0
142.868515 180.0
143.411423 160.0
143.804947 260.0
143.845535 224.0
143.8694 88.0
144.003113 144.0
144.096268 112.0
145.326889 212.0
145.557312 48.0
145.578918 164.0
145.686996 176.0
146.685638 160.0
146.885788 144.0
147.058243 200.0
147.387924 176.0
147.4991 192.0
148.227554 240.0
148.249359 208.0
148.525742 124.0
148.734421 164.0
148.792679 116.0
148.94809 196.0
149.388062 180.0
149.507278 120.0
149.641159 196.0
149.684982 188.0
149.733688 168.0
149.772659 116.0
149.962708 204.0
150.66301 208.0
150.682556 180.0
150.860947 80.0
151.110397 180.0
151.137314 128.0
151.174011 80.0
151.205826 168.0
151.355148 136.0
151.428619 96.0
151.492294 136.0
151.70549 140.0
151.727554 208.0
152.009613 196.0
152.056244 84.0
152.441803 120.0
153.120773 236.0
154.20137 184.0
154.344742 140.0
154.394196 144.0
154.535187 56.0
154.973419 244.0
155.144424 136.0
155.342804 228.0
155.744919 132.0
156.274414 128.0
156.680222 164.0
157.585846 176.0
158.063416 128.0
158.307144 240.0
158.579285 184.0
158.616882 136.0
158.900253 180.0
159.085968 140.0
159.131149 120.0
159.583389 152.0
159.882721 84.0
160.03627 164.0
160.376343 196.0
160.575531 60.0
160.671371 140.0
161.358307 188.0
161.904846 152.0
161.922577 176.0
162.419342 144.0
163.071854 172.0
163.234558 176.0
163.3134 148.0
163.392258 224.0
163.780487 264.0
163.939682 168.0
164.044174 176.0
164.263474 116.0
164.477814 112.0
165.285385 200.0
165.733459 208.0
165.80777 208.0
165.997482 156.0
166.194977 176.0
166.34639 52.0
166.898743 176.0
166.919312 244.0
167.408234 224.0
167.833389 224.0
168.017593 124.0
168.088745 220.0
168.199722 152.0
168.313309 168.0
168.336548 164.0
168.631058 112.0
168.662079 112.0
168.760315 136.0
168.835297 160.0
168.915466 152.0
169.213074 156.0
169.617188 64.0
169.988052 156.0
170.325562 124.0
170.590607 120.0
170.907883 132.0
171.066635 192.0
172.307953 200.0
172.352371 108.0
172.39418 116.0
173.315247 216.0
174.309708 112.0
174.817215 156.0
175.049393 220.0
175.604904 172.0
175.742081 120.0
175.842361 188.0
175.884583 128.0
175.942657 164.0
176.055222 152.0
176.101089 220.0
176.185623 208.0
176.386444 152.0
176.513351 148.0
176.653519 180.0
176.740829 88.0
177.055832 124.0
177.546097 92.0
177.782196 96.0
178.164536 116.0
178.281448 176.0
178.765427 196.0
178.810669 92.0
178.965057 232.0
179.279373 56.0
180.117111 148.0
180.282761 128.0
180.518005 68.0
180.673126 148.0
180.772125 232.0
180.817612 224.0
180.876495 148.0
181.090698 152.0
181.353256 152.0
181.492661 116.0
181.774307 196.0
182.015884 220.0
182.147476 108.0
182.929962 180.0
183.013428 112.0
183.35553 204.0
183.649399 184.0
183.697952 148.0
183.783966 176.0
184.02449 112.0
184.464828 140.0
184.572968 240.0
184.762299 244.0
184.781235 108.0
185.092484 148.0
185.222488 164.0
185.52597 136.0
185.959976 232.0
186.174438 84.0
186.307526 252.0
186.992737 176.0
187.019958 132.0
187.042816 372.0
187.630127 184.0
187.739197 132.0
188.034561 9528.0
188.137543 56.0
188.164856 124.0
188.238571 144.0
188.353271 72.0
188.418839 244.0
189.038208 724.0
189.260788 212.0
189.53511 260.0
189.66391 248.0
189.946335 48.0
190.039612 160.0
190.245438 116.0
190.467865 108.0
190.524033 188.0
190.550278 124.0
190.682175 120.0
191.006607 120.0
191.02861 148.0
191.097382 172.0
191.212952 36.0
191.325806 80.0
191.452469 104.0
191.918152 144.0
192.68541 136.0
193.315826 180.0
193.515106 200.0
193.850266 180.0
193.941711 124.0
194.024872 144.0
194.341034 196.0
194.421509 76.0
194.59639 196.0
194.726898 96.0
194.98526 160.0
195.792053 136.0
196.221146 140.0
196.502838 180.0
196.798676 160.0
196.843353 220.0
198.314865 200.0
198.58963 60.0
199.052673 116.0
199.226807 184.0
199.990768 116.0
200.963852 240.0
202.314743 224.0
202.54129 80.0
203.0401 100.0
203.377716 128.0
203.671555 136.0
203.849152 96.0
203.937256 192.0
204.048599 504.0
204.363815 120.0
204.736694 172.0
205.027267 156.0
205.055771 160.0
205.118484 176.0
205.192596 148.0
205.965927 196.0
206.044312 192.0
206.852341 40.0
207.915665 152.0
208.197006 212.0
208.52739 104.0
209.514343 92.0
209.903427 188.0
210.48082 160.0
211.356125 256.0
211.553131 136.0
211.66893 44.0
211.799255 160.0
212.141174 212.0
212.628464 132.0
213.252884 196.0
213.433121 132.0
213.494003 136.0
213.712341 136.0
214.099487 216.0
214.370392 140.0
214.909821 104.0
215.044067 140.0
215.379837 84.0
215.426559 144.0
215.566803 128.0
216.066772 124.0
217.511459 180.0
217.684677 176.0
218.14595 176.0
218.484131 180.0
218.790176 180.0
218.87262 168.0
219.004562 144.0
219.768646 144.0
220.00264 140.0
220.096268 176.0
220.852798 144.0
221.228592 44.0
222.073074 100.0
222.372726 236.0
222.476608 224.0
222.729019 168.0
222.755753 136.0
223.041 128.0
223.204514 228.0
223.436508 176.0
224.660889 172.0
225.207138 88.0
225.237015 140.0
225.766006 128.0
225.867691 196.0
226.053177 160.0
226.223785 212.0
226.45433 180.0
226.879517 188.0
227.056732 132.0
227.227707 172.0
227.281708 256.0
227.350723 128.0
227.706955 128.0
228.059509 136.0
228.221832 204.0
228.43837 164.0
228.685104 220.0
229.094604 68.0
229.875488 116.0
229.944885 156.0
229.990158 100.0
230.13205 148.0
230.216599 96.0
230.741119 180.0
231.032654 88.0
231.180908 96.0
232.043304 2120.0
232.073151 128.0
232.423279 204.0
232.581085 80.0
232.63269 116.0
232.726807 196.0
232.811829 148.0
233.036026 184.0
234.03801 144.0
234.095108 172.0
234.198639 68.0
234.241287 164.0
234.466751 76.0
235.07666 124.0
236.50386 156.0
236.684479 116.0
236.767166 52.0
237.827957 164.0
237.993729 172.0
238.021362 148.0
238.31929 36.0
238.436066 224.0
238.583603 120.0
238.980331 156.0
239.432831 196.0
239.944321 136.0
240.067657 136.0
240.298981 148.0
240.514999 164.0
241.262543 128.0
241.847168 132.0
242.035995 212.0
242.159866 184.0
242.454193 172.0
243.41893 36.0
243.743484 224.0
243.797638 228.0
244.379379 156.0
245.148468 184.0
246.215363 136.0
246.549637 184.0
246.762177 156.0
246.840347 176.0
247.071793 172.0
247.309616 104.0
247.553802 172.0
247.610168 160.0
247.851379 48.0
247.87645 200.0
247.935989 100.0
248.30278 148.0
248.625916 176.0
248.669846 112.0
248.936691 160.0
248.976929 108.0
249.785248 76.0
249.857605 172.0
250.42421 128.0
251.606674 168.0
251.672974 92.0
252.014084 164.0
253.092636 104.0
253.203461 148.0
253.260468 80.0
253.326981 196.0
253.735794 136.0
254.262329 192.0
254.592484 112.0
254.646484 160.0
254.744949 180.0
254.973709 140.0
255.212112 52.0
255.450638 188.0
255.714722 192.0
255.800659 140.0
255.842484 144.0
255.991684 172.0
256.221008 48.0
256.415375 160.0
256.727814 212.0
256.928741 192.0
257.123383 212.0
257.257446 136.0
257.667725 208.0
257.845123 104.0
258.152039 56.0
258.180817 168.0
258.225586 128.0
258.276764 220.0
258.378143 116.0
258.491119 112.0
258.811188 44.0
258.878418 140.0
258.926483 52.0
258.958496 176.0
258.979706 84.0
259.022552 168.0
259.086609 152.0
259.121857 132.0
259.178925 148.0
259.221191 172.0
259.314117 140.0
259.387848 192.0
259.413696 192.0
259.487213 156.0
259.544037 156.0
259.650757 236.0
259.698853 144.0
259.738525 228.0
259.79187 156.0
259.833435 240.0
259.838257 228.0
259.866821 176.0
259.945618 148.0
259.96817 264.0
260.038452 78900.0
260.110321 48.0
260.146484 64.0
260.165192 112.0
260.18866 36.0
260.221039 64.0
260.226837 112.0
260.240967 84.0
260.248444 108.0
260.284454 48.0
260.325806 56.0
260.361603 136.0
260.400024 116.0
260.426178 112.0
260.435364 68.0
260.46109 52.0
260.509674 40.0
260.528656 140.0
260.568329 320.0
260.610382 80.0
260.630432 104.0
260.656281 68.0
260.70694 44.0
260.768005 52.0
260.817108 100.0
260.854767 68.0
260.893341 96.0
260.925995 40.0
260.942657 52.0
260.956421 84.0
261.040619 14664.0
261.137512 60.0
261.148102 108.0
261.176331 56.0
261.215515 108.0
261.328064 92.0
261.35968 100.0
261.447327 68.0
261.588837 116.0
261.625061 132.0
261.681396 56.0
261.720184 52.0
261.768494 100.0
261.813568 72.0
261.964935 44.0
262.035065 3432.0
262.075256 196.0
262.106689 156.0
262.157623 60.0
262.184326 80.0
262.225922 68.0
262.29361 156.0
262.330292 84.0
262.353912 80.0
262.397888 152.0
262.43869 64.0
262.496155 132.0
262.524414 116.0
262.55658 56.0
262.616943 84.0
262.672913 120.0
262.716919 92.0
262.751373 84.0
262.777344 76.0
262.803162 60.0
262.885406 104.0
262.914886 64.0
262.92038 96.0
262.985138 152.0
263.036163 516.0
263.090454 132.0
263.118408 112.0
263.316406 64.0
263.565155 88.0
263.603912 76.0
263.72348 48.0
263.759033 96.0
263.860535 100.0
263.933624 140.0
263.991821 48.0
264.027405 164.0
264.048615 136.0
264.059235 76.0
264.070679 124.0
264.143829 68.0
264.269989 112.0
264.354126 80.0
264.438263 68.0
264.490051 76.0
264.548309 80.0
264.703705 64.0
264.823547 124.0
264.92395 60.0
264.95636 104.0
264.983765 104.0
265.244751 72.0
265.36795 32.0
265.760376 88.0
266.010284 80.0
266.611145 44.0
266.702148 56.0
266.913452 40.0
267.417664 80.0
269.102966 36.0
269.968872 48.0
270.94751 48.0
271.714661 96.0
272.13147 112.0
272.216827 120.0
272.331787 112.0
272.384338 88.0
272.860809 60.0
272.998932 60.0
274.10495 88.0
274.2005 52.0
274.602722 72.0
275.097656 76.0
275.550079 92.0
276.194702 112.0
277.247528 124.0
279.568787 124.0
279.698608 68.0
279.748535 40.0
280.061676 80.0
285.325195 88.0
290.902618 124.0
291.116516 148.0
293.638214 72.0
295.537506 44.0
296.311279 44.0
297.85495 136.0
299.764374 48.0
314.348145 92.0
327.644348 40.0
331.227814 224.0
332.99054 76.0
337.180206 108.0
341.131378 76.0
342.139313 76.0
347.394257 44.0
348.983765 64.0
360.249573 160.0
360.937408 108.0
361.277802 128.0
369.437744 80.0
371.153534 108.0
399.687469 140.0
406.853546 68.0
406.925812 72.0
422.239227 212.0
426.819733 140.0
436.611969 88.0
458.943939 104.0
465.38324 52.0
493.974884 56.0
494.112 136.0
494.939667 108.0
508.388336 88.0
515.449097 56.0
519.9776 120.0
525.310181 72.0
559.302185 100.0
572.520935 56.0
591.853882 76.0
604.519531 88.0
614.942993 68.0
627.572815 68.0
635.841492 44.0
649.032837 60.0
699.342102 104.0
706.931091 132.0
737.99939 72.0
752.571533 96.0
771.357605 36.0
776.492676 88.0
851.447998 120.0
863.903748 80.0
865.308289 44.0
885.914612 52.0
945.494507 60.0
1014.207031 28.0
1067.698486 76.0
1107.034912 20.0
1140.257935 144.0
1161.824585 80.0
1218.792114 112.0
1336.40271 96.0
1342.236938 40.0
1351.46936 280.0
1386.061401 48.0
1411.869751 80.0
1425.640869 216.0
1437.418091 132.0
1449.736328 184.0
1451.904419 76.0
1461.734253 232.0
1477.133789 20.0
1485.272339 104.0
1489.678345 116.0
