>compound MLS000881122-01!Xylazine
>formula C12H16N2S
>ionization [M+H]+
>parentmass 221.110458
#inchi InChI=1S/C12H16N2S/c1-9-5-3-6-10(2)11(9)14-12-13-7-4-8-15-12/h3,5-6H,4,7-8H2,1-2H3,(H,13,14)
#inchikey BPICBUSOMSTKRF
#Ion_Source LC-ESI
#Instrument qTof
#Compound_Source NIH Pharmacologically Active Library
#PI Dorrestein
#Data_Collector VP/LMS
#Scan -1
#Precursor_MZ 221.114
#ExactMass 220.103
#Charge 1
#CAS_Number N/A
#Pubmed_ID N/A
#Smiles Cc1cccc(C)c1NC2=NCCCS2
#INCHI_AUX N/A
#Library_Class 1
#SpectrumID CCMSLIB00000085680
#IonMode Positive
#UpdateWorkflowName UPDATE-SINGLE-ANNOTATED-GOLD
#LibraryQualityString Gold
#TaskID d252d724072548979f1f6f1ced849daf
##Scan# 1317
#SpectrumFile p4-E03_GE3_01_18375.mzXML
#LibraryName Pharm_Active_Library.mgf
#MQScore -1
#Organism Pharm_Active_Library
#TIC_Query 0
#RT_Query -1
#MZErrorPPM -1
#SharedPeaks 0
#MassDiff 0
#LibMZ -1
#SpecMZ 221.114
#SpecCharge 0
#internalFilename spec-00000.mgf

>collision 10
44.916039 192.0
45.00946 196.0
45.319786 156.0
45.451191 92.0
45.662106 204.0
45.777843 148.0
46.213848 172.0
46.490284 136.0
46.571743 152.0
46.596077 180.0
46.73624 164.0
46.78796 184.0
46.988308 144.0
47.041531 192.0
47.150803 144.0
47.271149 156.0
47.294418 232.0
47.342335 32.0
47.516418 152.0
47.531513 140.0
47.712814 144.0
47.826996 148.0
47.873806 124.0
48.054382 156.0
48.145489 188.0
48.162678 188.0
48.23806 60.0
48.298904 92.0
48.321037 176.0
48.39024 172.0
48.431786 164.0
48.469193 36.0
48.524635 80.0
48.666161 220.0
48.717545 164.0
48.812057 180.0
49.034805 164.0
49.329323 72.0
49.354488 140.0
49.409039 160.0
49.455345 172.0
49.677334 180.0
49.748188 144.0
50.129353 228.0
50.166 140.0
50.468136 176.0
50.510563 204.0
50.59264 172.0
50.877598 144.0
50.913094 164.0
51.036724 208.0
51.103432 156.0
51.198952 160.0
51.371422 156.0
51.408516 140.0
51.437141 144.0
51.611362 192.0
51.910641 168.0
51.927849 68.0
52.039783 136.0
52.124531 128.0
52.16621 96.0
52.184902 32.0
52.292793 216.0
52.482952 220.0
52.599812 212.0
52.751488 184.0
53.030857 100.0
53.233971 192.0
53.357475 144.0
53.514061 244.0
53.518288 152.0
53.581608 172.0
53.645733 124.0
53.750744 112.0
53.844173 164.0
54.092743 56.0
54.20845 208.0
54.237762 220.0
54.275883 156.0
54.355091 112.0
54.516624 236.0
54.535732 172.0
54.556313 168.0
54.818306 172.0
54.875793 88.0
54.889065 140.0
54.972187 160.0
55.246494 132.0
55.378239 168.0
55.406384 120.0
55.744686 212.0
55.771439 360.0
55.872559 124.0
55.899342 132.0
56.070602 164.0
56.143654 168.0
56.318279 124.0
56.330227 172.0
56.463257 180.0
56.567997 136.0
56.776268 100.0
56.95187 152.0
57.09766 124.0
57.240627 144.0
57.359653 136.0
57.570885 160.0
57.581455 176.0
57.991478 232.0
58.065773 140.0
58.25399 208.0
58.54298 116.0
58.561256 164.0
58.686218 176.0
58.780792 152.0
58.859341 180.0
58.982391 152.0
59.15831 160.0
59.244301 184.0
59.260921 44.0
59.334488 244.0
59.474087 140.0
59.510933 164.0
59.57851 152.0
59.598484 164.0
59.81995 156.0
59.846085 152.0
59.848209 236.0
59.895405 200.0
59.960117 136.0
59.973991 120.0
60.257938 192.0
60.288845 156.0
60.299664 96.0
60.446716 180.0
60.48682 112.0
60.652565 164.0
60.692871 52.0
61.102921 108.0
61.123146 124.0
61.202534 88.0
61.271065 128.0
61.381729 152.0
61.473766 136.0
61.514347 164.0
61.570557 184.0
61.614292 76.0
61.634605 148.0
61.68618 144.0
61.703377 136.0
62.031956 104.0
62.063492 48.0
62.262791 144.0
62.335052 180.0
62.361771 156.0
62.443531 208.0
62.564693 128.0
62.802643 160.0
62.846813 108.0
62.975128 172.0
63.137478 172.0
63.316315 228.0
63.346554 132.0
63.373341 156.0
63.477959 164.0
63.492229 136.0
63.573139 168.0
63.703339 204.0
63.727169 204.0
63.749413 104.0
63.774845 52.0
63.91161 204.0
63.933891 116.0
64.046936 108.0
64.188774 180.0
64.476128 84.0
64.645645 216.0
64.69046 180.0
64.704041 116.0
64.765724 108.0
64.844238 236.0
64.922791 212.0
65.247147 252.0
65.424118 116.0
65.535248 80.0
65.591652 120.0
65.646469 192.0
65.662598 148.0
65.717445 168.0
65.899895 160.0
65.932213 152.0
66.003342 176.0
66.165146 176.0
66.179718 104.0
66.422813 184.0
66.490959 132.0
66.620857 108.0
66.656601 156.0
66.762268 108.0
66.819199 148.0
67.223297 188.0
67.251045 204.0
67.265732 160.0
67.373512 48.0
67.424171 68.0
67.476479 168.0
67.522263 180.0
67.589821 48.0
67.630249 204.0
67.700653 132.0
67.787476 112.0
67.856316 160.0
67.875992 168.0
68.054848 80.0
68.122185 80.0
68.237656 200.0
68.256958 108.0
68.339203 212.0
68.355652 120.0
68.36882 148.0
68.584579 152.0
68.650528 160.0
68.70166 192.0
68.756111 216.0
68.805634 132.0
69.00885 204.0
69.118019 128.0
69.162704 200.0
69.225616 180.0
69.271996 196.0
69.313416 76.0
69.326668 216.0
69.447701 144.0
69.515724 184.0
69.749901 116.0
69.764862 148.0
69.788139 168.0
69.920158 212.0
69.95285 200.0
70.037773 236.0
70.129417 208.0
70.181091 220.0
70.637032 136.0
70.948517 164.0
71.040749 216.0
71.081017 152.0
71.158226 196.0
71.259003 180.0
71.311096 128.0
71.343033 112.0
71.374977 152.0
71.390114 176.0
71.494415 220.0
71.593742 188.0
71.657753 308.0
71.92083 248.0
71.990051 180.0
72.11338 132.0
72.431488 88.0
72.565369 148.0
72.611153 208.0
72.650169 204.0
72.809723 164.0
72.872574 160.0
72.887871 172.0
73.030678 196.0
73.197456 132.0
73.384895 152.0
73.570892 212.0
73.675034 200.0
73.709206 96.0
73.741676 156.0
73.777573 168.0
73.801506 168.0
73.945206 212.0
74.155876 148.0
74.347961 192.0
74.361687 260.0
74.390869 196.0
74.408257 160.0
74.579826 160.0
74.605606 132.0
74.693314 72.0
74.707077 192.0
74.791397 152.0
75.027397 168.0
75.134323 228.0
75.282768 196.0
75.528999 204.0
75.554138 200.0
75.633743 204.0
75.657974 68.0
76.13134 140.0
76.299889 172.0
76.479065 124.0
76.595726 160.0
76.611404 72.0
76.653221 184.0
76.801414 168.0
76.813622 128.0
76.904358 124.0
76.923561 160.0
76.944511 184.0
76.958473 148.0
77.094727 112.0
77.204865 208.0
77.563797 248.0
77.677773 152.0
77.739182 140.0
77.879639 176.0
78.150368 200.0
78.589516 188.0
78.642044 200.0
78.737114 156.0
78.852226 136.0
78.90094 204.0
78.93708 164.0
79.135262 180.0
79.214958 224.0
79.298233 120.0
79.431221 216.0
79.492584 220.0
79.679756 116.0
79.804169 116.0
79.841515 156.0
79.87175 180.0
80.101379 116.0
80.154831 92.0
80.533241 180.0
80.593788 180.0
80.715332 164.0
80.738579 148.0
80.819077 188.0
81.209618 108.0
81.295738 188.0
81.319069 208.0
81.349579 160.0
81.426796 44.0
81.576111 196.0
81.674835 192.0
81.707214 204.0
81.759392 76.0
81.907036 156.0
81.984512 60.0
82.031372 164.0
82.072838 104.0
82.114372 176.0
82.307411 176.0
82.437477 160.0
82.54232 120.0
82.730492 140.0
82.801109 196.0
82.910149 108.0
83.145576 128.0
83.507133 176.0
83.530777 160.0
83.949692 192.0
84.327606 32.0
84.444618 72.0
84.680725 128.0
84.803482 212.0
84.952011 180.0
85.174133 124.0
85.207199 92.0
85.220055 76.0
85.315628 192.0
85.470123 72.0
85.497726 200.0
85.729774 172.0
85.792442 188.0
85.991661 156.0
86.059959 192.0
86.091354 164.0
86.207741 184.0
86.30941 168.0
86.392639 204.0
86.424088 116.0
86.492561 132.0
86.568474 228.0
86.688889 120.0
86.724098 132.0
86.820511 96.0
86.848328 48.0
86.868736 176.0
87.004204 60.0
87.152786 148.0
87.448479 204.0
87.506187 160.0
87.589989 140.0
87.60862 136.0
87.65892 136.0
87.787552 168.0
87.899475 44.0
88.222595 76.0
88.319839 192.0
88.385315 204.0
88.54631 184.0
88.598763 204.0
88.67746 192.0
88.844353 184.0
89.047203 60.0
89.156052 148.0
89.421227 176.0
89.505943 208.0
89.537956 164.0
89.583168 128.0
89.68869 64.0
89.713196 168.0
89.899925 168.0
90.038956 1388.0
90.120857 48.0
90.154877 208.0
90.24939 140.0
90.34774 36.0
90.404503 228.0
90.438568 212.0
90.635529 76.0
90.70755 192.0
90.800453 168.0
90.825111 220.0
90.994011 112.0
91.051994 644.0
91.078896 200.0
91.142159 180.0
91.279022 132.0
91.417892 136.0
91.618629 204.0
91.663544 136.0
92.029778 136.0
92.055428 380.0
92.195969 120.0
92.714607 68.0
92.749107 168.0
92.80719 188.0
92.835381 184.0
93.038773 132.0
93.068382 136.0
93.098297 216.0
93.209709 128.0
93.288513 152.0
93.417358 56.0
93.54052 64.0
93.596352 144.0
93.631538 236.0
93.69458 72.0
93.792862 152.0
93.902763 208.0
93.958702 152.0
93.985718 176.0
94.04747 156.0
94.066772 144.0
94.080292 168.0
94.534508 172.0
94.896736 52.0
95.139252 164.0
95.288795 192.0
95.304337 164.0
95.335426 188.0
95.409294 168.0
95.461792 196.0
95.492905 340.0
95.509102 148.0
95.52536 152.0
95.613533 132.0
95.656357 128.0
95.806305 64.0
95.845268 168.0
95.932976 176.0
95.964172 160.0
96.036324 204.0
96.102654 188.0
96.241234 128.0
96.315445 180.0
96.452232 180.0
96.521515 168.0
96.587151 168.0
96.616493 164.0
96.792648 160.0
97.053848 160.0
97.510666 96.0
97.593224 216.0
97.616821 168.0
97.83326 192.0
98.262894 328.0
98.466217 180.0
98.950195 160.0
99.115089 132.0
99.12896 200.0
99.333176 144.0
99.939117 220.0
99.99086 92.0
100.022331 1376.0
100.379333 192.0
100.399277 80.0
100.413239 140.0
100.43119 172.0
100.770561 112.0
100.826515 120.0
101.036469 200.0
101.261375 192.0
101.296715 136.0
101.374855 144.0
101.509171 220.0
101.577362 88.0
101.826256 152.0
101.914642 168.0
101.932724 188.0
101.949928 132.0
102.038094 1272.0
102.145844 140.0
102.272614 192.0
102.371262 212.0
102.441757 196.0
102.476006 124.0
102.847069 48.0
102.931107 128.0
103.054298 6080.0
103.113686 92.0
103.132698 52.0
103.146027 64.0
103.17028 76.0
103.237007 124.0
103.263298 96.0
103.532471 212.0
103.591209 64.0
103.797035 192.0
103.85067 60.0
103.913559 80.0
103.950081 128.0
103.974434 240.0
104.031265 204.0
104.057381 504.0
104.262825 76.0
104.384796 156.0
104.46209 52.0
104.484467 148.0
104.506844 152.0
104.527191 128.0
104.549576 108.0
104.59639 84.0
104.683937 172.0
104.7043 172.0
104.812271 180.0
104.826096 168.0
104.906029 116.0
104.92437 144.0
104.99778 40.0
105.012054 176.0
105.028374 232.0
105.069885 13256.0
105.109985 200.0
105.174675 120.0
105.281456 128.0
105.353767 120.0
105.401985 160.0
105.526665 76.0
105.743507 196.0
105.815155 112.0
105.925743 176.0
106.001549 60.0
106.06501 5968.0
106.095833 208.0
106.110184 80.0
106.128639 40.0
106.163498 128.0
106.21682 32.0
106.24144 52.0
106.26606 132.0
106.352249 96.0
106.465172 108.0
106.526787 60.0
106.569931 184.0
106.590485 56.0
106.631584 156.0
106.666527 212.0
106.742599 212.0
106.777557 116.0
106.822807 40.0
106.876305 76.0
107.014206 60.0
107.072334 1476.0
107.154259 176.0
107.216789 160.0
107.519249 52.0
107.593559 68.0
107.692673 96.0
107.709198 204.0
107.752586 72.0
107.870377 100.0
108.079269 212.0
108.097893 28.0
108.246933 108.0
108.397354 176.0
108.530815 200.0
108.56192 224.0
109.059692 184.0
109.128807 32.0
110.016342 132.0
110.049751 100.0
110.124924 216.0
110.175064 172.0
110.204308 144.0
110.277451 156.0
110.599564 60.0
110.804794 132.0
110.911667 152.0
111.024887 164.0
111.056343 200.0
111.121376 60.0
111.196922 192.0
111.413208 144.0
111.535812 128.0
111.646523 80.0
111.675964 204.0
111.867447 104.0
112.236153 96.0
112.352158 88.0
112.474548 128.0
112.51255 64.0
112.533661 148.0
112.791397 168.0
112.884422 160.0
113.085403 112.0
113.112923 44.0
113.127739 124.0
113.261147 96.0
113.30352 72.0
113.375565 192.0
113.547287 196.0
113.757347 172.0
113.910248 168.0
114.156792 68.0
114.503685 164.0
114.721031 236.0
114.763664 152.0
115.051086 196.0
115.363602 128.0
115.720886 108.0
115.911514 184.0
115.99939 152.0
116.248184 132.0
116.286819 124.0
116.306137 140.0
116.566002 204.0
116.647675 120.0
116.851982 56.0
116.994026 152.0
117.015556 208.0
117.056328 628.0
117.082306 136.0
117.136154 148.0
117.194321 164.0
117.375389 216.0
117.618515 156.0
117.69474 152.0
118.065521 988.0
118.19622 192.0
118.388885 212.0
118.438698 136.0
119.069267 180.0
119.32193 148.0
119.624329 136.0
119.663513 100.0
119.691818 176.0
119.722305 192.0
120.080292 12456.0
120.116806 140.0
120.13208 112.0
120.150444 48.0
120.168442 152.0
120.256454 60.0
120.317581 124.0
120.335045 40.0
120.398369 32.0
120.41803 96.0
120.458229 88.0
120.483559 100.0
120.573151 112.0
120.717438 192.0
120.767738 48.0
120.831177 72.0
120.977806 124.0
121.010643 168.0
121.087784 7516.0
121.271332 88.0
121.338829 76.0
121.452309 104.0
121.552048 216.0
121.598137 40.0
121.633255 60.0
121.666183 40.0
121.740837 80.0
121.850662 192.0
121.89241 164.0
121.973732 96.0
122.044083 228.0
122.059471 204.0
122.092323 612.0
122.224449 136.0
122.27066 84.0
122.387337 44.0
122.448997 188.0
122.49305 156.0
122.647293 100.0
122.664932 108.0
122.889877 76.0
122.927391 184.0
122.993599 92.0
123.023918 120.0
123.095161 124.0
123.134911 100.0
123.537209 84.0
123.552689 136.0
123.687683 208.0
123.86261 168.0
123.900848 364.0
123.951233 44.0
124.019936 180.0
124.084221 272.0
124.146309 184.0
124.468079 40.0
124.581352 180.0
124.674675 56.0
125.181885 200.0
125.413589 88.0
125.609818 64.0
126.056351 92.0
126.125633 184.0
126.170341 184.0
126.192696 148.0
126.226234 116.0
126.284386 168.0
126.389526 112.0
126.59771 56.0
126.960762 180.0
127.052727 188.0
127.20533 128.0
127.605217 112.0
127.744652 204.0
128.035004 172.0
128.147644 88.0
128.325699 156.0
128.433945 136.0
129.025604 228.0
129.113785 136.0
129.147705 96.0
129.480423 168.0
129.806595 160.0
129.845306 136.0
129.940582 44.0
129.967804 188.0
130.035889 124.0
130.064255 5672.0
130.138046 100.0
130.244781 156.0
130.333389 48.0
130.357986 68.0
130.496078 160.0
130.636414 232.0
130.704025 140.0
130.895233 160.0
130.959 184.0
131.071808 5436.0
131.195984 36.0
131.275787 56.0
131.303162 172.0
131.487961 120.0
131.572418 128.0
131.656906 40.0
131.675171 48.0
131.709427 172.0
131.791672 60.0
131.860229 192.0
131.958527 52.0
131.983673 144.0
132.07016 2968.0
132.111755 180.0
132.130066 64.0
132.148361 108.0
132.200989 72.0
132.297119 76.0
132.530731 48.0
132.785202 36.0
132.95726 180.0
132.996277 80.0
133.08136 516.0
133.18457 28.0
133.25119 96.0
133.301743 124.0
133.338501 44.0
133.57074 68.0
133.676575 56.0
133.701889 164.0
133.777847 44.0
133.863037 40.0
133.911392 188.0
134.013641 188.0
134.094727 1480.0
134.171234 120.0
134.206741 124.0
134.880493 116.0
135.02153 140.0
135.079361 140.0
135.104813 324.0
135.164963 68.0
135.459 216.0
135.653656 140.0
135.918045 160.0
135.952866 116.0
135.980713 148.0
136.141251 132.0
136.917664 128.0
137.041885 2420.0
137.129669 220.0
137.292877 52.0
137.619568 132.0
138.044022 328.0
138.105652 212.0
138.339645 188.0
138.386475 60.0
138.491852 120.0
138.777756 168.0
138.977127 52.0
139.037842 444.0
139.089783 100.0
139.364548 108.0
139.482056 124.0
139.903137 92.0
140.169296 168.0
140.548935 108.0
141.215134 128.0
141.302658 56.0
141.64119 116.0
141.690933 100.0
142.366959 228.0
142.438202 220.0
142.770966 160.0
142.844696 160.0
143.258911 88.0
143.654633 152.0
143.714279 128.0
143.874191 104.0
143.893936 148.0
144.077179 164.0
144.110626 124.0
144.134521 152.0
144.316193 172.0
144.694214 152.0
145.075882 792.0
145.139877 136.0
145.349976 176.0
145.641449 200.0
146.050781 272.0
146.084702 1168.0
146.115021 160.0
146.2883 152.0
146.408691 36.0
146.574905 52.0
146.632751 148.0
146.654434 148.0
146.729172 144.0
146.905212 180.0
146.967941 156.0
146.993408 188.0
147.023376 320.0
147.059433 128.0
147.064957 160.0
147.091537 12944.0
147.139313 60.0
147.191452 112.0
147.218994 88.0
147.262466 356.0
147.347839 140.0
147.366348 84.0
147.388092 48.0
147.467834 52.0
147.494431 48.0
147.627411 64.0
147.770126 140.0
147.857239 48.0
147.879013 40.0
147.925003 196.0
148.018906 156.0
148.074615 288.0
148.09697 1172.0
148.242294 32.0
148.319855 196.0
148.358627 68.0
148.516251 172.0
148.627853 88.0
148.858459 56.0
148.936172 156.0
149.029114 2168.0
149.094101 56.0
149.154861 160.0
149.196198 160.0
149.23613 112.0
149.293457 104.0
149.660889 52.0
149.712036 164.0
150.041962 208.0
150.10437 68.0
150.126328 52.0
150.572937 88.0
150.641327 60.0
150.800323 228.0
150.971283 60.0
151.005524 128.0
151.02504 192.0
151.069122 160.0
151.482834 60.0
151.529388 80.0
151.612701 32.0
152.057083 144.0
152.311966 220.0
152.597031 136.0
153.209854 180.0
153.337982 120.0
153.493301 108.0
153.55249 112.0
154.046158 112.0
154.12027 56.0
154.812897 212.0
155.008606 112.0
155.025955 116.0
156.359573 148.0
156.738098 188.0
157.02478 172.0
157.097122 124.0
157.489029 44.0
158.089066 180.0
158.199188 196.0
158.304352 72.0
158.655136 76.0
158.742889 152.0
159.092361 224.0
159.614258 148.0
160.106232 208.0
160.578781 64.0
160.619141 172.0
160.800812 160.0
161.040665 208.0
161.116455 64.0
161.822083 168.0
162.039841 176.0
162.262924 156.0
162.311096 180.0
162.945648 212.0
163.04216 460.0
163.075256 220.0
163.13118 136.0
163.281189 180.0
163.573807 144.0
163.673096 44.0
163.757126 208.0
163.828461 136.0
163.861572 44.0
163.971466 164.0
163.995804 196.0
164.052444 43616.0
164.117035 48.0
164.135696 48.0
164.159805 48.0
164.185303 32.0
164.226105 56.0
164.302032 100.0
164.465073 104.0
164.785172 88.0
164.803055 60.0
164.897614 76.0
164.990616 156.0
165.055222 3244.0
165.235153 80.0
165.324707 76.0
165.4655 60.0
165.562805 28.0
165.673965 60.0
165.701126 160.0
165.801056 72.0
165.889664 152.0
165.981903 88.0
166.049088 1836.0
166.102524 164.0
166.178986 148.0
166.237411 112.0
166.336563 92.0
166.385895 124.0
166.483902 168.0
166.596481 40.0
166.683838 60.0
167.050629 128.0
167.370651 88.0
167.669464 124.0
168.084656 84.0
169.250443 44.0
169.543167 92.0
170.102158 356.0
170.85965 72.0
171.049622 144.0
171.109497 180.0
171.930603 68.0
172.424194 100.0
173.10228 80.0
173.586548 104.0
174.50032 144.0
175.463928 244.0
176.047073 172.0
176.065552 84.0
176.517456 52.0
176.713196 104.0
177.048248 556.0
177.605957 48.0
178.049606 180.0
178.171387 136.0
178.293625 164.0
179.06517 108.0
179.336929 40.0
180.078674 204.0
180.696182 84.0
181.08165 112.0
182.53891 40.0
183.112137 156.0
183.68895 164.0
183.904816 132.0
184.366653 144.0
185.015823 180.0
187.125351 164.0
187.932129 136.0
188.338898 184.0
189.400192 68.0
190.349136 184.0
190.480957 124.0
190.522171 228.0
191.059311 560.0
191.154984 104.0
191.801788 80.0
191.958939 64.0
193.077057 200.0
193.43985 136.0
194.190765 84.0
194.443237 104.0
194.704208 164.0
194.801437 148.0
196.711761 240.0
197.066437 68.0
198.160416 164.0
198.653839 160.0
198.858673 112.0
199.963257 144.0
202.127792 116.0
202.286285 156.0
202.569473 68.0
203.09671 112.0
204.076477 164.0
204.22435 116.0
204.605667 72.0
204.750885 124.0
204.813553 208.0
205.075562 580.0
205.186859 52.0
205.917374 172.0
206.085373 280.0
206.274536 144.0
206.560501 60.0
206.723587 144.0
207.075653 168.0
207.239014 80.0
207.74646 56.0
209.419434 44.0
209.523132 96.0
210.203598 76.0
218.020081 100.0
218.935013 96.0
219.727936 204.0
220.008301 136.0
220.029785 216.0
220.096878 116.0
220.135269 192.0
220.32135 144.0
220.424759 104.0
220.542969 124.0
220.575485 156.0
220.708527 144.0
220.812027 188.0
220.877106 100.0
220.905396 164.0
220.930359 168.0
220.959946 68.0
221.030563 156.0
221.057587 148.0
221.110458 31332.0
221.214447 36.0
221.247299 84.0
221.279587 36.0
221.303268 52.0
221.335831 180.0
221.395065 52.0
221.427643 120.0
221.471466 176.0
221.516495 72.0
221.553818 100.0
221.677551 100.0
221.715515 48.0
221.86026 124.0
221.960236 212.0
222.041138 164.0
222.069366 64.0
222.113083 3084.0
222.178497 92.0
222.279449 72.0
222.311111 104.0
222.545609 96.0
222.64064 48.0
222.789154 44.0
222.818863 44.0
222.908005 40.0
222.967438 96.0
223.068497 132.0
223.107224 1372.0
223.342056 120.0
223.389664 180.0
223.556274 68.0
223.579681 128.0
223.597061 120.0
223.654495 96.0
223.679886 68.0
223.737839 116.0
223.764633 72.0
223.830139 120.0
223.880768 48.0
224.117157 192.0
224.217422 92.0
224.584137 88.0
224.784027 40.0
225.5755 76.0
228.114563 40.0
233.712784 84.0
243.790253 124.0
250.791656 76.0
254.654984 88.0
262.460541 84.0
263.696991 108.0
264.159363 92.0
272.834229 44.0
285.385986 72.0
288.051788 60.0
299.91687 76.0
304.567383 100.0
309.229156 84.0
312.471588 80.0
312.647552 88.0
324.472992 140.0
349.157898 104.0
355.242584 56.0
375.15625 32.0
376.95871 92.0
398.198242 64.0
411.67514 100.0
413.033142 36.0
420.032104 48.0
425.696594 48.0
435.194031 52.0
461.770996 64.0
464.636749 104.0
480.545929 40.0
490.730408 28.0
530.980408 96.0
537.351501 116.0
579.524292 168.0
619.578796 32.0
644.298462 112.0
663.609558 72.0
671.884888 144.0
673.26825 228.0
679.044067 48.0
711.257324 64.0
714.568176 80.0
716.468811 88.0
733.294922 88.0
739.70105 44.0
742.887451 68.0
765.5271 232.0
790.631836 92.0
790.671021 88.0
799.757874 172.0
803.234558 280.0
806.407898 72.0
856.650513 196.0
885.90094 136.0
887.192871 128.0
889.963562 88.0
896.888428 196.0
897.782715 180.0
898.755066 60.0
899.31604 112.0
910.914673 168.0
919.627747 196.0
932.936157 180.0
935.059021 172.0
940.312683 188.0
941.405518 212.0
943.220093 116.0
956.500549 100.0
961.881958 176.0
968.306274 184.0
969.402832 148.0
972.075562 108.0
973.93811 192.0
976.80365 148.0
977.239136 180.0
980.689148 144.0
982.485107 148.0
983.096558 124.0
989.760315 248.0
994.870178 172.0
995.089905 276.0
998.778809 124.0
1003.609192 136.0
1005.886719 156.0
1008.072021 140.0
1013.045166 192.0
1019.34552 188.0
1026.876831 192.0
1033.328857 36.0
1036.02417 196.0
1036.869995 180.0
1038.562622 232.0
1042.69751 208.0
1043.08313 192.0
1045.488647 200.0
1049.824219 132.0
1050.114502 224.0
1051.533936 180.0
1052.431274 88.0
1054.821655 132.0
1055.713867 88.0
1057.894409 164.0
1063.105591 180.0
1064.709106 184.0
1070.392822 152.0
1070.471069 136.0
1070.666382 124.0
1071.239624 164.0
1073.136108 244.0
1074.42749 180.0
1075.543335 176.0
1077.221558 200.0
1077.593994 128.0
1078.43042 92.0
1079.89502 180.0
1079.973511 132.0
1084.452026 192.0
1089.084473 72.0
1091.11499 132.0
1092.23291 148.0
1101.05188 144.0
1106.229126 168.0
1107.275391 64.0
1108.282227 196.0
1108.388306 148.0
1110.038818 164.0
1111.040405 168.0
1111.889771 152.0
1113.317139 136.0
1114.56604 160.0
1115.755737 168.0
1115.968506 156.0
1116.054932 104.0
1119.248901 196.0
1119.495239 124.0
1119.988037 160.0
1123.160889 116.0
1123.301025 204.0
1123.821411 120.0
1124.141724 184.0
1124.482056 132.0
1124.755737 148.0
1125.102783 148.0
1125.663696 156.0
1126.919434 184.0
1129.513428 148.0
1133.101685 188.0
1135.374023 188.0
1136.219238 188.0
1138.796875 128.0
1139.972656 144.0
1141.720581 152.0
1142.467163 140.0
1143.267822 156.0
1144.809448 188.0
1147.11377 228.0
1147.619385 164.0
1150.669067 64.0
1151.101196 160.0
1151.378174 208.0
1158.358398 140.0
1158.994385 148.0
1161.924316 200.0
1162.243164 56.0
1163.200195 132.0
1164.198242 128.0
1170.658691 68.0
1174.550415 56.0
1178.680908 172.0
1180.027466 124.0
1180.533447 72.0
1181.956299 216.0
1182.09314 220.0
1182.147949 140.0
1187.258545 168.0
1188.898193 200.0
1189.018799 48.0
1189.735596 124.0
1189.859131 172.0
1190.55957 128.0
1190.956787 128.0
1191.445557 116.0
1192.462646 148.0
1193.60376 128.0
1195.646973 100.0
1195.949829 224.0
1196.066772 156.0
1200.917603 140.0
1201.973145 168.0
1202.490723 112.0
1204.223755 220.0
1204.493164 76.0
1205.101074 176.0
1205.204712 60.0
1205.723022 184.0
1208.53064 132.0
1208.814331 196.0
1209.001099 220.0
1209.541016 188.0
1209.727905 128.0
1210.267944 116.0
1211.944214 144.0
1212.359985 140.0
1214.426025 136.0
1216.57019 160.0
1220.572144 248.0
1221.392822 220.0
1221.46936 228.0
1221.685059 72.0
1224.678223 248.0
1229.028442 164.0
1229.607666 240.0
1230.675781 140.0
1231.932861 200.0
1232.240234 144.0
1237.352905 52.0
1237.625977 48.0
1241.430908 116.0
1242.258545 200.0
1242.581299 56.0
1244.041138 152.0
1244.111328 220.0
1244.174438 156.0
1245.817749 220.0
1246.520386 216.0
1249.656494 160.0
1250.050537 228.0
1253.46582 136.0
1254.586548 224.0
1259.992432 152.0
1261.186768 204.0
1261.695679 176.0
1266.047363 180.0
1267.591675 160.0
1267.669678 136.0
1268.945557 116.0
1269.657349 148.0
1269.988037 100.0
1270.158203 140.0
1273.089478 184.0
1275.043213 132.0
1276.230347 152.0
1279.567383 120.0
1280.058594 88.0
1280.115601 124.0
1284.620117 68.0
1285.091064 192.0
1285.340698 224.0
1285.562012 112.0
1286.646973 176.0
1288.646729 84.0
1288.796753 72.0
1289.282715 124.0
1289.782959 148.0
1292.49353 140.0
1292.930054 140.0
1293.767578 156.0
1294.166748 224.0
1295.50061 104.0
1296.768921 244.0
1297.328003 140.0
1297.58606 204.0
1299.748657 172.0
1300.21875 172.0
1300.993896 180.0
1302.150024 152.0
1303.946167 200.0
1308.859619 144.0
1309.313354 252.0
1310.156128 200.0
1312.758057 180.0
1314.640991 200.0
1315.232788 136.0
1315.86084 72.0
1320.116821 216.0
1320.84729 56.0
1320.912476 168.0
1321.418823 164.0
1321.62146 180.0
1321.72998 156.0
1321.78064 148.0
1324.234863 168.0
1325.205566 168.0
1325.430176 48.0
1326.234619 136.0
1327.401855 116.0
1327.633911 120.0
1329.062988 216.0
1330.362061 200.0
1331.92334 216.0
1334.735962 228.0
1334.817993 176.0
1336.605469 76.0
1337.24585 188.0
1337.515137 144.0
1337.675293 124.0
1338.039307 200.0
1338.971313 64.0
1339.320923 212.0
1340.384644 176.0
1342.177856 180.0
1343.855469 136.0
1345.060791 256.0
1345.578003 224.0
1346.001465 176.0
1348.646118 124.0
1348.923828 168.0
1348.989624 216.0
1349.625732 136.0
1350.452148 208.0
1351.827515 180.0
1352.105591 136.0
1352.596069 136.0
1353.96521 100.0
1354.609741 96.0
1356.273193 208.0
1358.208984 236.0
1360.21228 176.0
1361.130005 144.0
1362.620972 60.0
1365.112793 44.0
1365.583496 188.0
1366.348511 184.0
1368.078003 164.0
1370.014893 116.0
1370.081177 164.0
1370.442139 112.0
1375.041992 200.0
1377.968018 72.0
1379.150391 144.0
1381.316895 136.0
1381.768188 52.0
1382.049438 208.0
1384.321899 132.0
1385.477417 136.0
1385.729248 156.0
1386.462891 224.0
1387.137329 204.0
1388.32373 192.0
1388.909668 140.0
1392.249512 140.0
1393.140869 196.0
1395.526611 168.0
1397.311646 128.0
1398.83728 200.0
1399.507324 144.0
1401.64502 160.0
1402.807739 152.0
1403.366943 200.0
1403.903809 152.0
1404.671997 160.0
1405.597168 212.0
1405.761353 128.0
1406.112549 132.0
1406.395752 116.0
1406.664429 120.0
1406.895874 232.0
1406.94812 112.0
1407.089966 196.0
1411.431152 188.0
1415.546753 136.0
1415.734009 148.0
1415.958618 172.0
1416.265747 164.0
1417.524414 180.0
1420.500854 176.0
1421.716431 164.0
1423.638306 140.0
1424.877686 76.0
1425.351074 176.0
1426.049927 96.0
1426.204834 192.0
1426.861816 144.0
1427.207642 220.0
1427.320435 176.0
1427.628784 184.0
1428.772095 136.0
1430.352417 192.0
1430.405151 176.0
1430.630981 172.0
1430.743896 200.0
1436.486328 184.0
1438.176636 224.0
1440.479736 148.0
1443.238281 160.0
1444.085205 120.0
1444.932495 136.0
1445.734619 168.0
1447.543823 208.0
1448.725464 200.0
1450.248535 180.0
1450.528931 196.0
1450.794312 184.0
1451.764893 124.0
1452.743286 172.0
1453.016479 132.0
1453.145386 164.0
1454.488647 128.0
1455.263062 156.0
1456.721191 168.0
1456.971924 180.0
1457.473389 164.0
1458.424683 160.0
1460.605591 196.0
1464.083862 176.0
1464.320068 132.0
1464.563721 132.0
1465.599854 264.0
1469.106934 156.0
1470.510986 160.0
1470.785767 188.0
1470.976685 120.0
1471.311768 164.0
1472.100464 180.0
1472.358643 80.0
1472.503784 216.0
1472.992554 144.0
1474.666016 156.0
1475.560425 220.0
1475.904419 52.0
1478.069214 176.0
1478.260498 84.0
1479.784302 152.0
1480.595459 104.0
1480.825195 180.0
1481.139282 132.0
1482.602661 60.0
1484.864258 144.0
1485.255493 132.0
1485.524414 232.0
1486.84375 140.0
1487.411743 164.0
1489.715454 224.0
1491.037109 76.0
1491.144653 188.0
1491.313721 236.0
1492.213135 156.0
1492.443848 152.0
1492.689941 216.0
1493.758911 240.0
1494.936157 52.0
1495.536499 204.0
1496.236938 100.0
1498.524414 116.0
1498.632324 180.0
1502.89624 180.0
1503.482666 140.0
1504.69458 176.0
