>compound MLS001076857-01!
>formula C22H25N3O5S
>ionization [M+H]+
>parentmass 444.159
#inchi InChI=1S/C22H25N3O5S/c1-28-17-8-14(9-18(29-2)20(17)30-3)21(27)23-22(31)24-10-13-7-15(12-24)16-5-4-6-19(26)25(16)11-13/h4-6,8-9,13,15H,7,10-12H2,1-3H3,(H,23,27,31)/t13-,15-/m1/s1
#inchikey AIVKMXQXXMVVJY
#Ion_Source LC-ESI
#Instrument qTof
#Compound_Source NIH Natural Product Library
#PI Dorrestein
#Data_Collector VVP/LMS
#Scan -1
#Precursor_MZ 444.159
#ExactMass 443.151
#Charge 1
#CAS_Number N/A
#Pubmed_ID N/A
#Smiles COc1cc(cc(OC)c1OC)C(=O)NC(=S)N2C[C@H]3C[C@H](C2)c4cccc(=O)n4C3
#INCHI_AUX N/A
#Library_Class 1
#SpectrumID CCMSLIB00000080332
#IonMode Positive
#UpdateWorkflowName UPDATE-SINGLE-ANNOTATED-GOLD
#LibraryQualityString Gold
#TaskID b1d8e8f6646f4e71acdff9ca3d919d08
##Scan# 1723
#SpectrumFile p2-D07_GD7_01_18019.mzXML
#LibraryName NIH_Natural_Products_Library.mgf
#MQScore -1
#Organism NIH_Natural_Products_Library
#TIC_Query 0
#RT_Query -1
#MZErrorPPM -1
#SharedPeaks 0
#MassDiff 0
#LibMZ -1
#SpecMZ 444.159
#SpecCharge 0
#internalFilename spec-00000.mgf

>collision 10
95.051056 148.0
95.105392 128.0
95.303474 132.0
95.756729 196.0
95.914131 168.0
96.058716 448.0
96.369247 48.0
96.496292 156.0
96.588203 108.0
96.801529 108.0
96.840691 200.0
96.936691 88.0
97.007248 180.0
97.046455 128.0
97.062141 128.0
97.368271 152.0
97.458633 148.0
97.863808 140.0
98.039848 192.0
98.145561 156.0
98.169228 188.0
98.56797 244.0
98.625282 152.0
98.714249 112.0
98.823036 204.0
98.997223 104.0
99.167603 268.0
99.298454 244.0
99.324242 164.0
99.582268 40.0
99.661728 164.0
99.749176 168.0
100.053535 116.0
100.121239 184.0
100.332443 92.0
100.478027 64.0
100.577805 144.0
100.783501 84.0
100.917412 328.0
100.981407 120.0
101.075432 152.0
101.140717 212.0
101.233566 184.0
101.273621 156.0
101.435921 132.0
101.467995 176.0
101.550209 88.0
101.612396 176.0
101.664566 204.0
101.833206 152.0
102.054253 168.0
102.092461 96.0
102.642197 140.0
102.7612 164.0
103.053955 248.0
103.337013 148.0
103.405815 144.0
103.438202 224.0
103.541862 160.0
103.620461 200.0
103.654907 200.0
103.693405 108.0
103.756248 136.0
103.80896 168.0
104.113358 232.0
104.178352 132.0
104.393799 48.0
104.420235 132.0
104.790718 184.0
105.034218 164.0
105.16185 176.0
105.241463 148.0
105.421219 144.0
105.460045 168.0
105.511154 176.0
106.045349 140.0
106.156113 192.0
106.223801 156.0
106.702286 184.0
106.720787 48.0
106.784538 160.0
106.811272 136.0
106.879166 160.0
107.014389 408.0
107.036827 148.0
107.385933 124.0
107.432465 192.0
107.935249 184.0
107.96907 220.0
108.01384 176.0
108.058594 504.0
108.098663 144.0
108.160751 156.0
108.446587 116.0
108.595871 168.0
108.718277 136.0
108.788841 184.0
108.819984 200.0
108.871895 72.0
108.954514 144.0
109.029297 488.0
109.063332 708.0
109.112923 168.0
109.293869 208.0
109.754196 176.0
109.893936 108.0
109.96489 160.0
110.036728 152.0
110.069267 172.0
110.156982 180.0
110.449623 180.0
110.581711 156.0
110.686111 168.0
110.864166 88.0
110.885124 152.0
110.914467 212.0
111.080978 468.0
111.197624 200.0
111.378189 80.0
111.502151 180.0
111.992363 140.0
112.020493 288.0
112.194656 196.0
112.426674 84.0
112.655006 140.0
112.692734 128.0
112.96122 168.0
113.022987 304.0
113.059898 200.0
113.096642 112.0
113.331703 128.0
113.57338 188.0
113.749496 144.0
113.851402 112.0
113.889633 116.0
113.985237 124.0
114.076622 200.0
114.455322 140.0
114.540512 164.0
114.576721 128.0
114.676872 164.0
114.755745 128.0
115.340675 116.0
115.400536 176.0
115.738594 152.0
116.240173 140.0
116.321732 228.0
116.355263 196.0
116.399017 132.0
116.414047 148.0
116.446266 80.0
116.476334 148.0
116.530037 176.0
116.751442 36.0
116.794456 208.0
117.013893 144.0
117.063477 96.0
117.091469 184.0
117.15609 184.0
117.911293 136.0
117.989105 188.0
118.058022 188.0
118.968307 196.0
119.00087 188.0
119.044296 148.0
119.138939 244.0
119.761986 168.0
119.826927 172.0
120.07962 196.0
120.145638 64.0
120.88414 116.0
121.027679 540.0
121.048309 132.0
121.068024 128.0
121.890633 204.0
122.002724 160.0
122.035957 1508.0
122.504463 152.0
122.72213 188.0
122.797623 148.0
122.839348 216.0
122.947647 116.0
123.042671 160.0
123.148552 68.0
123.53537 124.0
123.688057 196.0
123.865196 176.0
123.920578 60.0
124.007004 196.0
124.051041 1360.0
124.115623 56.0
124.166634 52.0
124.294075 160.0
124.410706 128.0
124.521729 164.0
124.904022 164.0
125.017487 208.0
125.052254 292.0
125.166634 132.0
125.442894 236.0
125.884651 108.0
126.035057 144.0
126.040642 48.0
126.04937 184.0
126.201942 124.0
126.23101 144.0
126.544266 44.0
126.606964 172.0
127.035065 156.0
127.066467 124.0
127.243767 176.0
127.259483 184.0
127.461632 72.0
127.627968 80.0
127.945198 212.0
128.045227 528.0
128.224503 132.0
128.511459 80.0
128.700485 168.0
128.781784 132.0
129.202225 188.0
129.259369 208.0
129.288208 92.0
129.394592 56.0
130.058792 168.0
130.176834 112.0
130.46994 148.0
130.585907 164.0
130.622299 68.0
130.817993 108.0
130.936401 212.0
131.212112 176.0
131.358063 148.0
131.737 192.0
131.759842 132.0
131.942673 88.0
132.042984 188.0
132.13707 160.0
132.274368 44.0
132.50795 72.0
132.530869 184.0
132.546906 144.0
132.863312 172.0
132.913788 188.0
132.939026 48.0
133.049835 188.0
133.070343 248.0
133.400665 164.0
133.46965 152.0
133.858521 176.0
133.966766 180.0
134.03627 188.0
134.061356 188.0
134.098099 248.0
134.213364 68.0
134.321762 108.0
134.342514 136.0
134.365585 80.0
134.50174 128.0
135.041245 136.0
135.357132 192.0
135.486847 140.0
135.586472 136.0
135.621246 188.0
135.725555 188.0
135.774261 64.0
135.90416 84.0
136.017883 180.0
136.06662 196.0
136.135056 76.0
136.166473 72.0
136.705826 128.0
136.836487 148.0
136.968903 128.0
137.023209 1592.0
137.061401 136.0
137.234573 36.0
137.456161 192.0
137.626556 160.0
137.834442 212.0
138.002731 172.0
138.028442 128.0
138.065399 204.0
138.435608 156.0
138.562088 156.0
138.848053 176.0
138.960648 196.0
139.007584 80.0
139.033386 136.0
139.075638 4980.0
139.148407 40.0
139.17894 36.0
139.326889 56.0
139.410126 124.0
139.474945 100.0
139.672455 176.0
140.08139 296.0
140.383713 212.0
140.485886 120.0
140.515793 104.0
140.650314 68.0
140.681 132.0
140.796692 180.0
140.851013 144.0
141.018784 424.0
141.082596 164.0
141.122787 104.0
141.193726 68.0
141.238663 164.0
141.28833 184.0
141.413757 72.0
141.491867 188.0
141.695541 136.0
141.797424 140.0
142.08757 144.0
142.471313 136.0
142.82074 208.0
142.844528 196.0
142.877823 112.0
142.918274 48.0
142.968246 132.0
142.987289 140.0
143.003952 156.0
143.020599 180.0
143.071899 372.0
143.106308 188.0
143.437439 140.0
143.544724 136.0
143.609116 180.0
143.663986 204.0
143.716461 136.0
143.968704 156.0
144.072205 156.0
144.117599 156.0
144.210785 128.0
144.547989 180.0
144.619781 124.0
145.605499 176.0
146.065445 492.0
146.102325 164.0
146.131607 164.0
146.247101 48.0
146.639694 148.0
146.8591 156.0
146.994202 100.0
147.061768 176.0
147.139023 144.0
147.213867 316.0
147.247681 176.0
147.317719 152.0
147.467529 164.0
147.832718 116.0
147.907745 180.0
147.939209 172.0
147.96402 160.0
148.007004 136.0
148.075317 6436.0
148.254074 148.0
148.360718 184.0
148.382538 272.0
148.477112 172.0
148.792557 124.0
148.947968 240.0
149.077011 696.0
149.115616 76.0
149.149643 96.0
149.195129 84.0
149.363617 168.0
149.429306 132.0
149.487701 184.0
149.507172 132.0
149.872604 220.0
149.947968 136.0
150.028412 160.0
150.060104 188.0
150.082047 268.0
150.299118 40.0
150.384537 152.0
150.538345 140.0
150.628708 176.0
151.039261 1256.0
151.23999 104.0
151.328125 216.0
151.364853 160.0
151.47261 148.0
151.524063 112.0
151.649033 160.0
151.66864 168.0
151.695602 80.0
151.739731 144.0
151.776505 100.0
151.859879 216.0
151.913849 160.0
151.940826 96.0
151.985001 124.0
152.047211 6976.0
152.110153 140.0
152.176437 72.0
152.218185 136.0
152.242737 40.0
152.301682 172.0
152.336075 44.0
152.380295 52.0
152.493332 68.0
152.79332 120.0
152.817917 76.0
152.953278 164.0
153.048004 496.0
153.224152 148.0
153.31778 140.0
153.625992 80.0
153.754288 84.0
153.912338 184.0
154.025879 188.0
154.065399 112.0
154.211197 148.0
154.257858 196.0
154.34964 136.0
154.688568 44.0
154.752945 132.0
154.978333 228.0
155.074982 160.0
155.268356 68.0
155.566101 144.0
155.590927 84.0
156.040939 900.0
156.071426 160.0
156.077332 160.0
156.107742 96.0
156.42868 128.0
156.528275 156.0
156.553467 172.0
156.625397 200.0
156.852142 220.0
157.043747 280.0
157.34108 168.0
157.54837 92.0
158.034576 208.0
158.060715 528.0
158.248627 236.0
158.293701 240.0
158.361313 136.0
158.43396 152.0
158.757294 228.0
158.870148 176.0
159.073425 152.0
159.111069 220.0
159.719193 76.0
159.970825 48.0
160.075928 2140.0
160.192429 80.0
160.278091 164.0
160.338562 104.0
160.436874 56.0
160.620956 220.0
160.970627 160.0
161.032364 192.0
161.082123 384.0
161.204163 60.0
161.265854 160.0
161.383621 176.0
161.525238 148.0
161.659332 200.0
161.775757 64.0
162.088516 212.0
162.277374 68.0
162.32048 144.0
162.503098 168.0
162.845795 36.0
163.099884 84.0
163.310913 136.0
163.779236 48.0
164.238037 184.0
164.478622 224.0
164.853317 168.0
164.986221 168.0
165.020294 184.0
165.05484 192.0
165.252213 204.0
165.615707 156.0
165.730988 160.0
166.030914 172.0
166.051422 128.0
166.120941 196.0
166.693222 172.0
166.7883 168.0
166.824295 116.0
167.070877 3208.0
167.099472 296.0
167.233276 76.0
167.359421 144.0
167.459854 232.0
167.568039 160.0
167.642761 60.0
167.83609 172.0
167.85672 64.0
167.934082 76.0
168.076645 472.0
168.127579 176.0
168.266968 76.0
168.292786 80.0
168.822495 120.0
168.871628 176.0
169.011322 68.0
169.254639 144.0
169.301239 36.0
169.384125 168.0
169.985611 128.0
170.047241 432.0
170.403641 96.0
170.556961 108.0
170.952286 188.0
171.066803 228.0
171.12146 208.0
171.48616 244.0
172.078476 608.0
172.912155 196.0
173.077087 160.0
173.124222 56.0
173.38356 176.0
174.091492 1356.0
174.13652 56.0
174.424896 144.0
174.743744 32.0
174.864792 136.0
175.097122 260.0
175.792435 140.0
175.911621 128.0
175.953445 172.0
176.455414 136.0
176.6035 56.0
176.722534 48.0
176.94751 264.0
177.016342 164.0
177.103745 84.0
177.214996 136.0
177.315704 168.0
177.347504 52.0
177.501266 84.0
177.777145 148.0
177.811646 160.0
177.968262 96.0
178.002777 204.0
178.031982 160.0
178.398651 184.0
178.861496 184.0
178.93869 44.0
179.066513 152.0
179.914444 184.0
180.036179 192.0
180.218903 152.0
180.301743 196.0
180.678757 120.0
180.777756 200.0
180.957092 148.0
181.03743 172.0
181.211533 212.0
181.817535 140.0
182.432617 204.0
182.628906 148.0
182.739212 176.0
182.978729 52.0
183.067596 120.0
183.137619 172.0
183.178009 196.0
183.280396 80.0
183.849365 56.0
184.034882 328.0
184.30571 76.0
184.343552 100.0
184.85463 44.0
184.925644 180.0
185.081665 496.0
185.323059 192.0
186.082474 140.0
186.134064 124.0
186.451904 32.0
187.042099 128.0
187.080215 196.0
187.292603 184.0
187.491486 192.0
187.578705 68.0
187.709579 136.0
187.837753 128.0
188.020554 212.0
188.121552 148.0
188.214371 196.0
188.53125 176.0
189.097351 84.0
189.209579 140.0
189.365662 152.0
190.056473 44.0
190.108612 144.0
190.223892 88.0
190.412949 112.0
190.534195 152.0
190.60289 112.0
190.67984 156.0
190.858521 96.0
191.029022 148.0
191.064789 56.0
191.118866 23796.0
191.165878 132.0
191.221634 44.0
191.254288 116.0
191.277405 76.0
191.322952 104.0
191.357529 76.0
191.392303 180.0
191.458405 52.0
191.49144 48.0
191.541351 180.0
191.585098 80.0
191.634689 148.0
191.664047 76.0
191.855164 64.0
191.965454 56.0
192.009583 136.0
192.06749 52.0
192.122498 2804.0
192.202682 120.0
192.313065 56.0
192.362747 88.0
192.393112 164.0
192.423477 60.0
192.445572 132.0
192.506317 68.0
192.583649 200.0
192.669281 96.0
192.752167 60.0
192.790848 72.0
192.917984 64.0
192.951157 136.0
193.07283 80.0
193.122467 300.0
193.266464 92.0
193.357773 68.0
193.46019 52.0
193.498947 200.0
193.548782 68.0
193.595428 128.0
193.62355 120.0
193.664261 80.0
193.864563 100.0
194.075653 132.0
194.16951 52.0
194.25235 148.0
194.341507 128.0
194.377579 184.0
194.549652 160.0
194.613907 112.0
194.638489 192.0
194.677368 196.0
194.705139 168.0
194.724579 28.0
194.785172 412.0
194.807907 152.0
194.844025 164.0
194.902374 136.0
194.928436 104.0
194.952393 136.0
194.988602 132.0
195.021545 396.0
195.066681 75100.0
195.149139 92.0
195.180328 88.0
195.210632 80.0
195.259354 76.0
195.290817 104.0
195.346848 128.0
195.399582 140.0
195.431396 60.0
195.461884 72.0
195.524902 152.0
195.576065 160.0
195.611557 84.0
195.650528 164.0
195.670013 44.0
195.72139 68.0
195.766068 80.0
195.859375 64.0
195.895584 128.0
195.915085 172.0
195.980804 192.0
196.001389 188.0
196.021103 80.0
196.027252 108.0
196.068985 7996.0
196.175568 76.0
196.223984 100.0
196.33931 60.0
196.38768 44.0
196.447525 64.0
196.485733 100.0
196.550751 60.0
196.581451 84.0
196.603775 96.0
196.648422 68.0
196.709839 68.0
196.734955 48.0
196.821045 240.0
196.944382 128.0
196.974365 120.0
197.070587 1252.0
197.137161 72.0
197.17218 120.0
197.241653 100.0
197.323029 76.0
197.360611 132.0
197.367004 124.0
197.422287 184.0
197.469833 76.0
197.52858 124.0
197.576126 124.0
197.615295 60.0
197.669785 160.0
197.707642 56.0
197.93718 48.0
198.07135 296.0
198.130432 100.0
198.449936 68.0
198.598557 120.0
198.79213 64.0
198.848267 60.0
198.954926 124.0
199.005463 84.0
199.050385 108.0
199.089706 124.0
199.126205 52.0
199.328476 36.0
199.415588 68.0
199.564575 60.0
199.812073 160.0
199.890854 68.0
200.051285 76.0
200.093079 232.0
200.456848 184.0
200.840271 104.0
200.961578 148.0
202.035141 36.0
202.196426 104.0
203.508881 84.0
204.049591 176.0
204.392853 92.0
204.925293 196.0
204.970886 184.0
205.064926 120.0
205.107681 100.0
206.481003 56.0
206.59256 52.0
206.878723 52.0
207.067703 104.0
207.623688 140.0
207.864655 124.0
209.667709 128.0
209.713821 92.0
210.14061 236.0
210.400345 44.0
211.050415 164.0
211.817322 56.0
212.362244 200.0
212.449265 80.0
212.565308 148.0
212.623352 120.0
214.76178 84.0
215.900787 72.0
216.023636 200.0
216.114334 144.0
217.095673 188.0
217.41243 76.0
218.664383 40.0
218.829224 84.0
220.277206 60.0
229.595856 128.0
230.531677 60.0
231.068054 204.0
232.758118 120.0
232.973755 104.0
233.025406 56.0
233.074142 4020.0
233.229004 52.0
233.539139 44.0
233.703415 160.0
234.079025 576.0
234.525635 40.0
234.595734 108.0
235.022705 72.0
235.071121 404.0
235.108154 140.0
235.471451 92.0
235.673065 112.0
235.880875 72.0
236.064316 108.0
236.361023 40.0
236.685486 80.0
237.411728 136.0
238.354111 60.0
241.931808 116.0
242.783875 32.0
245.084137 116.0
246.500763 52.0
254.260376 72.0
263.278992 104.0
265.992615 148.0
268.116028 120.0
270.048767 80.0
276.069611 132.0
277.083557 128.0
278.068176 140.0
279.044769 88.0
283.155792 68.0
286.241974 88.0
289.849518 88.0
290.581879 112.0
292.107208 164.0
310.378784 48.0
313.098633 96.0
317.38858 124.0
319.60141 112.0
320.812317 68.0
322.100494 116.0
322.947601 48.0
325.054108 68.0
331.135773 164.0
343.944153 64.0
353.705261 48.0
356.78125 104.0
367.110443 128.0
368.771149 104.0
379.584412 72.0
382.366699 64.0
382.818298 96.0
383.250671 68.0
386.141998 124.0
388.367889 88.0
389.219482 60.0
391.71286 92.0
401.020416 116.0
401.187836 92.0
403.475311 60.0
409.176147 80.0
412.140564 96.0
412.378967 104.0
413.916229 80.0
427.126953 72.0
436.498749 72.0
444.166168 152.0
445.232574 84.0
446.173767 156.0
446.404999 44.0
456.537262 84.0
481.277466 124.0
485.386078 76.0
490.626892 48.0
498.06546 104.0
506.101654 80.0
538.007324 116.0
546.758423 76.0
582.314941 40.0
596.214355 60.0
639.253418 76.0
659.887695 164.0
694.953979 188.0
699.389221 52.0
700.737305 48.0
717.820557 68.0
765.82019 100.0
813.197937 104.0
831.593018 120.0
845.245056 220.0
859.574219 56.0
893.31073 48.0
903.272339 196.0
904.924011 144.0
931.246155 180.0
953.005615 116.0
972.426575 76.0
974.544067 108.0
976.365356 208.0
987.109924 236.0
987.553894 116.0
1010.666321 160.0
1013.19873 176.0
1018.349365 112.0
1025.169189 212.0
1048.528198 148.0
1054.75647 132.0
1056.237183 120.0
1068.484497 224.0
1076.684326 160.0
1077.801392 148.0
1088.412354 220.0
1092.493652 48.0
1105.147217 188.0
1105.524414 224.0
1107.643066 228.0
1110.506348 176.0
1110.990601 48.0
1113.632324 108.0
1114.230225 128.0
1121.236694 212.0
1128.151611 156.0
1132.166016 244.0
1148.760498 200.0
1148.908936 144.0
1159.261108 156.0
1160.121094 204.0
1165.509766 236.0
1166.080566 128.0
1179.52124 80.0
1181.634277 144.0
1184.612183 192.0
1184.680664 196.0
1184.97522 28.0
1192.970215 104.0
1200.405884 48.0
1205.735107 132.0
1206.654419 188.0
1208.667114 184.0
1213.224243 188.0
1214.174194 172.0
1216.019531 212.0
1216.623413 104.0
1217.456665 192.0
1218.838989 108.0
1220.034302 88.0
1220.618408 168.0
1221.014771 152.0
1221.258179 232.0
1227.616455 116.0
1229.465088 212.0
1234.403931 188.0
1235.369019 160.0
1237.391479 156.0
1237.55249 160.0
1240.775269 72.0
1240.950562 232.0
1245.989502 160.0
1248.231567 228.0
1249.553955 176.0
1255.230835 216.0
1257.262329 220.0
1257.375244 120.0
1259.253174 104.0
1259.733521 104.0
1261.07605 144.0
1262.43335 180.0
1264.216064 112.0
1265.447632 40.0
1266.878174 176.0
1273.290039 136.0
1273.538696 140.0
1274.412354 264.0
1275.094604 160.0
1276.694092 148.0
1281.840698 176.0
1283.637085 32.0
1284.193237 136.0
1291.51416 188.0
1296.439697 44.0
1296.661865 144.0
1301.324341 120.0
1302.566772 200.0
1305.664429 108.0
1307.916382 104.0
1309.21228 108.0
1311.207764 160.0
1313.269653 220.0
1317.557373 184.0
1319.268188 224.0
1323.654419 148.0
1330.556763 168.0
1331.24646 144.0
1334.443481 52.0
1340.459595 128.0
1340.907349 140.0
1345.269043 232.0
1346.013794 144.0
1347.226074 112.0
1352.498291 128.0
1352.564087 168.0
1354.577759 192.0
1360.847778 132.0
1364.330078 132.0
1364.44043 112.0
1373.387207 204.0
1375.276001 184.0
1381.667725 136.0
1384.243408 184.0
1384.421143 168.0
1388.98645 180.0
1392.281738 232.0
1393.76001 180.0
1394.428833 160.0
1395.885864 196.0
1397.209717 240.0
1397.775146 100.0
1404.599243 196.0
1405.904907 144.0
1407.562012 228.0
1413.467041 48.0
1415.959839 96.0
1418.424805 224.0
1422.332764 88.0
1422.81311 188.0
1426.351196 144.0
1426.539185 200.0
1426.742065 164.0
1426.794678 60.0
1428.855347 128.0
1430.255005 144.0
1431.000244 156.0
1431.17334 208.0
1432.483765 160.0
1432.995972 148.0
1435.25708 232.0
1436.184692 172.0
1439.867676 180.0
1446.816406 220.0
1447.853027 208.0
1449.247559 136.0
1452.969971 120.0
1453.592163 264.0
1454.427002 148.0
1455.732788 220.0
1459.714478 180.0
1460.056641 188.0
1461.52478 280.0
1462.293335 144.0
1467.229248 68.0
1467.457886 188.0
1471.035767 228.0
1473.204468 140.0
1476.338135 260.0
1476.881104 160.0
1478.403564 232.0
1478.770874 80.0
1479.78125 56.0
1481.94873 188.0
1485.413818 124.0
1485.781982 160.0
1486.24231 192.0
1487.523926 72.0
1487.6698 52.0
1489.92749 132.0
1490.526733 180.0
1490.911011 160.0
1491.256836 112.0
1492.663574 164.0
1493.529785 32.0
1497.1698 208.0
1497.604248 184.0
1498.636475 156.0
1502.213501 356.0
1502.46814 64.0
