>compound MLS000859986-01!N-(6-Aminohexyl)-5-chloro-1-naphthalenesulfonamide hydrochloride
>formula C16H21ClN2O2S
>ionization [M+H]+
>parentmass 341.107666
#inchi InChI=1S/C16H21ClN2O2S/c17-15-9-5-8-14-13(15)7-6-10-16(14)22(20,21)19-12-4-2-1-3-11-18/h5-10,19H,1-4,11-12,18H2
#inchikey IDEHCMNLNCJQST
#origInchi InChI=1S/C16H21ClN2O2S.ClH/c17-15-9-5-8-14-13(15)7-6-10-16(14)22(20,21)19-12-4-2-1-3-11-18;/h5-10,19H,1-4,11-12,18H2;1H
#Ion_Source LC-ESI
#Instrument qTof
#Compound_Source NIH Pharmacologically Active Library
#PI Dorrestein
#Data_Collector VP/LMS
#Scan -1
#Precursor_MZ 341.115
#ExactMass 340.101
#Charge 1
#CAS_Number N/A
#Pubmed_ID N/A
#Smiles NCCCCCCNS(=O)(=O)c1cccc2c(Cl)cccc12.Cl
#INCHI_AUX N/A
#Library_Class 1
#SpectrumID CCMSLIB00000086132
#IonMode Positive
#UpdateWorkflowName UPDATE-SINGLE-ANNOTATED-GOLD
#LibraryQualityString Gold
#TaskID d252d724072548979f1f6f1ced849daf
##Scan# 1684
#SpectrumFile p5-F04_GF4_01_18467.mzXML
#LibraryName Pharm_Active_Library.mgf
#MQScore -1
#Organism Pharm_Active_Library
#TIC_Query 0
#RT_Query -1
#MZErrorPPM -1
#SharedPeaks 0
#MassDiff 0
#LibMZ -1
#SpecMZ 341.115
#SpecCharge 0
#internalFilename spec-00000.mgf

>collision 10
44.922077 104.0
44.941494 188.0
44.970112 188.0
44.979454 136.0
45.047558 136.0
45.07428 236.0
45.127743 136.0
45.161861 160.0
45.17802 216.0
45.19997 144.0
45.257526 92.0
45.269581 140.0
45.286991 128.0
45.297707 96.0
45.309353 144.0
45.358006 144.0
45.382137 116.0
45.398228 144.0
45.417004 188.0
45.429077 104.0
45.46933 164.0
45.547203 360.0
45.619045 112.0
45.635899 168.0
45.646656 196.0
45.685661 188.0
45.695232 172.0
45.705551 240.0
45.730206 160.0
45.798733 152.0
45.813549 180.0
45.837803 184.0
45.871494 148.0
45.895763 92.0
45.934872 68.0
45.973999 104.0
46.003727 164.0
46.021179 160.0
46.048252 140.0
46.06176 192.0
46.077972 136.0
46.087429 132.0
46.107246 128.0
46.14761 152.0
46.202351 236.0
46.226582 176.0
46.257832 44.0
46.275433 76.0
46.297096 148.0
46.320122 148.0
46.356705 108.0
46.36961 128.0
46.39872 104.0
46.413139 208.0
46.431911 140.0
46.462463 192.0
46.499542 184.0
46.542538 136.0
46.592121 176.0
46.621326 176.0
46.671623 44.0
46.682499 180.0
46.696098 84.0
46.724667 184.0
46.739632 164.0
46.750519 116.0
46.76796 196.0
46.769878 160.0
46.802246 204.0
46.879887 156.0
46.893517 128.0
46.904419 104.0
46.945358 156.0
46.985901 160.0
47.006706 236.0
47.061161 148.0
47.089985 176.0
47.112839 208.0
47.150131 156.0
47.185638 204.0
47.203411 120.0
47.219597 316.0
47.241707 260.0
47.291695 188.0
47.332039 124.0
47.347103 152.0
47.365299 112.0
47.375866 172.0
47.401897 80.0
47.423443 192.0
47.440273 200.0
47.473179 92.0
47.513653 144.0
47.539772 180.0
47.562359 100.0
47.59668 76.0
47.633762 136.0
47.647499 148.0
47.663986 160.0
47.743717 164.0
47.76297 172.0
47.784981 112.0
47.79599 152.0
47.857437 168.0
47.879963 152.0
47.933689 164.0
47.958492 128.0
48.001232 172.0
48.028652 172.0
48.039566 156.0
48.049507 184.0
48.079865 144.0
48.176517 48.0
48.191711 144.0
48.231789 32.0
48.251957 156.0
48.277416 124.0
48.296776 44.0
48.306461 144.0
48.332745 120.0
48.461514 176.0
48.494774 120.0
48.537235 300.0
48.571033 124.0
48.648262 224.0
48.667484 176.0
48.682064 140.0
48.747356 140.0
48.766136 140.0
48.784882 148.0
48.809364 224.0
48.853195 344.0
48.943401 132.0
48.969948 216.0
48.999767 196.0
49.040501 148.0
49.053551 124.0
49.064701 192.0
49.095375 124.0
49.179085 136.0
49.213985 124.0
49.25309 40.0
49.299194 176.0
49.343922 128.0
49.426445 180.0
49.443237 36.0
49.496433 160.0
49.524315 160.0
49.565067 104.0
49.59071 132.0
49.621635 208.0
49.649544 184.0
49.680035 140.0
49.710903 132.0
49.724937 204.0
49.739666 172.0
49.758625 140.0
49.771263 140.0
49.810585 136.0
49.828846 116.0
49.841492 172.0
49.873062 268.0
49.907635 128.0
49.93544 188.0
49.955051 176.0
50.008842 192.0
50.044037 112.0
50.083466 208.0
50.138412 132.0
50.154915 200.0
50.164078 212.0
50.185452 184.0
50.211189 200.0
50.270977 136.0
50.292145 144.0
50.390152 228.0
50.396587 92.0
50.401089 124.0
50.416431 140.0
50.453178 228.0
50.467319 176.0
50.50845 140.0
50.530228 100.0
50.570518 164.0
50.637131 180.0
50.649879 188.0
50.659794 108.0
50.682461 164.0
50.696632 128.0
50.709389 224.0
50.746243 208.0
50.817764 144.0
50.837025 120.0
50.863121 176.0
50.895222 160.0
50.939533 140.0
50.981873 76.0
50.996086 104.0
51.031624 164.0
51.061485 176.0
51.07571 100.0
51.105549 152.0
51.135468 344.0
51.148277 176.0
51.171711 164.0
51.19099 136.0
51.20808 152.0
51.234219 192.0
51.243694 204.0
51.253666 168.0
51.296219 140.0
51.319233 160.0
51.384838 132.0
51.409096 108.0
51.441925 92.0
51.460484 232.0
51.480164 184.0
51.482536 144.0
51.539742 220.0
51.550472 72.0
51.566193 160.0
51.614796 136.0
51.624805 144.0
51.641968 36.0
51.669147 120.0
51.686176 164.0
51.696533 172.0
51.732117 176.0
51.784595 172.0
51.845303 164.0
51.858536 124.0
51.906906 128.0
51.972889 48.0
52.024239 144.0
52.050323 152.0
52.067635 120.0
52.115036 56.0
52.159954 204.0
52.191216 212.0
52.228607 120.0
52.26601 200.0
52.300552 72.0
52.321648 244.0
52.348061 148.0
52.407898 188.0
52.438068 260.0
52.457371 184.0
52.513794 144.0
52.527534 152.0
52.542645 124.0
52.553646 192.0
52.598923 152.0
52.643681 96.0
52.756378 196.0
52.7999 204.0
52.919861 192.0
52.967716 180.0
52.987934 144.0
53.008919 124.0
53.032856 224.0
53.042999 144.0
53.061848 148.0
53.211281 292.0
53.238319 196.0
53.267864 208.0
53.278522 160.0
53.310051 80.0
53.339397 232.0
53.355694 132.0
53.430737 176.0
53.451107 144.0
53.465656 216.0
53.480213 148.0
53.492393 144.0
53.51078 160.0
53.520973 132.0
53.553013 116.0
53.575287 164.0
53.618572 136.0
53.630234 324.0
53.640438 180.0
53.650642 128.0
53.696304 152.0
53.741985 228.0
53.747753 144.0
53.797981 52.0
53.827137 128.0
53.870998 196.0
53.881226 104.0
53.895836 160.0
53.961609 120.0
53.980618 148.0
54.038437 132.0
54.065464 176.0
54.115231 200.0
54.208496 184.0
54.223629 136.0
54.26321 172.0
54.276405 116.0
54.335072 108.0
54.358547 144.0
54.377628 132.0
54.399643 160.0
54.423134 100.0
54.470131 136.0
54.505329 192.0
54.531841 92.0
54.583294 176.0
54.61565 112.0
54.686275 84.0
54.709099 164.0
54.745441 220.0
54.760296 188.0
54.777565 120.0
54.82766 148.0
54.859035 228.0
54.875 104.0
54.916584 228.0
54.955952 112.0
54.974209 224.0
55.017937 132.0
55.093323 136.0
55.193306 132.0
55.211498 212.0
55.229248 152.0
55.264751 204.0
55.313591 188.0
55.360371 208.0
55.387627 76.0
55.405403 164.0
55.423183 180.0
55.460232 180.0
55.494328 132.0
55.511826 40.0
55.541782 156.0
55.597942 216.0
55.629223 108.0
55.670902 100.0
55.709522 164.0
55.739235 124.0
55.782951 176.0
55.809891 128.0
55.832752 132.0
55.855198 40.0
55.90876 116.0
55.941505 168.0
55.968304 76.0
56.045757 108.0
56.056187 152.0
56.111336 156.0
56.121773 176.0
56.134163 168.0
56.168007 128.0
56.178448 148.0
56.193367 68.0
56.244926 172.0
56.269482 144.0
56.306812 120.0
56.34565 176.0
56.365074 168.0
56.39048 132.0
56.423515 120.0
56.47271 180.0
56.501133 152.0
56.528065 168.0
56.589432 152.0
56.619381 176.0
56.691292 152.0
56.713848 176.0
56.742252 252.0
56.779739 172.0
56.833744 140.0
56.923805 148.0
57.030586 208.0
57.087269 180.0
57.125202 204.0
57.176361 212.0
57.203735 164.0
57.220013 40.0
57.265186 160.0
57.295315 124.0
57.327961 204.0
57.345039 188.0
57.361622 144.0
57.375187 164.0
57.400822 128.0
57.665009 48.0
57.678612 196.0
57.698265 116.0
57.75724 140.0
57.832893 392.0
57.854126 156.0
57.880283 132.0
57.954044 136.0
58.022247 160.0
58.057121 100.0
58.107178 156.0
58.225574 256.0
58.237724 212.0
58.262032 152.0
58.28178 188.0
58.336494 128.0
58.359299 188.0
58.389645 340.0
58.409485 136.0
58.452084 116.0
58.522511 104.0
58.584473 172.0
58.679031 260.0
58.733929 36.0
58.822433 132.0
58.91711 208.0
58.932533 128.0
58.949951 308.0
59.022568 156.0
59.048565 48.0
59.081032 196.0
59.151806 124.0
59.166389 120.0
59.192417 124.0
59.22636 172.0
59.293526 220.0
59.336445 136.0
59.382847 108.0
59.404312 204.0
59.468369 108.0
59.50214 164.0
59.540527 276.0
59.623486 44.0
59.649616 156.0
59.718117 196.0
59.771114 128.0
59.787708 332.0
59.836346 252.0
59.849613 200.0
59.874252 128.0
59.917381 160.0
60.000607 140.0
60.039154 116.0
60.107567 172.0
60.171852 88.0
60.245983 184.0
60.273792 136.0
60.286156 152.0
60.364994 184.0
60.417583 148.0
60.522827 172.0
60.567738 88.0
60.59407 176.0
60.606468 140.0
60.679531 172.0
60.694817 184.0
60.730488 144.0
60.767715 200.0
60.784786 148.0
60.832897 196.0
60.877926 116.0
60.896561 148.0
60.917431 140.0
60.978905 168.0
61.010296 164.0
61.041206 160.0
61.09708 356.0
61.1241 132.0
61.14843 172.0
61.182674 184.0
61.21693 136.0
61.241047 148.0
61.318779 244.0
61.336739 160.0
61.394585 92.0
61.522446 148.0
61.616947 192.0
61.639668 148.0
61.710007 136.0
61.742844 136.0
61.7565 164.0
61.799156 116.0
61.828888 156.0
61.853931 156.0
61.882111 160.0
61.97728 168.0
61.994888 36.0
62.034073 124.0
62.060722 248.0
62.081833 144.0
62.102261 164.0
62.140713 152.0
62.156406 148.0
62.19878 36.0
62.211338 180.0
62.241165 108.0
62.252808 116.0
62.267864 164.0
62.328358 220.0
62.362103 232.0
62.388157 168.0
62.406319 148.0
62.543011 296.0
62.569771 152.0
62.645363 180.0
62.667419 112.0
62.738342 144.0
62.775063 152.0
62.79826 148.0
62.809303 48.0
62.844009 100.0
62.862942 216.0
62.896431 128.0
62.933167 172.0
62.948185 356.0
63.042526 172.0
63.074577 196.0
63.109356 96.0
63.13216 152.0
63.150475 84.0
63.205372 188.0
63.22451 216.0
63.236843 120.0
63.256641 164.0
63.26915 212.0
63.288151 148.0
63.307152 56.0
63.347836 192.0
63.361004 120.0
63.409805 168.0
63.430733 152.0
63.484829 168.0
63.495739 232.0
63.507656 168.0
63.527462 112.0
63.547264 208.0
63.570301 168.0
63.614742 76.0
63.632206 164.0
63.663963 56.0
63.687496 176.0
63.703232 160.0
63.724323 88.0
63.775173 116.0
63.821278 180.0
63.854897 196.0
63.873756 200.0
63.884892 100.0
63.89603 184.0
63.942295 160.0
63.954906 176.0
63.97401 156.0
63.997585 104.0
64.0839 100.0
64.100571 172.0
64.118958 208.0
64.170967 184.0
64.175575 116.0
64.238541 212.0
64.261688 236.0
64.300766 168.0
64.316727 192.0
64.39415 124.0
64.423164 188.0
64.450874 124.0
64.514809 204.0
64.533989 280.0
64.559578 128.0
64.589699 196.0
64.605957 176.0
64.641388 168.0
64.669968 116.0
64.735603 164.0
64.75322 92.0
64.808678 168.0
64.826912 200.0
64.862175 104.0
64.898285 168.0
64.916687 72.0
64.947159 176.0
64.971222 92.0
64.987267 148.0
65.046646 104.0
65.131744 136.0
65.197617 180.0
65.213768 168.0
65.323029 48.0
65.339119 128.0
65.412071 216.0
65.424416 172.0
65.601616 212.0
65.648376 60.0
65.682693 172.0
65.741135 144.0
65.766144 140.0
65.796654 156.0
65.817543 172.0
65.824089 220.0
65.89695 52.0
65.924721 192.0
65.976143 204.0
66.016518 140.0
66.021271 136.0
66.039207 192.0
66.053764 132.0
66.084503 100.0
66.097443 204.0
66.11039 120.0
66.17028 200.0
66.183235 192.0
66.270699 148.0
66.308846 184.0
66.320938 200.0
66.406868 92.0
66.462021 420.0
66.49556 108.0
66.522072 132.0
66.56192 192.0
66.622757 176.0
66.639 188.0
66.658501 60.0
66.714241 188.0
66.751686 188.0
66.822723 184.0
66.839638 104.0
66.853638 176.0
66.891075 140.0
66.930389 256.0
66.946426 152.0
66.99041 136.0
67.014847 164.0
67.032768 136.0
67.055084 420.0
67.068169 176.0
67.110268 232.0
67.146881 132.0
67.164825 168.0
67.264847 160.0
67.350899 128.0
67.403183 180.0
67.501259 80.0
67.534988 276.0
67.60759 168.0
67.632698 108.0
67.658325 136.0
67.707451 152.0
67.753311 192.0
67.798492 168.0
67.818863 172.0
67.871773 380.0
67.940613 48.0
67.971382 92.0
68.030464 180.0
68.045242 260.0
68.130638 152.0
68.166786 124.0
68.291733 92.0
68.31311 144.0
68.41185 144.0
68.434898 112.0
68.448074 164.0
68.464539 124.0
68.520546 116.0
68.561737 144.0
68.574921 148.0
68.607887 156.0
68.707024 140.0
68.723679 172.0
68.784401 160.0
68.822365 144.0
68.855392 148.0
68.880356 180.0
68.926613 180.0
68.944603 256.0
68.956177 232.0
69.018997 108.0
69.071915 40.0
69.083496 132.0
69.14637 120.0
69.174507 144.0
69.207748 160.0
69.222527 224.0
69.255646 160.0
69.275276 160.0
69.393188 148.0
69.419716 128.0
69.434647 88.0
69.446251 112.0
69.494362 216.0
69.597267 252.0
69.63546 168.0
69.660378 72.0
69.71521 312.0
69.758423 148.0
69.801651 220.0
69.894798 184.0
69.961372 116.0
69.995934 148.0
70.072952 140.0
70.111282 144.0
70.137947 152.0
70.161285 188.0
70.209641 228.0
70.258011 176.0
70.288223 148.0
70.304733 168.0
70.326424 236.0
70.362175 204.0
70.376511 200.0
70.406563 156.0
70.443314 96.0
70.460014 160.0
70.592056 160.0
70.620491 200.0
70.648926 180.0
70.674377 200.0
70.724228 112.0
70.754356 72.0
70.801575 212.0
70.880653 256.0
70.896736 136.0
70.911819 140.0
70.950371 192.0
70.980553 172.0
71.004028 320.0
71.024155 80.0
71.047638 172.0
71.085686 124.0
71.164215 156.0
71.281296 216.0
71.307907 176.0
71.346565 56.0
71.358337 168.0
71.371788 84.0
71.417191 100.0
71.450836 100.0
71.485474 192.0
71.508049 80.0
71.572861 160.0
71.61412 48.0
71.625908 160.0
71.639389 120.0
71.67308 148.0
71.72364 104.0
71.745552 132.0
71.79277 172.0
71.811317 180.0
71.824814 180.0
71.855179 156.0
71.868507 128.0
71.893982 96.0
71.93618 180.0
71.95813 156.0
71.973328 156.0
71.986832 148.0
71.999016 168.0
72.040878 136.0
72.054398 124.0
72.101707 96.0
72.118607 164.0
72.13382 320.0
72.150658 96.0
72.169327 68.0
72.187271 156.0
72.24118 180.0
72.291115 220.0
72.377441 160.0
72.41301 204.0
72.44519 60.0
72.474037 144.0
72.497711 188.0
72.555344 156.0
72.57399 60.0
72.60083 208.0
72.612076 148.0
72.632317 164.0
72.644455 124.0
72.663887 204.0
72.701645 236.0
72.713387 192.0
72.741066 108.0
72.76062 116.0
72.779297 56.0
72.813263 136.0
72.855728 320.0
72.945793 188.0
72.972679 108.0
72.98568 320.0
73.015503 96.0
73.03421 200.0
73.061134 116.0
73.235054 148.0
73.265717 124.0
73.326225 216.0
73.360023 224.0
73.41571 128.0
73.468353 144.0
73.519775 88.0
73.600006 308.0
73.629036 144.0
73.640991 180.0
73.671738 136.0
73.704201 72.0
73.771172 236.0
73.78476 208.0
73.844376 172.0
73.868324 188.0
73.922897 156.0
73.988113 136.0
74.000099 156.0
74.015877 148.0
74.058319 144.0
74.126846 36.0
74.140556 144.0
74.155983 160.0
74.18512 168.0
74.197121 104.0
74.227654 184.0
74.261314 212.0
74.279434 188.0
74.29789 180.0
74.329941 156.0
74.406425 112.0
74.420166 140.0
74.470421 188.0
74.505424 124.0
74.533524 156.0
74.552429 80.0
74.640266 204.0
74.726097 184.0
74.798378 180.0
74.858635 112.0
74.892036 152.0
74.908585 304.0
74.974052 136.0
74.999443 172.0
75.053352 96.0
75.094734 148.0
75.132683 176.0
75.155113 188.0
75.167191 220.0
75.193077 196.0
75.2285 140.0
75.27076 188.0
75.305305 132.0
75.329483 124.0
75.351944 168.0
75.396866 172.0
75.41761 112.0
75.466988 312.0
75.481575 140.0
75.493683 144.0
75.524811 136.0
75.567528 144.0
75.6138 136.0
75.644203 68.0
75.675369 232.0
75.697876 160.0
75.734245 96.0
75.780014 360.0
75.852287 204.0
75.897148 124.0
75.92836 112.0
75.963051 40.0
75.985603 52.0
76.044601 96.0
76.062393 160.0
76.10006 148.0
76.152245 68.0
76.178299 164.0
76.247803 128.0
76.296471 92.0
76.319077 124.0
76.352112 180.0
76.372986 72.0
76.407776 152.0
76.517418 152.0
76.543541 152.0
76.588821 148.0
76.609718 180.0
76.651535 136.0
76.717567 140.0
76.818909 56.0
76.84333 120.0
76.874741 192.0
76.89743 116.0
76.925911 176.0
76.955032 168.0
76.981224 100.0
77.038864 140.0
77.054588 140.0
77.080345 172.0
77.102943 184.0
77.144806 180.0
77.175186 200.0
77.210159 160.0
77.232895 92.0
77.259132 212.0
77.290665 176.0
77.318626 156.0
77.425415 168.0
77.45694 120.0
77.549011 196.0
77.618088 160.0
77.660271 260.0
77.676056 344.0
77.758522 96.0
77.790115 168.0
77.803696 152.0
77.864212 120.0
77.884933 144.0
77.928856 208.0
77.951698 112.0
77.983803 224.0
77.998672 176.0
78.032555 156.0
78.071236 92.0
78.136314 176.0
78.196144 180.0
78.219765 268.0
78.24543 80.0
78.266563 92.0
78.28241 56.0
78.324677 136.0
78.349342 120.0
78.365196 44.0
78.422386 168.0
78.448029 152.0
78.545013 168.0
78.564415 156.0
78.578529 112.0
78.634995 60.0
78.647354 164.0
78.668167 204.0
78.698547 88.0
78.746223 212.0
78.767365 124.0
78.799431 232.0
78.843391 84.0
78.857536 120.0
78.876976 104.0
78.899956 184.0
78.924713 160.0
78.954773 112.0
78.993683 132.0
79.007385 188.0
79.03968 128.0
79.066231 112.0
79.138802 200.0
79.177757 124.0
79.214958 212.0
79.246841 256.0
79.298233 164.0
79.319504 216.0
79.383835 140.0
79.410233 164.0
79.427666 172.0
79.479622 168.0
79.530586 204.0
79.554039 264.0
79.578514 132.0
79.59449 88.0
79.635338 68.0
79.677559 172.0
79.708176 136.0
79.724167 152.0
79.765045 244.0
79.789932 188.0
79.804161 32.0
79.855728 144.0
79.889526 64.0
79.903687 100.0
79.93045 84.0
79.97654 120.0
79.998077 184.0
80.060394 184.0
80.158279 152.0
80.195457 160.0
80.220749 80.0
80.235039 300.0
80.258194 172.0
80.276024 176.0
80.329529 180.0
80.437019 140.0
80.463371 56.0
80.525871 220.0
80.541946 168.0
80.556236 184.0
80.596115 200.0
80.622345 40.0
80.636642 92.0
80.665245 112.0
80.708145 116.0
80.738548 228.0
80.751068 228.0
80.774925 224.0
80.829781 164.0
80.856621 164.0
80.906601 152.0
80.931488 136.0
80.98732 208.0
81.067947 152.0
81.101997 72.0
81.134789 192.0
81.159363 180.0
81.177292 172.0
81.234222 216.0
81.262955 132.0
81.28492 116.0
81.329788 356.0
81.342354 140.0
81.365692 188.0
81.378258 92.0
81.390831 204.0
81.419563 148.0
81.532433 188.0
81.576599 120.0
81.610352 228.0
81.672981 176.0
81.696365 216.0
81.800018 212.0
81.813339 220.0
81.827736 156.0
81.863754 80.0
81.88176 144.0
81.903374 196.0
81.919586 160.0
81.972099 164.0
82.060158 104.0
82.103432 184.0
82.125076 260.0
82.169205 164.0
82.202652 104.0
82.221123 188.0
82.25499 132.0
82.268776 188.0
82.305542 364.0
82.318184 160.0
82.332626 144.0
82.363335 160.0
82.37468 128.0
82.401108 136.0
82.426559 156.0
82.486206 224.0
82.520439 132.0
82.592888 156.0
82.648972 80.0
82.685165 124.0
82.726791 104.0
82.793785 44.0
82.810738 256.0
82.830139 168.0
82.882545 124.0
82.897041 88.0
82.913353 60.0
82.926041 120.0
82.949608 128.0
82.967735 188.0
82.997017 160.0
83.091057 208.0
83.125526 68.0
83.165115 188.0
83.189056 116.0
83.222015 152.0
83.287109 44.0
83.307091 136.0
83.362823 172.0
83.410667 100.0
83.460037 308.0
83.47377 164.0
83.521584 184.0
83.556152 180.0
83.587234 144.0
83.601639 136.0
83.634483 168.0
83.654419 160.0
83.687195 164.0
83.736359 152.0
83.758217 176.0
83.784508 196.0
83.816513 128.0
83.865723 52.0
83.92704 176.0
83.955055 88.0
83.971466 136.0
84.009773 152.0
84.086411 176.0
84.130539 160.0
84.188484 140.0
84.23307 192.0
84.320129 148.0
84.339027 192.0
84.395126 124.0
84.415245 112.0
84.601868 132.0
84.65313 236.0
84.671448 172.0
84.68763 196.0
84.733894 176.0
84.766617 164.0
84.770325 156.0
84.818024 160.0
84.832687 196.0
84.862022 200.0
84.889526 176.0
84.904198 96.0
84.955551 80.0
84.9739 152.0
85.052811 152.0
85.075043 252.0
85.107887 148.0
85.129921 208.0
85.20491 140.0
85.337555 140.0
85.35778 148.0
85.399506 312.0
85.468147 116.0
85.496078 176.0
85.52803 148.0
85.58963 124.0
85.617249 128.0
85.715256 180.0
85.742424 140.0
85.902939 120.0
85.930611 180.0
85.942451 168.0
86.023979 128.0
86.037651 228.0
86.069168 176.0
86.106926 120.0
86.124443 172.0
86.166931 168.0
86.202034 160.0
86.22052 144.0
86.244545 156.0
86.277817 120.0
86.29261 188.0
86.30925 184.0
86.403572 120.0
86.420227 168.0
86.464127 188.0
86.497955 144.0
86.51461 124.0
86.533127 188.0
86.602417 156.0
86.699837 112.0
86.7332 232.0
86.82972 132.0
86.894577 168.0
86.955772 252.0
86.992889 184.0
87.022598 160.0
87.043022 108.0
87.129097 164.0
87.187798 124.0
87.213936 196.0
87.275246 200.0
87.308762 120.0
87.35154 184.0
87.372002 164.0
87.418724 176.0
87.459457 136.0
87.479462 156.0
87.502831 280.0
87.537651 148.0
87.628784 160.0
87.669914 188.0
87.764984 264.0
87.908661 164.0
87.931007 164.0
87.953407 148.0
87.988876 208.0
88.028084 68.0
88.093452 152.0
88.130821 148.0
88.151375 96.0
88.208374 192.0
88.271011 192.0
88.284096 140.0
88.364532 148.0
88.385109 92.0
88.454361 104.0
88.503036 184.0
88.536736 200.0
88.562958 144.0
88.621483 192.0
88.656639 128.0
88.714737 188.0
88.803146 136.0
88.834755 168.0
88.847885 92.0
88.87603 140.0
88.891045 60.0
88.905647 220.0
88.935349 256.0
88.971924 132.0
89.031837 196.0
89.074097 144.0
89.095695 156.0
89.11824 144.0
89.187775 212.0
89.24041 140.0
89.297264 172.0
89.31752 184.0
89.362663 120.0
89.428185 176.0
89.470192 204.0
89.515129 148.0
89.652649 108.0
89.687241 124.0
89.767639 120.0
89.914787 136.0
89.960083 160.0
90.005394 200.0
90.075272 148.0
90.135735 148.0
90.226456 52.0
90.243469 152.0
90.327126 152.0
90.34523 184.0
90.360733 96.0
90.389977 180.0
90.453461 184.0
90.485641 228.0
90.528755 156.0
90.550026 60.0
90.572754 168.0
90.622009 176.0
90.646637 124.0
90.675064 144.0
90.709419 128.0
90.767632 164.0
90.822952 156.0
90.85141 152.0
90.989944 252.0
91.029037 200.0
91.05423 164.0
91.070267 108.0
91.092499 184.0
91.117195 64.0
91.130493 168.0
91.227417 148.0
91.242622 124.0
91.284454 188.0
91.343414 224.0
91.357552 148.0
91.371262 220.0
91.404297 184.0
91.441193 216.0
91.479294 148.0
91.497559 148.0
91.528023 208.0
91.555786 152.0
91.581345 132.0
91.598488 148.0
91.62178 176.0
91.73378 120.0
91.760475 140.0
91.781937 140.0
91.838654 164.0
91.869179 128.0
91.893227 252.0
91.993217 208.0
92.016129 116.0
92.040947 60.0
92.058136 244.0
92.107956 184.0
92.141731 172.0
92.193764 224.0
92.228165 144.0
92.258995 156.0
92.279785 164.0
92.459595 144.0
92.480644 140.0
92.507439 120.0
92.585945 200.0
92.608925 144.0
92.6409 156.0
92.660645 140.0
92.677895 80.0
92.691307 204.0
92.812065 172.0
92.8274 120.0
92.889893 332.0
92.911903 148.0
93.051895 104.0
93.073021 140.0
93.112549 184.0
93.131638 168.0
93.169724 204.0
93.22596 208.0
93.303574 156.0
93.33049 160.0
93.382416 192.0
93.428581 152.0
93.45359 204.0
93.495926 168.0
93.509399 100.0
93.524796 192.0
93.54689 156.0
93.669205 128.0
93.701447 196.0
93.798309 176.0
93.857887 160.0
93.887001 124.0
93.912071 172.0
93.930237 164.0
93.94294 416.0
93.979591 104.0
93.996033 216.0
94.050995 148.0
94.098053 160.0
94.118568 152.0
94.161049 112.0
94.190025 120.0
94.255707 132.0
94.273102 76.0
94.305374 212.0
94.310234 148.0
94.31942 244.0
94.373611 120.0
94.442604 136.0
94.466446 120.0
94.481918 240.0
94.541901 136.0
94.622383 152.0
94.654182 132.0
94.677414 128.0
94.698517 192.0
94.768951 188.0
94.85965 152.0
94.880196 184.0
94.924599 188.0
94.932175 104.0
94.939453 132.0
94.952614 168.0
94.965958 164.0
95.026329 120.0
95.087837 240.0
95.149414 172.0
95.245689 156.0
95.3545 128.0
95.377823 124.0
95.42691 200.0
95.496429 152.0
95.6735 188.0
95.687126 160.0
95.745544 168.0
95.775925 184.0
95.809822 124.0
95.89946 84.0
95.915581 104.0
95.948463 116.0
95.989136 80.0
96.0485 228.0
96.067154 60.0
96.090561 184.0
96.110077 276.0
96.127632 164.0
96.141296 220.0
96.436203 144.0
96.471382 184.0
96.50071 128.0
96.569153 176.0
96.629791 112.0
96.743301 180.0
96.789352 108.0
96.835335 160.0
96.851006 300.0
96.868629 208.0
96.913506 188.0
96.956802 112.0
97.021484 144.0
97.045013 152.0
97.101204 140.0
97.108955 92.0
97.156799 144.0
97.172493 208.0
97.228363 136.0
97.233894 180.0
97.274544 284.0
97.319702 52.0
97.35173 204.0
97.37468 132.0
97.419861 140.0
97.462791 176.0
97.486664 28.0
97.520073 72.0
97.676437 140.0
97.82299 152.0
98.022163 124.0
98.056641 160.0
98.097229 3088.0
98.132294 160.0
98.191444 104.0
98.224976 112.0
98.264435 204.0
98.279205 156.0
98.314148 144.0
98.337448 208.0
98.372978 316.0
98.392715 160.0
98.438438 152.0
98.465775 160.0
98.507256 148.0
98.574432 80.0
98.615929 180.0
98.629768 160.0
98.696983 204.0
98.807739 144.0
98.851273 208.0
98.930443 168.0
98.970039 204.0
99.002693 188.0
99.020752 264.0
99.037849 312.0
99.057129 172.0
99.099571 480.0
99.135551 108.0
99.189941 196.0
99.233994 156.0
99.269249 124.0
99.28511 140.0
99.338661 64.0
99.376358 148.0
99.400169 156.0
99.537575 144.0
99.564934 208.0
99.592743 108.0
99.612198 196.0
99.66227 152.0
99.709961 140.0
99.744049 108.0
99.759224 260.0
99.829247 168.0
99.868912 204.0
99.936653 124.0
99.968491 156.0
99.985756 160.0
100.03019 212.0
100.07399 184.0
100.114166 748.0
100.177551 160.0
100.231346 144.0
100.293121 136.0
100.340569 140.0
100.347023 112.0
100.353371 144.0
100.418739 132.0
100.461761 204.0
100.479317 192.0
100.507683 120.0
100.526466 200.0
100.547646 176.0
100.570374 112.0
100.6063 156.0
100.620277 172.0
100.637245 148.0
100.670197 124.0
100.746925 224.0
100.764076 144.0
100.808937 184.0
100.832016 204.0
100.851997 168.0
100.889977 148.0
100.911972 72.0
100.953476 216.0
101.03846 5480.0
101.069984 40.0
101.085693 164.0
101.112007 220.0
101.124825 128.0
101.152916 200.0
101.184067 156.0
101.256149 56.0
101.276184 136.0
101.340286 156.0
101.378654 188.0
101.394394 216.0
101.432243 140.0
101.474632 124.0
101.584091 144.0
101.592529 88.0
101.598785 128.0
101.636543 248.0
101.68354 152.0
101.762657 156.0
101.791733 176.0
101.825737 268.0
101.83979 204.0
101.8843 328.0
101.900055 172.0
101.946274 132.0
102.00528 156.0
102.046684 32240.0
102.077499 172.0
102.096481 72.0
102.121117 124.0
102.180206 288.0
102.237869 68.0
102.26001 144.0
102.28215 148.0
102.302818 208.0
102.324516 168.0
102.361099 204.0
102.380806 148.0
102.42511 44.0
102.448479 72.0
102.471443 64.0
102.489578 116.0
102.515121 92.0
102.545212 112.0
102.564148 108.0
102.610512 40.0
102.632256 100.0
102.641495 176.0
102.707306 52.0
102.735321 144.0
102.752266 168.0
102.764946 112.0
102.782829 172.0
102.804146 76.0
102.896996 128.0
102.916161 204.0
102.969688 144.0
102.995949 56.0
103.018166 180.0
103.049477 1544.0
103.088882 240.0
103.253197 176.0
103.323029 180.0
103.345688 128.0
103.384186 156.0
103.41449 116.0
103.431885 276.0
103.468292 88.0
103.487366 56.0
103.542038 180.0
103.590652 52.0
103.621597 188.0
103.651436 120.0
103.677773 68.0
103.719002 124.0
103.817657 88.0
103.857208 96.0
103.898788 60.0
103.917046 184.0
103.939369 156.0
103.984016 184.0
104.002281 192.0
104.028671 344.0
104.055237 284.0
104.084221 144.0
104.123184 132.0
104.162689 352.0
104.187065 124.0
104.235832 144.0
104.313065 156.0
104.355751 180.0
104.38829 108.0
104.415405 156.0
104.453369 132.0
104.48999 44.0
104.545738 176.0
104.564384 128.0
104.585632 152.0
104.66095 128.0
104.689163 216.0
104.711861 164.0
104.754967 200.0
104.779083 180.0
104.813873 140.0
104.851265 180.0
104.984322 208.0
105.000671 212.0
105.033554 288.0
105.064499 220.0
105.080818 136.0
105.123672 112.0
105.148308 236.0
105.228905 108.0
105.262482 28.0
105.319664 172.0
105.361603 140.0
105.395248 64.0
105.411598 168.0
105.454514 200.0
105.554688 192.0
105.67804 144.0
105.706062 212.0
105.792023 140.0
105.887894 180.0
105.937416 180.0
105.973267 68.0
106.023476 116.0
106.065308 224.0
106.080864 148.0
106.101364 124.0
106.149254 188.0
106.175179 84.0
106.227097 124.0
106.273643 116.0
106.303284 180.0
106.320839 124.0
106.349022 224.0
106.403458 176.0
106.427582 156.0
106.444008 180.0
106.501511 56.0
106.528214 180.0
106.550812 100.0
106.593964 144.0
106.624786 188.0
106.694672 172.0
106.763504 160.0
106.855087 152.0
106.957985 132.0
107.032097 172.0
107.05217 144.0
107.108299 160.0
107.149498 228.0
107.196884 132.0
107.212906 160.0
107.241714 160.0
107.32589 192.0
107.349434 212.0
107.378304 164.0
107.597031 128.0
107.638321 76.0
107.762253 148.0
107.780853 224.0
107.80217 76.0
107.830444 148.0
107.846985 148.0
107.896873 204.0
107.915199 180.0
107.979301 88.0
108.006195 64.0
108.037224 136.0
108.06205 152.0
108.122643 156.0
108.146889 76.0
108.356041 152.0
108.372612 88.0
108.426491 160.0
108.455269 172.0
108.5177 208.0
108.577911 112.0
108.598572 116.0
108.617241 140.0
108.63176 100.0
108.646904 160.0
108.720978 136.0
108.785324 136.0
108.80175 184.0
108.835152 144.0
108.874603 108.0
108.892342 244.0
108.949379 212.0
109.003235 148.0
109.028336 180.0
109.078217 168.0
109.099007 140.0
109.154144 216.0
109.284576 124.0
109.373589 108.0
109.454041 212.0
109.46936 168.0
109.48394 208.0
109.521431 120.0
109.542259 144.0
109.596275 168.0
109.611008 204.0
109.704796 220.0
109.797997 172.0
109.848686 148.0
109.873718 200.0
109.96553 204.0
110.021896 164.0
110.04068 148.0
110.114197 224.0
110.129471 240.0
110.147186 92.0
110.196304 156.0
110.237022 184.0
110.255836 180.0
110.336517 140.0
110.379173 120.0
110.406052 164.0
110.413826 140.0
110.43354 144.0
110.482994 100.0
110.498528 340.0
110.567444 160.0
110.600929 120.0
110.632332 184.0
110.656815 184.0
110.695145 152.0
110.711891 140.0
110.774727 64.0
110.812439 276.0
110.84565 160.0
110.874535 164.0
110.910934 100.0
110.929794 120.0
110.986404 128.0
111.059799 136.0
111.110146 56.0
111.131126 156.0
111.150009 132.0
111.1689 148.0
111.212967 128.0
111.231865 192.0
111.246559 128.0
111.324242 140.0
111.35994 180.0
111.385147 96.0
111.401955 124.0
111.42012 136.0
111.488098 180.0
111.504913 152.0
111.525932 96.0
111.549049 60.0
111.636955 152.0
111.666801 292.0
111.687828 188.0
111.725693 108.0
111.742065 212.0
111.790047 140.0
111.837219 156.0
111.860374 84.0
111.910904 48.0
111.988823 112.0
112.035339 144.0
112.058334 204.0
112.110748 128.0
112.126389 176.0
112.170029 156.0
112.21257 160.0
112.245926 80.0
112.262794 76.0
112.294434 200.0
112.336617 156.0
112.39473 124.0
112.412575 192.0
112.485451 332.0
112.50544 284.0
112.5298 84.0
112.581451 48.0
112.699745 168.0
112.722984 148.0
112.761024 116.0
112.815979 140.0
113.033829 164.0
113.065575 196.0
113.080383 120.0
113.141769 40.0
113.165062 124.0
113.179878 116.0
113.194702 168.0
113.230019 192.0
113.24662 148.0
113.322762 148.0
113.359543 88.0
113.391724 84.0
113.535881 180.0
113.569817 208.0
113.620728 108.0
113.663162 152.0
113.682259 136.0
113.77565 200.0
113.805374 100.0
113.829834 100.0
113.858459 204.0
113.883949 132.0
113.949799 156.0
114.046722 244.0
114.113457 192.0
114.136841 276.0
114.185219 128.0
114.217659 124.0
114.232544 96.0
114.315521 164.0
114.375015 252.0
114.425621 116.0
114.458145 160.0
114.543335 132.0
114.560371 164.0
114.596588 120.0
114.69249 160.0
114.722328 124.0
114.760704 144.0
114.860939 144.0
114.995087 156.0
115.051483 824.0
115.095695 224.0
115.206757 124.0
115.234528 164.0
115.251617 164.0
115.272987 124.0
115.331589 188.0
115.364891 156.0
115.435394 156.0
115.443497 152.0
115.486778 176.0
115.516724 60.0
115.535973 152.0
115.5737 260.0
115.650398 220.0
115.668655 136.0
115.726677 232.0
115.745392 132.0
115.75103 92.0
115.759781 212.0
115.842102 180.0
115.867805 116.0
115.889236 144.0
115.940041 152.0
115.959953 136.0
116.055893 244.0
116.129326 140.0
116.148636 136.0
116.200119 68.0
116.291275 208.0
116.314865 76.0
116.346054 132.0
116.361084 148.0
116.466309 92.0
116.561333 176.0
116.625305 228.0
116.668297 164.0
116.730537 156.0
116.777962 104.0
116.889114 208.0
116.936737 156.0
116.997444 156.0
117.016823 108.0
117.138855 156.0
117.145744 148.0
117.154083 136.0
117.204208 308.0
117.219292 80.0
117.251617 132.0
117.292572 132.0
117.339996 192.0
117.359398 92.0
117.449974 132.0
117.486649 356.0
117.547058 136.0
117.568634 140.0
117.652817 144.0
117.695999 108.0
117.732277 140.0
117.810463 88.0
117.89473 240.0
117.940117 160.0
117.983353 148.0
118.033081 116.0
118.132568 140.0
118.154198 68.0
118.199425 188.0
118.279709 36.0
118.31002 168.0
118.352211 180.0
118.370644 232.0
118.392296 160.0
118.424782 112.0
118.450775 184.0
118.50927 84.0
118.613289 168.0
118.67981 152.0
118.780258 176.0
118.80629 144.0
118.878342 172.0
118.893082 208.0
118.934319 112.0
118.949509 144.0
118.971222 212.0
119.043762 224.0
119.121056 132.0
119.143852 188.0
119.184059 116.0
119.238388 108.0
119.28186 144.0
119.340553 116.0
119.364128 100.0
119.429718 136.0
119.453964 164.0
119.490631 44.0
119.528938 132.0
119.577667 192.0
119.675629 136.0
119.738838 148.0
119.769272 116.0
119.813339 252.0
119.841164 120.0
119.866547 160.0
119.895638 68.0
119.917435 104.0
119.943039 160.0
119.980644 112.0
120.052101 272.0
120.190964 176.0
120.270775 112.0
120.301331 212.0
120.355911 196.0
120.379936 276.0
120.403954 100.0
120.451523 72.0
120.474686 240.0
120.497879 140.0
120.565407 164.0
120.622444 76.0
120.692406 80.0
120.777695 200.0
120.841133 124.0
120.950554 144.0
121.070862 156.0
121.088493 60.0
121.106018 124.0
121.164635 184.0
121.208984 208.0
121.224319 248.0
121.256775 168.0
121.373375 68.0
121.408463 188.0
121.439171 108.0
121.454521 168.0
121.476456 188.0
121.504379 160.0
121.538277 204.0
121.597656 404.0
121.682625 204.0
121.726662 236.0
121.761795 152.0
121.78376 184.0
121.805725 64.0
121.862839 180.0
121.961014 196.0
122.051865 132.0
122.078255 148.0
122.120041 200.0
122.200005 228.0
122.222305 140.0
122.245438 88.0
122.302666 128.0
122.355492 168.0
122.422752 188.0
122.441368 220.0
122.465599 48.0
122.518463 144.0
122.558121 72.0
122.584564 176.0
122.715775 136.0
122.835907 196.0
122.861313 208.0
122.990364 204.0
123.056587 224.0
123.102959 104.0
123.132133 228.0
123.151543 136.0
123.206772 160.0
123.236229 108.0
123.303993 136.0
123.372513 164.0
123.425575 96.0
123.502983 144.0
123.538368 156.0
123.571556 68.0
123.650078 144.0
123.716049 124.0
123.755257 148.0
123.8582 168.0
123.921371 144.0
123.950943 196.0
123.970123 320.0
123.987091 152.0
124.007797 132.0
124.038826 188.0
124.087944 200.0
124.114822 216.0
124.143036 132.0
124.185852 156.0
124.289238 136.0
124.296738 124.0
124.305588 172.0
124.32605 156.0
124.367111 116.0
124.420387 144.0
124.484772 120.0
124.515862 140.0
124.539001 144.0
124.578056 136.0
124.606941 128.0
124.626938 204.0
124.682487 148.0
124.704712 108.0
124.724716 120.0
124.7425 176.0
124.777237 208.0
124.804123 188.0
124.819092 160.0
124.852188 96.0
124.879463 168.0
124.932487 136.0
124.978241 124.0
124.99604 148.0
125.01162 308.0
125.038361 1972.0
125.107117 128.0
125.113083 116.0
125.1474 108.0
125.169258 196.0
125.189705 208.0
125.218658 120.0
125.263206 244.0
125.292168 156.0
125.314445 172.0
125.3657 188.0
125.386589 160.0
125.434265 156.0
125.517281 124.0
125.539574 76.0
125.574699 160.0
125.656776 192.0
125.690071 240.0
125.711349 152.0
125.739746 396.0
125.77607 112.0
125.824539 312.0
125.84343 184.0
125.934402 168.0
125.976387 164.0
125.997147 292.0
126.021141 156.0
126.047234 38896.0
126.111107 48.0
126.130112 172.0
126.143005 104.0
126.173058 180.0
126.191589 84.0
126.216179 48.0
126.243423 196.0
126.276558 52.0
126.298157 144.0
126.35038 104.0
126.374985 40.0
126.393486 120.0
126.412003 168.0
126.457787 40.0
126.515984 160.0
126.547325 144.0
126.601067 156.0
126.634666 44.0
126.650345 68.0
126.722664 100.0
126.792419 184.0
126.827354 144.0
126.85228 204.0
126.882347 180.0
126.949341 136.0
126.959473 56.0
126.965408 132.0
127.004227 208.0
127.04982 3676.0
127.103195 80.0
127.166847 188.0
127.227203 112.0
127.249405 276.0
127.291321 188.0
127.318703 124.0
127.403252 108.0
127.426521 116.0
127.46022 108.0
127.475952 132.0
127.491684 44.0
127.508034 284.0
127.551689 212.0
127.588333 36.0
127.618546 184.0
127.644539 192.0
127.679848 120.0
127.708733 96.0
127.788406 100.0
127.856003 100.0
127.9021 100.0
127.955208 188.0
127.98349 120.0
128.017365 148.0
128.025833 100.0
128.055984 304.0
128.113968 168.0
128.214081 184.0
128.283951 128.0
128.356094 156.0
128.509476 196.0
128.547836 72.0
128.569794 172.0
128.653915 104.0
128.681015 116.0
128.717133 60.0
128.750107 220.0
128.775848 144.0
128.793915 164.0
128.881149 236.0
128.919876 144.0
128.966187 176.0
128.994751 128.0
129.034561 7024.0
129.078674 68.0
129.137482 288.0
129.236069 212.0
129.255112 124.0
129.293579 128.0
129.315125 108.0
129.348343 164.0
129.388657 196.0
129.433929 76.0
129.492813 92.0
129.535858 148.0
129.578888 156.0
129.615829 160.0
129.683136 132.0
129.701263 80.0
129.727386 168.0
129.780609 100.0
129.8237 212.0
129.861618 116.0
129.900818 164.0
129.971146 192.0
130.01004 140.0
130.039978 1316.0
130.068726 104.0
130.136841 132.0
130.23082 144.0
130.252655 268.0
130.295822 188.0
130.334442 64.0
130.453461 140.0
130.584503 188.0
130.600418 60.0
130.627991 164.0
130.68367 108.0
130.711334 192.0
130.741486 136.0
130.834808 204.0
130.900833 168.0
130.957703 152.0
130.967499 160.0
130.971848 196.0
130.994095 160.0
131.016006 184.0
131.039459 456.0
131.103577 68.0
131.128647 132.0
131.144608 56.0
131.197021 176.0
131.228943 64.0
131.274551 180.0
131.329285 104.0
131.504974 188.0
131.563736 204.0
131.607224 152.0
131.699051 48.0
131.762054 196.0
131.799561 200.0
131.889511 156.0
131.927094 180.0
131.959274 96.0
131.990005 200.0
132.035019 176.0
132.057892 176.0
132.125244 184.0
132.142532 208.0
132.169098 132.0
132.192871 220.0
132.231766 64.0
132.320786 180.0
132.385162 76.0
132.403473 240.0
132.45845 140.0
132.476776 108.0
132.529465 120.0
132.575302 100.0
132.605087 180.0
132.623428 156.0
132.655624 172.0
132.706253 180.0
132.733459 176.0
132.749512 36.0
132.806854 84.0
132.843292 144.0
132.916061 192.0
132.958282 88.0
132.978928 44.0
133.025162 236.0
133.043198 100.0
133.089127 164.0
133.132751 124.0
133.213135 148.0
133.23381 156.0
133.320007 196.0
133.376282 160.0
133.456757 168.0
133.487091 124.0
133.532639 188.0
133.627563 196.0
133.664337 144.0
133.742004 212.0
133.75885 176.0
133.777115 184.0
133.937729 168.0
134.013748 84.0
134.034485 144.0
134.073669 140.0
134.119537 172.0
134.172775 188.0
134.191223 196.0
134.211975 144.0
134.24472 160.0
134.283463 160.0
134.343781 156.0
134.3965 140.0
134.486496 92.0
134.505768 220.0
134.561905 192.0
134.592697 112.0
134.655045 160.0
134.795959 100.0
134.862976 164.0
134.990143 192.0
135.041016 168.0
135.10347 180.0
135.179077 200.0
135.288605 196.0
135.434494 164.0
135.477051 212.0
135.508621 112.0
135.598984 160.0
135.638397 88.0
135.672195 304.0
135.694031 204.0
135.710266 112.0
135.775192 120.0
135.902771 140.0
135.972382 52.0
135.991364 112.0
136.104706 140.0
136.139542 124.0
136.181335 68.0
136.276581 116.0
136.320007 180.0
136.353271 160.0
136.463882 128.0
136.52066 288.0
136.590286 128.0
136.638168 176.0
136.70607 204.0
136.725311 176.0
136.753708 164.0
136.77446 136.0
136.795197 144.0
136.820816 76.0
136.837906 268.0
136.860611 212.0
136.8797 216.0
136.918182 296.0
136.9785 128.0
137.015671 37608.0
137.055084 128.0
137.079376 384.0
137.10498 92.0
137.128281 156.0
137.153931 120.0
137.185272 80.0
137.207489 168.0
137.244232 184.0
137.310135 104.0
137.333466 144.0
137.373108 100.0
137.398361 160.0
137.431442 56.0
137.452438 36.0
137.481155 196.0
137.503784 92.0
137.545792 48.0
137.610825 200.0
137.697556 60.0
137.738586 92.0
137.767639 184.0
137.861099 48.0
137.892136 212.0
137.942169 104.0
138.018372 4036.0
138.057465 128.0
138.076172 88.0
138.092545 72.0
138.111252 40.0
138.154144 72.0
138.188446 172.0
138.210403 136.0
138.233398 180.0
138.256317 88.0
138.335892 196.0
138.353119 100.0
138.423172 192.0
138.502304 172.0
138.532593 48.0
138.565399 60.0
138.6474 172.0
138.666275 80.0
138.701309 256.0
138.781021 104.0
138.808167 104.0
138.823227 212.0
138.841385 124.0
138.884201 44.0
138.90062 48.0
138.938644 156.0
138.978394 192.0
139.012344 11808.0
139.054047 124.0
139.091141 168.0
139.117004 132.0
139.161118 56.0
139.229218 124.0
139.278534 56.0
139.375336 136.0
139.540558 136.0
139.569946 84.0
139.600525 196.0
139.653229 164.0
139.694595 36.0
139.71106 124.0
139.755249 108.0
139.865463 140.0
139.892273 44.0
139.908752 128.0
139.955841 48.0
140.015427 724.0
140.059448 128.0
140.075943 156.0
140.111282 156.0
140.203171 160.0
140.222107 116.0
140.268097 184.0
140.3116 52.0
140.3564 64.0
140.409821 220.0
140.509705 204.0
140.527328 120.0
140.60173 168.0
140.689072 200.0
140.737732 184.0
140.779053 116.0
140.859085 140.0
140.891251 104.0
140.92688 128.0
140.946503 116.0
140.991409 144.0
141.074127 236.0
141.118256 168.0
141.182632 180.0
141.223099 192.0
141.265671 140.0
141.301163 120.0
141.327179 136.0
141.405273 136.0
141.462082 68.0
141.532318 144.0
141.623108 140.0
141.649155 104.0
141.696533 60.0
141.743927 76.0
141.789993 192.0
141.836349 132.0
141.882828 160.0
141.969116 92.0
142.026047 88.0
142.046265 164.0
142.151855 144.0
142.20282 144.0
142.241974 120.0
142.262085 168.0
142.279953 112.0
142.304596 152.0
142.367813 208.0
142.393936 72.0
142.441437 132.0
142.472321 152.0
142.538849 164.0
142.579239 84.0
142.61795 196.0
142.667191 112.0
142.793213 152.0
142.924042 124.0
142.971634 196.0
143.021622 220.0
143.048935 3624.0
143.089798 156.0
143.126373 104.0
143.270615 92.0
143.295471 148.0
143.316925 124.0
143.338364 140.0
143.400406 212.0
143.426544 104.0
143.519516 196.0
143.645401 224.0
143.688858 92.0
143.707947 144.0
143.726578 212.0
143.762833 132.0
143.796234 48.0
143.824875 132.0
144.026352 180.0
144.057022 4328.0
144.116226 180.0
144.159241 60.0
144.209427 240.0
144.257233 132.0
144.278305 148.0
144.297882 80.0
144.386353 144.0
144.44136 92.0
144.520309 136.0
144.561676 152.0
144.675873 140.0
144.699814 92.0
144.726151 152.0
144.757278 192.0
144.795593 128.0
144.879425 68.0
144.900986 208.0
144.980072 168.0
145.011917 248.0
145.063034 560.0
145.12442 200.0
145.160294 44.0
145.200623 160.0
145.217407 108.0
145.263702 140.0
145.289368 160.0
145.38295 180.0
145.459763 316.0
145.591812 204.0
145.740738 196.0
145.805618 152.0
145.836868 208.0
145.858505 136.0
145.926849 212.0
145.969086 120.0
146.016434 116.0
146.067703 172.0
146.168747 132.0
146.262604 176.0
146.301117 136.0
146.39743 68.0
146.440781 152.0
146.53186 148.0
146.689529 152.0
146.843277 160.0
146.862579 140.0
146.905991 116.0
146.936813 220.0
147.001801 180.0
147.046112 812.0
147.181122 48.0
147.224594 120.0
147.263229 56.0
147.282562 136.0
147.345367 124.0
147.362274 340.0
147.417847 204.0
147.471024 108.0
147.502441 200.0
147.565292 136.0
147.688629 176.0
147.720078 140.0
147.776321 192.0
147.799911 172.0
147.850723 148.0
147.870087 136.0
147.90155 324.0
147.950775 216.0
148.039551 184.0
148.083145 124.0
148.107361 164.0
148.161652 224.0
148.218811 100.0
148.255157 64.0
148.31424 148.0
148.33757 148.0
148.429688 68.0
148.458786 172.0
148.478821 200.0
148.516998 168.0
148.570358 144.0
148.60675 316.0
148.640732 196.0
148.684402 40.0
148.76207 136.0
148.870163 240.0
148.907761 348.0
148.928024 140.0
148.939087 104.0
148.944733 128.0
148.986328 152.0
149.015656 17932.0
149.054306 184.0
149.120621 124.0
149.174194 92.0
149.209076 128.0
149.238251 156.0
149.260132 112.0
149.303162 104.0
149.337952 64.0
149.422333 76.0
149.455505 88.0
149.497177 72.0
149.530014 132.0
149.588577 156.0
149.607834 180.0
149.615173 164.0
149.623352 168.0
149.630463 212.0
149.654312 224.0
149.684662 240.0
149.712753 64.0
149.780823 164.0
149.88028 192.0
149.905411 48.0
150.01915 2000.0
150.08403 252.0
150.136795 60.0
150.239227 196.0
150.336838 148.0
150.402725 136.0
150.632263 208.0
150.687683 180.0
150.725098 76.0
150.822845 84.0
150.839966 136.0
150.879074 104.0
150.900101 180.0
150.920013 240.0
150.949982 204.0
150.969543 120.0
150.986664 156.0
151.012344 5176.0
151.065689 208.0
151.140778 168.0
151.172592 136.0
151.197662 228.0
151.225433 148.0
151.326797 104.0
151.346375 176.0
151.373322 164.0
151.427185 136.0
151.479904 204.0
151.547226 48.0
151.591324 44.0
151.721237 188.0
151.748199 140.0
151.797241 136.0
151.864578 272.0
151.922333 60.0
152.000549 260.0
152.018539 244.0
152.060593 220.0
152.078644 108.0
152.085571 76.0
152.096161 148.0
152.09964 200.0
152.152588 184.0
152.18985 132.0
152.226669 164.0
152.310181 92.0
152.339661 180.0
152.362976 168.0
152.455139 100.0
152.676529 132.0
152.841202 148.0
152.919952 164.0
152.944565 136.0
152.973236 148.0
153.032761 208.0
153.073486 176.0
153.114273 168.0
153.148972 196.0
153.183411 36.0
153.208191 132.0
153.262253 64.0
153.309998 140.0
153.328781 180.0
153.361145 152.0
153.406891 64.0
153.454498 392.0
153.570404 156.0
153.618439 152.0
153.67894 204.0
153.762848 248.0
153.873917 52.0
153.891205 252.0
153.976135 172.0
154.038681 204.0
154.065094 264.0
154.19751 188.0
154.244476 28.0
154.323593 120.0
154.415085 92.0
154.515656 128.0
154.588257 140.0
154.607788 148.0
154.6427 196.0
154.662506 172.0
154.721909 132.0
154.761536 88.0
154.808578 108.0
154.902695 172.0
154.921997 140.0
154.942322 148.0
154.972061 128.0
155.006744 128.0
155.046402 128.0
155.071411 484.0
155.12323 108.0
155.162903 140.0
155.254639 224.0
155.362534 208.0
155.505096 156.0
155.572235 188.0
155.604507 180.0
155.654175 220.0
155.726181 156.0
155.769424 164.0
155.828033 148.0
155.845428 48.0
155.880219 196.0
156.019394 216.0
156.074097 76.0
156.106949 152.0
156.186005 180.0
156.225388 164.0
156.26561 128.0
156.285522 76.0
156.332108 144.0
156.357681 192.0
156.439819 100.0
156.647537 184.0
156.74118 80.0
156.805969 140.0
156.903198 68.0
156.945572 152.0
156.99295 144.0
157.035751 368.0
157.209991 164.0
157.239929 168.0
157.327301 136.0
157.369736 136.0
157.402832 128.0
157.452316 172.0
157.565125 132.0
157.614517 132.0
157.649506 192.0
157.684494 136.0
157.701981 220.0
157.897003 124.0
157.947021 180.0
157.972031 196.0
158.017456 876.0
158.097137 152.0
158.195755 140.0
158.267349 164.0
158.312424 76.0
158.397583 204.0
158.451904 216.0
158.510696 160.0
158.609695 148.0
158.628754 160.0
158.730911 92.0
158.768524 164.0
158.831223 144.0
158.901474 136.0
158.919037 56.0
159.018478 172.0
159.041901 156.0
159.082169 188.0
159.129868 84.0
159.163345 136.0
159.199142 116.0
159.227798 144.0
159.267975 72.0
159.3358 160.0
159.386063 152.0
159.479034 40.0
159.516327 96.0
159.564514 168.0
159.596039 172.0
159.687729 164.0
159.788345 116.0
159.805496 108.0
159.831116 180.0
159.896667 164.0
159.957703 148.0
160.012085 204.0
160.060181 132.0
160.090042 116.0
160.17099 80.0
160.249084 112.0
160.27562 152.0
160.30452 100.0
160.324677 112.0
160.415405 176.0
160.440628 136.0
160.478439 132.0
160.511215 88.0
160.546524 148.0
160.588531 164.0
160.654282 160.0
160.672638 204.0
160.721207 160.0
160.757065 172.0
160.780716 168.0
160.803848 68.0
160.824341 204.0
160.842697 212.0
160.864426 132.0
160.903 100.0
160.957581 196.0
161.015869 69720.0
161.066437 312.0
161.092087 52.0
161.116058 56.0
161.168991 64.0
161.199005 128.0
161.222641 68.0
161.242081 124.0
161.257629 120.0
161.275146 44.0
161.315384 76.0
161.322678 188.0
161.347534 152.0
161.384659 68.0
161.431732 740.0
161.464813 108.0
161.487656 220.0
161.513443 128.0
161.556061 52.0
161.597519 144.0
161.616302 96.0
161.689102 104.0
161.724289 92.0
161.771942 64.0
161.797256 120.0
161.841644 60.0
161.915924 148.0
161.955109 48.0
161.974518 292.0
162.019028 7256.0
162.098663 48.0
162.135468 148.0
162.18335 176.0
162.217651 196.0
162.258347 64.0
162.27739 156.0
162.349625 108.0
162.387665 72.0
162.419891 136.0
162.446014 64.0
162.524094 180.0
162.57338 200.0
162.625015 168.0
162.651779 44.0
162.687088 88.0
162.720093 44.0
162.75563 128.0
162.826736 100.0
162.857224 76.0
162.901566 184.0
162.930283 168.0
162.94722 140.0
162.96582 132.0
162.982056 528.0
163.013138 22532.0
163.09938 324.0
163.142273 112.0
163.209167 188.0
163.22963 52.0
163.248169 164.0
163.278488 96.0
163.293915 76.0
163.336609 132.0
163.364166 88.0
163.430893 64.0
163.45079 76.0
163.474792 48.0
163.523361 72.0
163.543716 56.0
163.597168 48.0
163.617538 36.0
163.668457 156.0
163.729263 64.0
163.783066 116.0
163.800888 172.0
163.84227 164.0
163.872223 44.0
163.944763 232.0
164.014053 1988.0
164.109253 144.0
164.128494 140.0
164.287781 56.0
164.309647 140.0
164.32605 172.0
164.378754 208.0
164.405151 52.0
164.444443 112.0
164.536652 168.0
164.640015 184.0
164.696213 192.0
164.749847 40.0
164.797653 124.0
164.806992 88.0
164.814316 156.0
164.832748 224.0
164.956848 92.0
165.011093 6576.0
165.067551 292.0
165.107697 28.0
165.199768 128.0
165.241776 128.0
165.294434 40.0
165.330261 76.0
165.396805 112.0
165.417282 176.0
165.455688 140.0
165.488968 140.0
165.513702 188.0
165.609329 104.0
165.67337 160.0
165.801483 144.0
165.893753 116.0
165.911697 128.0
165.960419 184.0
166.013046 332.0
166.051193 140.0
166.078369 160.0
166.101456 140.0
166.222046 180.0
166.263107 136.0
166.28801 148.0
166.376038 176.0
166.573776 80.0
166.607178 60.0
166.668762 164.0
166.707382 136.0
166.75621 168.0
166.852356 128.0
166.876999 184.0
166.964447 128.0
167.007629 2320.0
167.0905 124.0
167.108505 32.0
167.131653 48.0
167.162537 132.0
167.229446 120.0
167.329849 84.0
167.437988 52.0
167.528137 140.0
167.631195 120.0
167.68782 132.0
167.713669 48.0
167.806473 180.0
167.860626 200.0
167.912201 180.0
167.953461 80.0
167.987 132.0
168.048294 184.0
168.077301 88.0
168.126328 184.0
168.283783 52.0
168.33284 244.0
168.361252 200.0
168.42186 188.0
168.449066 136.0
168.508484 164.0
168.640213 152.0
168.671295 116.0
168.854874 88.0
168.906601 164.0
168.929886 28.0
168.986801 140.0
169.007492 176.0
169.134308 160.0
169.17572 152.0
169.28447 116.0
169.473557 160.0
169.548706 92.0
169.58902 184.0
169.673126 120.0
169.823517 132.0
169.885773 204.0
169.973984 184.0
170.025894 124.0
170.114136 144.0
170.140091 56.0
170.210205 140.0
170.254349 164.0
170.285507 140.0
170.394608 224.0
170.433578 152.0
170.480362 188.0
170.576523 160.0
170.646713 176.0
170.743347 200.0
170.852173 60.0
171.044739 84.0
171.102417 156.0
171.182724 176.0
171.203552 124.0
171.237411 104.0
171.396011 168.0
171.517044 136.0
171.607452 96.0
171.669327 208.0
171.709518 112.0
171.797836 40.0
171.886536 200.0
171.915237 152.0
171.943954 120.0
171.980484 168.0
172.0327 144.0
172.104095 196.0
172.13974 48.0
172.221436 180.0
172.293839 144.0
172.327805 104.0
172.356552 144.0
172.380066 124.0
172.406204 52.0
172.513367 208.0
172.5578 180.0
172.70163 196.0
172.722549 168.0
172.74086 84.0
172.824585 184.0
172.858597 92.0
172.915634 196.0
172.958755 164.0
173.026108 128.0
173.149185 136.0
173.170135 172.0
173.327316 152.0
173.348984 164.0
173.40332 168.0
173.523895 116.0
173.542252 164.0
173.592072 180.0
173.62616 104.0
173.754684 176.0
173.800674 76.0
173.920013 56.0
173.939255 208.0
174.013702 6140.0
174.059158 108.0
174.09436 88.0
174.140564 72.0
174.273376 136.0
174.327087 116.0
174.434845 60.0
174.482162 148.0
174.503281 132.0
174.650238 140.0
174.682022 128.0
174.700439 112.0
174.781998 64.0
174.809616 200.0
174.858551 132.0
174.908325 160.0
174.974136 260.0
175.026016 1596.0
175.085526 160.0
175.147934 152.0
175.221695 72.0
175.242783 280.0
175.331055 136.0
175.382446 104.0
175.400894 48.0
175.493164 64.0
175.64473 152.0
175.672989 132.0
175.727905 44.0
175.767487 116.0
175.807068 80.0
175.925842 140.0
175.981277 160.0
176.017624 296.0
176.0737 104.0
176.163513 200.0
176.226913 172.0
176.312042 244.0
176.480652 124.0
176.507095 80.0
176.528244 192.0
176.596161 200.0
176.684296 84.0
176.714508 124.0
176.761032 180.0
176.786301 240.0
176.820663 180.0
176.843063 148.0
176.92218 212.0
176.962616 176.0
177.010117 37736.0
177.094131 160.0
177.128311 148.0
177.174057 116.0
177.227051 48.0
177.344162 112.0
177.390366 64.0
177.440414 56.0
177.539841 96.0
177.64328 52.0
177.69104 52.0
177.721054 128.0
177.765335 76.0
177.81044 92.0
177.870972 144.0
177.906693 184.0
177.956451 76.0
178.012695 3552.0
178.079605 176.0
178.165695 152.0
178.192825 132.0
178.219391 52.0
178.301773 164.0
178.320374 60.0
178.389481 84.0
178.418732 48.0
178.458603 120.0
178.501144 196.0
178.536621 264.0
178.598038 152.0
178.633423 156.0
178.674026 228.0
178.711273 148.0
178.812393 124.0
178.856598 152.0
178.876282 112.0
178.913055 172.0
178.933258 188.0
178.967239 440.0
179.026031 38224.0
179.075134 336.0
179.081985 364.0
179.101669 68.0
179.136002 60.0
179.176834 92.0
179.210083 248.0
179.246597 88.0
179.280167 112.0
179.309235 240.0
179.336609 156.0
179.386765 88.0
179.411728 64.0
179.448776 100.0
179.456009 72.0
179.499222 260.0
179.591644 116.0
179.610367 160.0
179.660049 140.0
179.724716 72.0
179.803833 44.0
179.890686 148.0
179.902313 80.0
179.912292 220.0
179.937286 36.0
180.028748 3948.0
180.080215 84.0
180.143555 168.0
180.244446 48.0
180.282944 112.0
180.309692 48.0
180.332642 32.0
180.366013 164.0
180.407593 196.0
180.436356 80.0
180.522934 112.0
180.586639 236.0
180.618729 80.0
180.673141 164.0
180.771225 104.0
180.87381 232.0
180.94017 140.0
180.961868 240.0
180.987991 800.0
181.022263 10584.0
181.063034 820.0
181.103928 176.0
181.203217 72.0
181.247864 88.0
181.274658 92.0
181.306824 44.0
181.3423 128.0
181.379181 160.0
181.4328 32.0
181.454254 124.0
181.526642 76.0
181.573837 60.0
181.647339 32.0
181.68634 140.0
181.714401 212.0
181.781479 272.0
181.862 140.0
181.910309 52.0
181.939835 60.0
181.990845 188.0
182.025558 452.0
182.06694 120.0
182.130493 140.0
182.151993 148.0
182.177704 84.0
182.232574 48.0
182.329315 52.0
182.366943 80.0
182.418015 180.0
182.589493 208.0
182.810699 188.0
182.902206 72.0
182.985306 272.0
183.013229 124.0
183.037689 248.0
183.116669 196.0
183.182251 144.0
183.206482 148.0
183.35199 36.0
183.37355 116.0
183.424896 84.0
183.683334 184.0
183.714172 136.0
183.745285 140.0
183.79567 128.0
183.829315 200.0
183.918381 152.0
183.964264 192.0
184.024567 332.0
184.043274 152.0
184.08577 132.0
184.153275 240.0
184.237015 104.0
184.385635 116.0
184.409958 60.0
184.430496 100.0
184.655991 168.0
184.699814 80.0
184.734436 168.0
184.818298 92.0
184.91301 128.0
184.980682 96.0
185.026703 156.0
185.107925 40.0
185.148544 216.0
185.316498 84.0
185.351715 164.0
185.433014 36.0
185.454697 80.0
185.500778 156.0
185.565842 156.0
185.602676 144.0
185.750259 164.0
185.801804 160.0
185.856064 204.0
185.980896 164.0
186.048752 148.0
186.135635 124.0
186.233414 116.0
186.328476 80.0
186.375763 180.0
186.62236 124.0
186.684052 132.0
186.719788 236.0
186.847748 124.0
186.923935 120.0
186.953873 116.0
187.04097 68.0
187.073227 80.0
187.495804 92.0
187.543076 188.0
187.634827 44.0
187.662094 112.0
187.806625 72.0
187.831177 80.0
187.850266 56.0
187.96759 184.0
188.049454 56.0
188.120422 148.0
188.139526 104.0
188.1996 176.0
188.240555 164.0
188.259674 96.0
188.281525 120.0
188.306091 156.0
188.368912 128.0
188.398972 68.0
188.436234 188.0
188.483658 92.0
188.575119 128.0
188.610245 292.0
188.655853 60.0
188.683182 176.0
188.72084 156.0
188.748779 304.0
188.769424 272.0
188.818542 116.0
188.847031 96.0
188.886734 532.0
188.912125 272.0
188.939178 172.0
188.966583 180.0
189.022461 131288.0
189.100311 212.0
189.188492 60.0
189.216431 184.0
189.235474 60.0
189.239731 116.0
189.273651 120.0
189.308151 108.0
189.344284 336.0
189.38707 144.0
189.408371 128.0
189.430283 88.0
189.472244 1020.0
189.531586 316.0
189.554611 132.0
189.585938 116.0
189.633911 152.0
189.705109 96.0
189.72847 236.0
189.761887 64.0
189.780258 140.0
189.802429 76.0
189.830429 56.0
189.853638 104.0
189.887909 304.0
189.909744 144.0
189.980728 292.0
190.024734 17340.0
190.084198 180.0
190.109055 92.0
190.132202 44.0
190.159042 188.0
190.187302 100.0
190.267242 60.0
190.311432 96.0
190.348846 52.0
190.364914 208.0
190.397812 132.0
190.468994 60.0
190.514938 204.0
190.548401 48.0
190.579788 48.0
190.61647 80.0
190.648499 92.0
190.669357 180.0
190.7117 112.0
190.750443 208.0
190.790436 112.0
190.81955 380.0
190.838821 116.0
190.873901 144.0
190.92247 164.0
190.941895 180.0
190.968781 40.0
191.01915 45220.0
191.088318 96.0
191.122208 44.0
191.172119 136.0
191.194214 108.0
191.259094 332.0
191.284714 88.0
191.347458 128.0
191.375641 200.0
191.407089 124.0
191.473358 108.0
191.481796 80.0
191.511459 48.0
191.51712 124.0
191.529984 168.0
191.540268 156.0
191.587708 92.0
191.611542 140.0
191.645248 160.0
191.670624 60.0
191.779358 120.0
191.829102 148.0
191.869141 68.0
191.934021 160.0
191.969864 104.0
192.020187 3880.0
192.066391 44.0
192.099503 152.0
192.137573 100.0
192.162949 132.0
192.267578 100.0
192.292648 80.0
192.320236 80.0
192.339569 68.0
192.378204 156.0
192.452759 48.0
192.518616 248.0
192.588547 116.0
192.618454 56.0
192.720673 116.0
192.795273 156.0
192.825684 232.0
192.925644 72.0
192.987289 4316.0
193.029068 140.0
193.074493 36.0
193.106339 188.0
193.138107 28.0
193.165115 256.0
193.265366 120.0
193.309647 112.0
193.327682 112.0
193.353912 72.0
193.373291 116.0
193.417572 76.0
193.46463 72.0
193.531281 112.0
193.566711 60.0
193.60672 88.0
193.675079 132.0
193.719406 132.0
193.815491 100.0
193.869019 60.0
193.989655 704.0
194.027008 152.0
194.074402 128.0
194.101883 32.0
194.168427 76.0
194.18898 136.0
194.287704 48.0
194.339722 96.0
194.368164 100.0
194.420883 64.0
194.49707 116.0
194.520813 44.0
194.545792 132.0
194.579102 56.0
194.684616 44.0
194.720718 144.0
194.848495 52.0
194.908005 96.0
194.984482 1492.0
195.048584 68.0
195.240417 60.0
195.318298 96.0
195.387848 64.0
195.43335 180.0
195.785889 56.0
195.991302 452.0
196.17038 108.0
196.206635 84.0
196.426926 44.0
196.560852 92.0
196.638992 100.0
196.907013 28.0
196.957291 48.0
196.982422 172.0
197.0383 112.0
197.152863 44.0
197.189194 160.0
197.278641 52.0
197.440811 84.0
197.461456 104.0
197.538696 60.0
197.602295 104.0
197.762543 84.0
197.840927 56.0
197.994934 180.0
198.151794 180.0
198.17981 96.0
198.392807 88.0
198.534058 128.0
198.569458 48.0
198.605927 68.0
198.765823 56.0
198.903351 140.0
198.976334 172.0
199.192566 96.0
199.26944 84.0
199.321808 40.0
199.498871 60.0
199.535416 132.0
199.583221 124.0
199.678833 44.0
200.036163 144.0
200.562912 88.0
200.599548 60.0
200.743347 92.0
200.867447 68.0
201.075348 204.0
201.098816 60.0
201.189148 112.0
201.214554 96.0
201.290787 36.0
201.333145 84.0
201.405167 76.0
201.499802 200.0
201.790894 72.0
202.005157 312.0
202.045441 124.0
202.532333 116.0
202.846848 88.0
203.042496 124.0
203.399994 28.0
203.641342 116.0
204.039154 184.0
204.063995 180.0
204.093185 180.0
204.929977 64.0
205.001221 260.0
205.069611 188.0
205.140869 92.0
205.180786 112.0
205.367828 104.0
205.608643 176.0
205.685715 48.0
205.995239 152.0
206.21698 84.0
206.445694 92.0
206.766098 108.0
206.965347 616.0
207.10968 124.0
207.358948 56.0
207.682922 68.0
207.774719 40.0
207.974854 272.0
208.983261 3516.0
209.059097 80.0
209.606216 136.0
209.77626 44.0
209.865646 76.0
209.98381 600.0
210.223312 140.0
210.460022 100.0
210.977798 1272.0
211.468918 188.0
211.717896 128.0
211.980499 264.0
212.262695 64.0
212.529541 128.0
212.654327 76.0
212.773346 100.0
212.97081 100.0
213.092819 88.0
213.241013 120.0
213.299149 76.0
213.776123 48.0
213.822693 164.0
214.475098 204.0
214.498428 36.0
214.895035 240.0
215.03511 80.0
215.654297 48.0
215.674744 68.0
215.972992 244.0
217.446747 80.0
217.493698 72.0
217.546539 188.0
217.690414 116.0
217.784393 132.0
217.991486 252.0
218.027237 176.0
218.060577 148.0
218.522247 168.0
218.985428 416.0
219.441162 88.0
219.966278 140.0
220.22612 112.0
220.255661 140.0
220.403366 156.0
220.932587 116.0
220.980347 140.0
221.045029 124.0
221.22261 36.0
221.912888 144.0
221.993515 188.0
223.692413 48.0
223.728134 88.0
223.894882 64.0
223.918701 148.0
224.148087 136.0
224.35672 100.0
224.403259 216.0
224.427444 144.0
224.490891 104.0
224.574402 28.0
224.605042 132.0
224.660904 76.0
224.687744 92.0
224.77063 144.0
224.845901 188.0
224.866791 140.0
224.924545 160.0
224.9776 34500.0
225.040131 160.0
225.060074 96.0
225.094421 32.0
225.165344 68.0
225.19342 60.0
225.239517 120.0
225.290268 92.0
225.35054 68.0
225.456619 48.0
225.486862 76.0
225.514069 176.0
225.553238 116.0
225.61055 48.0
225.655396 116.0
225.679321 132.0
225.859619 96.0
225.912598 148.0
225.979568 1852.0
226.083145 44.0
226.208847 52.0
226.334595 76.0
226.499313 180.0
226.574203 76.0
226.632858 136.0
226.67308 36.0
226.914719 220.0
226.974197 12824.0
227.035797 72.0
227.086777 32.0
227.130768 72.0
227.16777 84.0
227.194763 100.0
227.244431 144.0
227.299774 72.0
227.365799 80.0
227.410812 32.0
227.437836 120.0
227.50087 68.0
227.581924 136.0
227.620956 148.0
227.68811 244.0
227.744095 132.0
227.813187 148.0
227.861252 52.0
227.978134 732.0
228.113693 68.0
228.203873 36.0
228.257996 88.0
228.355682 100.0
228.402359 56.0
228.423416 40.0
228.564819 176.0
228.757812 96.0
228.983261 180.0
229.040482 104.0
229.079636 56.0
229.201035 68.0
229.254395 172.0
229.278503 64.0
229.353851 76.0
229.374954 36.0
229.441269 144.0
229.54982 88.0
229.582993 92.0
229.616165 104.0
229.649338 112.0
229.688553 92.0
229.721725 132.0
230.071793 152.0
230.153305 44.0
230.349609 64.0
230.61853 40.0
230.920883 84.0
231.187119 64.0
231.238556 116.0
231.956406 100.0
234.003967 124.0
234.159256 116.0
235.067734 76.0
235.800659 100.0
235.867905 100.0
235.98407 132.0
236.369476 196.0
237.07991 84.0
237.650253 68.0
238.196716 48.0
238.331894 144.0
239.36232 112.0
239.636459 44.0
239.661102 96.0
239.938492 56.0
240.061829 128.0
240.317841 108.0
240.882797 72.0
241.142349 100.0
241.281448 52.0
242.003113 284.0
242.32753 36.0
242.789398 160.0
243.726868 116.0
244.093658 80.0
244.47316 44.0
246.665756 100.0
247.006592 92.0
248.011719 108.0
249.116257 124.0
250.862762 132.0
250.988876 128.0
251.976776 132.0
252.40979 64.0
252.990891 96.0
253.045761 76.0
253.090088 68.0
253.191422 124.0
253.413162 148.0
253.902771 156.0
254.003891 10600.0
254.288376 56.0
254.348679 144.0
254.618561 88.0
254.666199 44.0
254.725815 52.0
255.006653 824.0
255.085632 204.0
255.12059 132.0
255.196899 44.0
255.371796 52.0
255.441772 44.0
255.890488 168.0
255.929916 124.0
255.954178 104.0
256.000244 3008.0
256.062439 52.0
256.087921 136.0
256.185272 108.0
256.234467 96.0
256.417847 116.0
256.454346 48.0
256.572266 44.0
256.745026 112.0
256.907135 136.0
256.970947 68.0
257.002502 304.0
257.069855 28.0
257.21347 72.0
257.34436 68.0
257.398651 92.0
257.532776 36.0
257.628601 100.0
257.746826 36.0
258.060059 156.0
258.687103 148.0
258.956055 76.0
259.57135 84.0
259.690033 40.0
260.110901 116.0
260.399323 140.0
260.425018 212.0
260.508545 40.0
262.152649 240.0
262.897583 40.0
264.37442 48.0
264.458557 132.0
265.012329 184.0
266.621826 120.0
266.8396 88.0
267.024963 148.0
267.151825 68.0
267.825623 76.0
268.024353 132.0
269.557983 52.0
270.581757 76.0
271.02063 68.0
271.332001 112.0
271.574646 76.0
271.725555 48.0
271.876495 52.0
271.935577 124.0
272.010071 172.0
274.043457 80.0
275.26059 64.0
275.766022 40.0
276.063568 76.0
276.42746 100.0
276.76178 128.0
278.061249 60.0
278.961365 76.0
279.959534 192.0
281.700562 64.0
282.529633 48.0
283.473816 104.0
283.869385 80.0
284.261841 52.0
284.506866 80.0
284.751984 92.0
284.950165 132.0
286.127289 96.0
288.218414 108.0
290.052704 148.0
290.077362 72.0
291.892792 144.0
293.762604 112.0
295.898499 60.0
298.086823 112.0
298.447723 92.0
298.550903 188.0
298.592163 168.0
299.755737 52.0
301.857971 140.0
301.968628 76.0
303.953644 60.0
305.023315 116.0
306.519836 76.0
307.049713 136.0
307.621948 64.0
308.089905 96.0
309.387329 56.0
310.298218 64.0
310.34729 128.0
311.213959 88.0
313.472168 48.0
315.095245 144.0
316.697693 80.0
316.872131 116.0
318.272278 84.0
319.808014 60.0
319.886322 76.0
321.297546 116.0
322.801239 40.0
324.079224 812.0
324.182983 172.0
325.082489 220.0
325.144104 68.0
325.305603 48.0
325.366638 92.0
325.398956 56.0
325.517456 80.0
325.813477 96.0
325.88382 72.0
326.079651 112.0
326.494904 68.0
327.506256 56.0
329.19046 96.0
329.511932 108.0
331.603485 88.0
333.872559 144.0
335.780914 108.0
336.452301 32.0
338.298462 40.0
338.653625 72.0
339.14093 64.0
339.452545 164.0
339.507568 48.0
340.002838 124.0
340.190033 96.0
340.384613 52.0
340.42868 64.0
340.542511 116.0
340.568237 48.0
340.649048 80.0
340.689453 124.0
340.858459 124.0
340.928284 44.0
341.044495 132.0
341.107666 7608.0
341.166595 200.0
341.214996 28.0
341.292206 72.0
341.405426 116.0
341.463715 100.0
341.523865 84.0
341.623199 72.0
341.671021 32.0
341.780243 76.0
341.994843 116.0
342.113525 1392.0
342.193634 36.0
342.304077 136.0
342.344604 36.0
342.642944 64.0
342.701904 40.0
343.105591 1484.0
343.553528 76.0
343.611877 88.0
343.763855 52.0
343.843719 88.0
344.114197 428.0
344.173737 84.0
344.343445 144.0
344.480103 52.0
345.326569 108.0
345.363556 40.0
347.052246 88.0
347.085602 76.0
347.938965 148.0
348.551788 44.0
350.307861 40.0
350.665558 52.0
351.142792 104.0
351.750977 60.0
352.98761 52.0
353.148407 68.0
353.851929 48.0
354.811035 124.0
355.219788 52.0
355.302307 36.0
355.80896 80.0
356.883484 108.0
357.402557 84.0
357.876801 76.0
360.626862 108.0
361.689728 60.0
361.784363 32.0
362.742767 148.0
362.924744 92.0
363.266052 88.0
364.13147 112.0
364.158051 116.0
364.264404 80.0
370.455658 76.0
371.839844 56.0
374.338684 56.0
377.437256 104.0
383.664886 80.0
389.267792 56.0
390.364136 60.0
394.820343 52.0
396.031433 116.0
396.45929 108.0
396.796234 92.0
400.014069 68.0
400.045898 40.0
400.328583 92.0
402.445953 104.0
402.605682 132.0
403.568695 128.0
406.283203 92.0
410.301697 36.0
420.152679 128.0
421.344757 48.0
421.904663 48.0
422.125458 92.0
427.639221 52.0
428.574005 116.0
430.777069 72.0
432.625549 76.0
440.000641 80.0
440.380615 92.0
440.514282 84.0
440.869415 104.0
442.53006 80.0
446.470245 64.0
446.979248 164.0
449.089874 76.0
453.894043 72.0
454.90802 44.0
456.118652 84.0
457.756622 52.0
463.921967 68.0
469.024414 100.0
470.024963 48.0
473.171478 40.0
482.556061 76.0
482.910248 60.0
486.2005 28.0
496.107208 40.0
506.261627 56.0
509.899963 56.0
510.893677 56.0
513.158997 64.0
513.609985 60.0
515.265381 96.0
518.728638 44.0
524.802429 96.0
526.710022 120.0
527.724548 32.0
533.928772 144.0
535.438293 68.0
540.548645 120.0
542.099976 56.0
544.335815 48.0
544.461243 148.0
549.801025 164.0
550.697388 40.0
554.988708 68.0
555.190308 48.0
556.90802 52.0
558.539062 96.0
559.767395 88.0
566.000427 60.0
566.682495 124.0
569.761536 72.0
578.268433 116.0
587.40741 152.0
589.048645 84.0
590.440613 88.0
590.788879 88.0
597.658813 44.0
605.807251 64.0
616.400085 40.0
631.408386 40.0
632.263855 84.0
638.897217 64.0
646.313782 40.0
661.285645 40.0
664.580688 80.0
665.140076 144.0
668.048523 192.0
668.403503 76.0
673.827637 68.0
675.828552 72.0
681.407349 40.0
683.679626 68.0
685.460571 80.0
686.153809 156.0
697.040649 108.0
703.334106 80.0
712.314697 40.0
714.308044 36.0
714.515503 260.0
716.032532 164.0
716.506653 44.0
722.437744 64.0
727.136902 28.0
730.269165 76.0
730.559631 56.0
731.286072 36.0
733.790955 196.0
746.934204 208.0
747.4021 88.0
760.655212 88.0
766.12677 180.0
770.788879 160.0
770.871765 196.0
773.958313 92.0
774.595215 44.0
776.568481 168.0
783.828857 60.0
785.858459 96.0
788.276184 112.0
789.539612 76.0
797.461548 104.0
804.417908 128.0
807.92157 124.0
809.727173 212.0
813.009705 104.0
818.295959 172.0
819.406555 100.0
819.452148 184.0
821.920959 72.0
824.336426 160.0
829.825562 72.0
830.381836 76.0
830.725952 96.0
833.499023 84.0
833.700134 128.0
833.774841 116.0
835.56311 144.0
840.166199 196.0
842.377136 136.0
843.411499 204.0
850.837891 188.0
851.168823 192.0
851.581116 232.0
853.946655 152.0
855.116089 40.0
857.906189 216.0
862.348206 184.0
870.714539 152.0
873.74762 168.0
876.64447 68.0
876.74469 52.0
878.997314 164.0
879.764587 124.0
881.897034 152.0
883.073608 236.0
883.274719 144.0
884.132629 116.0
885.660095 168.0
887.200806 156.0
888.102112 184.0
891.908142 164.0
899.096924 156.0
905.979065 40.0
906.062927 124.0
918.65741 184.0
919.852234 124.0
920.788086 148.0
923.719543 136.0
924.947937 176.0
925.081116 120.0
926.819275 64.0
927.740479 104.0
927.898132 132.0
930.02124 168.0
930.682983 180.0
931.581787 176.0
934.840698 148.0
936.862122 104.0
937.477539 216.0
938.141907 148.0
938.25769 188.0
938.318665 164.0
939.587219 176.0
940.026489 156.0
942.39563 216.0
943.929871 124.0
944.890137 76.0
945.636658 180.0
946.236572 196.0
946.37738 44.0
946.64679 120.0
947.541077 76.0
948.72998 148.0
949.594543 140.0
950.441162 80.0
952.313538 168.0
952.516174 184.0
952.7005 124.0
953.64679 128.0
954.062866 244.0
958.237366 136.0
959.389832 148.0
960.166748 176.0
961.548706 196.0
965.848999 128.0
966.461426 64.0
966.585205 196.0
967.717896 112.0
969.650574 140.0
970.313843 220.0
973.018799 176.0
974.211182 216.0
974.503174 128.0
975.168091 216.0
977.730408 40.0
978.651672 164.0
979.056458 160.0
980.483093 124.0
982.940063 180.0
984.225952 156.0
990.774231 184.0
990.887024 164.0
992.247009 176.0
993.570312 156.0
995.955688 216.0
996.049927 136.0
997.400879 196.0
997.470032 124.0
999.042114 140.0
999.384766 260.0
1001.402527 204.0
1001.881287 128.0
1003.387512 104.0
1004.232483 124.0
1004.661377 136.0
1004.800171 136.0
1005.424866 180.0
1005.475342 112.0
1005.816162 204.0
1005.866699 40.0
1006.264404 212.0
1010.005493 132.0
1010.80896 112.0
1013.677429 140.0
1014.697937 144.0
1015.198853 100.0
1015.693542 180.0
1016.239136 68.0
1017.121216 196.0
1017.241821 100.0
1017.540222 176.0
1018.130737 188.0
1018.422852 204.0
1018.867554 156.0
1020.221191 204.0
1020.895142 136.0
1021.194031 176.0
1026.186523 156.0
1026.709351 196.0
1027.832153 180.0
1029.427979 156.0
1030.264648 132.0
1030.993042 156.0
1031.715332 176.0
1031.862305 144.0
1031.932739 136.0
1032.015747 144.0
1033.00708 208.0
1034.549316 160.0
1034.651733 148.0
1034.734985 140.0
1037.784668 64.0
1038.522095 140.0
1039.79248 100.0
1040.106934 40.0
1040.967285 132.0
1041.545288 164.0
1042.676025 148.0
1044.251221 172.0
1044.862305 176.0
1045.274048 156.0
1046.522827 180.0
1046.844727 156.0
1047.495239 184.0
1048.030029 168.0
1048.274902 112.0
1049.054688 104.0
1050.854004 120.0
1051.028198 160.0
1051.660645 112.0
1051.95752 168.0
1052.693604 180.0
1053.171509 84.0
1053.416992 124.0
1053.726196 196.0
1055.381714 152.0
1057.393433 184.0
1058.001953 112.0
1058.390381 204.0
1058.79187 200.0
1059.582153 148.0
1059.679321 180.0
1060.197632 132.0
1060.49585 180.0
1061.027344 144.0
1064.505127 168.0
1065.454956 180.0
1065.843262 176.0
1068.990479 188.0
1069.237793 120.0
1070.090454 200.0
1072.246582 92.0
1073.661255 124.0
1074.300537 172.0
1075.285767 204.0
1075.488159 220.0
1077.33606 92.0
1077.603882 176.0
1079.067871 160.0
1079.99646 168.0
1081.74353 128.0
1081.848267 96.0
1082.476807 72.0
1083.334839 132.0
1083.511719 64.0
1083.714844 228.0
1084.389771 92.0
1084.697876 140.0
1084.953491 28.0
1085.753418 64.0
1085.858398 112.0
1086.140381 132.0
1086.29126 88.0
1087.90564 184.0
1088.135376 188.0
1088.338867 116.0
1089.705078 112.0
1090.605347 60.0
1091.223267 148.0
1091.690186 116.0
1092.038696 164.0
1093.150513 108.0
1095.112305 140.0
1095.32312 160.0
1097.220947 208.0
1097.512573 168.0
1099.067749 108.0
1100.929199 192.0
1101.417969 100.0
1101.820923 124.0
1102.593994 84.0
1104.174072 148.0
1104.795898 52.0
1108.901245 56.0
1108.967529 152.0
1109.391724 44.0
1109.667603 224.0
1110.790894 164.0
1113.08728 144.0
1113.605225 124.0
1115.146606 160.0
1116.117188 168.0
1116.695801 148.0
1116.762329 132.0
1117.780151 124.0
1118.046387 240.0
1118.126221 136.0
1118.578735 112.0
1118.711914 172.0
1118.891724 124.0
1119.470947 172.0
1119.99707 92.0
1120.90979 204.0
1121.069702 188.0
1121.56958 156.0
1123.329956 148.0
1125.178467 124.0
1126.53418 132.0
1126.921631 252.0
1127.195557 176.0
1127.24231 124.0
1127.30249 128.0
1128.739746 136.0
1130.304932 144.0
1130.739868 164.0
1131.195068 172.0
1131.309692 156.0
1132.433716 196.0
1132.547607 168.0
1134.001587 152.0
1134.088745 48.0
1134.149048 148.0
1134.216675 200.0
1135.134521 156.0
1135.81189 120.0
1136.945801 164.0
1137.569946 204.0
1138.812134 172.0
1139.248779 140.0
1139.792969 48.0
1140.236572 112.0
1140.344116 140.0
1141.036377 92.0
1141.150757 80.0
1141.258301 152.0
1141.433105 124.0
1143.114746 116.0
1144.259033 92.0
1144.75061 196.0
1145.848511 136.0
1146.508789 124.0
1147.24353 140.0
1150.127197 216.0
1150.18457 180.0
1150.33313 140.0
1153.42981 184.0
1153.507935 124.0
1154.271973 204.0
1155.212036 216.0
1155.387939 188.0
1155.536743 168.0
1155.996826 152.0
1156.903809 136.0
1159.15918 80.0
1159.294678 232.0
1159.873413 240.0
1160.040283 68.0
1160.338501 156.0
1160.704712 100.0
1163.167358 52.0
1163.608643 188.0
1164.53894 192.0
1164.837769 156.0
1165.829834 156.0
1165.911377 32.0
1166.762207 208.0
1166.964966 120.0
1167.243652 116.0
1167.378052 180.0
1169.6521 124.0
1169.699707 204.0
1169.958374 132.0
1170.414551 144.0
1171.429321 148.0
1172.015259 164.0
1173.057983 236.0
1173.398804 144.0
1173.739746 184.0
1173.930664 224.0
1174.09436 156.0
1174.912842 188.0
1175.605713 192.0
1176.298096 156.0
1177.732056 160.0
1178.094116 224.0
1178.71582 52.0
1178.866211 164.0
1178.995972 200.0
1180.021362 104.0
1180.158081 192.0
1180.246948 124.0
1180.821411 56.0
1180.917114 48.0
1181.135986 120.0
1181.395996 220.0
1181.868042 132.0
1181.984375 136.0
1182.723511 176.0
1183.232544 224.0
1183.455933 160.0
1183.627075 32.0
1183.914795 204.0
1184.640747 140.0
1187.060181 136.0
1187.108154 112.0
1187.19043 224.0
1187.492188 212.0
1187.979248 248.0
1188.029785 192.0
1188.397705 160.0
1188.720215 108.0
1189.797729 248.0
1190.704102 140.0
1191.33606 128.0
1192.621094 116.0
1192.90979 180.0
1192.992188 160.0
1193.810425 128.0
1194.078613 44.0
1194.154297 160.0
1194.339966 52.0
1194.70459 144.0
1195.124268 128.0
1195.509644 180.0
1195.74353 140.0
1197.547485 136.0
1198.870239 104.0
1199.869629 180.0
1199.945435 180.0
1200.026001 112.0
1200.036865 228.0
1200.193726 252.0
1201.497192 176.0
1201.59375 172.0
1201.890503 212.0
1202.297607 148.0
1203.084473 176.0
1204.679688 128.0
1205.481201 152.0
1205.57959 208.0
1206.282837 128.0
1207.520508 124.0
1207.575928 112.0
1208.025513 144.0
1208.530518 104.0
1208.880493 220.0
1209.921631 140.0
1210.267822 84.0
1210.662476 148.0
1210.828735 88.0
1211.729248 96.0
1212.144897 232.0
1212.401367 88.0
1212.817139 224.0
1212.904175 168.0
1213.343994 32.0
1214.061279 204.0
1214.148315 164.0
1214.481323 188.0
1215.063965 104.0
1215.397583 240.0
1215.563477 104.0
1215.743896 48.0
1216.042358 124.0
1217.162964 212.0
1217.38916 168.0
1217.722534 112.0
1218.479736 240.0
1219.243896 188.0
1219.709717 176.0
1220.043335 48.0
1220.105957 192.0
1220.363159 184.0
1220.724731 160.0
1221.065552 120.0
1221.997681 216.0
1222.470825 112.0
1223.417358 116.0
1223.793335 128.0
1224.099731 60.0
1224.239014 104.0
1224.524536 176.0
1225.130493 136.0
1225.806396 132.0
1226.126953 180.0
1226.175659 180.0
1226.322021 180.0
1226.684448 148.0
1226.747192 176.0
1227.337646 232.0
1227.751221 100.0
1228.804565 116.0
1229.020874 192.0
1229.132446 192.0
1229.223145 136.0
1229.662842 80.0
1229.830322 96.0
1229.990845 132.0
1230.612183 192.0
1230.779785 188.0
1231.764893 144.0
1233.693115 120.0
1233.791016 120.0
1233.879272 168.0
1233.944824 248.0
1235.231567 152.0
1235.686279 108.0
1235.931152 212.0
1236.120117 112.0
1236.553955 128.0
1237.821167 144.0
1238.353394 164.0
1238.5896 160.0
1239.243042 156.0
1239.327026 184.0
1239.431519 180.0
1239.894653 156.0
1239.992798 108.0
1240.637695 204.0
1240.939087 160.0
1241.598267 144.0
1242.012085 132.0
1242.348755 212.0
1242.46106 104.0
1242.832886 184.0
1243.710083 72.0
1243.81543 132.0
1244.046997 156.0
1244.271729 184.0
1245.268799 28.0
1245.718384 32.0
1246.491211 148.0
1246.765259 188.0
1247.292358 160.0
1247.594604 156.0
1248.002441 204.0
1248.403198 160.0
1248.712646 140.0
1249.641235 76.0
1250.591187 216.0
1250.668579 172.0
1252.295044 216.0
1253.767456 136.0
1254.61084 96.0
1255.438232 184.0
1256.094238 176.0
1256.305786 204.0
1256.650513 132.0
1256.912598 156.0
1257.248657 116.0
1257.335938 196.0
1257.420654 100.0
1257.65979 200.0
1257.865356 108.0
1258.28894 172.0
1258.357544 200.0
1258.458374 232.0
1258.606689 84.0
1258.656006 76.0
1259.037354 64.0
1259.439941 140.0
1259.617798 200.0
1260.27356 108.0
1261.849731 148.0
1262.351685 184.0
1262.592163 236.0
1262.988159 140.0
1263.363159 80.0
1263.462158 96.0
1264.120117 56.0
1264.212158 52.0
1264.52356 140.0
1265.273926 208.0
1265.323486 192.0
1265.436768 80.0
1265.753662 160.0
1265.875732 252.0
1265.925293 72.0
1266.173096 112.0
1266.498901 184.0
1267.044434 132.0
1268.078979 136.0
1268.390869 112.0
1268.504272 224.0
1268.837402 136.0
1269.248657 84.0
1269.82312 144.0
1269.943604 232.0
1270.99353 172.0
1271.319946 124.0
1271.61145 176.0
1272.633179 168.0
1272.895874 116.0
1273.009521 100.0
1273.520874 56.0
1273.662842 188.0
1273.748169 176.0
1273.961182 52.0
1274.373291 176.0
1276.449951 144.0
1276.669189 208.0
1276.818604 160.0
1277.031982 136.0
1277.330688 64.0
1277.416016 52.0
1277.956787 220.0
1278.340942 156.0
1278.590088 76.0
1278.888916 224.0
1278.989014 156.0
1279.187866 196.0
1279.251953 176.0
1280.384033 176.0
1281.82312 164.0
1282.578491 208.0
1282.699707 40.0
1283.127441 228.0
1283.462524 68.0
1283.676392 136.0
1284.11145 144.0
1284.197021 196.0
1284.396729 172.0
1284.974609 140.0
1285.152954 56.0
1285.352783 136.0
1285.526123 184.0
1285.766602 132.0
1285.994995 124.0
1286.1521 200.0
1286.337646 144.0
1287.780029 124.0
1288.994507 180.0
1289.065918 192.0
1289.327271 148.0
1289.852051 160.0
1289.916992 152.0
1290.080811 108.0
1290.338135 140.0
1290.881592 112.0
1291.110474 200.0
1291.324951 80.0
1291.639648 196.0
1291.86145 188.0
1292.111816 64.0
1292.734375 116.0
1293.169312 176.0
1293.500122 144.0
1295.175659 120.0
1295.74231 176.0
1296.04248 48.0
1296.845093 120.0
1297.296753 32.0
1297.562012 112.0
1297.855957 132.0
1298.099731 144.0
1298.22876 128.0
1298.400879 76.0
1298.946045 132.0
1299.110962 176.0
1299.168457 136.0
1299.233032 164.0
1299.957642 176.0
1300.050903 128.0
1300.237549 204.0
1300.682495 200.0
1301.429077 236.0
1302.147217 180.0
1302.786499 192.0
1302.908691 80.0
1303.28125 172.0
1304.144653 216.0
1304.381836 208.0
1304.604614 92.0
1304.654907 184.0
1305.388306 124.0
1306.100342 72.0
1306.352051 148.0
1306.647095 152.0
1306.992432 228.0
1307.143555 76.0
1307.906372 88.0
1308.086304 144.0
1308.295044 96.0
1308.374268 136.0
1308.619019 128.0
1308.979126 144.0
1309.195068 144.0
1309.447144 128.0
1309.67041 208.0
1310.311523 192.0
1310.729492 124.0
1311.248291 108.0
1311.680786 124.0
1312.228638 124.0
1313.685425 260.0
1313.771973 124.0
1315.049194 116.0
1315.208008 240.0
1315.554443 32.0
1315.893799 136.0
1316.355835 92.0
1316.48584 192.0
1316.760254 156.0
1317.417603 208.0
1317.55481 168.0
1318.917236 240.0
1319.498901 184.0
1319.79541 136.0
1319.88208 136.0
1320.366577 196.0
1320.504028 136.0
1320.583618 168.0
1321.307007 92.0
1321.45166 160.0
1321.567383 68.0
1321.849609 240.0
1321.965454 116.0
1322.052246 188.0
1322.472046 120.0
1323.045654 164.0
1323.686035 232.0
1324.043091 188.0
1324.470459 224.0
1325.506348 192.0
1326.020874 216.0
1326.267334 80.0
1326.484863 136.0
1327.260498 172.0
1327.550537 112.0
1327.826172 228.0
1328.239624 172.0
1329.269775 140.0
1329.473022 136.0
1329.581909 56.0
1329.908447 128.0
1330.26416 180.0
1330.779541 208.0
1331.164429 136.0
1331.585571 208.0
1331.723633 192.0
1332.144897 148.0
1332.442749 148.0
1332.573486 116.0
1332.994995 124.0
1333.082153 144.0
1333.358276 152.0
1333.40918 252.0
1333.489136 164.0
1333.990723 148.0
1334.115234 172.0
1334.521362 152.0
1335.328491 104.0
1335.75769 80.0
1336.703491 228.0
1336.783569 184.0
1337.052734 48.0
1337.511353 40.0
1338.137329 140.0
1338.230103 220.0
1338.32666 164.0
1338.625244 168.0
1338.960205 164.0
1339.164185 176.0
1339.244263 72.0
1339.295288 108.0
1339.878052 84.0
1340.460938 184.0
1341.240723 200.0
1341.867676 160.0
1342.203003 152.0
1342.465576 116.0
1342.946899 196.0
1343.194824 192.0
1343.245972 172.0
1343.304321 244.0
1343.450195 156.0
1343.982788 156.0
1344.135986 224.0
1344.347656 76.0
1344.515503 180.0
1344.873047 116.0
1345.114014 148.0
1345.406006 148.0
1345.588501 184.0
1345.814819 180.0
1346.500732 160.0
1347.783203 140.0
1348.225342 164.0
1348.31311 172.0
1349.190186 100.0
1349.541138 148.0
1349.972534 240.0
1350.440552 196.0
1350.542969 144.0
1351.003784 204.0
1352.51123 124.0
1352.621094 168.0
1353.09314 180.0
1353.404419 104.0
1353.489258 200.0
1354.092773 108.0
1354.231934 120.0
1354.3125 156.0
1354.400391 132.0
1355.059692 112.0
1355.953613 232.0
1356.613281 188.0
1356.884521 92.0
1358.065186 112.0
1358.791382 196.0
1359.180298 144.0
1359.591187 220.0
1359.943481 188.0
1360.361816 148.0
1360.706177 176.0
1360.851807 200.0
1361.132812 180.0
1361.56604 124.0
1361.74231 72.0
1361.922363 148.0
1362.160889 256.0
1364.372925 152.0
1364.644775 176.0
1365.056641 108.0
1365.564087 136.0
1365.777466 128.0
1366.336426 64.0
1367.278809 136.0
1367.440186 128.0
1367.683105 208.0
1368.706421 196.0
1368.7948 132.0
1369.781616 156.0
1370.216309 172.0
1370.938354 252.0
1370.98999 152.0
1371.21106 220.0
1371.644531 188.0
1371.786011 108.0
1372.397949 68.0
1372.552734 312.0
1372.950928 88.0
1373.304932 184.0
1373.511475 200.0
1373.614746 136.0
1373.964844 148.0
1374.44104 148.0
1374.581299 136.0
1374.682129 168.0
1374.787842 56.0
1375.291504 140.0
1375.703125 104.0
1376.126831 200.0
1376.419189 108.0
1376.699829 148.0
1377.017456 176.0
1379.38916 128.0
1379.544434 164.0
1380.12854 132.0
1380.557373 192.0
1381.496704 112.0
1382.184814 136.0
1382.761963 216.0
1382.887817 120.0
1383.220947 120.0
1383.887207 168.0
1383.961182 148.0
1384.279663 212.0
1384.420288 108.0
1385.049805 96.0
1385.131348 188.0
1385.464722 140.0
1386.161133 108.0
1387.40625 100.0
1387.487793 64.0
1387.747314 48.0
1389.141602 104.0
1389.252808 176.0
1389.601562 128.0
1389.79126 160.0
1390.06897 164.0
1390.343506 192.0
1390.425171 156.0
1391.189697 180.0
1391.278809 128.0
1391.501465 220.0
1391.724243 152.0
1392.073242 124.0
1392.422241 68.0
1392.905029 136.0
1393.269043 104.0
1393.471313 136.0
1394.130981 96.0
1394.286987 176.0
1394.64856 276.0
1394.995239 184.0
1395.104614 152.0
1395.238403 172.0
1395.439209 228.0
1395.999512 180.0
1396.153076 228.0
1396.301758 188.0
1396.450562 28.0
1397.045532 132.0
1397.320801 200.0
1397.878906 164.0
1397.945801 192.0
1398.146729 192.0
1398.236084 188.0
1398.794312 164.0
1399.002686 196.0
1399.300537 120.0
1399.404785 232.0
1399.583496 156.0
1399.993042 92.0
1400.398682 168.0
1400.648438 124.0
1400.80481 156.0
1401.542358 168.0
1401.669067 172.0
1401.728638 224.0
1401.78833 168.0
1402.794434 232.0
1403.11499 192.0
1403.704102 80.0
1403.893066 160.0
1404.024658 168.0
1404.106812 196.0
1404.315552 156.0
1404.375244 132.0
1404.591553 232.0
1404.651245 132.0
1404.912354 148.0
1404.964478 156.0
1405.083862 192.0
1405.203247 200.0
1405.725586 196.0
1405.822632 192.0
1406.058838 200.0
1406.352417 236.0
1406.531616 96.0
1406.61377 44.0
1406.755493 168.0
1406.882446 120.0
1407.046753 204.0
1407.531982 236.0
1408.114502 276.0
1408.30896 128.0
1408.921265 184.0
1409.119385 212.0
1409.421753 164.0
1409.49646 116.0
1409.772949 32.0
1410.041992 36.0
1410.333496 132.0
1411.051147 188.0
1411.275391 200.0
1411.327759 176.0
1411.439941 228.0
1411.873657 164.0
1411.978394 160.0
1412.053101 184.0
1412.486938 108.0
1412.659058 188.0
1413.691528 128.0
1413.938477 160.0
1414.043213 148.0
1414.185425 192.0
1414.582153 88.0
1414.759033 160.0
1414.914307 220.0
1415.255981 208.0
1415.435669 48.0
1415.488037 184.0
1415.810059 144.0
1416.708862 116.0
1416.761353 112.0
1416.813721 180.0
1416.918701 140.0
1417.40564 144.0
1417.557983 120.0
1417.727905 132.0
1418.492432 108.0
1418.657349 116.0
1419.429565 144.0
1419.482056 92.0
1419.564453 96.0
1419.774536 156.0
1420.627563 148.0
1420.712036 176.0
1421.439819 152.0
1421.582397 120.0
1421.800049 212.0
1422.002686 140.0
1422.332886 164.0
1422.926025 108.0
1423.203735 80.0
1423.564209 204.0
1424.485352 180.0
1424.615723 220.0
1424.668335 180.0
1424.765991 188.0
1424.833618 96.0
1425.186646 148.0
1425.314453 84.0
1425.810425 160.0
1425.893066 192.0
1426.020874 188.0
1426.082764 148.0
1426.217651 248.0
1426.625732 160.0
1426.817627 204.0
1427.178467 140.0
1427.464233 100.0
1427.742432 172.0
1427.930542 124.0
1428.268921 128.0
1428.472046 140.0
1428.547241 224.0
1428.780518 152.0
1428.885742 156.0
1428.942993 156.0
1429.23938 160.0
1429.42749 148.0
1429.502808 100.0
1429.796265 160.0
1430.22522 164.0
1430.413452 144.0
1430.466187 100.0
1430.533936 172.0
1430.594116 148.0
1430.684448 84.0
1431.045776 116.0
1431.595459 168.0
1432.280884 212.0
1432.921143 104.0
1433.004028 32.0
1433.117065 140.0
1433.260254 144.0
1433.395874 92.0
1433.569214 68.0
1433.734985 60.0
1433.878174 208.0
1434.435913 92.0
1434.609253 144.0
1434.714844 168.0
1435.031494 92.0
1435.106934 144.0
1435.197388 236.0
1436.08728 196.0
1436.147583 160.0
1436.505615 136.0
1437.0 148.0
1437.233887 132.0
1437.52063 216.0
1438.290405 140.0
1438.56665 176.0
1438.682983 92.0
1438.826416 168.0
1439.218994 168.0
1439.3927 152.0
1439.619263 48.0
1440.042114 44.0
1440.261108 56.0
1440.359375 144.0
1440.646362 100.0
1440.759766 176.0
1440.97876 148.0
1441.220581 108.0
1441.386841 136.0
1441.67395 136.0
1442.067017 176.0
1442.807739 220.0
1442.945312 168.0
1443.019409 140.0
1443.813354 36.0
1443.88147 108.0
1443.987305 136.0
1444.350342 104.0
1444.584839 36.0
1444.789185 184.0
1445.371704 176.0
1445.553345 192.0
1445.798218 212.0
1446.21936 228.0
1446.355591 276.0
1446.696167 112.0
1446.92334 176.0
1447.309448 256.0
1447.687988 188.0
1447.97583 136.0
1448.407593 48.0
1448.51355 140.0
1449.543945 76.0
1449.657593 156.0
1449.953125 204.0
1450.385254 196.0
1450.536743 172.0
1450.855225 164.0
1450.961304 152.0
1451.135742 228.0
1451.355591 76.0
1451.711914 124.0
1451.878784 236.0
1452.842041 132.0
1453.517334 156.0
1454.116821 128.0
1454.465942 92.0
1455.749023 152.0
1456.15918 52.0
1456.326294 248.0
1456.379395 92.0
1456.713623 128.0
1456.812378 56.0
1457.093506 156.0
1457.670898 52.0
1458.020508 132.0
1458.34729 168.0
1458.468872 172.0
1458.955444 108.0
1459.891113 132.0
1460.14917 148.0
1460.377319 48.0
1460.620728 232.0
1460.742432 248.0
1460.947876 172.0
1461.078491 168.0
1461.835449 316.0
1462.249023 36.0
1462.512573 192.0
1462.682861 180.0
1462.873169 216.0
1462.987305 160.0
1463.20813 120.0
1463.269043 200.0
1463.37561 132.0
1463.428833 176.0
1463.505005 136.0
1463.55835 44.0
1463.908569 212.0
1464.015259 160.0
1464.639771 144.0
1464.8302 152.0
1464.883545 48.0
1465.371094 168.0
1465.531006 172.0
1465.988281 196.0
1466.19397 80.0
1466.354004 232.0
1466.462891 176.0
1466.848999 172.0
1467.101074 156.0
1467.306885 188.0
1467.375488 160.0
1467.482178 176.0
1467.695679 104.0
1467.840576 148.0
1468.191406 172.0
1468.511719 148.0
1468.633789 172.0
1468.709961 128.0
1468.778687 160.0
1469.09021 180.0
1469.227173 152.0
1469.488159 200.0
1469.605713 68.0
1469.701782 148.0
1469.800903 112.0
1470.274048 172.0
1470.541138 152.0
1470.625122 176.0
1471.12146 144.0
1471.617554 180.0
1472.167358 48.0
1472.28186 168.0
1472.571899 176.0
1472.640869 244.0
1472.694336 96.0
1472.755249 224.0
1472.953979 172.0
1473.419922 172.0
1473.511597 140.0
1474.077026 156.0
1474.22229 176.0
1474.315186 204.0
1474.627319 176.0
1475.064941 184.0
1475.338135 64.0
1475.570068 164.0
1475.689819 168.0
1475.789185 144.0
1475.880981 132.0
1476.615112 136.0
1476.806274 144.0
1476.867554 84.0
1476.959229 132.0
1477.035767 164.0
1477.165771 136.0
1477.402954 144.0
1477.563599 252.0
1478.015015 228.0
1478.646118 112.0
1478.667969 164.0
1478.828369 168.0
1479.193604 164.0
1479.396973 172.0
1479.476807 144.0
1479.652954 44.0
1479.882568 176.0
1479.959229 148.0
1480.349731 88.0
1480.571777 144.0
1480.678955 188.0
1480.732666 132.0
1481.628784 152.0
1481.896973 168.0
1482.119141 176.0
1482.655518 132.0
1483.226807 160.0
1483.330078 164.0
1484.123047 144.0
1484.311401 164.0
1484.725464 136.0
1485.32373 60.0
1485.477173 160.0
1485.607544 88.0
1485.661255 92.0
1485.96814 136.0
1486.144531 140.0
1486.336426 108.0
1486.5896 120.0
1486.716797 132.0
1486.842896 72.0
1487.687134 100.0
1488.705444 192.0
1488.883179 88.0
1489.268433 164.0
1489.514771 136.0
1489.944946 196.0
1491.036133 168.0
1492.004639 248.0
1492.704224 148.0
1492.758057 64.0
1492.865723 48.0
1493.073364 164.0
1493.704102 92.0
1493.841431 200.0
1494.142578 112.0
1494.204102 148.0
1494.35022 236.0
1494.727295 120.0
1494.888916 128.0
1495.235596 164.0
1495.319824 152.0
1495.404541 64.0
1495.547119 176.0
1495.95105 124.0
1496.564575 156.0
1496.950928 160.0
1497.298462 116.0
1497.51416 144.0
1497.722046 108.0
1497.799072 160.0
1498.011597 148.0
1498.191895 56.0
1498.615845 144.0
1499.224365 84.0
1499.602051 188.0
1500.257202 216.0
1500.588745 72.0
1502.0 148.0
1502.370239 192.0
1502.470581 220.0
1502.655762 60.0
1502.761108 152.0
1503.211304 92.0
1503.388794 124.0
1503.573975 168.0
1503.62793 148.0
1503.803101 180.0
1503.875 116.0
1504.238037 172.0
1504.383667 172.0
1504.439087 248.0
1504.739502 164.0
1504.839844 100.0
1505.183228 180.0
