>compound MLS001140693-01!1-[(2S)-2-[[(2S)-2-(2,4-dioxo-1H-quinazolin-3-yl)-3-phenylpropanoyl]amino]-3-methylpentanoyl]piperidine-4-carboxylic acid
>formula C29H34N4O6
>ionization [M+H]+
>parentmass 535.256
#inchi InChI=1S/C29H34N4O6/c1-3-18(2)24(27(36)32-15-13-20(14-16-32)28(37)38)31-25(34)23(17-19-9-5-4-6-10-19)33-26(35)21-11-7-8-12-22(21)30-29(33)39/h4-12,18,20,23-24H,3,13-17H2,1-2H3,(H,30,39)(H,31,34)(H,37,38)/t18?,23-,24-/m0/s1
#inchikey POVQJQHUPJJVAW
#Ion_Source LC-ESI
#Instrument qTof
#Compound_Source NIH Natural Product Library
#PI Dorrestein
#Data_Collector VVP/LMS
#Scan -1
#Precursor_MZ 535.256
#ExactMass 534.248
#Charge 1
#CAS_Number N/A
#Pubmed_ID N/A
#Smiles CCC(C)[C@H](NC(=O)[C@H](Cc1ccccc1)n2c(=O)[nH]c3ccccc3c2=O)C(=O)N4CCC(CC4)C(=O)O
#INCHI_AUX N/A
#Library_Class 1
#SpectrumID CCMSLIB00000080159
#IonMode Positive
#UpdateWorkflowName UPDATE-SINGLE-ANNOTATED-GOLD
#LibraryQualityString Gold
#TaskID b1d8e8f6646f4e71acdff9ca3d919d08
##Scan# 2021
#SpectrumFile p2-H04_GH4_01_18064.mzXML
#LibraryName NIH_Natural_Products_Library.mgf
#MQScore -1
#Organism NIH_Natural_Products_Library
#TIC_Query 0
#RT_Query -1
#MZErrorPPM -1
#SharedPeaks 0
#MassDiff 0
#LibMZ -1
#SpecMZ 535.256
#SpecCharge 0
#internalFilename spec-00000.mgf

>collision 10
95.067329 188.0
95.115852 148.0
95.346985 92.0
95.424744 36.0
95.851013 88.0
96.157196 60.0
96.334885 212.0
96.362289 136.0
96.497093 132.0
96.831718 132.0
96.872856 192.0
96.955147 192.0
97.243454 172.0
98.041954 176.0
98.393066 192.0
98.462181 116.0
98.49971 220.0
98.663734 148.0
99.291435 108.0
99.358879 76.0
99.807762 88.0
100.078369 204.0
100.305489 216.0
101.33271 200.0
101.350739 120.0
101.611397 208.0
102.149803 136.0
102.705765 168.0
102.830864 132.0
103.029251 148.0
103.054001 2668.0
103.085335 164.0
103.115646 140.0
103.459526 96.0
103.676254 100.0
104.029182 164.0
104.055725 168.0
104.15712 100.0
104.236351 104.0
104.335953 180.0
104.392883 92.0
104.521042 112.0
104.626877 136.0
104.726662 180.0
104.836678 84.0
104.971222 156.0
104.993652 148.0
105.030365 132.0
105.058929 168.0
105.136246 168.0
105.232407 148.0
105.915459 164.0
106.103989 192.0
106.327583 180.0
106.487724 124.0
106.520592 192.0
106.837173 124.0
107.049179 184.0
107.166588 48.0
107.397484 112.0
107.903427 240.0
108.044067 164.0
108.852425 172.0
109.064339 180.0
109.118385 160.0
109.207809 60.0
109.655457 140.0
109.878586 112.0
110.062263 168.0
110.114471 80.0
110.160423 200.0
110.306702 160.0
110.392426 76.0
110.44471 204.0
110.555603 176.0
110.718895 124.0
110.800591 108.0
110.857162 144.0
110.974548 204.0
111.064728 108.0
111.081505 180.0
111.186417 168.0
111.312378 192.0
111.602356 124.0
111.71701 124.0
111.922188 120.0
112.031708 72.0
112.075378 4680.0
112.162361 52.0
112.303635 72.0
112.453438 140.0
112.4851 188.0
112.911919 192.0
113.075951 332.0
113.369209 36.0
113.547295 148.0
113.678825 48.0
114.050499 176.0
114.742363 132.0
114.804199 124.0
115.678085 192.0
116.089462 144.0
116.110909 156.0
116.585373 192.0
116.660599 220.0
117.136185 192.0
117.822205 160.0
117.925926 136.0
118.064301 180.0
118.152985 52.0
118.263344 136.0
118.304474 192.0
118.341278 44.0
118.451729 156.0
118.740013 132.0
119.037331 188.0
119.076424 76.0
119.748489 212.0
119.844337 172.0
119.972931 188.0
120.025253 112.0
120.045578 728.0
120.302345 104.0
120.477051 116.0
120.538231 152.0
120.614723 160.0
120.794037 156.0
121.065437 136.0
121.181534 188.0
121.315224 196.0
121.337151 184.0
121.668434 112.0
122.035347 120.0
122.32795 188.0
122.510735 180.0
122.920837 168.0
123.006912 160.0
123.444382 192.0
123.771881 196.0
123.973465 156.0
124.002274 160.0
124.27726 308.0
124.32386 156.0
124.423744 124.0
124.539223 92.0
124.554771 200.0
124.656967 120.0
124.957153 140.0
125.055069 176.0
125.21537 184.0
125.76609 164.0
125.799576 88.0
126.568687 104.0
126.597801 124.0
127.06852 104.0
127.322174 164.0
127.927025 212.0
127.963051 132.0
128.258163 132.0
128.765839 64.0
129.48053 164.0
129.675369 92.0
129.781921 108.0
129.877167 160.0
129.986069 240.0
130.0065 192.0
130.044388 148.0
130.086426 13528.0
130.118652 156.0
130.218155 104.0
130.253464 140.0
130.308502 68.0
130.401672 124.0
130.601761 124.0
130.626785 52.0
130.847534 28.0
130.890793 188.0
130.993286 148.0
131.047653 228.0
131.089722 1168.0
131.152786 164.0
131.182419 64.0
131.262222 52.0
131.312393 44.0
131.330643 96.0
131.383118 48.0
131.408203 144.0
131.446991 40.0
131.497208 48.0
131.549698 244.0
131.627335 40.0
131.670731 156.0
131.686707 44.0
131.77124 200.0
131.896927 96.0
132.022781 168.0
132.043259 152.0
132.084427 188.0
132.153061 68.0
132.253342 112.0
132.636292 132.0
132.725693 36.0
133.097427 148.0
133.200775 212.0
133.407593 84.0
133.46048 128.0
133.771072 88.0
134.062378 252.0
134.640335 148.0
134.681915 196.0
134.815918 136.0
134.85289 120.0
134.989304 64.0
135.012421 88.0
135.058685 164.0
135.435974 140.0
135.478256 160.0
136.471024 180.0
136.901505 80.0
137.141479 116.0
137.477325 84.0
137.729492 224.0
137.787888 148.0
138.061371 248.0
138.649002 108.0
139.522202 48.0
140.169464 80.0
140.313248 148.0
140.475967 184.0
140.631714 164.0
141.118347 188.0
141.139633 216.0
141.18457 276.0
141.435364 188.0
141.729034 204.0
141.899689 224.0
142.339722 160.0
142.374268 100.0
142.616608 56.0
143.256714 120.0
143.659821 128.0
143.774124 120.0
144.249451 84.0
144.273346 172.0
144.361816 112.0
144.651321 76.0
144.677658 188.0
144.72554 164.0
144.890808 144.0
145.039948 364.0
145.060959 72.0
145.461563 96.0
145.516785 180.0
145.63205 164.0
145.809845 196.0
145.862732 168.0
145.932449 88.0
145.978134 228.0
146.022766 9240.0
146.067123 168.0
146.164734 56.0
146.223526 56.0
146.269257 48.0
146.290924 60.0
146.408905 60.0
146.693222 44.0
146.729385 180.0
146.919907 92.0
146.982635 184.0
147.025894 576.0
147.055038 72.0
147.339981 216.0
147.475311 80.0
147.511566 52.0
147.743729 116.0
147.842941 64.0
148.039062 160.0
148.060822 136.0
148.438873 128.0
148.904831 172.0
149.040863 152.0
149.342331 168.0
149.459106 164.0
149.690353 164.0
149.834061 72.0
150.309509 144.0
150.670883 60.0
151.130539 112.0
152.167313 192.0
152.693192 180.0
153.072174 144.0
153.681015 104.0
153.806885 132.0
153.863663 180.0
153.969849 108.0
153.992065 176.0
154.989044 140.0
155.37088 196.0
155.870926 232.0
156.295151 152.0
156.556534 188.0
157.182236 88.0
157.324509 156.0
157.429367 120.0
157.459335 144.0
158.447418 76.0
158.532608 232.0
158.994049 208.0
159.021667 156.0
159.378265 136.0
159.541641 116.0
159.760437 48.0
160.316895 160.0
160.420227 136.0
160.538742 168.0
160.599258 136.0
160.809769 204.0
161.58194 168.0
161.77681 212.0
162.054443 512.0
162.121292 72.0
162.397644 184.0
162.704697 140.0
162.836731 120.0
162.895157 176.0
162.943985 200.0
163.006836 168.0
163.050049 3520.0
163.100983 140.0
163.139114 76.0
163.655594 132.0
163.681046 52.0
163.782928 216.0
164.055389 436.0
164.246841 160.0
164.325928 144.0
164.364197 156.0
164.716522 180.0
165.05748 128.0
165.197113 52.0
165.255951 156.0
165.302017 112.0
165.389038 80.0
165.8629 80.0
166.044952 148.0
166.193741 68.0
166.612244 156.0
166.900101 196.0
167.91217 196.0
168.299255 196.0
169.333664 184.0
169.686096 216.0
169.950653 88.0
170.012924 60.0
170.202438 104.0
170.610352 100.0
170.995331 184.0
171.198395 172.0
171.440674 152.0
171.870941 120.0
172.152878 108.0
172.678177 128.0
172.827286 140.0
173.028824 116.0
173.613159 172.0
174.161697 136.0
174.290421 144.0
174.3535 160.0
174.445496 184.0
174.874252 204.0
175.242935 156.0
175.55397 36.0
175.701691 60.0
176.073883 48.0
176.517853 120.0
176.676544 160.0
176.782394 148.0
177.418076 156.0
178.201019 168.0
178.458832 152.0
178.783142 96.0
178.905807 80.0
179.67067 124.0
181.248169 160.0
181.307129 88.0
181.494781 172.0
182.523209 188.0
182.574295 56.0
183.239182 96.0
183.675903 136.0
183.816193 128.0
184.051041 164.0
184.545517 164.0
184.567139 176.0
184.586075 168.0
184.959427 192.0
185.035233 60.0
186.894455 164.0
187.048553 248.0
187.245636 124.0
188.044479 112.0
188.478699 200.0
188.555206 120.0
189.337677 192.0
189.767899 120.0
190.053909 144.0
190.193115 84.0
191.02298 144.0
191.708557 92.0
191.895996 60.0
192.039398 92.0
192.920273 116.0
193.113831 144.0
193.335175 136.0
193.440338 204.0
193.976273 112.0
194.044296 92.0
194.102524 116.0
194.285568 48.0
194.521805 128.0
195.029785 156.0
195.157669 108.0
195.413559 136.0
195.800491 136.0
196.268661 148.0
197.547821 124.0
197.648544 128.0
198.292648 76.0
198.393555 248.0
198.957458 136.0
199.036072 132.0
199.139984 140.0
199.446243 228.0
199.975037 120.0
200.000366 144.0
200.03978 76.0
200.715958 148.0
200.862625 168.0
200.888 188.0
201.280319 108.0
201.367859 184.0
201.639099 192.0
201.992538 184.0
202.196259 56.0
203.434937 152.0
203.727448 40.0
204.08017 184.0
204.159485 156.0
204.653336 264.0
204.73436 188.0
206.017914 220.0
206.08934 176.0
206.137924 112.0
206.672638 80.0
206.701263 116.0
207.394333 52.0
207.988083 52.0
208.318314 52.0
209.823456 160.0
209.866699 164.0
209.950333 92.0
211.1026 156.0
211.198029 160.0
211.527908 176.0
211.681366 116.0
211.785614 268.0
212.31601 92.0
212.469757 132.0
212.693207 80.0
212.905151 132.0
213.529999 180.0
214.910828 264.0
215.062576 80.0
215.383774 144.0
215.751968 220.0
215.863083 168.0
216.711945 92.0
216.934692 176.0
217.081284 180.0
217.286606 184.0
217.415726 148.0
217.715179 52.0
218.291168 132.0
218.458817 128.0
218.502945 144.0
218.635361 152.0
219.090286 144.0
219.33046 108.0
219.619415 152.0
219.728561 104.0
219.822983 148.0
220.011887 208.0
220.082748 188.0
220.115234 152.0
220.528839 96.0
220.821899 136.0
221.056641 184.0
221.108536 108.0
221.443085 108.0
221.789764 96.0
222.003235 212.0
222.041779 188.0
222.094559 540.0
222.385956 212.0
222.463135 140.0
222.611588 192.0
222.688797 216.0
222.760086 64.0
222.97403 128.0
223.088409 216.0
223.131577 208.0
223.342712 152.0
223.589661 180.0
224.098465 172.0
224.313446 124.0
224.674301 208.0
224.710098 144.0
225.00856 136.0
225.208633 128.0
225.316177 232.0
227.02832 144.0
227.064316 164.0
227.238297 148.0
227.268311 40.0
227.505402 136.0
227.856781 136.0
228.310684 188.0
228.623184 164.0
228.647629 92.0
228.771042 192.0
228.888458 228.0
228.996887 184.0
229.219818 204.0
229.457932 112.0
229.521255 72.0
230.079437 108.0
231.500565 68.0
231.742889 164.0
232.07756 320.0
232.249161 200.0
233.026321 208.0
233.226883 92.0
234.072662 164.0
234.499176 160.0
234.529648 176.0
234.621109 172.0
234.828461 76.0
234.849808 120.0
234.886414 144.0
235.145859 152.0
235.170181 48.0
235.197662 184.0
235.240402 56.0
235.61908 148.0
235.790207 164.0
235.839111 184.0
236.891739 128.0
237.100571 204.0
237.753326 156.0
238.112534 124.0
238.936356 28.0
239.820145 144.0
241.933044 148.0
242.295395 100.0
243.107788 172.0
243.173843 112.0
243.408905 192.0
243.924652 192.0
244.167175 196.0
244.22316 96.0
244.786469 116.0
245.325485 108.0
245.727798 196.0
246.052399 44.0
246.739731 124.0
246.8992 136.0
247.05246 136.0
247.086472 1560.0
247.312195 240.0
248.090881 220.0
248.214462 160.0
248.490494 200.0
248.851425 84.0
249.112106 112.0
249.146652 160.0
249.262909 216.0
249.492355 96.0
250.068008 180.0
250.237991 132.0
250.647461 176.0
251.006821 192.0
251.278076 232.0
252.136978 164.0
252.187546 136.0
252.26973 192.0
252.478424 168.0
252.778961 132.0
252.820099 132.0
252.956192 144.0
253.234848 220.0
253.27919 180.0
253.798935 208.0
254.090729 164.0
254.141495 136.0
254.528748 244.0
255.110168 240.0
255.335938 156.0
255.498886 88.0
255.574524 92.0
255.749557 116.0
255.980743 156.0
256.392914 116.0
256.458069 164.0
257.062622 132.0
257.1073 136.0
257.212646 148.0
257.484039 92.0
258.011261 96.0
258.254303 168.0
258.290955 120.0
258.987274 176.0
259.304474 204.0
259.330139 80.0
259.391022 140.0
259.535309 160.0
260.103149 112.0
260.231567 112.0
260.633057 148.0
260.867676 84.0
261.137787 168.0
261.285767 172.0
261.388733 184.0
261.697723 132.0
261.72348 136.0
261.787903 220.0
261.913513 84.0
261.987579 204.0
262.522644 112.0
262.56134 84.0
262.73877 144.0
263.003357 80.0
263.061554 140.0
263.235809 148.0
263.655792 156.0
263.684875 124.0
263.743073 88.0
263.885315 128.0
264.008179 132.0
264.08255 128.0
264.124603 156.0
264.283142 204.0
264.350983 124.0
264.356476 120.0
264.409332 172.0
264.432861 176.0
264.470825 144.0
264.503204 112.0
264.610046 36.0
264.635925 172.0
264.665985 228.0
264.710022 228.0
264.746033 108.0
264.771942 28.0
264.81134 228.0
264.85083 124.0
264.878082 376.0
264.933899 156.0
264.966309 160.0
265.00589 284.0
265.098114 79512.0
265.207306 32.0
265.30658 92.0
265.335602 168.0
265.388947 40.0
265.416718 144.0
265.465179 44.0
265.54184 168.0
265.587158 160.0
265.630066 160.0
265.695587 120.0
265.750916 88.0
265.814819 204.0
265.848267 116.0
265.897797 152.0
265.939148 40.0
265.976532 120.0
266.031708 256.0
266.056061 164.0
266.100433 14284.0
266.184814 148.0
266.229828 68.0
266.272583 132.0
266.348267 60.0
266.377502 44.0
266.439514 72.0
266.545471 212.0
266.574005 168.0
266.580719 80.0
266.594177 132.0
266.702454 120.0
266.72699 80.0
266.75119 52.0
266.823029 84.0
266.851685 44.0
266.917725 56.0
266.942413 164.0
266.986572 92.0
267.062317 88.0
267.102478 2028.0
267.196747 64.0
267.370209 64.0
267.427795 232.0
267.470093 52.0
267.541718 72.0
267.590546 52.0
267.655182 52.0
267.684967 96.0
267.72171 116.0
267.789001 148.0
267.815857 164.0
267.861755 232.0
267.889526 60.0
267.898193 112.0
267.921143 96.0
267.968353 76.0
267.99118 128.0
268.056335 104.0
268.105896 504.0
268.265594 60.0
268.352966 104.0
268.44101 56.0
268.60733 92.0
268.786774 56.0
268.872864 116.0
268.966278 52.0
268.998932 52.0
269.106659 72.0
269.168701 88.0
269.224213 60.0
269.345062 124.0
269.380981 96.0
269.852539 84.0
269.920258 56.0
270.319366 164.0
270.600861 156.0
270.656525 84.0
271.328186 84.0
271.521667 152.0
271.600372 80.0
272.003967 116.0
272.187836 116.0
273.02887 276.0
273.101471 44.0
273.434937 116.0
273.713593 128.0
274.029816 292.0
274.069336 152.0
274.148438 44.0
275.03772 132.0
275.080658 940.0
275.144562 128.0
275.247742 112.0
275.309662 64.0
276.000305 128.0
276.087494 120.0
276.847443 136.0
277.082642 120.0
277.105835 364.0
277.861755 88.0
277.967926 84.0
277.994476 92.0
278.711731 160.0
278.771545 68.0
279.786041 48.0
279.91922 28.0
280.322296 96.0
280.37561 132.0
280.722321 104.0
280.819031 40.0
281.433075 108.0
281.693573 140.0
282.780304 128.0
283.342865 200.0
283.476898 100.0
283.57074 140.0
284.080414 88.0
285.023865 116.0
285.057465 160.0
286.756989 32.0
287.034241 200.0
288.346649 128.0
289.320862 188.0
289.419037 144.0
289.988159 96.0
291.107727 96.0
291.610535 172.0
292.137604 144.0
292.222656 116.0
292.742798 192.0
292.838806 136.0
293.03299 132.0
293.09259 11692.0
293.16507 120.0
293.196533 152.0
293.229675 52.0
293.32486 68.0
293.505371 68.0
293.59436 64.0
293.912689 40.0
293.957031 32.0
294.09491 1960.0
294.135284 124.0
294.180328 76.0
294.305206 108.0
294.434967 64.0
294.612579 88.0
294.920654 52.0
295.002167 68.0
295.046631 60.0
295.10199 332.0
295.330444 120.0
295.374908 32.0
295.86084 164.0
295.96698 144.0
296.083435 156.0
296.223846 124.0
296.28894 104.0
296.359467 48.0
296.528809 120.0
299.049835 132.0
303.5896 76.0
305.9245 152.0
309.503204 124.0
309.741333 76.0
314.27655 64.0
318.247925 100.0
325.281158 52.0
328.584839 236.0
330.053467 112.0
330.488922 116.0
331.064484 140.0
332.053894 156.0
333.353577 44.0
333.586182 108.0
334.066193 48.0
341.326324 80.0
343.093628 224.0
355.037354 164.0
356.080292 400.0
358.066498 96.0
358.865387 144.0
358.94458 64.0
359.385895 124.0
361.032898 128.0
361.899445 136.0
366.030701 100.0
373.555298 40.0
375.6987 52.0
383.047302 140.0
383.59848 80.0
388.09668 72.0
388.618347 120.0
391.728119 52.0
394.692139 128.0
395.297333 68.0
395.578369 196.0
400.888702 64.0
409.727997 64.0
410.320465 80.0
412.577271 44.0
416.597443 156.0
418.704407 76.0
420.412598 76.0
423.040771 176.0
425.053162 84.0
435.145264 68.0
439.127655 40.0
441.286621 32.0
447.087952 72.0
449.460449 84.0
450.325867 60.0
453.694183 80.0
456.445496 56.0
459.209381 88.0
465.165588 68.0
470.145508 180.0
479.217072 88.0
486.393646 112.0
487.364197 88.0
495.398376 144.0
502.891022 68.0
503.953857 76.0
505.930664 92.0
507.960724 108.0
520.707581 104.0
521.189148 28.0
528.974304 100.0
533.06543 92.0
533.33197 96.0
533.938904 48.0
535.835388 128.0
537.38916 100.0
539.347229 140.0
551.932373 40.0
566.935181 132.0
568.894043 88.0
569.007996 36.0
572.283875 132.0
573.212708 104.0
574.939026 96.0
577.375488 80.0
586.676331 68.0
590.727966 112.0
599.79895 44.0
615.231995 76.0
620.585205 40.0
645.628845 92.0
657.435425 84.0
672.488586 64.0
676.732727 84.0
718.142151 136.0
745.525513 176.0
769.407898 116.0
785.858521 172.0
790.613831 36.0
810.97406 40.0
826.990601 92.0
828.044128 172.0
830.038391 140.0
830.893005 80.0
855.903015 128.0
873.537109 64.0
882.442261 72.0
884.909485 96.0
915.525085 52.0
926.621338 88.0
936.815552 176.0
942.336792 116.0
961.754883 80.0
971.649841 148.0
976.687866 92.0
984.259949 92.0
986.784241 48.0
1010.388184 212.0
1033.688721 192.0
1038.230591 180.0
1060.506104 88.0
1061.724976 184.0
1066.113525 144.0
1067.855835 184.0
1069.118042 120.0
1075.831543 188.0
1092.812622 116.0
1102.565308 188.0
1111.027588 116.0
1111.598145 128.0
1113.955078 140.0
1122.020874 80.0
1124.428833 236.0
1131.889404 176.0
1138.837158 96.0
1150.594604 180.0
1163.58667 196.0
1164.333496 48.0
1168.752075 196.0
1172.381592 64.0
1173.867676 112.0
1199.309937 116.0
1202.082397 40.0
1205.929077 108.0
1211.693359 156.0
1211.811157 196.0
1213.530029 176.0
1230.953247 188.0
1235.923218 132.0
1240.335327 136.0
1240.734863 64.0
1244.312866 152.0
1246.736206 40.0
1255.451538 144.0
1257.963379 176.0
1258.45752 180.0
1258.987183 132.0
1271.496704 204.0
1276.526367 148.0
1277.45813 56.0
1282.79895 188.0
1286.237183 100.0
1287.60083 52.0
1287.950806 268.0
1300.789795 64.0
1301.644165 48.0
1309.583618 172.0
1309.648438 56.0
1311.227539 168.0
1317.301758 96.0
1318.074707 116.0
1318.913086 248.0
1328.261108 52.0
1328.435303 116.0
1328.696411 220.0
1329.480103 204.0
1333.663452 188.0
1346.53772 56.0
1348.780762 96.0
1352.408813 52.0
1354.649414 112.0
1361.184204 104.0
1363.263062 108.0
1364.784668 204.0
1379.936523 168.0
1386.050293 176.0
1389.149292 204.0
1389.453491 216.0
1394.911743 184.0
1399.204102 252.0
1399.68811 164.0
1408.944092 112.0
1409.325073 208.0
1414.238281 92.0
1422.018188 104.0
1422.108276 144.0
1425.450195 56.0
1426.87085 252.0
1436.67627 156.0
1445.886963 124.0
1446.106445 72.0
1458.211304 192.0
1468.344849 200.0
1469.244873 168.0
1470.771118 204.0
1471.939087 168.0
1473.03125 144.0
1475.002808 168.0
1475.522583 160.0
1480.756592 188.0
1483.009155 172.0
1490.729736 156.0
1494.466797 156.0
1494.966919 80.0
1497.823242 176.0
1498.02356 44.0
1501.92395 156.0
1503.443848 180.0
