>compound MLS002153138-01!IMID-4F hydrochloride
>formula C16H14Cl2FN3
>ionization [M+H]+
>parentmass 338.061829
#inchi InChI=1S/C16H14Cl2FN3/c17-13-5-2-6-14(18)15(13)22(16-20-7-8-21-16)10-11-3-1-4-12(19)9-11/h1-6,9H,7-8,10H2,(H,20,21)
#inchikey LRNDDTBEQUWZOZ
#origInchi InChI=1S/C16H14Cl2FN3.ClH/c17-13-5-2-6-14(18)15(13)22(16-20-7-8-21-16)10-11-3-1-4-12(19)9-11;/h1-6,9H,7-8,10H2,(H,20,21);1H
#Ion_Source LC-ESI
#Instrument qTof
#Compound_Source NIH Pharmacologically Active Library
#PI Dorrestein
#Data_Collector VP/LMS
#Scan -1
#Precursor_MZ 338.06
#ExactMass 337.055
#Charge 1
#CAS_Number N/A
#Pubmed_ID N/A
#Smiles Fc1cccc(CN(C2=NCCN2)c3c(Cl)cccc3Cl)c1.Cl
#INCHI_AUX N/A
#Library_Class 1
#SpectrumID CCMSLIB00000085959
#IonMode Positive
#UpdateWorkflowName UPDATE-SINGLE-ANNOTATED-GOLD
#LibraryQualityString Gold
#TaskID d252d724072548979f1f6f1ced849daf
##Scan# 1619
#SpectrumFile p4-H07_GH7_01_18415.mzXML
#LibraryName Pharm_Active_Library.mgf
#MQScore -1
#Organism Pharm_Active_Library
#TIC_Query 0
#RT_Query -1
#MZErrorPPM -1
#SharedPeaks 0
#MassDiff 0
#LibMZ -1
#SpecMZ 338.06
#SpecCharge 0
#internalFilename spec-00000.mgf

>collision 10
44.906063 144.0
44.931408 124.0
44.990131 228.0
45.055573 276.0
45.068932 148.0
45.130421 196.0
45.150478 156.0
45.163185 176.0
45.177231 208.0
45.193409 128.0
45.231533 152.0
45.342564 492.0
45.396896 112.0
45.445187 156.0
45.457264 152.0
45.48637 140.0
45.513641 148.0
45.549904 204.0
45.564682 164.0
45.574089 184.0
45.595589 172.0
45.617096 108.0
45.673939 148.0
45.68568 152.0
45.715282 124.0
45.758358 192.0
45.806625 228.0
45.83337 208.0
45.863434 128.0
45.927532 180.0
45.982128 152.0
45.995625 132.0
46.023979 176.0
46.052338 176.0
46.107735 92.0
46.12936 64.0
46.153698 116.0
46.178898 176.0
46.207798 164.0
46.265381 176.0
46.280586 144.0
46.337776 132.0
46.348366 196.0
46.374855 204.0
46.38792 108.0
46.525063 176.0
46.580235 256.0
46.60915 156.0
46.701595 48.0
46.759007 184.0
46.818645 132.0
46.866322 260.0
46.894939 148.0
46.968571 160.0
47.009502 172.0
47.024517 120.0
47.047661 180.0
47.071438 184.0
47.088036 84.0
47.117374 136.0
47.158367 152.0
47.167938 124.0
47.187077 76.0
47.210754 216.0
47.309849 228.0
47.438984 200.0
47.463661 168.0
47.493835 264.0
47.540482 128.0
47.628353 180.0
47.644726 144.0
47.669571 136.0
47.686062 88.0
47.706684 148.0
47.83049 196.0
47.896587 60.0
47.906937 288.0
47.935162 172.0
47.964458 156.0
47.99995 220.0
48.050987 204.0
48.084106 36.0
48.119999 184.0
48.140709 216.0
48.19228 132.0
48.213928 160.0
48.236675 280.0
48.252636 168.0
48.298996 180.0
48.342785 184.0
48.397915 100.0
48.432537 180.0
48.451931 168.0
48.48103 152.0
48.497662 152.0
48.531574 140.0
48.55035 192.0
48.568378 72.0
48.585026 136.0
48.621105 160.0
48.64257 92.0
48.669689 64.0
48.68219 152.0
48.723858 140.0
48.754429 148.0
48.771107 160.0
48.782227 208.0
48.791962 84.0
48.829239 188.0
48.901855 156.0
48.911598 104.0
48.950581 148.0
48.961723 148.0
48.981071 184.0
48.995045 204.0
49.016388 184.0
49.027203 148.0
49.066231 72.0
49.082962 76.0
49.105625 144.0
49.11504 192.0
49.130386 344.0
49.147129 144.0
49.174004 140.0
49.19458 80.0
49.226696 140.0
49.263771 228.0
49.281174 288.0
49.324497 156.0
49.343239 148.0
49.362247 200.0
49.425777 96.0
49.451786 304.0
49.471382 204.0
49.507786 136.0
49.544205 192.0
49.559616 184.0
49.608669 176.0
49.6297 120.0
49.67458 160.0
49.715271 112.0
49.789677 148.0
49.862736 120.0
49.885227 184.0
49.930222 172.0
49.948357 152.0
49.963982 204.0
49.992123 180.0
50.040264 160.0
50.06966 160.0
50.089272 128.0
50.127312 208.0
50.166779 136.0
50.194977 104.0
50.21331 200.0
50.231647 64.0
50.295147 144.0
50.305027 180.0
50.348801 68.0
50.418026 264.0
50.539642 220.0
50.623158 156.0
50.647236 112.0
50.662918 172.0
50.688324 116.0
50.708057 216.0
50.739349 176.0
50.769127 176.0
50.830128 68.0
50.857094 140.0
50.886372 192.0
51.001976 124.0
51.036095 188.0
51.078762 256.0
51.151337 120.0
51.174854 156.0
51.202595 120.0
51.223507 112.0
51.255302 68.0
51.350819 160.0
51.392189 156.0
51.429295 180.0
51.443497 156.0
51.466324 124.0
51.479267 192.0
51.537834 72.0
51.627892 172.0
51.646484 156.0
51.689407 252.0
51.705147 132.0
51.748093 196.0
51.782017 232.0
51.822571 128.0
51.835468 136.0
51.850628 104.0
51.872734 168.0
51.915749 80.0
51.927219 360.0
51.975998 160.0
51.988914 184.0
52.01762 376.0
52.053909 188.0
52.07362 280.0
52.133217 188.0
52.162651 208.0
52.200089 172.0
52.256187 140.0
52.282089 276.0
52.34111 164.0
52.358536 160.0
52.369915 164.0
52.392963 180.0
52.43187 116.0
52.449776 212.0
52.486507 204.0
52.519386 160.0
52.576088 168.0
52.613621 40.0
52.654053 132.0
52.671303 140.0
52.697388 212.0
52.709671 132.0
52.730156 160.0
52.801468 172.0
52.824612 124.0
52.856441 68.0
52.888283 132.0
52.975166 216.0
52.988205 60.0
53.061001 172.0
53.077541 164.0
53.098373 140.0
53.108528 116.0
53.125935 92.0
53.176723 192.0
53.186882 156.0
53.206402 124.0
53.217369 68.0
53.240604 120.0
53.308884 172.0
53.355396 200.0
53.375835 152.0
53.387272 152.0
53.444118 172.0
53.455761 132.0
53.490692 168.0
53.535828 228.0
53.549976 168.0
53.566414 128.0
53.653854 248.0
53.671349 64.0
53.701035 124.0
53.712494 208.0
53.739906 136.0
53.763912 196.0
53.779125 192.0
53.812885 96.0
53.831551 148.0
53.889042 196.0
53.951679 148.0
54.005787 240.0
54.019978 188.0
54.037971 164.0
54.058456 220.0
54.08041 184.0
54.097977 176.0
54.126095 156.0
54.155083 244.0
54.188778 68.0
54.231277 160.0
54.256065 180.0
54.341263 164.0
54.380882 76.0
54.399967 144.0
54.426548 152.0
54.433659 148.0
54.466156 172.0
54.488083 160.0
54.499836 164.0
54.51894 168.0
54.587616 196.0
54.601273 176.0
54.64246 204.0
54.661587 140.0
54.672604 288.0
54.699856 184.0
54.713104 168.0
54.732246 200.0
54.767441 156.0
54.797054 216.0
54.876644 248.0
54.926785 172.0
54.984329 124.0
55.003517 224.0
55.013927 160.0
55.078827 160.0
55.093601 124.0
55.118717 196.0
55.160099 280.0
55.185234 116.0
55.238476 232.0
55.254341 160.0
55.265106 136.0
55.282864 184.0
55.311981 172.0
55.337425 172.0
55.390945 140.0
55.474968 212.0
55.50655 144.0
55.535744 152.0
55.555496 180.0
55.595558 136.0
55.625244 176.0
55.646027 284.0
55.678696 148.0
55.690578 160.0
55.717041 140.0
55.739147 156.0
55.768753 144.0
55.81839 168.0
55.8288 196.0
55.839211 200.0
55.855572 152.0
55.885136 188.0
55.91679 112.0
55.932953 108.0
55.983612 160.0
56.041668 216.0
56.051933 184.0
56.075943 132.0
56.091633 168.0
56.111721 140.0
56.139462 212.0
56.160931 168.0
56.234043 152.0
56.263901 380.0
56.275845 228.0
56.296341 220.0
56.323631 180.0
56.34156 152.0
56.407314 124.0
56.453663 32.0
56.46862 128.0
56.480587 156.0
56.502697 164.0
56.519485 176.0
56.554733 368.0
56.580853 152.0
56.607803 188.0
56.661724 72.0
56.774147 256.0
56.816147 176.0
56.835178 164.0
56.864166 188.0
56.901501 184.0
56.917671 200.0
56.933228 160.0
56.949749 132.0
56.985722 144.0
57.012688 164.0
57.035397 152.0
57.066967 132.0
57.113857 180.0
57.159554 312.0
57.178288 172.0
57.194344 192.0
57.218929 96.0
57.256317 140.0
57.271286 172.0
57.282181 108.0
57.304779 112.0
57.365063 116.0
57.384663 132.0
57.396725 152.0
57.451023 168.0
57.518932 232.0
57.571777 116.0
57.58839 136.0
57.600475 144.0
57.611095 124.0
57.629227 128.0
57.641525 188.0
57.672726 196.0
57.709286 176.0
57.734993 132.0
57.762218 96.0
57.784912 92.0
57.812149 128.0
57.863617 172.0
57.880272 148.0
57.896927 152.0
57.921162 148.0
57.940857 52.0
57.959038 156.0
57.975708 120.0
57.987831 196.0
58.098526 124.0
58.129299 172.0
58.178757 148.0
58.182095 128.0
58.186825 156.0
58.203255 184.0
58.227554 168.0
58.305397 184.0
58.326836 164.0
58.344559 188.0
58.373447 124.0
58.388657 148.0
58.399303 160.0
58.419075 164.0
58.46777 140.0
58.513435 172.0
58.531704 120.0
58.54998 64.0
58.574352 196.0
58.585014 68.0
58.603298 160.0
58.637146 188.0
58.674931 36.0
58.710003 164.0
58.746609 196.0
58.75729 148.0
58.772514 184.0
58.850391 140.0
58.87635 240.0
58.92065 92.0
58.946659 180.0
58.971077 120.0
59.012352 200.0
59.024586 220.0
59.052113 140.0
59.133205 184.0
59.165352 132.0
59.204445 164.0
59.248051 188.0
59.281761 152.0
59.292488 132.0
59.306282 144.0
59.329277 192.0
59.379879 136.0
59.437119 252.0
59.448917 176.0
59.476543 184.0
59.521069 184.0
59.567024 204.0
59.579433 140.0
59.596333 148.0
59.643364 176.0
59.670109 180.0
59.680874 96.0
59.696251 116.0
59.716244 128.0
59.733429 140.0
59.752979 200.0
59.76701 104.0
59.777782 124.0
59.805485 120.0
59.822418 172.0
59.846916 236.0
59.867069 116.0
59.914051 208.0
59.937931 144.0
59.968754 176.0
59.984169 72.0
60.065899 216.0
60.092125 176.0
60.120914 152.0
60.177013 216.0
60.231068 148.0
60.29287 204.0
60.326874 268.0
60.37326 164.0
60.424309 52.0
60.441326 112.0
60.45216 92.0
60.517174 96.0
60.534206 52.0
60.548145 136.0
60.558987 184.0
60.608559 44.0
60.656605 116.0
60.695366 188.0
60.729485 100.0
60.748096 184.0
60.817928 116.0
60.838108 188.0
60.866055 136.0
60.886242 228.0
60.913292 232.0
60.930771 216.0
60.960812 136.0
60.971691 168.0
60.995361 228.0
61.008999 144.0
61.024544 60.0
61.043205 172.0
61.055645 208.0
61.066532 140.0
61.094532 136.0
61.127811 196.0
61.170788 180.0
61.187912 140.0
61.219055 136.0
61.250202 196.0
61.287594 152.0
61.307854 124.0
61.323437 216.0
61.356602 160.0
61.418552 220.0
61.475555 144.0
61.488766 40.0
61.593376 412.0
61.618374 48.0
61.659657 172.0
61.680885 84.0
61.714638 292.0
61.736519 172.0
61.742802 100.0
61.748497 132.0
61.860779 112.0
61.909317 136.0
61.928112 52.0
61.968418 160.0
62.000183 52.0
62.020855 320.0
62.061321 204.0
62.078899 172.0
62.094254 180.0
62.114643 196.0
62.148083 332.0
62.185253 40.0
62.208099 216.0
62.239784 136.0
62.268467 176.0
62.288887 128.0
62.39526 192.0
62.416191 116.0
62.428772 116.0
62.471237 152.0
62.486973 168.0
62.527359 204.0
62.600304 240.0
62.698391 92.0
62.73896 148.0
62.761036 180.0
62.841476 124.0
62.939339 184.0
63.026218 168.0
63.04834 100.0
63.071026 136.0
63.07518 212.0
63.102085 204.0
63.151596 156.0
63.173092 196.0
63.193821 224.0
63.25396 148.0
63.279663 376.0
63.321976 180.0
63.337242 216.0
63.353729 168.0
63.398094 120.0
63.439304 124.0
63.451988 196.0
63.471016 280.0
63.488457 260.0
63.542389 160.0
63.558258 184.0
63.578888 164.0
63.602695 204.0
63.614288 184.0
63.643974 112.0
63.693638 176.0
63.744045 140.0
63.79332 160.0
63.804447 136.0
63.829887 48.0
63.866669 156.0
63.90942 116.0
63.936474 52.0
64.039963 144.0
64.073418 136.0
64.222603 184.0
64.269531 256.0
64.336563 84.0
64.349335 156.0
64.404503 220.0
64.456352 156.0
64.470734 148.0
64.491516 216.0
64.506813 188.0
64.518692 160.0
64.571457 144.0
64.615181 168.0
64.71244 160.0
64.747505 160.0
64.867683 112.0
64.89975 140.0
64.914177 196.0
64.941444 168.0
64.96711 184.0
65.004013 104.0
65.031296 196.0
65.049469 124.0
65.079453 112.0
65.130844 224.0
65.193642 148.0
65.217247 156.0
65.285141 136.0
65.317314 108.0
65.341438 152.0
65.357529 148.0
65.369598 148.0
65.381668 88.0
65.426743 148.0
65.439621 332.0
65.457336 184.0
65.476662 116.0
65.492767 132.0
65.505653 64.0
65.519043 216.0
65.534653 152.0
65.595894 108.0
65.615158 156.0
65.670067 176.0
65.721687 156.0
65.753967 180.0
65.805626 204.0
65.836014 200.0
65.850388 144.0
65.884758 156.0
65.913277 228.0
65.940872 72.0
66.010834 128.0
66.036713 48.0
66.060974 132.0
66.091324 200.0
66.123932 208.0
66.16787 160.0
66.208267 88.0
66.219604 180.0
66.320061 104.0
66.357941 276.0
66.399269 160.0
66.411392 172.0
66.448174 152.0
66.548805 72.0
66.568291 128.0
66.600777 108.0
66.621895 152.0
66.656967 164.0
66.706543 132.0
66.738914 112.0
66.751923 140.0
66.764931 108.0
66.794212 200.0
66.841125 172.0
66.886963 168.0
66.919525 228.0
66.975891 52.0
67.030281 124.0
67.041695 180.0
67.069397 152.0
67.115051 48.0
67.129181 216.0
67.172783 176.0
67.208023 168.0
67.257637 120.0
67.276169 148.0
67.317612 180.0
67.3909 132.0
67.408875 88.0
67.479156 244.0
67.498779 168.0
67.514114 192.0
67.557663 172.0
67.601837 84.0
67.65258 188.0
67.683601 156.0
67.715691 96.0
67.796722 108.0
67.82634 172.0
67.87397 160.0
67.891808 140.0
67.913124 176.0
68.059189 116.0
68.093674 164.0
68.115028 160.0
68.208694 300.0
68.248146 104.0
68.269524 280.0
68.282684 176.0
68.340004 156.0
68.390373 176.0
68.488426 156.0
68.531151 180.0
68.564217 156.0
68.587296 160.0
68.598831 304.0
68.702728 108.0
68.717575 144.0
68.740677 116.0
68.773682 192.0
68.78524 124.0
68.904602 144.0
68.916145 320.0
68.94635 228.0
69.051262 164.0
69.062843 136.0
69.088348 48.0
69.107506 204.0
69.1605 192.0
69.201851 124.0
69.284668 144.0
69.326088 312.0
69.352608 124.0
69.372147 224.0
69.407906 136.0
69.458733 216.0
69.493568 292.0
69.519592 152.0
69.541695 176.0
69.553314 156.0
69.581535 144.0
69.629692 160.0
69.659592 164.0
69.677864 132.0
69.738243 192.0
69.814171 196.0
69.885193 172.0
69.898933 172.0
69.92231 192.0
70.020538 204.0
70.050522 164.0
70.098839 176.0
70.175514 132.0
70.190521 84.0
70.21801 184.0
70.229843 208.0
70.285599 124.0
70.334 136.0
70.389099 152.0
70.412476 172.0
70.449226 200.0
70.47261 340.0
70.484314 388.0
70.509377 112.0
70.537758 176.0
70.577919 140.0
70.613037 128.0
70.644821 180.0
70.659874 64.0
70.681625 172.0
70.710075 180.0
70.773239 148.0
70.815704 184.0
70.87587 204.0
70.970436 200.0
70.984825 144.0
71.074997 164.0
71.103935 180.0
71.170578 288.0
71.184517 180.0
71.248344 40.0
71.317245 108.0
71.332375 168.0
71.384499 108.0
71.430367 200.0
71.458504 172.0
71.477097 160.0
71.503944 108.0
71.517403 192.0
71.559494 184.0
71.589645 212.0
71.638649 120.0
71.653809 140.0
71.680771 52.0
71.717598 160.0
71.736389 144.0
71.751564 176.0
71.771797 48.0
71.791176 152.0
71.813957 172.0
71.826385 76.0
71.844322 160.0
71.866257 100.0
71.917786 284.0
71.938828 176.0
71.975227 228.0
72.005119 168.0
72.021568 152.0
72.063805 128.0
72.083183 208.0
72.129715 188.0
72.143242 172.0
72.193962 168.0
72.21257 176.0
72.229485 124.0
72.243019 136.0
72.312813 192.0
72.347939 132.0
72.417366 176.0
72.474968 128.0
72.4953 180.0
72.532318 324.0
72.552933 280.0
72.595322 156.0
72.624153 80.0
72.641121 132.0
72.661476 172.0
72.681839 168.0
72.707291 100.0
72.756516 76.0
72.810852 108.0
72.834579 136.0
72.877106 120.0
72.916191 140.0
72.936584 96.0
73.028404 100.0
73.050522 160.0
73.079445 160.0
73.231865 344.0
73.28376 196.0
73.295692 216.0
73.307617 140.0
73.358749 144.0
73.391144 156.0
73.416725 176.0
73.473015 128.0
73.493484 152.0
73.624931 200.0
73.650551 140.0
73.685188 204.0
73.698387 144.0
73.722313 160.0
73.756493 208.0
73.77359 208.0
73.818825 172.0
73.844879 152.0
73.862511 148.0
73.912125 160.0
73.92968 108.0
73.948067 176.0
73.976822 240.0
73.983429 340.0
73.996704 164.0
74.002594 220.0
74.023392 176.0
74.047691 220.0
74.100471 204.0
74.162163 256.0
74.193695 112.0
74.217026 140.0
74.263329 164.0
74.300636 176.0
74.318222 160.0
74.347397 172.0
74.407478 156.0
74.440102 192.0
74.476044 284.0
74.562073 200.0
74.591293 204.0
74.603333 172.0
74.630836 140.0
74.656631 132.0
74.68071 96.0
74.70089 148.0
74.723717 128.0
74.801163 100.0
74.875198 140.0
74.902756 112.0
74.922264 384.0
75.006042 188.0
75.049599 216.0
75.151016 96.0
75.180351 204.0
75.218948 176.0
75.277023 312.0
75.294296 144.0
75.320206 128.0
75.384132 32.0
75.403137 168.0
75.423325 224.0
75.460182 168.0
75.489578 180.0
75.565689 200.0
75.593376 120.0
75.645164 156.0
75.664345 148.0
75.688583 112.0
75.707634 236.0
75.73188 228.0
75.787315 144.0
75.818512 48.0
75.850082 148.0
75.90345 132.0
75.927734 164.0
75.951477 212.0
75.979721 148.0
76.028358 140.0
76.042244 168.0
76.076256 200.0
76.11689 96.0
76.162048 160.0
76.177681 164.0
76.206032 224.0
76.217644 192.0
76.245445 140.0
76.262825 104.0
76.297279 44.0
76.316536 228.0
76.332367 172.0
76.356712 164.0
76.381065 204.0
76.394981 36.0
76.452965 112.0
76.475586 160.0
76.512947 220.0
76.537224 352.0
76.558601 228.0
76.612595 188.0
76.724129 104.0
76.77121 60.0
76.79303 196.0
76.83564 132.0
76.854942 128.0
76.897209 184.0
76.964912 272.0
76.999832 320.0
77.029526 188.0
77.053986 100.0
77.071457 124.0
77.098877 168.0
77.130882 140.0
77.179832 168.0
77.193825 296.0
77.219833 220.0
77.237282 224.0
77.250801 312.0
77.272537 136.0
77.358292 160.0
77.370544 44.0
77.400307 112.0
77.426575 184.0
77.528191 160.0
77.562752 156.0
77.602325 232.0
77.624611 140.0
77.65789 188.0
77.731613 32.0
77.764961 188.0
77.778999 120.0
77.801826 112.0
77.867889 180.0
77.889664 180.0
77.910706 160.0
77.955017 220.0
77.982758 164.0
78.014397 160.0
78.039009 180.0
78.204376 108.0
78.22374 200.0
78.267754 104.0
78.28334 164.0
78.290344 140.0
78.329391 160.0
78.366394 144.0
78.424469 180.0
78.444786 224.0
78.488014 168.0
78.537392 132.0
78.583572 180.0
78.602669 148.0
78.683868 72.0
78.703285 180.0
78.746361 216.0
78.827377 208.0
78.849915 188.0
78.88385 160.0
78.911781 108.0
78.932999 200.0
78.952454 104.0
78.977219 144.0
78.993134 112.0
79.020012 220.0
79.045517 152.0
79.111702 132.0
79.168365 144.0
79.198471 68.0
79.210869 120.0
79.234489 132.0
79.272881 104.0
79.311874 152.0
79.326057 256.0
79.355667 188.0
79.372154 140.0
79.420448 156.0
79.436005 128.0
79.491005 148.0
79.517624 152.0
79.569099 104.0
79.633034 152.0
79.680992 112.0
79.711838 200.0
79.750595 168.0
79.779381 144.0
79.812523 96.0
79.837418 248.0
79.905014 144.0
79.960175 124.0
79.993996 76.0
80.015358 120.0
80.034317 204.0
80.075905 212.0
80.107155 140.0
80.136475 136.0
80.202408 176.0
80.230934 188.0
80.275505 140.0
80.295128 128.0
80.341507 140.0
80.359344 152.0
80.423592 172.0
80.464645 152.0
80.498726 192.0
80.512863 208.0
80.543228 156.0
80.656487 224.0
80.707642 148.0
80.726387 152.0
80.816757 144.0
80.857048 224.0
80.888344 92.0
80.951797 176.0
81.022652 164.0
81.070511 192.0
81.080299 164.0
81.105087 164.0
81.129128 168.0
81.149086 140.0
81.165802 180.0
81.19474 148.0
81.25573 164.0
81.323921 108.0
81.347252 180.0
81.476501 128.0
81.499916 56.0
81.557419 148.0
81.677895 128.0
81.695885 148.0
81.721077 124.0
81.749863 140.0
81.818268 136.0
81.84317 144.0
81.888496 116.0
81.940735 176.0
81.973167 124.0
82.027237 156.0
82.070503 148.0
82.09771 252.0
82.119202 196.0
82.138016 172.0
82.171356 136.0
82.222038 200.0
82.270775 156.0
82.323357 164.0
82.377327 144.0
82.449188 176.0
82.469482 356.0
82.489365 144.0
82.511055 144.0
82.527374 328.0
82.59967 116.0
82.722084 152.0
82.804939 236.0
82.834999 152.0
82.846397 136.0
82.927101 224.0
82.949165 116.0
83.031013 336.0
83.061592 204.0
83.077919 148.0
83.103317 32.0
83.135124 144.0
83.171211 136.0
83.268509 180.0
83.281227 152.0
83.319374 224.0
83.341179 164.0
83.413872 192.0
83.455688 28.0
83.481148 124.0
83.495697 188.0
83.537529 188.0
83.570282 156.0
83.60495 220.0
83.655815 224.0
83.75103 168.0
83.765083 156.0
83.789978 156.0
83.804306 188.0
83.815079 180.0
83.89447 140.0
83.957146 244.0
83.974701 140.0
84.036728 224.0
84.069572 112.0
84.0933 180.0
84.107895 128.0
84.120674 200.0
84.161591 112.0
84.186409 112.0
84.207581 216.0
84.248512 136.0
84.272263 124.0
84.305153 208.0
84.323433 188.0
84.367302 148.0
84.391823 292.0
84.420326 168.0
84.438614 176.0
84.473366 144.0
84.495323 204.0
84.520935 92.0
84.6259 140.0
84.652733 140.0
84.718674 168.0
84.80867 108.0
84.826797 152.0
84.843292 140.0
84.865295 64.0
84.878128 112.0
84.924446 172.0
84.96801 108.0
85.002869 152.0
85.023056 176.0
85.039574 136.0
85.060593 136.0
85.072617 180.0
85.174484 296.0
85.197495 248.0
85.210358 120.0
85.223221 120.0
85.236076 136.0
85.263649 128.0
85.312477 192.0
85.331657 176.0
85.359413 216.0
85.399704 156.0
85.443848 100.0
85.475975 192.0
85.548752 164.0
85.579964 172.0
85.608955 132.0
85.638985 88.0
85.705299 76.0
85.738007 204.0
85.777176 128.0
85.790085 156.0
85.821426 100.0
85.862 96.0
85.919754 180.0
85.954239 92.0
85.998528 352.0
86.087151 136.0
86.101921 152.0
86.121292 172.0
86.140709 128.0
86.173965 132.0
86.197983 136.0
86.212769 144.0
86.24604 244.0
86.271919 128.0
86.314445 144.0
86.506393 204.0
86.549599 144.0
86.632904 196.0
86.667992 156.0
86.693939 164.0
86.740273 180.0
86.756958 44.0
86.790329 232.0
86.834839 96.0
86.853386 164.0
86.866371 92.0
86.910896 280.0
86.929451 44.0
86.961006 124.0
87.001839 160.0
87.066833 180.0
87.087265 136.0
87.135559 64.0
87.148567 72.0
87.169006 128.0
87.191307 116.0
87.232201 160.0
87.295418 88.0
87.394005 180.0
87.414474 148.0
87.438667 176.0
87.458122 176.0
87.509407 180.0
87.522438 144.0
87.541061 112.0
87.572723 144.0
87.660286 192.0
87.751617 108.0
87.768402 176.0
87.796371 96.0
87.809425 300.0
87.833679 144.0
87.861656 152.0
87.90271 168.0
87.971764 156.0
88.040016 152.0
88.061447 148.0
88.158546 264.0
88.184242 192.0
88.243858 156.0
88.268845 96.0
88.298759 172.0
88.32869 144.0
88.364235 156.0
88.377335 212.0
88.413773 220.0
88.429733 100.0
88.46904 208.0
88.547684 116.0
88.640663 184.0
88.669464 256.0
88.700806 128.0
88.755417 156.0
88.760132 132.0
88.769867 72.0
88.775543 172.0
88.795082 80.0
88.808212 112.0
88.902023 172.0
88.924545 60.0
89.039467 564.0
89.098274 160.0
89.114212 76.0
89.167473 116.0
89.189384 96.0
89.21006 196.0
89.230743 160.0
89.290916 320.0
89.332863 172.0
89.362396 124.0
89.497917 152.0
89.546883 120.0
89.579895 144.0
89.609047 240.0
89.662987 160.0
89.677887 272.0
89.718544 124.0
89.762276 220.0
89.79567 104.0
89.833397 96.0
89.85981 308.0
89.876793 356.0
89.93718 144.0
89.952286 212.0
90.002632 48.0
90.046013 144.0
90.143044 172.0
90.175629 216.0
90.199745 148.0
90.218651 196.0
90.282936 144.0
90.354813 88.0
90.375198 140.0
90.383194 180.0
90.457008 136.0
90.490776 172.0
90.525169 136.0
90.551682 112.0
90.595253 36.0
90.608513 136.0
90.680519 208.0
90.694839 144.0
90.714638 148.0
90.744057 240.0
90.771523 368.0
90.784798 68.0
90.951759 136.0
90.980232 308.0
91.055176 300.0
91.069481 168.0
91.162575 132.0
91.229103 208.0
91.242409 120.0
91.299454 140.0
91.320374 128.0
91.337494 116.0
91.417404 96.0
91.432632 112.0
91.510681 172.0
91.54686 276.0
91.58876 52.0
91.630669 184.0
91.676399 108.0
91.70118 144.0
91.748833 176.0
91.813667 188.0
91.847992 172.0
91.916595 164.0
91.923927 160.0
91.931305 132.0
91.970116 120.0
91.983475 140.0
92.063667 216.0
92.084679 72.0
92.098045 128.0
92.15918 176.0
92.20887 172.0
92.268127 252.0
92.289154 192.0
92.345039 164.0
92.438835 192.0
92.463242 120.0
92.476639 116.0
92.490036 168.0
92.507263 136.0
92.52449 40.0
92.556137 184.0
92.601089 168.0
92.646042 128.0
92.659286 200.0
92.687302 108.0
92.700714 192.0
92.817642 140.0
92.863029 188.0
92.90007 168.0
92.986122 112.0
92.99382 152.0
93.092056 52.0
93.140076 144.0
93.166969 140.0
93.180412 128.0
93.211159 140.0
93.24575 136.0
93.270737 180.0
93.388176 160.0
93.396484 132.0
93.407166 80.0
93.414223 208.0
93.511169 208.0
93.528496 160.0
93.544189 192.0
93.661423 160.0
93.694107 144.0
93.727928 144.0
93.756035 240.0
93.786606 52.0
93.892647 192.0
93.933151 116.0
94.052795 192.0
94.082352 256.0
94.10685 88.0
94.124222 48.0
94.162849 136.0
94.180626 156.0
94.220802 180.0
94.265762 164.0
94.282356 140.0
94.34449 148.0
94.437309 176.0
94.480881 220.0
94.534042 92.0
94.547585 76.0
94.636772 112.0
94.712761 156.0
94.735405 124.0
94.764473 164.0
94.803223 184.0
94.863312 168.0
95.032043 144.0
95.047562 116.0
95.063087 180.0
95.086517 168.0
95.095604 180.0
95.118896 196.0
95.152374 132.0
95.214005 152.0
95.251419 116.0
95.268906 196.0
95.289597 184.0
95.310539 168.0
95.357925 172.0
95.43335 176.0
95.484665 116.0
95.55571 176.0
95.57415 136.0
95.607231 188.0
95.670853 140.0
95.686165 156.0
95.79805 128.0
95.87989 104.0
95.930565 168.0
95.960075 176.0
95.983032 136.0
96.135368 136.0
96.166595 164.0
96.198441 240.0
96.285072 176.0
96.330612 92.0
96.440041 160.0
96.471321 208.0
96.504494 128.0
96.576912 236.0
96.623863 48.0
96.684525 136.0
96.717796 124.0
96.776527 192.0
96.81765 152.0
96.862572 180.0
96.935188 128.0
96.968506 144.0
96.993988 56.0
97.036583 160.0
97.086143 160.0
97.124191 120.0
97.182259 204.0
97.203842 132.0
97.233284 72.0
97.254875 164.0
97.274506 168.0
97.349113 104.0
97.3825 124.0
97.443398 144.0
97.457153 124.0
97.504311 144.0
97.53183 164.0
97.595757 132.0
97.61203 252.0
97.707001 168.0
97.765884 144.0
97.781624 152.0
97.85643 152.0
97.87809 52.0
97.893845 176.0
97.917473 184.0
97.938797 68.0
97.974602 60.0
98.002182 156.0
98.051453 148.0
98.071159 196.0
98.108528 180.0
98.189461 144.0
98.209282 156.0
98.234825 144.0
98.254555 176.0
98.27626 164.0
98.343353 124.0
98.44207 120.0
98.479149 232.0
98.53688 60.0
98.60434 204.0
98.654106 192.0
98.707199 156.0
98.732574 200.0
98.75631 212.0
98.794815 224.0
98.821594 60.0
98.836845 192.0
98.844406 136.0
98.867104 204.0
98.882942 148.0
98.924507 104.0
98.995789 184.0
99.033417 104.0
99.073036 124.0
99.172112 56.0
99.213249 160.0
99.310913 268.0
99.354553 184.0
99.380341 96.0
99.447815 128.0
99.483551 164.0
99.499428 124.0
99.523254 36.0
99.551056 148.0
99.596741 120.0
99.645302 144.0
99.681465 204.0
99.710052 164.0
99.813362 108.0
99.843193 152.0
99.894913 124.0
99.926743 184.0
99.984451 148.0
100.001526 204.0
100.018288 96.0
100.103897 140.0
100.119827 116.0
100.24733 216.0
100.275047 132.0
100.30114 64.0
100.331398 188.0
100.354973 160.0
100.386871 232.0
100.494591 52.0
100.52652 212.0
100.544479 192.0
100.578407 168.0
100.608353 192.0
100.684227 176.0
100.80143 144.0
100.926033 124.0
100.949875 160.0
100.983231 192.0
101.024033 68.0
101.046036 176.0
101.111763 128.0
101.126083 116.0
101.164764 284.0
101.202156 72.0
101.256226 96.0
101.274254 188.0
101.412842 168.0
101.464622 48.0
101.54689 168.0
101.562798 176.0
101.615044 124.0
101.653168 216.0
101.690865 200.0
101.727432 120.0
101.789673 204.0
101.840866 188.0
101.861977 136.0
101.895432 284.0
101.922249 196.0
101.986565 52.0
102.00264 108.0
102.032799 180.0
102.054916 176.0
102.109207 160.0
102.136475 144.0
102.190315 148.0
102.314461 200.0
102.348686 172.0
102.401047 212.0
102.449394 212.0
102.474091 140.0
102.50782 180.0
102.523949 132.0
102.584412 152.0
102.663048 76.0
102.707848 152.0
102.723328 176.0
102.77198 184.0
102.786102 188.0
102.83651 160.0
102.917305 100.0
102.935478 160.0
102.963753 220.0
102.979912 92.0
102.993584 132.0
103.052452 176.0
103.082314 216.0
103.099113 92.0
103.113258 164.0
103.184013 172.0
103.200188 120.0
103.222427 180.0
103.239021 204.0
103.2649 120.0
103.287148 184.0
103.390335 120.0
103.438919 52.0
103.483452 144.0
103.556358 292.0
103.570435 164.0
103.586739 140.0
103.600922 152.0
103.639664 164.0
103.722031 204.0
103.848228 192.0
103.872566 160.0
103.901825 224.0
103.939522 168.0
103.957779 160.0
103.988228 60.0
104.020699 300.0
104.047096 336.0
104.063019 436.0
104.091766 148.0
104.108009 68.0
104.195351 164.0
104.229759 176.0
104.307121 176.0
104.337616 140.0
104.372185 152.0
104.388451 136.0
104.445396 132.0
104.471848 104.0
104.494286 168.0
104.510498 120.0
104.528816 84.0
104.551941 220.0
104.614296 136.0
104.646873 172.0
104.670937 176.0
104.692551 176.0
104.738518 164.0
104.799355 176.0
104.84243 168.0
104.856697 132.0
104.877075 140.0
104.893379 248.0
105.015724 92.0
105.049042 132.0
105.072098 840.0
105.10141 188.0
105.121819 100.0
105.156509 84.0
105.227959 120.0
105.305023 168.0
105.381752 188.0
105.419968 148.0
105.452667 140.0
105.47924 180.0
105.506935 184.0
105.587608 140.0
105.700127 68.0
105.728775 100.0
105.744247 236.0
105.759476 200.0
105.80246 180.0
105.847511 144.0
105.882324 132.0
105.925339 176.0
105.9786 140.0
106.005241 108.0
106.05278 144.0
106.072151 220.0
106.10363 144.0
106.128235 164.0
106.146683 104.0
106.171295 192.0
106.253342 56.0
106.284119 120.0
106.327217 36.0
106.408432 248.0
106.448341 296.0
106.475037 128.0
106.589973 152.0
106.692848 120.0
106.714508 180.0
106.760704 192.0
106.791557 88.0
106.838867 252.0
106.925293 228.0
106.954056 176.0
106.980865 172.0
107.032173 136.0
107.061172 180.0
107.079704 52.0
107.120544 384.0
107.166229 128.0
107.201256 156.0
107.23835 116.0
107.273399 36.0
107.291946 164.0
107.345558 144.0
107.368202 184.0
107.43132 204.0
107.448692 196.0
107.482811 176.0
107.511658 364.0
107.53949 128.0
107.566322 160.0
107.62851 164.0
107.65625 180.0
107.700325 212.0
107.751236 200.0
107.769073 140.0
107.838982 140.0
107.905342 116.0
108.002327 116.0
108.046944 176.0
108.089218 204.0
108.12854 152.0
108.176857 192.0
108.206062 160.0
108.24987 112.0
108.26725 212.0
108.298317 152.0
108.314888 144.0
108.367073 316.0
108.389473 132.0
108.408127 168.0
108.423759 244.0
108.456482 300.0
108.481796 140.0
108.505295 132.0
108.542801 120.0
108.569832 68.0
108.642426 116.0
108.663589 188.0
108.678139 188.0
108.702599 188.0
108.7192 100.0
108.733727 124.0
108.754135 332.0
108.784019 552.0
108.811775 200.0
108.847267 168.0
108.874359 92.0
108.902824 196.0
108.908569 316.0
108.933769 204.0
108.952057 448.0
108.966858 572.0
108.986916 608.0
109.013733 684.0
109.046341 212764.0
109.129929 156.0
109.16391 36.0
109.201797 228.0
109.239067 844.0
109.267792 380.0
109.30146 268.0
109.317863 68.0
109.365173 1248.0
109.389137 6472.0
109.417557 276.0
109.424484 156.0
109.449333 120.0
109.475204 116.0
109.513702 60.0
109.529449 80.0
109.536537 96.0
109.554535 124.0
109.577393 180.0
109.5914 120.0
109.59626 84.0
109.61348 124.0
109.661491 220.0
109.687927 48.0
109.69136 80.0
109.712891 204.0
109.734306 84.0
109.760048 96.0
109.784355 208.0
109.819984 68.0
109.8657 100.0
109.888649 116.0
109.908112 148.0
109.930763 156.0
109.950317 240.0
109.977692 48.0
110.014175 80.0
110.048645 33040.0
110.101936 184.0
110.1175 80.0
110.136612 116.0
110.153793 56.0
110.183823 100.0
110.199203 152.0
110.218636 60.0
110.240135 196.0
110.277512 96.0
110.292511 124.0
110.330093 44.0
110.369522 60.0
110.391541 96.0
110.417343 144.0
110.438133 112.0
110.465263 92.0
110.482002 40.0
110.511292 44.0
110.552841 64.0
110.573814 132.0
110.604813 152.0
110.63031 148.0
110.644775 108.0
110.685547 144.0
110.699097 128.0
110.717857 104.0
110.732834 236.0
110.74118 200.0
110.760201 104.0
110.788216 180.0
110.809219 136.0
110.834648 200.0
110.865585 112.0
110.899887 332.0
110.917336 68.0
110.939384 120.0
110.954987 296.0
111.000984 224.0
111.052254 676.0
111.083244 36.0
111.139885 136.0
111.165421 48.0
111.19809 120.0
111.251122 80.0
111.282616 36.0
111.303612 104.0
111.364517 196.0
111.421783 184.0
111.473763 76.0
111.525284 72.0
111.551529 28.0
111.589371 56.0
111.607147 88.0
111.69873 60.0
111.719772 76.0
111.749222 68.0
111.781685 48.0
111.799728 48.0
111.82077 96.0
111.857643 108.0
111.899132 160.0
111.931381 112.0
111.957619 152.0
111.990868 56.0
112.007805 92.0
112.01371 76.0
112.021774 140.0
112.046089 128.0
112.062943 160.0
112.144539 100.0
112.199944 36.0
112.48204 116.0
112.510071 88.0
112.537514 92.0
112.660011 76.0
112.68325 104.0
112.719177 148.0
112.818512 76.0
112.838272 116.0
112.953857 108.0
112.97924 136.0
113.042717 76.0
113.125259 64.0
113.258667 84.0
113.28521 68.0
113.31163 92.0
113.362488 40.0
113.631783 60.0
113.733643 188.0
113.748505 256.0
113.831306 76.0
113.965126 32.0
114.062889 108.0
114.147934 88.0
114.411766 144.0
114.50972 72.0
114.624763 76.0
114.654602 104.0
114.754784 120.0
114.812363 108.0
114.840088 36.0
114.940361 44.0
115.054474 172.0
115.175201 64.0
115.213654 100.0
115.271347 136.0
115.472305 280.0
115.769791 60.0
115.80191 124.0
115.864037 84.0
116.016281 100.0
116.056931 84.0
116.188835 88.0
116.228531 132.0
116.315063 100.0
116.378784 72.0
116.398109 116.0
116.477577 80.0
116.505501 196.0
116.582855 84.0
116.602196 76.0
116.64949 152.0
116.705383 144.0
116.810768 120.0
116.849495 64.0
116.875313 88.0
116.942024 172.0
117.019798 124.0
117.060326 408.0
117.112122 116.0
117.142281 64.0
117.278038 128.0
117.336296 144.0
117.343521 116.0
117.460396 112.0
117.528198 52.0
117.564888 92.0
117.685768 64.0
117.761353 64.0
117.860725 52.0
117.942856 48.0
117.966629 44.0
118.046631 116.0
118.065491 380.0
118.130981 56.0
118.159111 124.0
118.195892 160.0
118.232681 96.0
118.399384 124.0
118.44487 132.0
118.509857 88.0
118.544533 220.0
118.629059 180.0
118.709282 108.0
118.774353 104.0
118.826416 44.0
118.873138 160.0
118.943604 44.0
119.019592 392.0
119.073463 440.0
119.181213 196.0
119.3564 64.0
119.410767 44.0
119.584221 116.0
119.69368 68.0
119.726341 120.0
119.848335 52.0
120.000908 60.0
120.201584 40.0
120.316856 108.0
120.450478 176.0
120.465767 188.0
120.48761 100.0
120.854927 44.0
121.047554 108.0
121.187744 144.0
121.371864 104.0
121.461784 48.0
121.508293 80.0
121.540764 192.0
121.595627 84.0
121.644592 144.0
121.731743 36.0
121.795433 132.0
121.825668 152.0
122.230743 140.0
122.325386 84.0
122.3452 108.0
122.373817 44.0
122.395836 136.0
122.43988 96.0
122.510368 152.0
122.525787 52.0
122.644791 132.0
122.660217 52.0
122.698753 100.0
122.841042 136.0
122.916054 116.0
122.999924 116.0
123.068367 80.0
123.13903 136.0
123.172165 128.0
123.2976 176.0
123.313576 112.0
123.718376 180.0
123.76487 56.0
123.995262 108.0
124.064598 172.0
124.148239 136.0
124.190376 68.0
124.248055 136.0
124.365662 32.0
125.090317 156.0
125.119255 40.0
125.168243 44.0
125.203873 104.0
125.310799 140.0
125.379875 80.0
125.422455 76.0
125.466805 172.0
125.745644 136.0
125.781357 76.0
125.917557 76.0
126.011375 244.0
126.096298 96.0
126.241615 228.0
126.337791 180.0
126.521309 100.0
126.561607 64.0
126.864075 136.0
126.924606 124.0
127.021049 124.0
127.395935 196.0
127.501549 188.0
127.573471 196.0
127.595955 84.0
127.654419 124.0
127.751137 176.0
127.796127 192.0
128.009979 112.0
128.041504 136.0
128.064026 36.0
128.217239 124.0
128.84906 112.0
129.03891 196.0
129.339783 228.0
129.550385 288.0
129.600235 112.0
129.919907 56.0
130.040176 128.0
130.066772 228.0
130.146881 52.0
130.192291 52.0
130.455872 144.0
130.644623 116.0
130.731079 172.0
130.749283 164.0
130.801636 76.0
131.068527 160.0
131.207138 68.0
131.321152 148.0
131.373627 108.0
131.435226 160.0
131.503693 60.0
131.752594 160.0
132.08049 2844.0
132.10466 140.0
132.692169 176.0
132.750565 172.0
133.048843 172.0
133.086151 212.0
133.717773 140.0
134.086273 184.0
134.16925 136.0
134.686172 136.0
134.743927 176.0
135.056641 160.0
135.14624 168.0
135.171692 120.0
135.463409 160.0
135.713715 160.0
135.785614 136.0
135.945679 196.0
135.996674 128.0
136.14534 92.0
136.233597 192.0
136.39859 128.0
136.437042 140.0
136.526474 96.0
136.552048 176.0
136.617188 116.0
136.64975 116.0
136.78241 64.0
137.047913 44.0
137.068878 132.0
137.747818 196.0
138.222427 140.0
138.31839 176.0
138.433105 108.0
138.513916 200.0
138.791641 152.0
138.923828 132.0
139.002747 204.0
139.347916 144.0
139.735855 92.0
139.794693 96.0
139.990646 412.0
140.023056 112.0
140.494492 120.0
140.775375 40.0
140.954895 60.0
140.990356 20.0
141.401871 196.0
141.435013 108.0
141.463409 56.0
141.51651 128.0
141.603119 184.0
141.987488 188.0
142.193481 184.0
142.259933 152.0
142.521194 196.0
142.680435 40.0
142.758911 92.0
143.063461 128.0
143.225403 148.0
143.349289 172.0
143.95282 112.0
143.979095 144.0
144.100922 208.0
144.131989 124.0
144.253876 208.0
144.40213 100.0
144.438004 44.0
144.461929 164.0
145.072586 124.0
145.348419 120.0
145.626892 180.0
145.684555 120.0
145.811905 200.0
145.82872 224.0
145.994919 124.0
146.040314 76.0
146.712158 80.0
146.849609 148.0
146.885788 112.0
147.090073 340.0
147.298569 128.0
147.383133 124.0
147.421722 156.0
147.653885 140.0
147.859528 104.0
147.956345 32.0
148.397308 144.0
148.438522 160.0
148.462769 32.0
148.564651 88.0
148.671417 156.0
148.717529 180.0
148.851059 88.0
149.067245 108.0
149.237411 200.0
149.368729 28.0
149.928741 128.0
150.014053 92.0
150.807373 164.0
150.988312 192.0
151.010315 32.0
151.157104 180.0
151.460693 212.0
151.757233 160.0
151.89212 156.0
151.950989 156.0
152.014023 192.0
152.039322 176.0
152.084717 268.0
152.174347 148.0
152.292221 92.0
152.331512 192.0
152.356079 52.0
152.572357 68.0
152.697769 232.0
152.980743 40.0
153.02066 584.0
153.080521 204.0
153.651077 144.0
153.683151 156.0
153.764587 188.0
154.00531 160.0
154.022766 284.0
154.312988 124.0
154.887131 152.0
155.022995 332.0
155.144852 36.0
155.608795 84.0
155.651001 140.0
155.727997 148.0
155.785126 68.0
156.108246 196.0
156.27739 112.0
156.695679 168.0
156.802826 76.0
156.852676 96.0
156.954895 152.0
157.065857 480.0
157.191879 36.0
157.396576 100.0
157.556427 212.0
157.658875 88.0
157.972443 168.0
158.003937 156.0
158.038101 140.0
158.074005 612.0
158.111542 212.0
158.261734 64.0
158.359406 124.0
158.422028 80.0
158.60788 120.0
158.790497 168.0
158.920944 108.0
158.978683 436.0
159.07959 1024.0
159.453323 124.0
159.485992 108.0
159.53125 164.0
159.551361 100.0
159.618759 144.0
159.976257 172.0
160.083817 196.0
160.578751 152.0
160.621628 152.0
160.976791 260.0
161.053223 188.0
161.29837 52.0
161.447556 84.0
161.890427 76.0
161.943619 144.0
161.966415 156.0
161.989212 140.0
162.06015 204.0
162.077881 244.0
162.331375 100.0
162.564819 148.0
162.694214 152.0
162.742447 104.0
162.977402 652.0
163.007935 132.0
163.512711 152.0
163.822403 192.0
163.996506 160.0
164.002533 152.0
164.012604 208.0
164.3358 88.0
164.389389 100.0
164.578293 132.0
164.72641 204.0
164.774963 124.0
164.797958 108.0
164.836273 124.0
164.970581 172.0
164.994751 120.0
165.019638 1360.0
165.846054 80.0
165.872314 196.0
166.028503 280.0
166.285797 140.0
166.65303 144.0
166.686432 168.0
166.995605 152.0
167.020233 468.0
167.115845 216.0
167.136429 80.0
167.175034 92.0
167.19519 168.0
167.239365 72.0
167.52005 56.0
167.566422 192.0
167.705582 48.0
167.73909 200.0
168.012665 120.0
168.04361 152.0
168.069214 144.0
168.120819 132.0
168.164688 128.0
168.404816 132.0
168.561844 164.0
168.77179 112.0
168.885574 56.0
168.99913 232.0
169.032043 296.0
169.356659 124.0
169.785355 180.0
169.830994 72.0
169.916611 60.0
170.010025 104.0
170.030777 188.0
170.334564 96.0
170.438492 144.0
170.49826 180.0
170.591843 128.0
170.962875 172.0
171.021042 132.0
171.073105 176.0
171.117355 96.0
171.174652 144.0
171.753235 156.0
171.779312 256.0
171.831497 116.0
171.971512 7228.0
172.006348 76.0
172.084991 160.0
172.139496 48.0
172.23613 68.0
172.44516 180.0
172.507904 120.0
172.544495 148.0
172.881058 144.0
172.905487 164.0
172.976898 400.0
173.093033 184.0
173.230164 100.0
173.269669 100.0
173.311386 56.0
173.576126 180.0
173.662674 200.0
173.696777 188.0
173.720383 64.0
173.838455 64.0
173.96965 4652.0
174.0327 96.0
174.124619 64.0
174.237564 52.0
174.319031 96.0
174.492508 272.0
174.560867 180.0
174.608215 176.0
174.655548 88.0
174.794998 64.0
174.897629 132.0
174.969696 320.0
175.123199 132.0
175.36911 112.0
175.535202 128.0
175.624878 168.0
175.983643 728.0
176.184509 128.0
176.332489 100.0
177.02298 152.0
177.044174 140.0
177.086548 176.0
177.351501 160.0
177.614014 220.0
178.073212 104.0
178.466522 108.0
178.560776 36.0
178.586182 212.0
178.767105 132.0
179.051956 68.0
179.235779 144.0
179.715729 152.0
180.386078 144.0
180.506393 168.0
180.870255 120.0
180.955933 112.0
180.982697 116.0
181.620529 112.0
181.722473 144.0
182.186951 168.0
182.444946 212.0
182.547119 144.0
183.064941 180.0
183.689102 136.0
183.89418 212.0
183.945465 172.0
184.064255 100.0
184.461411 164.0
184.661514 84.0
185.072845 148.0
185.110764 148.0
185.145966 60.0
185.452118 56.0
185.579544 68.0
185.617493 100.0
185.685303 132.0
185.720551 176.0
185.788376 92.0
185.969955 196.0
186.002762 136.0
186.116791 128.0
186.14122 52.0
186.40744 220.0
186.630341 220.0
186.75 168.0
186.820724 120.0
186.960541 324.0
187.18544 76.0
187.359756 240.0
187.471466 116.0
188.270798 100.0
188.976059 496.0
189.025314 196.0
189.12384 72.0
189.320969 116.0
189.383957 156.0
189.499023 148.0
189.638779 156.0
189.679901 76.0
189.985611 300.0
190.09404 128.0
190.168137 176.0
190.195587 84.0
190.86319 120.0
190.901688 240.0
191.562256 76.0
191.981094 120.0
192.030273 272.0
192.113617 92.0
192.160507 116.0
192.179825 112.0
192.814972 184.0
193.038391 708.0
193.108032 64.0
193.227356 212.0
193.260193 148.0
193.750244 148.0
193.822281 124.0
193.844452 132.0
193.976822 164.0
194.048325 19428.0
194.143616 136.0
194.173462 124.0
194.265747 152.0
194.360229 52.0
194.385208 44.0
194.529526 36.0
194.562836 36.0
194.596161 80.0
194.634369 128.0
194.654465 72.0
194.805649 64.0
194.881363 140.0
194.93782 40.0
194.992188 616.0
195.049316 1656.0
195.307587 36.0
195.446701 60.0
195.560791 92.0
195.652664 120.0
195.695221 112.0
195.726044 156.0
195.881012 76.0
195.903305 36.0
195.950394 204.0
196.044601 5016.0
196.126221 76.0
196.19754 96.0
196.296295 136.0
196.335342 152.0
196.377167 40.0
196.505493 60.0
196.526947 132.0
196.549576 120.0
196.600723 124.0
196.642227 160.0
196.832077 36.0
196.988373 228.0
197.05278 576.0
197.083466 176.0
197.117004 192.0
197.30986 88.0
197.99823 168.0
198.054245 60.0
198.085236 124.0
198.443771 128.0
198.926331 56.0
198.983292 648.0
199.078888 204.0
199.111649 72.0
199.134109 88.0
199.274567 56.0
199.434753 164.0
199.989609 4104.0
200.084579 32.0
200.109924 100.0
200.309875 164.0
200.397202 56.0
200.467651 40.0
200.760834 44.0
200.918793 168.0
200.98082 712.0
201.271606 52.0
201.302673 56.0
201.825439 156.0
201.988785 3024.0
202.029083 96.0
202.074341 76.0
202.159225 92.0
202.555618 104.0
202.606613 96.0
202.995667 380.0
203.065826 128.0
203.258743 192.0
203.636322 56.0
203.749939 32.0
203.982971 116.0
204.133667 136.0
204.294495 168.0
204.392532 116.0
204.517746 92.0
204.662933 176.0
204.856613 140.0
204.942078 152.0
205.036118 188.0
205.167236 80.0
205.231339 208.0
206.048248 896.0
206.480759 44.0
206.52652 264.0
206.706757 136.0
206.904251 164.0
207.018784 216.0
207.052475 168.0
207.388382 48.0
207.422775 100.0
208.063202 324.0
208.111313 44.0
208.252029 88.0
209.06279 316.0
209.149139 48.0
209.215347 80.0
209.244141 132.0
210.073196 288.0
210.281906 28.0
210.995407 96.0
211.085037 128.0
211.772934 116.0
211.796997 72.0
212.049088 108.0
212.072266 132.0
212.675583 84.0
212.78009 128.0
212.884628 52.0
213.001144 956.0
213.079239 160.0
213.131531 92.0
213.169312 184.0
213.742172 136.0
213.994446 48.0
214.103149 160.0
214.773514 148.0
214.832504 112.0
214.993988 564.0
215.041946 184.0
215.065308 56.0
215.699158 172.0
215.748856 64.0
215.827805 100.0
215.909683 168.0
215.991577 160.0
216.41008 52.0
216.993134 140.0
217.013657 100.0
217.128021 140.0
217.236557 144.0
217.459564 60.0
217.59166 172.0
217.621017 72.0
217.81485 124.0
218.029343 188.0
218.19101 148.0
218.620468 100.0
218.99437 52.0
219.027023 140.0
219.065063 56.0
219.398071 148.0
219.574997 64.0
219.625137 180.0
219.728394 52.0
220.185928 128.0
220.268631 232.0
220.395676 140.0
220.537537 232.0
221.463654 152.0
221.653259 76.0
221.970444 92.0
222.074249 96.0
222.418442 60.0
223.063034 132.0
223.857437 124.0
224.036148 120.0
224.577454 176.0
225.059158 152.0
225.127838 108.0
225.1577 68.0
225.217438 148.0
225.749435 248.0
226.081497 212.0
226.11142 156.0
226.249115 48.0
226.347931 100.0
227.03717 152.0
227.109161 144.0
227.639969 88.0
227.799561 56.0
227.890488 132.0
227.937775 164.0
228.008682 3332.0
228.054977 160.0
228.100067 68.0
228.217316 40.0
228.370682 140.0
228.457916 184.0
228.516739 240.0
228.545181 328.0
228.57991 140.0
228.653503 116.0
228.704681 120.0
228.816055 56.0
228.921448 192.0
229.016663 28992.0
229.084091 40.0
229.120697 136.0
229.174484 64.0
229.219681 72.0
229.24379 92.0
229.304062 52.0
229.334198 40.0
229.384949 48.0
229.432724 140.0
229.474716 216.0
229.560318 52.0
229.608566 44.0
229.641754 136.0
229.665741 88.0
229.726212 64.0
229.756378 72.0
229.813705 84.0
229.834824 52.0
229.874054 184.0
229.943466 156.0
230.016968 2808.0
230.163834 84.0
230.207184 68.0
230.226196 68.0
230.278595 36.0
230.342026 100.0
230.395294 168.0
230.416153 172.0
230.456833 36.0
230.51123 72.0
230.574692 60.0
230.635132 32.0
230.84375 152.0
230.889114 96.0
230.935013 320.0
230.958679 112.0
231.013931 18428.0
231.133698 44.0
231.186752 136.0
231.253632 116.0
231.330872 44.0
231.430786 204.0
231.474579 52.0
231.622513 128.0
231.654907 60.0
231.727615 96.0
231.74971 96.0
231.788864 56.0
231.839737 100.0
231.888229 48.0
231.967041 152.0
232.01619 852.0
232.085281 32.0
232.124695 32.0
232.161087 108.0
232.239944 120.0
232.370392 68.0
232.591919 44.0
232.66861 92.0
232.740677 48.0
232.761948 76.0
232.871277 68.0
232.922913 104.0
233.016876 304.0
233.049255 176.0
233.175095 76.0
233.302765 68.0
233.433502 84.0
233.539963 100.0
233.622086 92.0
233.707275 44.0
233.832047 100.0
233.883789 120.0
233.91423 64.0
234.118225 76.0
234.392395 92.0
234.678925 292.0
234.922913 176.0
235.264709 152.0
236.962097 96.0
237.082794 352.0
237.112244 40.0
237.937408 132.0
238.093552 132.0
238.161575 148.0
238.502655 56.0
238.634842 72.0
238.680969 76.0
239.086319 172.0
239.588943 104.0
240.101944 160.0
240.872269 132.0
240.964951 200.0
241.032928 136.0
241.725586 76.0
241.948456 68.0
242.022461 128.0
242.478149 92.0
243.489578 124.0
243.610718 112.0
243.884171 80.0
244.036499 188.0
245.054276 148.0
245.309845 48.0
245.790146 56.0
246.050018 260.0
246.420868 136.0
246.545868 156.0
247.036774 188.0
247.781876 72.0
248.063919 292.0
248.117218 180.0
248.164246 128.0
248.83255 52.0
248.917328 120.0
250.061661 80.0
250.839676 224.0
251.022552 152.0
251.625214 148.0
252.089539 144.0
252.307648 56.0
252.889694 112.0
253.697449 28.0
255.056122 176.0
255.950104 56.0
258.01767 144.0
258.052826 156.0
258.0784 112.0
258.77594 68.0
258.996887 236.0
259.070587 72.0
259.166687 100.0
260.051178 140.0
260.096741 60.0
260.388947 160.0
261.231079 128.0
261.475647 156.0
262.045593 164.0
263.743103 88.0
264.059967 116.0
266.108002 136.0
266.59198 92.0
267.121979 200.0
268.122833 2028.0
268.238922 40.0
268.275635 132.0
269.139282 156.0
271.039825 76.0
273.056976 160.0
273.29895 88.0
273.901398 52.0
274.029907 156.0
274.052948 124.0
274.076019 204.0
274.161713 48.0
274.715637 40.0
274.946625 108.0
275.045624 136.0
276.912811 120.0
277.324646 92.0
277.828705 44.0
278.618835 152.0
280.039246 88.0
280.70578 64.0
281.196198 164.0
281.994446 116.0
282.017853 120.0
282.134857 136.0
282.656616 60.0
283.054962 44.0
283.0784 216.0
285.081146 176.0
286.063263 176.0
286.319183 124.0
287.968445 36.0
287.99884 128.0
289.182251 96.0
291.569946 144.0
292.982086 40.0
294.664062 44.0
295.210968 196.0
295.306732 36.0
295.337524 84.0
296.289185 148.0
298.355225 60.0
300.011169 92.0
300.118042 120.0
302.082428 328.0
302.584991 140.0
302.713104 52.0
302.827393 144.0
303.093353 1876.0
303.322906 40.0
303.409576 104.0
303.856964 36.0
304.037415 56.0
304.094177 536.0
304.148468 64.0
304.724945 92.0
305.089661 252.0
306.097198 156.0
306.516907 180.0
306.903839 120.0
308.705688 48.0
310.923279 88.0
311.056641 132.0
312.103607 104.0
314.573364 96.0
317.545654 144.0
318.054962 4508.0
318.283813 108.0
318.461395 44.0
318.827332 72.0
318.93042 72.0
319.059631 624.0
319.371338 64.0
319.563416 64.0
319.744904 80.0
320.052307 2152.0
320.108032 32.0
320.343109 72.0
320.425049 68.0
320.706573 40.0
320.774292 116.0
321.056396 532.0
321.170105 72.0
321.198639 120.0
322.207489 80.0
323.421204 120.0
326.341431 60.0
326.863007 136.0
330.757233 96.0
333.023468 72.0
336.220154 64.0
336.789734 68.0
337.125854 88.0
337.582825 120.0
337.608429 104.0
337.955933 88.0
338.010834 136.0
338.061829 6404.0
338.120605 128.0
338.238831 104.0
338.688141 96.0
338.92627 76.0
338.992218 44.0
339.065521 888.0
339.186462 40.0
339.21579 108.0
339.443115 60.0
339.564148 36.0
339.685181 40.0
339.960358 148.0
340.057709 3700.0
340.151215 232.0
340.367828 96.0
340.65683 76.0
340.929901 52.0
341.061554 820.0
341.326904 120.0
341.492401 72.0
341.518158 56.0
341.668976 76.0
341.882385 96.0
342.040649 88.0
342.232086 68.0
343.319153 104.0
344.10144 128.0
345.332001 60.0
354.955566 76.0
356.772827 84.0
356.870575 40.0
359.790497 84.0
361.094177 208.0
364.711365 48.0
364.764587 72.0
371.949921 128.0
374.144989 104.0
375.366394 48.0
376.582092 88.0
387.396149 88.0
394.966095 52.0
398.101166 64.0
405.333588 52.0
405.513916 68.0
405.698303 52.0
409.684937 72.0
409.854156 72.0
414.010956 124.0
417.135193 64.0
424.295776 84.0
429.588654 84.0
430.484314 44.0
438.09964 84.0
443.800446 60.0
444.605865 112.0
450.919128 76.0
452.099091 72.0
452.348816 116.0
457.332214 72.0
459.881104 40.0
461.572876 108.0
467.832825 76.0
471.516541 104.0
472.506775 60.0
485.671844 144.0
492.640228 84.0
496.158539 92.0
502.572144 108.0
511.477234 84.0
516.404541 64.0
534.705566 76.0
538.578552 56.0
546.911011 32.0
547.162415 92.0
547.36261 96.0
552.351807 92.0
556.119141 100.0
557.312012 32.0
562.440613 88.0
564.226318 60.0
568.152466 44.0
568.59375 124.0
569.823608 88.0
581.912292 56.0
586.77655 136.0
600.944092 84.0
603.630676 64.0
604.540588 140.0
608.638672 104.0
609.99469 104.0
610.27002 80.0
623.438904 92.0
632.286255 72.0
655.278442 64.0
684.954163 48.0
690.460754 92.0
693.927368 196.0
699.701477 48.0
710.122253 68.0
712.136108 76.0
712.707642 112.0
719.172913 136.0
730.441711 128.0
736.036072 40.0
752.122681 192.0
764.465515 84.0
767.296753 56.0
788.038269 64.0
797.121338 52.0
797.301208 152.0
797.481018 236.0
802.970642 152.0
808.156555 52.0
811.946289 148.0
822.318237 128.0
822.609375 116.0
827.091003 100.0
830.356934 84.0
832.802002 184.0
836.263367 52.0
837.380371 32.0
841.110962 144.0
841.901978 128.0
843.739502 196.0
845.509521 148.0
847.855103 40.0
850.871399 136.0
851.452087 200.0
851.626343 64.0
852.23053 144.0
856.698792 176.0
857.211548 44.0
857.712769 64.0
858.832275 252.0
860.93927 108.0
867.22876 148.0
867.381165 192.0
868.479919 52.0
874.161194 240.0
875.04187 196.0
876.09021 172.0
885.363831 176.0
886.584229 272.0
887.319275 204.0
887.722473 144.0
889.585571 192.0
890.268372 48.0
891.414917 84.0
900.655579 164.0
900.769104 36.0
901.229126 188.0
901.892456 128.0
902.185364 240.0
902.651733 184.0
903.058411 44.0
903.405396 124.0
904.165283 160.0
905.356689 136.0
906.44696 116.0
906.62677 100.0
909.109558 184.0
909.259583 176.0
909.595703 108.0
912.852173 188.0
913.700256 96.0
913.832642 192.0
914.578857 28.0
915.265198 124.0
916.578308 236.0
916.771179 120.0
917.054443 52.0
920.016235 132.0
920.544739 168.0
922.632202 172.0
922.801453 172.0
923.406189 108.0
923.587646 212.0
926.553955 184.0
927.32959 208.0
928.087402 56.0
928.790894 220.0
929.367249 64.0
929.986206 200.0
931.364563 240.0
931.595398 152.0
932.160461 188.0
932.318481 156.0
932.883728 112.0
932.932373 136.0
932.974915 100.0
933.540405 116.0
935.110046 144.0
936.577454 168.0
936.7724 180.0
937.43042 156.0
938.088684 152.0
938.326416 176.0
939.015503 196.0
939.34491 176.0
940.266235 144.0
940.540894 48.0
940.632507 116.0
940.858337 40.0
941.407898 156.0
945.044983 152.0
945.148987 204.0
945.626343 72.0
947.077515 124.0
947.460205 152.0
947.79425 132.0
948.394897 164.0
948.633911 104.0
948.701355 84.0
949.418762 164.0
949.572083 232.0
949.645691 176.0
949.909485 88.0
950.934204 152.0
951.719971 124.0
951.830505 156.0
952.475403 260.0
953.224915 152.0
953.845703 140.0
954.165344 188.0
954.386719 144.0
955.21698 192.0
956.810913 144.0
956.983276 180.0
957.383545 136.0
957.623718 180.0
957.814697 176.0
958.233582 128.0
959.786865 140.0
960.555359 152.0
961.489502 112.0
962.440125 192.0
962.755066 184.0
962.835388 112.0
963.181274 140.0
963.582825 148.0
963.650757 136.0
964.046265 136.0
964.559265 144.0
964.924011 108.0
965.078552 156.0
966.996277 104.0
967.770142 108.0
967.838257 56.0
968.017822 192.0
968.654175 124.0
969.046082 172.0
971.029785 164.0
971.104187 120.0
972.320251 128.0
972.425781 116.0
972.593323 156.0
973.66748 164.0
973.971863 156.0
974.114685 128.0
975.270508 196.0
976.719299 220.0
976.795593 196.0
977.03656 164.0
977.179688 152.0
977.353882 124.0
977.851746 164.0
978.06958 204.0
978.312378 140.0
978.623657 168.0
979.034668 72.0
979.520447 124.0
980.16217 204.0
980.841492 192.0
981.203125 72.0
981.346497 168.0
981.689453 152.0
981.769958 208.0
982.356812 148.0
982.500305 96.0
982.962036 148.0
983.67981 60.0
984.123047 120.0
984.341614 188.0
984.710083 184.0
984.99115 244.0
985.041138 128.0
985.847168 84.0
986.134644 152.0
986.284668 188.0
987.747864 196.0
987.923035 144.0
988.705139 152.0
988.884766 160.0
988.94928 156.0
989.324829 148.0
989.418762 252.0
989.581543 196.0
990.101257 172.0
990.295471 176.0
990.903076 196.0
991.040955 148.0
991.159973 136.0
991.962219 68.0
992.557861 204.0
993.875122 124.0
994.527771 168.0
994.766296 124.0
995.701904 92.0
995.865173 76.0
996.41803 188.0
996.54364 168.0
996.958374 236.0
997.285217 188.0
998.303711 168.0
998.706238 184.0
999.524109 128.0
999.65625 180.0
999.952026 156.0
1000.222717 136.0
1000.464172 192.0
1001.406494 180.0
1001.702515 160.0
1001.979736 128.0
1002.719666 196.0
1003.051025 180.0
1003.385193 60.0
1003.47345 84.0
1003.700439 180.0
1003.788696 136.0
1004.419434 148.0
1004.785278 156.0
1006.186401 240.0
1006.590515 168.0
1006.641052 136.0
1006.697876 168.0
1006.868408 172.0
1007.462158 96.0
1007.548645 192.0
1007.695923 112.0
1007.783875 156.0
1007.847534 144.0
1007.973938 172.0
1008.978943 204.0
1009.585938 172.0
1010.047668 108.0
1010.186829 152.0
1010.288025 176.0
1010.749939 168.0
1010.95874 160.0
1011.509399 204.0
1011.724609 168.0
1012.509827 152.0
1012.554138 140.0
1013.326965 140.0
1013.764221 160.0
1014.030396 128.0
1014.157166 160.0
1014.467773 168.0
1014.607239 164.0
1015.361816 168.0
1016.249939 132.0
1016.402222 252.0
1016.719482 232.0
1017.354248 176.0
1017.558289 204.0
1017.874878 168.0
1018.541748 100.0
1018.738647 120.0
1018.85907 180.0
1019.119873 160.0
1019.348633 88.0
1019.437622 96.0
1019.914246 124.0
1020.295715 204.0
1020.848877 116.0
1021.203003 148.0
1021.567627 160.0
1022.121155 144.0
1022.216614 120.0
1022.547546 192.0
1022.789429 128.0
1022.903992 120.0
1023.228638 216.0
1023.311401 172.0
1023.483337 228.0
1024.132935 328.0
1024.508789 160.0
1025.579346 124.0
1025.623901 152.0
1025.929932 52.0
1026.637695 36.0
1027.071411 148.0
1027.817871 112.0
1028.219849 188.0
1028.539062 244.0
1028.724121 92.0
1028.99231 104.0
1029.088013 156.0
1029.765015 136.0
1030.039673 184.0
1031.4646 156.0
1031.669189 44.0
1032.609131 280.0
1032.653931 148.0
1033.287231 136.0
1033.81189 172.0
1033.901489 328.0
1035.636597 216.0
1036.296509 104.0
1036.648926 200.0
1037.02063 104.0
1037.78125 140.0
1038.033569 80.0
1038.251587 160.0
1038.745483 176.0
1039.059814 192.0
1039.598877 72.0
1039.662964 108.0
1039.778564 132.0
1039.990356 104.0
1040.105835 200.0
1040.221436 92.0
1041.06897 168.0
1041.602051 108.0
1041.873779 124.0
1042.220093 136.0
1042.315186 136.0
1042.623657 152.0
1042.745728 148.0
1042.964355 188.0
1043.234253 44.0
1043.343628 104.0
1043.39502 256.0
1043.459351 176.0
1043.626465 156.0
1043.780762 188.0
1043.832275 168.0
1043.915894 224.0
1044.057373 140.0
1044.687744 168.0
1045.015869 248.0
1045.665771 144.0
1046.14856 32.0
1046.413574 176.0
1046.567017 156.0
1046.721558 164.0
1046.837524 136.0
1046.92334 272.0
1046.972778 64.0
1047.404297 164.0
1048.80896 108.0
1048.892822 160.0
1048.983032 128.0
1049.150635 36.0
1049.251831 116.0
1049.274902 160.0
1049.343994 220.0
1049.672852 44.0
1050.014648 72.0
1050.853271 180.0
1050.959473 152.0
1051.053345 120.0
1051.119385 196.0
1051.517944 68.0
1051.724487 148.0
1052.169922 156.0
1052.581543 176.0
1052.931885 180.0
1053.300049 196.0
1054.133545 172.0
1054.430786 188.0
1054.915649 160.0
1055.27124 56.0
1055.665649 148.0
1055.781982 156.0
1055.911377 196.0
1056.27356 204.0
1056.629395 148.0
1056.836426 148.0
1057.023438 128.0
1057.205322 180.0
1057.943237 192.0
1058.059692 120.0
1058.137573 200.0
1058.435303 144.0
1058.538818 140.0
1058.661865 216.0
1058.713623 180.0
1059.063477 168.0
1059.452148 204.0
1059.523438 148.0
1059.750122 80.0
1060.054688 120.0
1060.106567 160.0
1060.242676 196.0
1060.76123 152.0
1060.838989 136.0
1060.962158 192.0
1061.150146 136.0
1061.240967 120.0
1061.552246 280.0
1061.623535 216.0
1061.986694 124.0
1062.875488 112.0
1063.329834 148.0
1063.492065 176.0
1063.803589 172.0
1063.99292 184.0
1064.095825 168.0
1064.979004 164.0
1065.206299 72.0
1065.492188 164.0
1065.745605 164.0
1065.804077 152.0
1066.083496 152.0
1066.219971 196.0
1066.291382 144.0
1066.765991 228.0
1066.886108 172.0
1066.94458 92.0
1067.279541 88.0
1067.539673 148.0
1067.689209 160.0
1067.994995 136.0
1068.183594 424.0
1068.235596 148.0
1068.905762 132.0
1069.498047 176.0
1069.589111 136.0
1069.751831 180.0
1070.096924 128.0
1070.208008 196.0
1070.409424 128.0
1070.461548 180.0
1071.080322 104.0
1071.542847 188.0
1071.716064 108.0
1071.875122 160.0
1071.940308 132.0
1072.370483 196.0
1072.611572 148.0
1073.002808 172.0
1073.237549 176.0
1073.387451 48.0
1073.517944 52.0
1073.761475 164.0
1073.837524 220.0
1074.372314 220.0
1074.763794 164.0
1074.81604 40.0
1075.684082 92.0
1075.906006 168.0
1076.285034 156.0
1076.865967 164.0
1077.746704 184.0
1078.129517 208.0
1078.251099 220.0
1079.38855 228.0
1079.682861 144.0
1080.003296 68.0
1080.291138 148.0
1080.952026 212.0
1081.554077 176.0
1082.308594 240.0
1082.379028 148.0
1082.614746 160.0
1082.902954 180.0
1082.955322 156.0
1083.263184 156.0
1083.70874 144.0
1084.121582 172.0
1084.180542 176.0
1084.331299 120.0
1084.593384 124.0
1084.719604 168.0
1084.803223 148.0
1085.019531 244.0
1085.28833 164.0
1085.550537 188.0
1085.806396 172.0
1085.885132 204.0
1086.029419 216.0
1086.226196 120.0
1086.294434 156.0
1086.593628 168.0
1087.01355 56.0
1087.289185 196.0
1087.446655 44.0
1087.564819 120.0
1088.026978 280.0
1088.625122 208.0
1089.044067 188.0
1089.1604 136.0
1089.265503 140.0
1089.383789 128.0
1089.988281 180.0
1090.113037 156.0
1090.658569 136.0
1091.000488 140.0
1091.05957 160.0
1091.454102 108.0
1091.796021 144.0
1092.315674 172.0
1092.466919 232.0
1093.141724 152.0
1093.322388 212.0
1093.486938 220.0
1093.539551 128.0
1093.907715 156.0
1094.33606 144.0
1094.507324 112.0
1094.987549 156.0
1095.46228 156.0
1096.140991 148.0
1096.299072 36.0
1096.404541 164.0
1096.450684 176.0
1096.635254 156.0
1096.773682 132.0
1097.663696 72.0
1098.653076 160.0
1099.629639 132.0
1099.761597 188.0
1099.834229 180.0
1099.916016 212.0
1099.979492 144.0
1100.170898 196.0
1100.474609 160.0
1100.646362 160.0
1100.745361 136.0
1100.84436 240.0
1101.275024 164.0
1101.346313 156.0
1101.610596 60.0
1101.769165 36.0
1101.81543 100.0
1102.317505 88.0
1102.829468 124.0
1102.988892 192.0
1103.130493 124.0
1103.315674 132.0
1103.480957 132.0
1103.575195 184.0
1103.685913 172.0
1103.73877 216.0
1103.870972 212.0
1104.056152 152.0
1104.234741 184.0
1104.314087 184.0
1104.697754 180.0
1104.810303 188.0
1105.068237 60.0
1105.220459 136.0
1105.273438 180.0
1105.696899 236.0
1106.02124 60.0
1106.25293 48.0
1106.400391 200.0
1106.617065 184.0
1106.696533 188.0
1107.054077 192.0
1107.133545 200.0
1107.988037 164.0
1108.166992 240.0
1108.895874 132.0
1109.061646 152.0
1109.167725 136.0
1109.552124 176.0
1109.78418 124.0
1109.948242 132.0
1110.129028 180.0
1110.258911 188.0
1110.613159 192.0
1111.051025 172.0
1111.356201 52.0
1111.475708 144.0
1111.588501 224.0
1111.972778 168.0
1112.066284 40.0
1112.770996 108.0
1112.832275 164.0
1113.09314 240.0
1113.467285 204.0
1113.619995 196.0
1113.819214 308.0
1114.091675 192.0
1114.168335 152.0
1114.304199 164.0
1114.375366 204.0
1114.484253 164.0
1114.789307 212.0
1115.314331 104.0
1115.380859 188.0
1115.427368 136.0
1115.779663 184.0
1116.291748 140.0
1116.810425 184.0
1116.93689 144.0
1117.043213 72.0
1117.242798 116.0
1117.522217 136.0
1117.775146 192.0
1117.881592 180.0
1117.961426 188.0
1118.014648 116.0
1118.467285 196.0
1118.766846 188.0
1118.973267 216.0
1119.539185 116.0
1119.785645 148.0
1120.71167 136.0
1120.878174 156.0
1121.104858 200.0
1121.424683 108.0
1121.491333 72.0
1121.838013 52.0
1121.931274 124.0
1122.311401 136.0
1122.444702 28.0
1122.498047 124.0
1122.578125 180.0
1122.864868 96.0
1122.962402 200.0
1122.989258 124.0
1123.006348 156.0
1123.160522 220.0
1123.332764 160.0
1123.598633 72.0
1123.73877 132.0
1123.825439 172.0
1124.045654 68.0
1124.312622 136.0
1124.592896 160.0
1124.906616 172.0
1125.431519 188.0
1125.574341 68.0
1125.781372 164.0
1126.008423 124.0
1126.307251 196.0
1126.522705 180.0
1126.5896 64.0
1126.783325 156.0
1126.91687 144.0
1127.237671 232.0
1127.678711 92.0
1128.520996 56.0
1128.594604 304.0
1128.688232 72.0
1128.822021 204.0
1129.116211 32.0
1129.287598 172.0
1129.357056 136.0
1129.484131 200.0
1129.589478 224.0
1129.857788 136.0
1130.186523 140.0
1130.507812 128.0
1130.561279 148.0
1130.762085 80.0
1130.849121 184.0
1131.538574 140.0
1131.712646 88.0
1131.917358 152.0
1132.130737 156.0
1132.201538 216.0
1132.37561 212.0
1132.516357 220.0
1132.630127 212.0
1132.703857 160.0
1133.186279 164.0
1133.326904 100.0
1133.382935 156.0
1133.454224 176.0
1133.608398 180.0
1134.41272 180.0
1134.774658 68.0
1135.230713 204.0
1135.358154 184.0
1135.545898 160.0
1135.666016 132.0
1136.270386 172.0
1136.357544 80.0
1136.417969 140.0
1136.746826 140.0
1136.800415 136.0
1136.894775 156.0
1137.129272 164.0
1137.639404 140.0
1137.760254 132.0
1137.84082 144.0
1137.934814 172.0
1138.062378 48.0
1138.403564 180.0
1138.660156 236.0
1138.78772 196.0
1138.942261 52.0
1139.345215 112.0
1139.620728 96.0
1140.2323 132.0
1140.326294 128.0
1140.689331 156.0
1140.756592 72.0
1140.837158 112.0
1141.011963 116.0
1141.348145 116.0
1141.601196 200.0
1141.960205 112.0
1142.296509 152.0
1142.870728 184.0
1143.218262 180.0
1143.467285 48.0
1143.642334 36.0
1143.857666 180.0
1144.167358 180.0
1144.241211 156.0
1144.389526 192.0
1144.625244 168.0
1144.817749 248.0
1144.982178 124.0
1145.042725 176.0
1145.238037 176.0
1145.537842 200.0
1145.662476 192.0
1145.810669 148.0
1146.073486 128.0
1146.235229 144.0
1146.336304 104.0
1146.558716 160.0
1146.704346 196.0
1147.110107 156.0
1147.239502 120.0
1147.401245 128.0
1147.657471 132.0
1147.832764 100.0
1148.298096 204.0
1148.53418 80.0
1148.594849 96.0
1148.851196 156.0
1148.898438 164.0
1148.965942 132.0
1149.181885 144.0
1149.364014 132.0
1149.444946 280.0
1149.566406 120.0
1150.143311 168.0
1150.470947 144.0
1150.822021 28.0
1151.429443 176.0
1152.02417 212.0
1152.139038 104.0
1152.193115 92.0
1152.307983 128.0
1152.443115 148.0
1152.598511 188.0
1152.936646 172.0
1153.031006 160.0
1153.260742 112.0
1153.335083 176.0
1153.963867 72.0
1154.112549 240.0
1154.254639 168.0
1154.592773 156.0
1155.086426 124.0
1155.417969 88.0
1155.932251 192.0
1156.397217 184.0
1156.415771 132.0
1156.442261 112.0
1156.462402 172.0
1156.859497 172.0
1156.90686 80.0
1156.988037 116.0
1157.062622 112.0
1157.123291 148.0
1157.221436 160.0
1157.570435 132.0
1157.631348 284.0
1158.193481 176.0
1158.410278 92.0
1158.525391 40.0
1158.57959 188.0
1159.060669 208.0
1159.223267 200.0
1159.596069 116.0
1159.711304 164.0
1159.867188 116.0
1160.023071 96.0
1160.491821 148.0
1160.952026 172.0
1161.68457 148.0
1161.979126 152.0
1162.030518 120.0
1162.247314 140.0
1162.390137 184.0
1163.123169 84.0
1163.184204 160.0
1163.46936 156.0
1163.550903 132.0
1163.645874 224.0
1163.760498 176.0
1163.985352 168.0
1164.161987 140.0
1164.216309 224.0
1164.304565 240.0
1164.392822 212.0
1164.460815 164.0
1164.765503 196.0
1164.943115 280.0
1165.106079 160.0
1165.167236 196.0
1165.612427 128.0
1165.767578 128.0
1165.914673 156.0
1166.071045 116.0
1166.152588 180.0
1166.383667 92.0
1166.45166 216.0
1166.703247 148.0
1166.77124 156.0
1166.880005 156.0
1167.365479 268.0
1168.336304 184.0
1168.648315 180.0
1168.822632 240.0
1169.014648 184.0
1169.027588 152.0
1169.054565 144.0
1169.396973 196.0
1169.764526 56.0
1169.907471 100.0
1170.452148 244.0
1170.506592 184.0
1170.588379 28.0
1170.956177 148.0
1171.051514 128.0
1171.228516 256.0
1171.782593 252.0
1171.834839 140.0
1172.134644 200.0
1172.263916 176.0
1172.734375 188.0
1172.945679 148.0
1173.170654 104.0
1174.12085 164.0
1174.338501 220.0
1174.59668 160.0
1174.882446 236.0
1175.012085 156.0
1175.087158 188.0
1175.598877 152.0
1176.131226 188.0
1176.295044 104.0
1176.755249 208.0
1176.977783 64.0
1177.155396 112.0
1177.831543 84.0
1177.927124 168.0
1178.487427 120.0
1179.01355 172.0
1179.225464 180.0
1180.093628 204.0
1180.449219 124.0
1180.551758 164.0
1180.838989 144.0
1181.084473 140.0
1181.16272 184.0
1181.191895 60.0
1181.205811 160.0
1181.493408 212.0
1182.077271 152.0
1182.234619 124.0
1182.40918 160.0
1182.686401 168.0
1182.758179 140.0
1182.960205 188.0
1183.62439 220.0
1183.692749 144.0
1184.227051 152.0
1184.329712 120.0
1184.576294 208.0
1184.809204 148.0
1184.857178 184.0
1185.039062 192.0
1186.17981 140.0
1186.869751 208.0
1187.311157 68.0
1187.448364 100.0
1188.182373 76.0
1188.292114 184.0
1188.573486 244.0
1188.834229 168.0
1189.204834 184.0
1189.417603 180.0
1189.47937 244.0
1189.755859 196.0
1190.523071 120.0
1190.7771 384.0
1191.814453 160.0
1191.924438 128.0
1192.178711 132.0
1192.240112 60.0
1192.439819 100.0
1192.487915 140.0
1192.577271 132.0
1192.793579 140.0
1193.031006 128.0
1193.140991 216.0
1193.250977 184.0
1193.457275 124.0
1193.807983 144.0
1194.055176 156.0
1194.248169 216.0
1194.420166 180.0
1194.492676 176.0
1194.543945 152.0
1194.713135 176.0
1194.784668 40.0
1195.052979 152.0
1195.149414 212.0
1195.644897 196.0
1196.188599 132.0
1196.484619 136.0
1196.897705 196.0
1197.290283 48.0
1197.441772 100.0
1197.724243 160.0
1198.130615 104.0
1198.247803 148.0
1198.399292 136.0
1198.805908 220.0
1199.305786 216.0
1199.398682 200.0
1199.764038 120.0
1199.82605 180.0
1199.908813 92.0
1199.977661 96.0
1200.2052 116.0
1200.605225 136.0
1201.212158 152.0
1201.550171 124.0
1201.729614 148.0
1201.9021 132.0
1202.247192 132.0
1202.555664 384.0
1202.764771 172.0
1203.096191 220.0
1203.420654 88.0
1203.966187 264.0
1204.194092 196.0
1204.637573 176.0
1204.767456 160.0
1204.884888 172.0
1205.182007 168.0
1205.499878 128.0
1205.562012 164.0
1206.018188 164.0
1206.585083 100.0
1207.055176 128.0
1207.117432 108.0
1207.241943 160.0
1207.317993 180.0
1207.76062 240.0
1207.905884 160.0
1208.327881 140.0
1208.445557 136.0
1208.535522 164.0
1208.708496 188.0
1208.878418 136.0
1209.44043 236.0
1209.490601 176.0
1209.712036 72.0
1209.843384 132.0
1210.120483 136.0
1210.314453 48.0
1210.397461 136.0
1210.466797 96.0
1210.667603 112.0
1210.884399 260.0
1211.103882 156.0
1211.937012 176.0
1212.192017 128.0
1212.30249 204.0
1212.600586 176.0
1213.307617 60.0
1213.508667 192.0
1213.649292 128.0
1214.118896 164.0
1214.25061 84.0
1214.306152 88.0
1214.465698 188.0
1214.979004 148.0
1215.055298 136.0
1215.103882 196.0
1215.397827 224.0
1215.55603 144.0
1215.70752 172.0
1215.804688 180.0
1215.908813 156.0
1216.502319 184.0
1216.911987 196.0
1217.262573 168.0
1217.401489 180.0
1217.637573 152.0
1217.762573 92.0
1217.929321 184.0
1218.165527 136.0
1218.255859 144.0
1218.589233 132.0
1219.214722 152.0
1219.305054 180.0
1219.450928 176.0
1219.520508 192.0
1219.61084 208.0
1219.944214 96.0
1220.236572 112.0
1220.506714 144.0
1220.890137 180.0
1221.268555 236.0
1221.627441 196.0
1221.876709 188.0
1222.313599 188.0
1222.53894 188.0
1222.587646 196.0
1222.685059 128.0
1222.886963 152.0
1223.046997 272.0
1223.248901 176.0
1223.422974 184.0
1223.680542 84.0
1224.000854 212.0
1224.119263 200.0
1224.328125 140.0
1224.592773 128.0
1224.90625 116.0
1225.010742 152.0
1225.156982 128.0
1225.317261 40.0
1225.393921 176.0
1225.463623 88.0
1225.749268 108.0
1226.522827 220.0
1226.627441 144.0
1226.94812 192.0
1227.505981 140.0
1227.645386 156.0
1227.729126 204.0
1228.008057 164.0
1228.280151 112.0
1228.36377 164.0
1228.566162 164.0
1228.663818 104.0
1229.082397 116.0
1229.340576 136.0
1229.421997 272.0
1229.641113 200.0
1229.696533 44.0
1229.780273 172.0
1229.871094 424.0
1230.080444 172.0
1230.143311 28.0
1230.220093 160.0
1230.370239 164.0
1230.420654 204.0
1230.70874 168.0
1230.799561 168.0
1231.092896 204.0
1231.190674 172.0
1231.490967 116.0
1231.763428 176.0
1231.833252 172.0
1232.058594 136.0
1232.145508 156.0
1232.413086 108.0
1232.573853 176.0
1232.853394 104.0
1233.05603 176.0
1233.321655 108.0
1233.657104 160.0
1233.769043 128.0
1233.92981 216.0
1234.083618 48.0
1234.633545 192.0
1235.301514 184.0
1235.552368 112.0
1235.671387 140.0
1235.755249 36.0
1235.860229 140.0
1236.602051 140.0
1236.903076 112.0
1237.610107 32.0
1237.705933 148.0
1238.569458 156.0
1238.751709 132.0
1238.912842 180.0
1238.98291 120.0
1239.319214 104.0
1239.536499 148.0
1239.683594 144.0
1239.755615 176.0
1239.984985 160.0
1240.090088 192.0
1240.314453 168.0
1240.642578 196.0
1240.663452 160.0
1240.89624 48.0
1241.211792 204.0
1241.527344 128.0
1241.878052 212.0
1242.256836 128.0
1242.371338 152.0
1242.551514 144.0
1242.796997 156.0
1243.302368 112.0
1243.358398 124.0
1243.463745 228.0
1244.102539 68.0
1244.285034 144.0
1244.755493 196.0
1244.994263 148.0
1245.099609 148.0
1245.25415 176.0
1245.443726 200.0
1245.506958 148.0
1245.766846 156.0
1245.977661 144.0
1246.07605 156.0
1246.480957 132.0
1247.179321 204.0
1247.298828 96.0
1247.348022 140.0
1247.840088 120.0
1248.043213 168.0
1248.071167 148.0
1248.08667 148.0
1248.247925 336.0
1248.517578 180.0
1248.669922 156.0
1249.18335 120.0
1249.485962 144.0
1249.626587 168.0
1249.844727 148.0
1249.960327 188.0
1250.175537 96.0
1250.24585 40.0
1250.358521 108.0
1250.492188 144.0
1250.837036 128.0
1251.175049 204.0
1251.365112 80.0
1251.766479 192.0
1251.865479 140.0
1252.105225 220.0
1252.160889 120.0
1252.259399 132.0
1252.639404 140.0
1252.780762 220.0
1253.041382 64.0
1253.243774 188.0
1253.405273 208.0
1254.197144 156.0
1254.352173 120.0
1254.613037 192.0
1254.696899 112.0
1254.810425 104.0
1254.972656 116.0
1255.325195 64.0
1255.6073 164.0
1256.171509 164.0
1256.287476 140.0
1256.587769 184.0
1256.637207 232.0
1256.806519 120.0
1256.905273 76.0
1257.113159 208.0
1257.709839 116.0
1257.872192 140.0
1258.42334 132.0
1258.790039 108.0
1258.967529 196.0
1259.15625 204.0
1259.269653 208.0
1259.46106 132.0
1259.948486 124.0
1260.103882 176.0
1260.238159 176.0
1260.329956 172.0
1260.789307 128.0
1261.043701 144.0
1261.16394 184.0
1261.390137 196.0
1261.516846 164.0
1261.567749 176.0
1261.718994 192.0
1261.998169 208.0
1262.351685 212.0
1262.443604 80.0
1262.620361 152.0
1262.684082 140.0
1263.08728 144.0
1263.179199 208.0
1263.405518 112.0
1263.731079 184.0
1263.815918 204.0
1263.893799 176.0
1264.120239 136.0
1264.331787 168.0
1264.667603 160.0
1264.920044 148.0
1265.118164 44.0
1265.345581 204.0
1265.550049 60.0
1265.712891 160.0
1265.861694 104.0
1266.123657 44.0
1266.292847 164.0
1266.449463 188.0
1266.548706 116.0
1267.087036 160.0
1267.193359 152.0
1267.417358 144.0
1267.696411 236.0
1267.880737 120.0
1268.050781 144.0
1268.610718 196.0
1268.702881 232.0
1268.93811 204.0
1269.036133 208.0
1269.284302 196.0
1269.48291 196.0
1270.050293 212.0
1270.419189 176.0
1270.511353 60.0
1270.695801 96.0
1271.28479 144.0
1271.682251 220.0
1271.857788 180.0
1272.150757 156.0
1272.519897 48.0
1272.63562 232.0
1272.71167 172.0
1272.89624 172.0
1272.966553 116.0
1273.07373 180.0
1273.244263 168.0
1273.478638 52.0
1273.61145 136.0
1273.776001 228.0
1273.96875 104.0
1274.238647 168.0
1274.707642 208.0
1275.055908 212.0
1275.390015 136.0
1275.539185 120.0
1275.588989 52.0
1276.083862 208.0
1276.161743 184.0
1276.303955 208.0
1276.499023 188.0
1276.567627 124.0
1276.904419 208.0
1277.274292 144.0
1277.445068 204.0
1277.494873 92.0
1277.69397 140.0
1277.800781 180.0
1277.964355 128.0
1278.198242 188.0
1278.31311 140.0
1278.490967 176.0
1278.582153 216.0
1278.97168 136.0
1279.608521 164.0
1279.921875 136.0
1280.43457 148.0
1280.569946 156.0
1280.670166 196.0
1280.926025 188.0
1280.983276 144.0
1281.075684 96.0
1281.473755 160.0
1281.766724 120.0
1282.215698 188.0
1282.298828 64.0
1282.372559 208.0
1282.562866 180.0
1282.721802 144.0
1282.77356 164.0
1282.911743 144.0
1283.277832 224.0
1283.448975 188.0
1283.513184 188.0
1283.79126 140.0
1284.354736 96.0
1284.590088 120.0
1284.832642 204.0
1284.986084 208.0
1285.189453 68.0
1285.246582 296.0
1285.446289 216.0
1285.627441 156.0
1285.696045 208.0
1285.824585 184.0
1285.888794 88.0
1286.024414 164.0
1286.26709 140.0
1286.331299 184.0
1286.938232 60.0
1287.05957 204.0
1287.349487 364.0
1287.473755 52.0
1287.679321 180.0
1288.259521 132.0
1288.309448 140.0
1288.630981 168.0
1288.738159 172.0
1288.788208 204.0
1288.93103 212.0
1289.04541 104.0
1289.15979 52.0
1289.467041 160.0
1289.624268 132.0
1289.710083 168.0
1289.845947 164.0
1290.007812 136.0
1290.224731 132.0
1290.353516 120.0
1290.775391 104.0
1291.047119 36.0
1291.125732 228.0
1291.212036 188.0
1291.454712 132.0
1291.805298 116.0
1292.019897 136.0
1292.535034 116.0
1292.656738 144.0
1293.050293 176.0
1293.544189 208.0
1293.663696 184.0
1293.758911 116.0
1294.081177 132.0
1294.20459 164.0
1294.532227 144.0
1294.689941 172.0
1295.27002 160.0
1295.523926 184.0
1295.623169 200.0
1295.678345 160.0
1295.922241 84.0
1296.006958 128.0
1296.301636 136.0
1296.724487 136.0
1296.982544 136.0
1297.226318 152.0
1297.297974 180.0
1297.4198 164.0
1297.957642 264.0
1298.330444 148.0
1298.631714 104.0
1298.767944 172.0
1299.169678 112.0
1299.229248 136.0
1299.327515 152.0
1299.505737 188.0
1299.72937 164.0
1300.14563 196.0
1300.239502 184.0
1300.432617 380.0
1300.712646 160.0
1300.762817 132.0
1300.85144 116.0
1301.143311 152.0
1301.437744 152.0
1301.495117 216.0
1301.653076 172.0
1301.708618 192.0
1302.177246 176.0
1302.665771 188.0
1303.470581 180.0
1303.599854 172.0
1303.729248 80.0
1303.81543 200.0
1304.059814 196.0
1304.174805 196.0
1304.2323 140.0
1304.44458 140.0
1304.584595 120.0
1305.461792 140.0
1305.986816 172.0
1306.109131 116.0
1306.332153 176.0
1306.483154 208.0
1306.698975 200.0
1306.914917 372.0
1307.130737 124.0
1307.253052 108.0
1307.360962 232.0
1307.422852 184.0
1307.549927 176.0
1308.008789 156.0
1308.708618 212.0
1308.872681 184.0
1308.9375 128.0
1309.17395 136.0
1309.544189 184.0
1309.625122 164.0
1309.679321 248.0
1309.751343 52.0
1309.996338 36.0
1310.147583 64.0
1310.241211 188.0
1310.370972 148.0
1310.507812 176.0
1310.69519 112.0
1310.904175 56.0
1311.012207 216.0
1311.098755 180.0
1311.271729 76.0
1311.617676 36.0
1311.765869 176.0
1311.81958 140.0
1312.096313 192.0
1312.174683 120.0
1312.223267 132.0
1312.497192 140.0
1312.691895 120.0
1312.789185 200.0
1313.440552 184.0
1313.550171 116.0
1313.766602 160.0
1313.889282 152.0
1313.939819 172.0
1314.134644 188.0
1314.189453 224.0
1314.372681 36.0
1314.444824 100.0
1314.758423 208.0
1314.892334 48.0
1315.076904 216.0
1315.541992 68.0
1315.639893 140.0
1315.9823 72.0
1316.06897 180.0
1316.285645 112.0
1316.466675 156.0
1316.528931 172.0
1316.600464 180.0
1316.79834 156.0
1316.877808 136.0
1317.253418 128.0
1317.376221 136.0
1317.975952 104.0
1318.069824 108.0
1318.234009 168.0
1318.32373 152.0
1318.39502 120.0
1318.583008 296.0
1318.814209 160.0
1319.016602 184.0
1319.088867 84.0
1319.284058 208.0
1319.594971 148.0
1319.913086 112.0
1319.978271 136.0
1320.151733 152.0
1320.267456 196.0
1320.795532 128.0
1321.11377 208.0
1321.171631 148.0
1321.714233 132.0
1321.830078 120.0
1322.003784 212.0
1322.286011 204.0
1322.447632 172.0
1322.669678 136.0
1322.760498 108.0
1322.872314 224.0
1322.980713 140.0
1323.306641 88.0
1323.451538 136.0
1323.545654 184.0
1323.980103 164.0
1324.198364 148.0
1324.32019 144.0
1324.436401 148.0
1324.791382 164.0
1324.921753 100.0
1325.262329 228.0
1325.378296 180.0
1325.660889 224.0
1325.762329 156.0
1326.160889 144.0
1326.291382 52.0
1326.472656 224.0
1326.55957 232.0
1326.62793 192.0
1326.893066 152.0
1327.183105 172.0
1327.241089 164.0
1327.727051 80.0
1327.87915 168.0
1328.285522 192.0
1328.474121 124.0
1328.565674 260.0
1328.742554 76.0
1328.822388 140.0
1329.032837 212.0
1329.170654 156.0
1329.30127 116.0
1329.714966 140.0
1329.860107 156.0
1329.988281 192.0
1330.017334 128.0
1330.099609 136.0
1330.237549 156.0
1330.310181 128.0
1330.404541 124.0
1330.484375 128.0
1330.571533 168.0
1330.702148 176.0
1330.818359 76.0
1330.88855 120.0
1330.98938 212.0
1331.108765 180.0
1331.438843 168.0
1331.55188 252.0
1331.638916 216.0
1332.103882 72.0
1332.427368 152.0
1332.532471 152.0
1332.5979 136.0
1332.792358 220.0
1332.881226 140.0
1333.51355 52.0
1333.876953 288.0
1334.095093 152.0
1334.342285 256.0
1334.53125 160.0
1334.61853 208.0
1334.865723 60.0
1335.498535 152.0
1335.622192 176.0
1335.880005 176.0
1335.942261 268.0
1336.124146 148.0
1336.327881 152.0
1336.844482 60.0
1336.906494 196.0
1337.13562 192.0
1337.259277 204.0
1337.484985 176.0
1337.586914 168.0
1337.637817 156.0
1337.696045 88.0
1337.797974 220.0
1337.856201 120.0
1338.839233 128.0
1338.898926 156.0
1339.064941 164.0
1339.312622 200.0
1339.495728 184.0
1339.67688 164.0
1340.303955 124.0
1340.441895 68.0
1340.696899 144.0
1340.930176 164.0
1341.250854 152.0
1341.360229 188.0
1341.433105 172.0
1342.264282 256.0
1342.475708 144.0
1342.526855 140.0
1342.672607 96.0
1343.008179 212.0
1343.197876 144.0
1343.263428 184.0
1343.591797 124.0
1343.650146 144.0
1344.496582 84.0
1344.686279 192.0
1344.883423 120.0
1345.029419 168.0
1345.35791 76.0
1345.503906 120.0
1345.942017 172.0
1346.478271 156.0
1346.584595 188.0
1346.862183 160.0
1347.037476 116.0
1347.190918 40.0
1347.24939 160.0
1347.329712 132.0
1347.819336 132.0
1348.009277 48.0
1348.250488 168.0
1348.316162 240.0
1348.484253 124.0
1348.630493 156.0
1348.710938 156.0
1349.007812 264.0
1349.30249 152.0
1349.456543 152.0
1349.613281 144.0
1349.80896 368.0
1349.919922 164.0
1350.063477 48.0
1350.231689 140.0
1350.641357 88.0
1350.707153 32.0
1350.820801 136.0
1350.977783 148.0
1351.124146 168.0
1351.30188 152.0
1351.497314 120.0
1351.570435 260.0
1351.724121 68.0
1351.929077 144.0
1352.075439 128.0
1352.382812 164.0
1352.529175 196.0
1352.791748 176.0
1352.814087 152.0
1353.352051 160.0
1353.488281 160.0
1353.729858 144.0
1353.847046 220.0
1354.008179 108.0
1354.118042 236.0
1354.301147 176.0
1355.070435 164.0
1355.136353 144.0
1355.30481 188.0
1355.422119 152.0
1355.707886 168.0
1355.817871 100.0
1356.184326 180.0
1356.389526 192.0
1356.440796 80.0
1356.638794 180.0
1357.203369 148.0
1357.825928 196.0
1357.991455 168.0
1358.0448 108.0
1358.159912 148.0
1358.290161 148.0
1358.363647 152.0
1358.516113 160.0
1359.173828 124.0
1359.543335 144.0
1359.69751 168.0
1359.880981 148.0
1360.284668 204.0
1360.41687 236.0
1360.534302 144.0
1360.780151 172.0
1360.886719 144.0
1361.283203 228.0
1361.569702 232.0
1361.716553 156.0
1361.834106 116.0
1361.914917 152.0
1362.062134 148.0
1362.135254 160.0
1362.27478 164.0
1362.509888 200.0
1362.598022 64.0
1363.127075 60.0
1363.399048 292.0
1363.835571 172.0
1363.863281 208.0
1364.104614 160.0
1364.266357 180.0
1364.553101 156.0
1364.714844 172.0
1364.803101 156.0
1365.185425 160.0
1365.244263 160.0
1365.604736 184.0
1365.700317 168.0
1365.788574 184.0
1366.310913 156.0
1366.478394 196.0
1366.561035 128.0
1366.641968 232.0
1366.796509 72.0
1366.965698 176.0
1367.214722 172.0
1367.666382 140.0
1367.723755 252.0
1367.800293 184.0
1368.017822 152.0
1368.245728 148.0
1368.52063 184.0
1368.589844 184.0
1368.703003 284.0
1368.931274 240.0
1368.997559 152.0
1369.108032 148.0
1369.218506 152.0
1369.527832 356.0
1370.018188 160.0
1370.102417 72.0
1370.242432 148.0
1370.404663 128.0
1370.522339 188.0
1370.640259 128.0
1370.731323 212.0
1370.802368 96.0
1370.876099 120.0
1370.927612 52.0
1371.215088 108.0
1371.377197 144.0
1371.583618 112.0
1372.195557 36.0
1372.601074 176.0
1372.718994 160.0
1372.779541 152.0
1372.84436 100.0
1372.977173 44.0
1373.500854 200.0
1374.157471 184.0
1374.393555 76.0
1374.459961 84.0
1374.598755 168.0
1375.065063 164.0
1375.170166 64.0
1375.406006 168.0
1375.589111 248.0
1375.84021 112.0
1375.983887 180.0
1376.423462 160.0
1376.475098 124.0
1376.578491 196.0
1376.753052 196.0
1376.888672 156.0
1377.191528 108.0
1377.442627 140.0
1377.509155 36.0
1377.819458 172.0
1377.974609 152.0
1378.21106 132.0
1378.868774 168.0
1378.979614 172.0
1379.19397 152.0
1379.260498 108.0
1379.430542 156.0
1379.703979 272.0
1379.866699 172.0
1379.935303 208.0
1380.088501 164.0
1380.192017 172.0
1380.399536 128.0
1380.480347 108.0
1380.613525 180.0
1380.776245 180.0
1381.169556 164.0
1381.293945 212.0
1381.380737 204.0
1381.619995 124.0
1381.686035 152.0
1381.76001 144.0
1381.952393 152.0
1382.063477 128.0
1382.196655 60.0
1382.263184 144.0
1382.337158 156.0
1382.784546 168.0
1383.173584 92.0
1383.262329 220.0
1383.528931 176.0
1383.713989 164.0
1384.024902 108.0
1384.143433 176.0
1384.2323 164.0
1384.324707 168.0
1384.513672 188.0
1384.624756 172.0
1384.90625 176.0
1385.046997 172.0
1385.106201 152.0
1385.684082 172.0
1385.839722 128.0
1386.009399 196.0
1386.224976 140.0
1386.514038 260.0
1386.869751 376.0
1386.95874 164.0
1387.092163 252.0
1387.774292 148.0
1387.929932 164.0
1388.374878 204.0
1388.449341 120.0
1388.968262 184.0
1389.04248 140.0
1389.376221 180.0
1389.791626 160.0
1390.240234 164.0
1390.545776 140.0
1390.949463 108.0
1391.179688 172.0
1391.276123 88.0
1391.424683 140.0
1391.536011 128.0
1391.652222 200.0
1391.788452 160.0
1391.980225 140.0
1392.58313 156.0
1393.44043 204.0
1393.964966 128.0
1394.354492 212.0
1394.455444 180.0
1394.678467 148.0
1394.7854 172.0
1394.946045 88.0
1395.361572 220.0
1395.496216 108.0
1395.585449 116.0
1395.838257 132.0
1396.031616 104.0
1396.224976 108.0
1396.284424 192.0
1396.336548 92.0
1396.403442 164.0
1396.581909 168.0
1396.948242 176.0
1397.54187 152.0
1397.898804 132.0
1398.337891 192.0
1398.553711 152.0
1398.680298 200.0
1398.754761 176.0
1399.030151 168.0
1399.104614 140.0
1399.342896 128.0
1399.439697 84.0
1399.625854 180.0
1399.841797 136.0
1400.109863 132.0
1400.54187 148.0
1400.661011 164.0
1401.085693 220.0
1401.15271 196.0
1401.21228 168.0
1401.450684 156.0
1401.584839 160.0
1401.972412 148.0
1402.054321 128.0
1402.106445 168.0
1402.844482 176.0
1403.112793 84.0
1403.217163 136.0
1403.328979 276.0
1403.500488 48.0
1403.761475 128.0
1403.903198 152.0
1404.112061 164.0
1404.179199 164.0
1404.596802 92.0
1404.768433 108.0
1405.216064 160.0
1405.387695 120.0
1405.663818 88.0
1405.902588 112.0
1405.977173 64.0
1406.082397 136.0
1406.203369 196.0
1406.37793 192.0
1406.481323 180.0
1406.55188 152.0
1406.723633 212.0
1407.007324 152.0
1407.754028 124.0
1408.425781 164.0
1408.534058 136.0
1408.665161 160.0
1408.822144 184.0
1409.247925 152.0
1409.403931 200.0
1409.500977 212.0
1410.023315 132.0
1410.167114 236.0
1410.398071 168.0
1410.675415 160.0
1410.901001 180.0
1410.967041 184.0
1411.138916 152.0
1411.333374 128.0
1411.408081 120.0
1411.52771 132.0
1411.918823 164.0
1412.036255 172.0
1412.320557 100.0
1412.470093 156.0
1412.560303 244.0
1412.806763 72.0
1412.896606 164.0
1413.225708 148.0
1413.382935 172.0
1413.521118 184.0
1413.742065 108.0
1413.839355 140.0
1413.929199 252.0
1414.078857 120.0
1414.269165 176.0
1414.34082 348.0
1414.46814 96.0
1414.677734 132.0
1414.927856 220.0
1415.052002 132.0
1415.111938 148.0
1415.403931 152.0
1415.538696 176.0
1415.658569 140.0
1415.718506 128.0
1415.800903 136.0
1415.917725 104.0
1416.078003 140.0
1416.130371 144.0
1416.527344 176.0
1417.029297 176.0
1417.269043 156.0
1417.375366 160.0
1417.500977 128.0
1417.61377 100.0
1417.850586 168.0
1418.021484 128.0
1418.580688 220.0
1418.925537 60.0
1419.075439 140.0
1419.12793 196.0
1419.352905 156.0
1419.630371 156.0
1419.712891 192.0
1419.79541 72.0
1420.06543 48.0
1420.245361 96.0
1420.537964 120.0
1420.62793 120.0
1420.695435 132.0
1420.980591 84.0
1421.105591 180.0
1421.250732 100.0
1421.393311 84.0
1421.708496 120.0
1421.798462 148.0
1421.873535 208.0
1422.016113 164.0
1422.203857 220.0
1422.395386 160.0
1422.447876 176.0
1422.624146 164.0
1423.194824 180.0
1423.375 216.0
1423.472656 184.0
1423.6604 128.0
1424.25708 172.0
1424.636841 124.0
1424.974854 128.0
1425.109131 204.0
1425.364746 172.0
1425.574829 172.0
1425.688721 132.0
1426.147461 140.0
1426.272217 152.0
1426.42395 132.0
1426.80127 188.0
1426.929077 176.0
1427.282471 132.0
1427.38562 328.0
1427.527344 120.0
1427.756226 204.0
1427.989502 180.0
1428.2677 104.0
1428.651489 132.0
1428.834839 248.0
1429.132812 412.0
1429.402466 208.0
1429.501587 148.0
1429.621826 412.0
1429.757446 304.0
1429.810059 128.0
1429.883057 132.0
1430.208984 52.0
1431.187744 380.0
1431.278076 136.0
1431.353394 128.0
1431.480347 84.0
1431.579224 116.0
1431.83728 172.0
1431.970947 172.0
1432.068848 76.0
1432.234497 160.0
1432.557739 172.0
1432.739258 204.0
1432.874878 188.0
1432.937866 116.0
1433.055664 168.0
1433.236572 176.0
1433.628418 156.0
1433.831909 176.0
1433.884644 164.0
1434.269043 144.0
1434.562988 224.0
1434.63208 184.0
1434.811768 172.0
1434.992065 192.0
1435.558228 100.0
1435.82019 176.0
1435.839844 156.0
1435.965576 92.0
1436.161621 224.0
1436.222046 60.0
1436.494385 160.0
1436.561401 184.0
1436.697266 180.0
1436.791748 164.0
1436.855713 176.0
1436.966675 224.0
1437.285767 160.0
1437.460083 160.0
1437.595093 148.0
1437.691772 144.0
1437.753662 196.0
1437.859253 160.0
1437.916016 172.0
1438.259277 128.0
1438.71228 164.0
1438.825439 140.0
1438.991577 320.0
1439.331299 224.0
1440.101685 44.0
1440.199829 132.0
1440.282959 188.0
1440.687256 144.0
1441.16687 160.0
1441.340698 104.0
1441.491821 160.0
1441.665649 232.0
1441.869629 152.0
1441.952759 124.0
1442.066162 136.0
1442.383667 156.0
1442.459229 168.0
1442.763916 240.0
1442.841919 304.0
1443.244873 148.0
1443.419434 136.0
1443.76001 128.0
1444.001709 168.0
1444.145508 144.0
1444.296021 196.0
1444.432861 188.0
1444.780884 144.0
1444.833862 156.0
1444.894409 212.0
1445.010376 160.0
1445.136475 136.0
1445.212158 152.0
1445.463013 204.0
1445.567749 168.0
1445.711548 168.0
1445.938599 116.0
1446.074829 156.0
1446.203491 124.0
1446.756104 144.0
1446.809082 152.0
1447.005981 112.0
1447.244995 216.0
1447.471558 220.0
1447.573853 168.0
1447.793457 184.0
1447.876831 120.0
1448.232788 120.0
1448.291626 352.0
1448.354004 168.0
1448.429688 68.0
1448.497925 144.0
1449.202515 160.0
1449.414673 124.0
1449.793579 128.0
1450.210327 40.0
1450.581787 172.0
1450.794067 80.0
1450.968384 140.0
1451.09729 132.0
1451.271729 64.0
1451.324829 148.0
1451.57251 156.0
1451.741821 104.0
1451.908691 220.0
1451.961792 160.0
1452.151367 152.0
1452.219727 148.0
1452.682373 120.0
1452.856934 124.0
1452.940308 52.0
1453.076904 188.0
1453.175537 216.0
1453.281738 116.0
1453.479004 136.0
1453.866089 140.0
1453.987549 144.0
1454.070923 80.0
1454.549194 160.0
1454.75415 220.0
1454.870728 160.0
1455.148926 120.0
1455.285522 164.0
1455.353882 380.0
1455.642456 132.0
1455.99939 148.0
1456.158936 204.0
1456.212036 136.0
1456.291382 144.0
1456.319336 64.0
1456.338013 152.0
1456.424683 192.0
1456.591797 192.0
1456.857788 212.0
1457.040039 100.0
1457.207153 156.0
1457.622437 424.0
1457.678345 160.0
1457.81958 176.0
1457.915527 164.0
1458.061523 196.0
1458.158813 196.0
1458.385132 144.0
1458.459106 244.0
1458.5448 112.0
1459.016113 184.0
1459.069336 140.0
1459.218628 168.0
1459.289795 204.0
1459.479858 124.0
1459.543213 196.0
1459.730835 68.0
1460.111084 164.0
1460.240356 136.0
1460.369629 168.0
1460.970581 208.0
1461.039062 324.0
1461.449951 148.0
1462.127197 144.0
1462.289917 148.0
1462.378296 144.0
1462.573486 224.0
1462.720825 204.0
1462.804565 116.0
1463.017822 136.0
1463.790039 104.0
1463.939087 160.0
1464.23938 208.0
1464.426514 176.0
1464.578857 184.0
1464.997803 176.0
1465.058716 172.0
1465.150146 160.0
1465.378784 176.0
1465.736938 136.0
1465.830566 204.0
1466.018799 200.0
1466.224609 144.0
1466.681885 236.0
1467.200684 180.0
1467.291748 404.0
1467.505249 100.0
1467.657715 56.0
1467.71875 52.0
1467.802612 188.0
1467.886475 152.0
1468.015625 168.0
1468.633911 88.0
1468.778809 120.0
1468.977173 188.0
1469.037964 108.0
1469.15271 192.0
1469.251831 172.0
1469.488403 220.0
1469.617798 140.0
1469.645386 136.0
1469.685669 220.0
1469.708618 208.0
1469.930908 120.0
1470.175171 84.0
1470.228516 208.0
1470.427002 196.0
1470.770508 156.0
1470.839111 176.0
1471.121582 396.0
1471.45752 304.0
1471.983643 236.0
1472.500977 136.0
1472.633545 100.0
1472.770996 164.0
1472.893188 44.0
1473.061279 152.0
1473.22583 244.0
1473.298096 124.0
1473.594116 176.0
1473.75647 124.0
1473.9552 280.0
1474.187134 180.0
1474.344971 124.0
1474.631348 148.0
1474.81958 188.0
1474.902832 144.0
1474.956421 92.0
1475.071045 88.0
1475.193359 160.0
1475.300415 160.0
1475.782104 148.0
1475.88916 168.0
1476.126099 164.0
1476.340332 148.0
1476.577393 180.0
1477.17395 124.0
1477.319336 124.0
1477.449341 168.0
1477.686523 196.0
1477.791382 324.0
1477.862549 180.0
1477.931396 92.0
1478.252808 112.0
1478.650757 108.0
1478.90332 172.0
1479.178955 152.0
1479.250732 124.0
1479.409668 172.0
1479.691772 140.0
1479.944458 160.0
1480.013428 88.0
1480.274902 184.0
1480.45752 144.0
1480.649048 176.0
1480.710327 252.0
1481.031982 140.0
1481.119995 148.0
1481.289551 136.0
1481.399658 156.0
1481.468628 180.0
1481.560547 156.0
1481.943604 176.0
1482.242432 136.0
1482.388062 152.0
1482.484619 212.0
1482.717651 176.0
1482.939819 180.0
1483.029907 136.0
1483.09314 264.0
1483.20813 108.0
1483.35376 120.0
1483.46106 144.0
1483.721802 108.0
1484.250854 136.0
1484.657227 144.0
1484.76062 124.0
1485.071411 88.0
1485.189575 216.0
1485.454956 136.0
1485.524048 180.0
1485.981323 236.0
1486.278687 152.0
1486.344971 164.0
1486.475342 196.0
1486.659546 152.0
1486.736938 104.0
1487.503906 172.0
1487.685547 148.0
1488.010498 180.0
1488.133423 132.0
1488.233154 188.0
1488.398804 208.0
1488.532715 112.0
1488.609497 192.0
1488.69397 180.0
1489.073364 216.0
1489.554199 104.0
1489.669434 104.0
1489.859497 140.0
1489.994263 168.0
1490.138672 180.0
1490.3125 136.0
1490.488037 144.0
1490.599121 176.0
1490.745117 172.0
1490.888306 152.0
1491.144775 140.0
1491.406006 36.0
1491.544434 184.0
1491.636597 160.0
1491.744263 180.0
1491.851929 132.0
1492.136353 148.0
1492.233643 200.0
1492.301025 176.0
1492.459351 152.0
1492.537476 244.0
1492.889893 132.0
1493.02063 160.0
1493.251343 112.0
1493.4823 196.0
1493.574463 156.0
1493.951416 160.0
1494.029541 148.0
1494.189819 124.0
1494.372803 176.0
1494.736206 164.0
1494.81311 128.0
1495.316772 176.0
1495.444214 264.0
1495.767456 100.0
1495.875244 168.0
1495.967651 200.0
1496.144653 156.0
1496.22168 216.0
1496.306396 180.0
1496.570312 188.0
1496.706787 116.0
1497.145752 188.0
1497.415283 160.0
1497.523071 160.0
1497.700195 176.0
1497.831177 176.0
1497.962158 120.0
1498.368774 148.0
1498.701782 164.0
1498.771118 140.0
1498.894409 244.0
1499.248901 156.0
1499.534058 216.0
1499.649658 148.0
1499.896362 180.0
1499.996582 108.0
1500.274048 184.0
1500.389648 216.0
1500.464966 212.0
1500.953613 220.0
1501.045044 192.0
1501.176147 200.0
1501.245605 140.0
1501.315063 136.0
1501.515503 332.0
1501.754639 148.0
1502.032349 192.0
1502.093994 164.0
1502.425781 164.0
1502.51062 132.0
1502.610962 172.0
1502.896362 192.0
1503.019897 96.0
1503.089233 48.0
1503.235962 120.0
1503.421143 96.0
1503.884155 204.0
1503.938232 184.0
1504.115723 136.0
1504.285645 204.0
1504.378296 108.0
1504.59436 176.0
1504.702515 132.0
1504.898926 108.0
1505.026733 288.0
1505.158081 184.0
