>compound MLS001141013-01!1-[(2S)-2-amino-3-phenylpropanoyl]-N-[(2S)-1-[(4-methoxyphenyl)methylamino]-1-oxopropan-2-yl]piperidine-4-carboxamide
>formula C26H34N4O4
>ionization [M+H]+
>parentmass 467.2652820200905
#inchi InChI=1S/C26H34N4O4/c1-18(24(31)28-17-20-8-10-22(34-2)11-9-20)29-25(32)21-12-14-30(15-13-21)26(33)23(27)16-19-6-4-3-5-7-19/h3-11,18,21,23H,12-17,27H2,1-2H3,(H,28,31)(H,29,32)/t18-,23-/m0/s1
#inchikey APPHUGXGULEGGN
#Ion_Source LC-ESI
#Instrument qTof
#Compound_Source NIH Natural Product Library
#PI Dorrestein
#Data_Collector VVP/LMS
#Scan -1
#Precursor_MZ 467.266
#ExactMass 466.258
#Charge 1
#CAS_Number N/A
#Pubmed_ID N/A
#Smiles COc1ccc(CNC(=O)[C@H](C)NC(=O)C2CCN(CC2)C(=O)[C@@H](N)Cc3ccccc3)cc1
#INCHI_AUX N/A
#Library_Class 1
#SpectrumID CCMSLIB00000080532
#IonMode Positive
#UpdateWorkflowName UPDATE-SINGLE-ANNOTATED-GOLD
#LibraryQualityString Gold
#TaskID b1d8e8f6646f4e71acdff9ca3d919d08
##Scan# 1541
#SpectrumFile p2-C10_GC10_01_18010.mzXML
#LibraryName NIH_Natural_Products_Library.mgf
#MQScore -1
#Organism NIH_Natural_Products_Library
#TIC_Query 0
#RT_Query -1
#MZErrorPPM -1
#SharedPeaks 0
#MassDiff 0
#LibMZ -1
#SpecMZ 467.266
#SpecCharge 0
#internalFilename spec-00000.mgf

>collision 10
95.188843 156.0
95.22963 128.0
95.282074 128.0
95.361748 196.0
95.43367 168.0
95.569824 140.0
95.69413 152.0
95.918419 208.0
96.006157 184.0
96.047112 180.0
96.103683 104.0
96.207413 248.0
96.316269 188.0
96.39267 112.0
96.412209 140.0
96.457161 156.0
96.521027 144.0
96.646866 212.0
96.736893 204.0
96.776047 160.0
96.793671 172.0
96.909233 124.0
97.050354 240.0
97.120949 152.0
97.55294 60.0
97.694527 136.0
97.731911 188.0
97.89135 136.0
98.094276 180.0
98.173141 180.0
98.263878 132.0
98.413879 168.0
98.503693 184.0
98.528427 128.0
98.554115 164.0
98.692467 168.0
98.733994 180.0
98.771576 28.0
98.817078 60.0
98.971458 240.0
99.12001 116.0
99.278595 200.0
99.445244 148.0
99.560394 148.0
99.669647 160.0
99.71138 208.0
99.75312 244.0
99.856514 160.0
99.940063 180.0
100.105278 172.0
100.252686 168.0
100.487976 220.0
100.561813 160.0
100.671616 176.0
100.737526 196.0
100.8834 196.0
100.899597 200.0
100.941383 172.0
100.979378 140.0
100.998383 96.0
101.035385 128.0
101.071404 168.0
101.11142 56.0
101.137444 240.0
101.151451 136.0
101.233536 180.0
101.327682 120.0
101.373764 220.0
101.490021 140.0
101.506065 36.0
101.536148 240.0
101.582275 176.0
101.712708 156.0
101.75486 120.0
101.92157 152.0
102.048195 444.0
102.174896 264.0
102.356041 160.0
102.42897 188.0
102.56517 204.0
102.726875 32.0
102.926682 124.0
102.941811 160.0
103.005447 64.0
103.034721 244.0
103.054733 3908.0
103.122635 68.0
103.150932 176.0
103.17115 168.0
103.318779 60.0
103.332939 88.0
103.404678 124.0
103.444244 80.0
103.476639 148.0
103.509033 72.0
103.600174 200.0
103.703514 92.0
103.717705 156.0
103.758247 104.0
103.866768 116.0
103.898178 136.0
103.933418 156.0
103.971222 144.0
104.032112 204.0
104.05806 644.0
104.0849 148.0
104.111298 140.0
104.155983 160.0
104.210831 144.0
104.265694 180.0
104.367332 160.0
104.454788 72.0
104.490974 208.0
104.544304 140.0
104.633865 92.0
104.743835 136.0
104.784576 44.0
105.032173 280.0
105.069397 204.0
105.159782 184.0
105.253685 228.0
105.280235 84.0
105.325165 152.0
105.775017 212.0
105.906059 204.0
105.965462 108.0
106.046463 288.0
106.10688 164.0
106.246338 204.0
106.277107 116.0
106.332512 144.0
106.361252 72.0
106.400253 156.0
106.483162 172.0
106.673477 152.0
106.792732 56.0
106.926468 168.0
106.940872 88.0
106.98616 184.0
107.043808 360.0
107.14267 96.0
107.396217 136.0
107.46656 160.0
107.662453 176.0
107.681038 140.0
107.833931 156.0
107.955902 188.0
107.984856 172.0
108.011742 132.0
108.055183 224.0
108.102776 124.0
108.150375 176.0
108.185562 232.0
108.264244 224.0
108.583397 220.0
108.697495 132.0
108.851097 152.0
108.911324 172.0
109.054688 180.0
109.112892 148.0
109.206467 120.0
109.241829 184.0
109.422882 132.0
109.452034 120.0
109.466606 188.0
109.556168 184.0
109.760422 68.0
109.862617 236.0
109.99408 180.0
110.063393 272.0
110.161133 108.0
110.187622 200.0
110.209991 140.0
110.242615 148.0
110.278145 144.0
110.326218 88.0
110.493523 148.0
110.577225 96.0
110.782425 232.0
110.878807 80.0
110.927017 180.0
111.017174 148.0
111.090576 184.0
111.229073 272.0
111.481102 48.0
111.615639 112.0
111.780693 256.0
111.847664 124.0
111.876518 200.0
111.994438 212.0
112.014473 472.0
112.034691 220.0
112.07724 38544.0
112.131393 64.0
112.146141 28.0
112.160896 88.0
112.190407 76.0
112.223557 104.0
112.253662 96.0
112.278969 204.0
112.309509 140.0
112.342247 68.0
112.359123 84.0
112.392876 56.0
112.423553 152.0
112.538513 48.0
112.616653 32.0
112.633545 164.0
112.68499 228.0
112.703262 204.0
112.720169 196.0
112.777229 100.0
112.821617 148.0
112.87236 92.0
112.919449 196.0
112.96965 120.0
113.027351 248.0
113.080521 3672.0
113.122009 80.0
113.145294 172.0
113.191879 60.0
113.25753 64.0
113.283295 244.0
113.321083 164.0
113.335915 76.0
113.422684 144.0
113.53093 172.0
113.564865 180.0
113.613647 164.0
113.644783 196.0
113.661423 124.0
113.711258 144.0
113.75795 144.0
113.789459 152.0
113.811028 96.0
113.83548 140.0
113.872612 112.0
113.906883 140.0
113.924652 112.0
113.968971 100.0
114.001945 132.0
114.034081 80.0
114.086266 560.0
114.231827 152.0
114.257355 84.0
114.327568 176.0
114.387161 120.0
114.468063 120.0
114.553261 220.0
114.595863 52.0
114.670448 192.0
114.789833 92.0
115.06031 224.0
115.146217 192.0
115.167572 52.0
115.214569 200.0
115.265846 176.0
115.468933 232.0
115.689323 136.0
115.783531 156.0
115.886353 184.0
115.954926 160.0
116.092125 228.0
116.126442 232.0
116.147888 140.0
116.199379 144.0
116.349602 128.0
116.392548 208.0
116.52356 128.0
116.557938 160.0
116.736351 196.0
116.998848 180.0
117.321991 244.0
117.356491 108.0
117.529037 164.0
117.56572 172.0
117.664787 156.0
118.004211 148.0
118.066689 160.0
118.119896 188.0
118.201035 80.0
118.299843 208.0
118.339561 56.0
118.37854 48.0
118.402359 236.0
118.491165 108.0
118.510666 112.0
118.714424 160.0
118.81636 180.0
118.840317 96.0
118.898819 168.0
118.95742 156.0
119.054085 268.0
119.075768 364.0
119.278908 244.0
119.373627 148.0
119.484627 160.0
119.557304 72.0
119.589951 120.0
119.729286 184.0
119.754974 212.0
119.857811 172.0
119.912292 208.0
119.92926 188.0
119.966782 188.0
120.003677 160.0
120.038734 180.0
120.052849 156.0
120.082413 40140.0
120.139061 44.0
120.1576 24.0
120.223305 72.0
120.248161 60.0
120.296181 108.0
120.328064 92.0
120.368225 84.0
120.39341 68.0
120.452721 180.0
120.486168 112.0
120.503029 148.0
120.515984 272.0
120.558273 108.0
120.654449 64.0
120.671936 208.0
120.68943 48.0
120.726357 72.0
120.757324 128.0
120.771889 136.0
120.80484 176.0
120.835899 132.0
120.860031 104.0
120.877747 208.0
120.894524 168.0
120.926903 192.0
120.946075 292.0
120.962891 196.0
120.98365 168.0
121.018646 188.0
121.066666 90648.0
121.136063 220.0
121.149849 132.0
121.179291 108.0
121.183548 132.0
121.241051 80.0
121.262093 60.0
121.298042 56.0
121.339691 100.0
121.379158 92.0
121.402679 44.0
121.4263 848.0
121.484428 144.0
121.505417 72.0
121.543671 88.0
121.570099 56.0
121.611694 120.0
121.640236 52.0
121.657791 132.0
121.681946 68.0
121.716339 60.0
121.735527 188.0
121.764427 64.0
121.797668 120.0
121.817459 96.0
121.85984 48.0
121.879616 116.0
121.927956 44.0
121.946747 80.0
122.006142 296.0
122.04007 148.0
122.069099 11544.0
122.117897 56.0
122.185226 172.0
122.200294 80.0
122.244156 92.0
122.53968 144.0
122.585953 84.0
122.612396 84.0
122.630028 60.0
122.645271 48.0
122.672028 224.0
122.750046 56.0
122.7836 116.0
122.815239 124.0
122.864891 156.0
122.885826 76.0
122.92775 128.0
122.952026 136.0
122.974098 56.0
123.002792 164.0
123.018723 92.0
123.040703 136.0
123.071815 544.0
123.09993 108.0
123.126434 104.0
123.156288 232.0
123.194412 72.0
123.360367 64.0
123.434128 168.0
123.452736 116.0
123.480042 188.0
123.694664 108.0
123.714584 76.0
123.776573 72.0
123.803146 84.0
123.887314 172.0
123.905037 44.0
123.949348 36.0
124.002533 116.0
124.122246 148.0
124.277512 36.0
124.44397 48.0
124.575005 60.0
124.821701 32.0
124.944031 80.0
125.211136 108.0
125.563263 256.0
125.790848 44.0
125.810936 80.0
125.875687 152.0
125.898018 148.0
125.989594 124.0
126.112495 132.0
126.692039 84.0
126.956528 64.0
127.08416 284.0
127.3358 176.0
128.057755 76.0
128.10054 36.0
128.425125 52.0
128.555984 140.0
128.592087 160.0
128.761414 132.0
128.964752 88.0
129.046143 172.0
129.077789 192.0
129.10379 156.0
129.249695 144.0
129.417191 76.0
129.584793 52.0
129.856812 112.0
130.067719 172.0
130.088638 304.0
130.328995 48.0
130.617722 88.0
130.74057 36.0
131.050446 524.0
131.919769 84.0
132.078674 184.0
132.253738 56.0
132.288071 96.0
132.400253 60.0
132.624786 156.0
132.755463 96.0
133.00325 64.0
133.212204 148.0
133.239777 120.0
133.72496 52.0
133.91835 76.0
134.098618 536.0
134.86203 180.0
135.077072 48.0
135.581802 144.0
136.226822 76.0
136.812851 52.0
137.034088 72.0
137.596161 44.0
137.619507 108.0
137.967621 140.0
138.056473 156.0
138.096222 156.0
138.347061 164.0
138.67218 160.0
139.038055 168.0
139.117859 120.0
139.900665 208.0
140.072571 32.0
141.021103 64.0
141.06601 212.0
141.278839 168.0
142.934891 180.0
143.749832 76.0
144.014832 180.0
144.552734 160.0
146.100601 404.0
146.309647 64.0
146.678223 148.0
147.419159 156.0
147.822998 168.0
148.112473 372.0
148.673569 108.0
149.115479 148.0
149.307632 116.0
149.604477 232.0
150.033234 148.0
151.186111 140.0
151.379501 176.0
151.631836 76.0
151.651443 76.0
153.100784 384.0
153.275848 184.0
153.542084 180.0
154.936172 224.0
155.060059 184.0
155.120193 6096.0
155.154434 216.0
155.180222 84.0
155.249893 84.0
155.630615 48.0
155.75975 80.0
156.070389 100.0
156.120132 804.0
156.149963 152.0
156.249466 32.0
156.289276 60.0
156.383835 216.0
156.769867 40.0
156.88884 76.0
156.934372 44.0
157.093979 72.0
157.121429 144.0
157.216248 44.0
157.373505 76.0
157.500854 116.0
158.463974 36.0
158.947891 44.0
159.23909 184.0
159.409927 136.0
160.371292 140.0
161.007065 96.0
161.628922 172.0
162.328049 68.0
164.105392 120.0
164.574844 40.0
166.325912 176.0
166.377258 180.0
166.572418 36.0
166.757416 80.0
167.120178 656.0
167.848938 184.0
171.061539 96.0
172.208817 148.0
172.702805 56.0
173.210602 112.0
173.346832 128.0
174.820007 160.0
175.162277 184.0
175.541794 232.0
175.742249 176.0
176.019409 60.0
176.576996 204.0
177.085159 148.0
177.387207 36.0
177.944321 124.0
178.127548 56.0
181.102051 892.0
181.951691 88.0
182.846786 180.0
182.914078 116.0
183.056763 100.0
183.113297 7996.0
183.239929 60.0
183.264175 72.0
183.304596 64.0
183.401611 104.0
183.450134 56.0
183.493271 112.0
183.557968 60.0
183.669174 52.0
183.74678 168.0
183.812531 108.0
184.046371 64.0
184.116104 732.0
184.281342 148.0
184.489441 36.0
184.521881 76.0
185.12326 148.0
185.282364 72.0
185.477478 152.0
185.613037 144.0
186.117722 176.0
186.500763 76.0
186.944077 148.0
187.417862 96.0
187.938644 152.0
189.502579 64.0
190.215607 64.0
191.565765 96.0
192.103302 140.0
192.754868 44.0
193.274704 216.0
195.11911 72.0
195.277603 124.0
195.98468 116.0
196.110077 116.0
198.125702 392.0
198.491943 104.0
198.923996 152.0
199.572968 208.0
200.146957 172.0
200.778168 104.0
201.879532 124.0
204.956573 84.0
205.153229 88.0
206.855759 168.0
207.506058 124.0
208.11145 156.0
208.734955 136.0
209.094681 176.0
209.129395 3404.0
210.094391 152.0
210.13063 328.0
211.139999 152.0
211.359848 64.0
211.750641 148.0
212.141327 652.0
212.457901 104.0
213.102417 104.0
213.137436 156.0
213.369797 40.0
213.404694 44.0
213.669342 56.0
214.130096 240.0
214.382706 84.0
215.123535 92.0
215.538254 52.0
215.810089 172.0
215.994324 196.0
218.178986 60.0
219.114853 216.0
219.179672 36.0
223.101227 268.0
223.621765 44.0
224.208466 116.0
225.695038 156.0
226.424744 132.0
226.646866 156.0
226.814697 208.0
227.156525 40.0
229.680237 60.0
230.126862 112.0
230.861115 136.0
231.77832 84.0
232.136002 128.0
233.274536 44.0
237.105087 148.0
239.116699 156.0
240.13031 212.0
241.093536 184.0
241.123581 144.0
242.120605 160.0
243.148392 184.0
248.344635 248.0
248.997437 112.0
251.91095 148.0
252.445084 112.0
254.022339 200.0
254.209534 152.0
257.174133 184.0
257.932617 164.0
258.073303 120.0
258.159149 160.0
259.159882 212.0
259.482025 104.0
259.687256 84.0
260.149292 156.0
262.765686 112.0
273.299622 56.0
274.083282 64.0
274.854828 92.0
277.232391 72.0
277.268829 80.0
278.898438 116.0
283.43042 124.0
285.161163 168.0
286.124054 120.0
286.170258 248.0
286.210114 136.0
287.148407 160.0
290.59198 168.0
291.040009 60.0
292.454193 120.0
297.403381 164.0
300.172729 172.0
300.845581 184.0
300.907715 44.0
301.156342 136.0
302.18924 2220.0
302.259155 60.0
302.729919 60.0
303.192474 392.0
303.634399 56.0
304.213867 208.0
305.075378 68.0
308.142151 184.0
308.2435 44.0
309.114166 112.0
309.965088 76.0
310.248962 208.0
310.46582 128.0
312.173035 144.0
312.947144 144.0
313.045715 120.0
313.153534 64.0
314.187714 116.0
315.448395 156.0
315.483734 188.0
315.752472 116.0
316.941895 184.0
318.186768 168.0
318.712433 156.0
318.950531 156.0
319.469696 124.0
319.604889 156.0
319.918091 188.0
319.996399 72.0
320.138824 112.0
320.199554 9544.0
320.261871 160.0
320.300507 140.0
320.370331 56.0
320.441589 68.0
320.491455 128.0
320.69458 80.0
320.723114 44.0
320.748047 172.0
320.933441 68.0
320.965515 76.0
320.994049 60.0
321.040405 36.0
321.104614 72.0
321.201019 2076.0
321.536285 56.0
321.736176 32.0
321.846863 48.0
321.89328 40.0
322.204865 436.0
322.682892 72.0
323.122803 120.0
323.276672 100.0
323.341064 152.0
323.448456 48.0
323.634613 152.0
324.204163 168.0
324.408447 84.0
324.451477 52.0
326.472931 40.0
328.323975 96.0
328.572845 64.0
329.453705 44.0
329.894592 52.0
330.122375 148.0
330.183502 1924.0
331.183136 92.0
331.552307 96.0
331.603027 72.0
333.91571 112.0
334.173981 172.0
334.436005 104.0
335.076904 92.0
341.232788 124.0
341.4534 132.0
345.185394 132.0
347.129425 216.0
353.701416 112.0
354.705292 92.0
358.071777 112.0
367.415497 108.0
371.52417 204.0
375.127411 104.0
386.323059 48.0
387.121521 104.0
390.575195 56.0
394.941559 100.0
395.578613 76.0
403.191406 152.0
414.807404 96.0
415.508972 56.0
420.705872 108.0
422.248016 160.0
423.244751 204.0
425.261688 88.0
433.232269 112.0
435.779541 92.0
441.398132 76.0
442.829346 60.0
449.606476 68.0
452.722107 168.0
453.857727 52.0
454.841949 52.0
457.869141 92.0
467.268951 700.0
467.432587 48.0
467.587494 136.0
467.884491 40.0
468.261963 696.0
469.276062 56.0
470.294128 56.0
471.693604 96.0
475.006134 56.0
488.213898 112.0
492.201843 192.0
495.860229 136.0
507.087006 44.0
518.339783 128.0
519.858826 92.0
522.084778 184.0
522.248535 36.0
534.54126 128.0
536.196228 52.0
552.778137 52.0
569.419617 80.0
595.645752 44.0
618.753601 128.0
627.113708 72.0
635.981567 44.0
674.709473 20.0
705.666565 184.0
711.504822 144.0
734.116699 72.0
754.02417 212.0
754.658936 164.0
755.412964 64.0
775.943298 72.0
812.709656 208.0
854.539856 156.0
877.911316 148.0
888.237671 148.0
892.739502 160.0
902.124023 56.0
906.457092 92.0
908.039734 56.0
912.910095 144.0
922.847107 68.0
928.254089 144.0
928.490601 208.0
929.782776 36.0
944.061218 96.0
947.64917 112.0
950.653625 84.0
951.255127 232.0
955.513794 128.0
956.036804 188.0
959.04834 120.0
960.663879 196.0
965.042419 208.0
965.821594 144.0
970.478516 172.0
981.128662 232.0
989.142883 120.0
993.730103 176.0
995.952332 184.0
996.706177 164.0
997.579773 156.0
999.321777 92.0
1001.45575 124.0
1003.100281 92.0
1004.550598 176.0
1006.728027 40.0
1007.744995 172.0
1009.01532 44.0
1009.249268 140.0
1009.995483 168.0
1012.438416 64.0
1015.036499 192.0
1018.889038 176.0
1021.985229 216.0
1027.190063 212.0
1029.430176 136.0
1030.13269 164.0
1032.375977 132.0
1034.135376 96.0
1034.999512 180.0
1035.351685 176.0
1036.716187 152.0
1036.998169 56.0
1038.081665 48.0
1039.056519 172.0
1041.174683 132.0
1042.138184 168.0
1042.61377 176.0
1042.767944 100.0
1044.458862 148.0
1046.975342 160.0
1050.062378 120.0
1052.734009 244.0
1053.457397 176.0
1054.116455 152.0
1055.978149 124.0
1057.867554 172.0
1058.145874 204.0
1058.754517 164.0
1061.832886 156.0
1063.05249 300.0
1064.818237 144.0
1064.935181 144.0
1066.598511 212.0
1071.368164 204.0
1073.656006 128.0
1078.108154 140.0
1079.108276 204.0
1081.781616 172.0
1084.29248 216.0
1086.718628 188.0
1087.880249 148.0
1088.838867 216.0
1090.290649 204.0
1092.335449 136.0
1092.644653 172.0
1094.355835 204.0
1094.691528 120.0
1095.462158 188.0
1095.54126 144.0
1096.371338 148.0
1099.985718 168.0
1100.56665 108.0
1101.365723 152.0
1101.571167 184.0
1101.841309 156.0
1103.632324 48.0
1104.161377 232.0
1105.146973 132.0
1105.663086 240.0
1105.947632 124.0
1109.09375 136.0
1109.975464 132.0
1112.689087 160.0
1115.63208 188.0
1117.141602 164.0
1119.377808 160.0
1120.123779 176.0
1122.41626 168.0
1123.009766 216.0
1125.705933 120.0
1126.045288 148.0
1127.342529 152.0
1128.592529 164.0
1132.045166 56.0
1132.728271 188.0
1135.348877 140.0
1136.831421 136.0
1137.334717 132.0
1137.515991 96.0
1138.637207 168.0
1138.805176 180.0
1141.237671 208.0
1141.325073 140.0
1141.950562 196.0
1142.549194 204.0
1142.724121 96.0
1143.74939 216.0
1145.679565 212.0
1146.89917 44.0
1146.973267 164.0
1147.112915 220.0
1147.384521 144.0
1149.940918 168.0
1151.284424 120.0
1151.608643 140.0
1151.844971 228.0
1151.966553 84.0
1153.250366 156.0
1153.726807 164.0
1153.879028 120.0
1153.973633 144.0
1154.595825 188.0
1154.663452 156.0
1155.461548 72.0
1156.320923 160.0
1158.304688 144.0
1159.049927 168.0
1159.788574 72.0
1159.998657 148.0
1161.687134 92.0
1165.658936 120.0
1166.921509 208.0
1168.548584 140.0
1169.24939 120.0
1169.739502 156.0
1169.855225 120.0
1170.488281 84.0
1170.917358 164.0
1172.157104 192.0
1172.266235 144.0
1172.634155 144.0
1174.427246 140.0
1175.009399 144.0
1178.181641 124.0
1179.479858 176.0
1180.997803 216.0
1181.490356 168.0
1182.427734 108.0
1183.166992 104.0
1184.570801 156.0
1185.612183 136.0
1185.776611 204.0
1186.187866 220.0
1188.527588 168.0
1191.341309 140.0
1192.646851 184.0
1193.554321 124.0
1194.152588 132.0
1195.225708 240.0
1195.411499 160.0
1195.59729 248.0
1195.65918 124.0
1197.194336 192.0
1199.316284 140.0
1199.757446 200.0
1199.92981 272.0
1201.019287 164.0
1201.136597 204.0
1203.220581 156.0
1203.897217 144.0
1204.076782 120.0
1204.795166 176.0
1204.90564 100.0
1205.016235 284.0
1205.803955 148.0
1206.854614 132.0
1208.047607 176.0
1208.244751 128.0
1209.656616 152.0
1211.06897 144.0
1211.851685 224.0
1215.359985 216.0
1215.526489 180.0
1215.665283 80.0
1216.102539 120.0
1216.664795 120.0
1220.513794 160.0
1220.708374 128.0
1221.174316 128.0
1224.556763 228.0
1224.675171 180.0
1225.030396 156.0
1229.855591 176.0
1229.939331 192.0
1230.281372 160.0
1230.393066 104.0
1230.637451 148.0
1230.986572 68.0
1231.943359 152.0
1232.118042 56.0
1232.77478 136.0
1232.830688 208.0
1233.103271 192.0
1235.011963 124.0
1235.256714 60.0
1236.131348 172.0
1236.7052 160.0
1236.859131 160.0
1237.545166 180.0
1238.259399 120.0
1239.877686 116.0
1240.844116 252.0
1241.44104 104.0
1241.511108 132.0
1241.708496 252.0
1242.219482 40.0
1242.282593 152.0
1242.338745 132.0
1244.352905 156.0
1245.982178 188.0
1246.452881 84.0
1246.62854 264.0
1246.944824 92.0
1248.146851 128.0
1248.203125 180.0
1249.335449 184.0
1249.602783 160.0
1250.996216 148.0
1252.679199 204.0
1253.472778 56.0
1253.552856 60.0
1254.22937 100.0
1254.461914 156.0
1254.962524 128.0
1255.64917 148.0
1256.28833 60.0
1256.380005 48.0
1256.471802 204.0
1257.636108 72.0
1258.765625 108.0
1259.372925 136.0
1259.450684 184.0
1259.52832 172.0
1259.89563 176.0
1260.121704 176.0
1260.694092 44.0
1260.856567 124.0
1261.040283 224.0
1261.096924 52.0
1261.330078 96.0
1261.994629 212.0
1262.199707 168.0
1263.246338 156.0
1264.484619 180.0
1264.74646 224.0
1265.80835 184.0
1268.174438 124.0
1268.450928 156.0
1272.849487 160.0
1273.70874 196.0
1274.575439 100.0
1275.058716 132.0
1275.193726 184.0
1275.940063 132.0
1277.895874 132.0
1278.137817 60.0
1281.085205 64.0
1281.505493 144.0
1282.075562 152.0
1283.365723 168.0
1284.335571 132.0
1285.120239 112.0
1285.741089 148.0
1286.43335 208.0
1286.783203 172.0
1287.647217 128.0
1287.947144 148.0
1288.068604 164.0
1288.668701 232.0
1288.775879 200.0
1289.540405 40.0
1289.769165 164.0
1289.954956 104.0
1290.112305 296.0
1290.677124 160.0
1291.313477 184.0
1291.578125 176.0
1291.642456 172.0
1292.36499 180.0
1293.552979 112.0
1294.089966 84.0
1294.276123 144.0
1294.863281 244.0
1294.970703 160.0
1295.866089 112.0
1297.837036 132.0
1298.065796 180.0
1298.447388 144.0
1298.582886 76.0
1298.869751 176.0
1299.902832 184.0
1300.900513 236.0
1301.144531 136.0
1301.223511 192.0
1301.62561 140.0
1301.747681 184.0
1301.912842 180.0
1302.429932 68.0
1302.903931 48.0
1304.880371 176.0
1305.088867 148.0
1305.484253 160.0
1305.750366 160.0
1306.239502 132.0
1306.311401 180.0
1306.548828 72.0
1306.84375 100.0
1307.095581 200.0
1307.498535 140.0
1309.024658 56.0
1309.572021 144.0
1309.946533 208.0
1310.839844 80.0
1311.063232 120.0
1311.229004 172.0
1311.30835 200.0
1311.618164 172.0
1311.928223 160.0
1312.101196 160.0
1312.600342 188.0
1314.077271 176.0
1316.354004 164.0
1316.906982 44.0
1317.354736 144.0
1318.062744 224.0
1318.83606 188.0
1319.790283 124.0
1319.862549 180.0
1319.913208 140.0
1319.970947 52.0
1320.571289 152.0
1320.867188 204.0
1320.976318 212.0
1321.026855 136.0
1321.352417 152.0
1321.77832 164.0
1322.054321 200.0
1322.18457 180.0
1322.358276 132.0
1322.416138 168.0
1323.371704 96.0
1324.436157 120.0
1324.733154 160.0
1325.044678 56.0
1325.138794 204.0
1326.711426 148.0
1327.588745 160.0
1327.980347 68.0
1328.2052 172.0
1328.647705 136.0
1329.307983 176.0
1332.386475 232.0
1332.706055 164.0
1335.359375 84.0
1336.77063 124.0
1336.923462 316.0
1337.178223 216.0
1339.231323 120.0
1339.508057 168.0
1339.580933 136.0
1339.631958 104.0
1339.937866 52.0
1340.236572 208.0
1340.790405 104.0
1342.335815 144.0
1343.167236 164.0
1343.327637 188.0
1343.378784 152.0
1343.736206 132.0
1344.115601 128.0
1345.04248 176.0
1345.151978 84.0
1345.356323 152.0
1345.750488 148.0
1346.159424 96.0
1347.15271 164.0
1347.444946 256.0
1347.985596 128.0
1349.264648 184.0
1349.366943 164.0
1350.237183 208.0
1350.36145 84.0
1351.012451 196.0
1351.151489 184.0
1352.212402 176.0
1353.683838 132.0
1354.863037 184.0
1355.588379 192.0
1356.08667 212.0
1356.284668 164.0
1356.834351 148.0
1358.367065 100.0
1358.975952 144.0
1359.034546 336.0
1360.362915 112.0
1361.809448 52.0
1362.955444 120.0
1363.006836 140.0
1363.223633 196.0
1364.814941 136.0
1365.756226 128.0
1365.888672 48.0
1366.491821 72.0
1367.021606 196.0
1367.087891 156.0
1367.367554 224.0
1367.558838 144.0
1368.456909 136.0
1368.677856 148.0
1369.075439 144.0
1369.134399 160.0
1369.244873 160.0
1370.025513 128.0
1370.091919 192.0
1371.477173 144.0
1372.199585 196.0
1373.822021 120.0
1374.153931 156.0
1374.618774 168.0
1376.597046 172.0
1376.99585 124.0
1377.365112 136.0
1378.576782 176.0
1379.840698 64.0
1379.966431 112.0
1380.143799 156.0
1380.380493 136.0
1381.275269 176.0
1381.356689 108.0
1383.125122 152.0
1383.806152 108.0
1384.043091 204.0
1385.133179 164.0
1385.672485 188.0
1386.576538 192.0
1387.184204 196.0
1387.569702 172.0
1387.866333 240.0
1388.13623 244.0
1388.370483 116.0
1388.800659 184.0
1389.186401 160.0
1390.254761 140.0
1391.449829 160.0
1391.538818 148.0
1391.615845 220.0
1391.694824 204.0
1391.850708 132.0
1391.90271 120.0
1392.184814 28.0
1392.481934 200.0
1393.952759 184.0
1394.657471 156.0
1395.357544 156.0
1396.82251 112.0
1397.187012 196.0
1399.352661 152.0
1400.849487 256.0
1401.982056 188.0
1402.168335 184.0
1402.898804 148.0
1403.786011 152.0
1404.16626 152.0
1404.442261 144.0
1404.800293 180.0
1405.285156 180.0
1406.031372 204.0
1406.180664 168.0
1406.316284 180.0
1407.62146 88.0
1407.696045 144.0
1407.800659 196.0
1409.339355 100.0
1409.645752 140.0
1409.720459 96.0
1410.011841 236.0
1410.325806 196.0
1410.766724 156.0
1411.103149 128.0
1411.282593 120.0
1411.768677 168.0
1412.142578 60.0
1412.344482 216.0
1412.860596 148.0
1413.302002 148.0
1413.35376 132.0
1413.511597 84.0
1414.669556 112.0
1415.105835 92.0
1415.592529 148.0
1416.895752 136.0
1418.409424 132.0
1419.001587 160.0
1419.533936 168.0
1420.726562 136.0
1422.204712 176.0
1422.797729 216.0
1424.457275 172.0
1424.637573 188.0
1424.8479 84.0
1424.998169 164.0
1425.539185 144.0
1426.373413 156.0
1426.486084 136.0
1427.31311 168.0
1427.433472 260.0
1427.523682 136.0
1427.824463 172.0
1428.245605 168.0
1428.712036 240.0
1429.056152 188.0
1429.072021 140.0
1429.096924 168.0
1429.494507 228.0
1429.660034 108.0
1429.869995 160.0
1429.968506 124.0
1430.134155 44.0
1430.819092 140.0
1430.894409 192.0
1430.994385 132.0
1431.165405 176.0
1431.481689 168.0
1432.498413 52.0
1432.686768 128.0
1433.507935 132.0
1434.67627 28.0
1435.671509 176.0
1435.769531 248.0
1435.882568 200.0
1436.995483 128.0
1437.225342 208.0
1438.546021 128.0
1439.852173 208.0
1440.78125 164.0
1441.098633 152.0
1442.065796 180.0
1442.806641 112.0
1443.05603 60.0
1443.146851 168.0
1443.986084 196.0
1444.523193 144.0
1445.998535 112.0
1446.634399 192.0
1447.14917 176.0
1447.376343 96.0
1448.360718 184.0
1448.595581 168.0
1448.65625 112.0
1448.875854 132.0
1449.481934 180.0
1450.247437 112.0
1450.914429 284.0
1452.180786 204.0
1452.99231 144.0
1454.092651 148.0
1454.540405 140.0
1454.646729 68.0
1455.140137 184.0
1455.481812 180.0
1455.755127 172.0
1457.264404 180.0
1457.426147 168.0
1458.231689 160.0
1458.847412 136.0
1459.257935 124.0
1460.025879 216.0
1460.185547 148.0
1460.702759 196.0
1460.77124 184.0
1461.455933 160.0
1461.821167 196.0
1462.840942 176.0
1463.11499 144.0
1463.434814 132.0
1463.724121 136.0
1464.615112 188.0
1466.596069 184.0
1466.878174 328.0
1467.000122 40.0
1467.427002 148.0
1467.686279 180.0
1469.112427 172.0
1469.303101 152.0
1469.577759 208.0
1469.654053 128.0
1470.07373 168.0
1470.546875 44.0
1470.852783 172.0
1471.096436 216.0
1471.378906 136.0
1471.589233 172.0
1471.875122 144.0
1472.06604 224.0
1472.501343 184.0
1473.838135 200.0
1474.304199 96.0
1474.709351 72.0
1475.458374 236.0
1475.825317 164.0
1476.001221 148.0
1476.368286 192.0
1476.681763 252.0
1476.842407 152.0
1477.446655 224.0
1478.145264 160.0
1478.517944 128.0
1479.658325 104.0
1480.906494 108.0
1481.396729 120.0
1481.588257 140.0
1481.887085 176.0
1482.270142 172.0
1482.82959 232.0
1483.143799 196.0
1483.677246 164.0
1484.040649 72.0
1485.2677 168.0
1485.436401 276.0
1485.635864 192.0
1486.019409 144.0
1486.134521 172.0
1487.055298 80.0
1487.109009 52.0
1487.231812 156.0
1487.884277 188.0
1488.206787 72.0
1488.306641 132.0
1488.460205 240.0
1488.65979 236.0
1489.358643 156.0
1489.458496 96.0
1490.003906 140.0
1490.703125 180.0
1490.772827 104.0
1490.895264 164.0
1491.488647 228.0
1492.901611 136.0
1493.686035 172.0
1494.916992 180.0
1497.996582 104.0
1499.036743 180.0
1499.660889 80.0
1500.069458 212.0
1500.601318 104.0
1501.284668 248.0
1501.88916 180.0
1501.950806 44.0
1502.498535 184.0
1503.409058 196.0
1503.578735 144.0
1503.779419 96.0
