>compound MLS000069348-01!TELENZEPINE DIHYDROCHLORIDE
>formula C19H22N4O2S
>ionization [M+H]+
>parentmass 371.15362339609055
#inchi InChI=1S/C19H22N4O2S/c1-13-18-14(12-26-13)19(25)20-15-5-3-4-6-16(15)23(18)17(24)11-22-9-7-21(2)8-10-22/h3-6,12H,7-11H2,1-2H3,(H,20,25)
#inchikey VSWPGAIWKHPTKX
#Ion_Source LC-ESI
#Instrument qTof
#Compound_Source NIH Pharmacologically Active Library
#PI Dorrestein
#Data_Collector VP/LMS
#Scan -1
#Precursor_MZ 371.149
#ExactMass 370.146
#Charge 1
#CAS_Number N/A
#Pubmed_ID N/A
#Smiles CN1CCN(CC(=O)N2c3c(C)scc3C(=O)Nc4ccccc24)CC1
#INCHI_AUX N/A
#Library_Class 1
#SpectrumID CCMSLIB00000085291
#IonMode Positive
#UpdateWorkflowName UPDATE-SINGLE-ANNOTATED-GOLD
#LibraryQualityString Gold
#TaskID d252d724072548979f1f6f1ced849daf
##Scan# 1387
#SpectrumFile p3-G11_GG11_01_18304.mzXML
#LibraryName Pharm_Active_Library.mgf
#MQScore -1
#Organism Pharm_Active_Library
#TIC_Query 0
#RT_Query -1
#MZErrorPPM -1
#SharedPeaks 0
#MassDiff 0
#LibMZ -1
#SpecMZ 371.149
#SpecCharge 0
#internalFilename spec-00000.mgf

>collision 10
45.192875 140.0
45.362972 196.0
45.565632 152.0
45.593853 128.0
45.999302 192.0
46.893246 196.0
47.014637 160.0
47.162151 232.0
47.525085 136.0
47.541553 188.0
48.830654 136.0
49.180397 72.0
49.191566 160.0
49.244629 168.0
49.301914 200.0
49.412388 164.0
50.011639 164.0
50.176838 76.0
50.515427 244.0
50.651329 184.0
51.04591 180.0
51.077202 192.0
51.322174 164.0
51.36496 160.0
51.533432 48.0
52.116627 152.0
52.267616 196.0
53.043228 192.0
53.088177 240.0
53.451366 148.0
53.476109 184.0
53.648003 188.0
53.678623 172.0
53.827473 176.0
54.141907 184.0
54.632187 184.0
54.685162 168.0
54.792664 184.0
55.11433 152.0
55.163105 140.0
55.20155 92.0
55.413231 168.0
55.5704 168.0
55.727795 120.0
55.85714 108.0
55.867554 76.0
55.943455 168.0
56.017918 108.0
56.717293 124.0
57.073116 84.0
57.253708 160.0
57.479843 76.0
57.594589 180.0
57.972851 88.0
58.198883 112.0
58.763603 212.0
58.788017 208.0
59.015633 124.0
59.026337 136.0
59.347912 148.0
59.403126 100.0
59.513634 216.0
59.609959 204.0
60.104736 152.0
60.149498 192.0
60.467922 204.0
60.594906 136.0
60.643669 184.0
60.666203 192.0
60.914505 140.0
61.484413 176.0
61.589027 272.0
61.626522 56.0
61.640877 236.0
61.781311 136.0
62.177765 128.0
62.248413 172.0
62.413418 156.0
62.487347 64.0
63.672985 108.0
63.954418 32.0
64.000587 152.0
64.455215 188.0
64.789635 148.0
64.951546 204.0
65.070312 176.0
65.552887 56.0
65.646385 196.0
65.785156 136.0
65.825516 152.0
65.83844 176.0
67.272217 172.0
67.288582 176.0
67.853058 188.0
68.105789 196.0
68.535194 236.0
69.171066 104.0
69.351624 208.0
69.366539 48.0
70.577385 112.0
70.735916 176.0
71.205421 188.0
71.312958 200.0
71.361122 204.0
72.056145 152.0
72.137268 172.0
72.575783 132.0
72.64872 44.0
72.708107 188.0
72.801483 204.0
72.928909 84.0
73.352776 132.0
73.403931 160.0
73.77787 164.0
73.825745 164.0
74.833054 220.0
75.64624 180.0
75.751877 172.0
75.998077 168.0
76.077919 76.0
76.152588 116.0
76.474258 216.0
76.85244 96.0
76.979874 180.0
77.564262 88.0
77.866074 108.0
78.117439 168.0
78.381546 104.0
78.48378 204.0
78.554329 132.0
78.628441 84.0
79.353745 232.0
79.611046 256.0
80.03537 192.0
80.262375 100.0
80.665886 148.0
81.143906 144.0
81.205193 160.0
81.479538 192.0
81.578606 196.0
81.679092 52.0
81.859077 128.0
81.907707 112.0
81.972572 152.0
82.369514 176.0
83.188057 204.0
83.364243 204.0
83.560631 168.0
83.980446 204.0
85.233742 200.0
85.415764 228.0
85.528015 212.0
85.56115 156.0
86.082985 260.0
86.934578 116.0
87.092392 228.0
88.225426 108.0
88.367577 208.0
88.446175 168.0
88.68782 100.0
88.74781 128.0
88.785316 96.0
88.967331 180.0
89.055595 200.0
89.350739 156.0
89.523911 64.0
89.925499 176.0
90.551346 208.0
90.619545 168.0
90.898293 176.0
91.023582 180.0
91.044472 160.0
91.118553 132.0
91.346695 192.0
91.49704 72.0
91.681816 144.0
91.740906 100.0
91.838158 224.0
92.286964 132.0
92.64679 120.0
93.09948 184.0
93.761307 240.0
94.549309 188.0
95.558395 244.0
95.869965 200.0
96.004486 196.0
96.063004 160.0
96.203514 168.0
96.617844 112.0
96.925247 164.0
97.016586 100.0
97.074501 648.0
97.093849 116.0
97.490433 32.0
97.653618 132.0
97.798775 248.0
97.988281 92.0
98.021774 144.0
98.057579 160.0
98.083443 5768.0
98.122307 72.0
98.179489 240.0
98.262344 64.0
98.384705 132.0
98.459747 120.0
98.526909 128.0
98.799744 156.0
98.839317 140.0
98.876915 84.0
98.999664 124.0
99.089096 952.0
99.380272 84.0
99.626472 132.0
99.640381 140.0
99.847115 164.0
100.099052 460.0
100.392815 164.0
100.414757 132.0
100.646255 96.0
100.666222 36.0
100.716156 140.0
100.798073 64.0
101.058022 112.0
101.102051 228.0
101.639122 168.0
102.111237 220.0
102.356758 132.0
102.618713 40.0
102.646942 136.0
102.957733 48.0
103.499702 72.0
103.647583 60.0
104.211678 168.0
104.714165 204.0
105.00563 216.0
105.09539 184.0
105.771873 196.0
106.356087 144.0
106.730011 156.0
107.26944 164.0
107.287994 156.0
107.519028 132.0
107.566498 160.0
107.804031 164.0
107.954948 228.0
108.035614 164.0
108.632263 140.0
109.076668 120.0
109.122406 168.0
109.413689 60.0
109.53656 68.0
109.596977 228.0
109.845085 136.0
110.085114 104.0
110.716705 164.0
110.861267 116.0
111.06884 232.0
111.088547 440.0
111.159058 160.0
111.526604 144.0
112.02533 188.0
112.093338 196.0
112.191818 156.0
112.537842 168.0
112.567406 164.0
112.751205 144.0
112.883446 196.0
112.926689 188.0
112.948456 236.0
113.032478 200.0
113.060432 152.0
113.107185 37284.0
113.155243 192.0
113.184891 124.0
113.305618 112.0
113.327957 52.0
113.387405 100.0
113.420517 56.0
113.43914 56.0
113.456573 108.0
113.483665 48.0
113.538795 120.0
113.574852 100.0
113.589706 68.0
113.638504 72.0
113.736122 44.0
113.753105 60.0
113.79557 92.0
113.865646 108.0
113.886887 48.0
113.906006 48.0
113.922997 68.0
114.080261 92.0
114.109894 2420.0
114.135544 220.0
114.165314 48.0
114.186584 72.0
114.203598 48.0
114.239761 60.0
114.307854 92.0
114.331261 28.0
114.358932 100.0
114.506111 64.0
114.780762 72.0
114.804222 68.0
114.863945 68.0
114.881012 84.0
114.900215 120.0
114.989838 72.0
115.019722 140.0
115.077362 72.0
115.112534 244.0
115.200829 104.0
115.873032 120.0
116.008049 212.0
116.149582 180.0
116.475868 60.0
116.806915 164.0
116.946785 52.0
117.142738 184.0
117.718636 108.0
118.192055 88.0
119.942589 144.0
120.381142 100.0
120.555916 104.0
120.735184 184.0
121.473343 108.0
122.178551 80.0
122.682892 148.0
123.471199 40.0
123.925018 240.0
124.097794 172.0
124.999756 208.0
125.36721 60.0
125.483124 160.0
126.690018 88.0
127.138481 156.0
127.331566 168.0
127.91394 92.0
128.103104 148.0
128.730148 204.0
130.397629 140.0
131.062149 116.0
131.785477 184.0
132.041519 164.0
133.035522 244.0
133.928253 188.0
134.057281 176.0
136.0233 184.0
136.455429 148.0
138.530243 140.0
139.083038 320.0
139.292664 120.0
140.035858 168.0
140.325836 124.0
141.102966 196.0
142.154343 132.0
142.280136 172.0
142.85051 96.0
143.058792 388.0
143.1147 164.0
143.221863 112.0
143.582779 152.0
144.059174 156.0
144.889343 128.0
145.078674 136.0
146.323196 112.0
147.304764 116.0
148.505402 92.0
149.280167 184.0
149.80835 80.0
150.00087 220.0
154.631195 164.0
157.008911 176.0
157.076263 240.0
157.093719 104.0
157.183548 176.0
159.45755 252.0
160.93129 136.0
161.375992 96.0
161.408859 156.0
162.198792 172.0
163.051651 184.0
163.885376 52.0
164.031616 56.0
164.10556 180.0
165.042664 128.0
165.301025 236.0
166.333923 148.0
166.788605 100.0
168.068604 112.0
169.078659 192.0
169.77597 172.0
170.071747 56.0
170.627686 84.0
170.916397 72.0
170.99707 244.0
172.084152 120.0
172.598907 144.0
174.021729 132.0
174.137268 184.0
174.36586 104.0
174.484146 60.0
176.131256 192.0
176.858429 204.0
177.412079 88.0
177.499573 188.0
178.721497 232.0
179.05159 120.0
179.070236 136.0
179.541992 188.0
180.03038 280.0
181.081467 124.0
182.074753 248.0
183.05545 100.0
183.144333 160.0
184.018951 360.0
185.069916 172.0
185.655243 156.0
185.9095 184.0
186.037399 900.0
186.064987 176.0
186.189896 164.0
186.222488 52.0
186.45343 180.0
186.709 112.0
187.038239 140.0
187.343231 144.0
188.027069 168.0
188.032455 132.0
189.249634 160.0
190.549744 184.0
190.79985 156.0
191.559418 176.0
192.966949 132.0
193.071503 288.0
193.141174 208.0
194.078796 124.0
194.593369 152.0
195.087906 144.0
195.407745 200.0
196.053528 132.0
197.010864 128.0
197.069534 164.0
198.02623 164.0
198.929214 160.0
199.274658 56.0
199.38707 136.0
200.039215 160.0
200.056641 176.0
201.045853 712.0
202.043823 100.0
202.111282 168.0
202.385849 56.0
203.052322 156.0
204.520798 128.0
205.073395 192.0
206.34375 52.0
206.927429 212.0
206.993286 152.0
207.057983 324.0
207.276871 40.0
209.074615 156.0
210.048508 152.0
210.084244 160.0
211.03624 228.0
212.015289 760.0
212.09584 140.0
212.13063 68.0
213.022568 192.0
213.049805 312.0
213.512772 268.0
214.028671 236.0
214.059708 152.0
214.46196 188.0
215.026901 420.0
215.049423 164.0
215.313934 144.0
215.576874 52.0
215.728851 68.0
216.028976 344.0
216.048691 188.0
216.072235 216.0
216.340286 36.0
216.39006 128.0
217.078659 120.0
217.830048 80.0
218.832932 236.0
219.183456 84.0
220.301697 60.0
221.06456 184.0
221.085632 168.0
222.410156 156.0
223.045837 172.0
223.090424 140.0
223.587173 196.0
224.036804 100.0
224.269241 224.0
225.046295 280.0
225.083725 64.0
225.143448 68.0
225.765076 56.0
225.827881 52.0
225.881729 92.0
226.0495 436.0
226.246826 52.0
227.02092 136.0
227.064163 700.0
227.115891 116.0
227.6035 76.0
227.851379 44.0
228.040695 144.0
228.063797 344.0
228.479736 176.0
228.955353 164.0
229.041473 4856.0
229.166214 40.0
229.244568 124.0
229.464615 96.0
229.521896 72.0
229.733032 52.0
230.029343 292.0
230.047058 964.0
230.185776 52.0
230.24617 52.0
230.965546 64.0
231.057953 1132.0
231.222733 36.0
231.640594 92.0
231.840576 112.0
232.013351 168.0
232.062271 140.0
232.207428 112.0
232.914658 64.0
233.276276 48.0
234.560928 88.0
234.631042 120.0
236.041702 112.0
238.018219 200.0
238.835739 84.0
239.519104 204.0
240.039978 80.0
241.041656 692.0
241.528641 68.0
241.760696 68.0
242.04512 160.0
242.184875 48.0
242.454437 112.0
242.956772 172.0
243.057602 896.0
243.133636 40.0
244.058762 172.0
244.442001 36.0
245.059586 204.0
246.14093 172.0
247.472992 56.0
247.519974 116.0
248.14978 188.0
248.667404 72.0
250.661316 196.0
251.348755 76.0
252.561951 120.0
253.047287 336.0
253.740021 28.0
254.041306 168.0
255.05513 284.0
256.027954 408.0
256.08847 136.0
257.035339 96.0
257.069916 152.0
257.325806 60.0
258.886261 104.0
259.030396 184.0
259.053223 116.0
260.054352 192.0
260.441833 76.0
260.869232 112.0
261.049286 140.0
264.721771 120.0
266.073914 128.0
266.470154 156.0
267.058563 176.0
267.08136 100.0
268.062103 204.0
269.82547 44.0
271.054688 1100.0
271.102539 160.0
271.44809 52.0
272.057251 316.0
272.124023 56.0
272.869873 76.0
272.971802 44.0
273.061554 140.0
273.071198 180.0
273.139557 72.0
273.294159 36.0
273.366577 104.0
273.932892 96.0
274.048218 144.0
274.071838 172.0
274.641632 104.0
274.691101 172.0
275.073914 152.0
276.644165 92.0
280.124512 172.0
282.852783 192.0
284.085999 164.0
286.105804 72.0
288.095581 104.0
288.758118 148.0
292.2966 48.0
293.124084 64.0
295.059448 136.0
296.839966 80.0
297.063232 172.0
298.092987 120.0
300.072235 156.0
303.887299 140.0
304.178802 80.0
307.185486 156.0
314.098053 740.0
314.890472 60.0
315.090149 128.0
315.979248 196.0
316.093262 164.0
317.775604 80.0
318.528259 188.0
323.073578 176.0
323.896942 84.0
326.096497 132.0
326.945312 192.0
328.115997 132.0
328.202545 116.0
328.34317 96.0
329.111847 132.0
330.101959 56.0
330.561401 160.0
339.076294 172.0
340.103302 100.0
341.113464 120.0
341.142883 192.0
346.146118 132.0
347.21344 144.0
348.011292 124.0
350.194275 140.0
350.220337 40.0
353.468475 120.0
354.876892 120.0
355.101898 128.0
356.818054 132.0
357.879089 148.0
357.924286 124.0
358.711731 152.0
363.993591 168.0
364.909332 64.0
365.689178 208.0
367.098846 144.0
367.201813 96.0
367.812317 116.0
368.362213 148.0
368.862823 44.0
368.988983 92.0
369.135742 104.0
369.279602 148.0
369.673676 136.0
369.780853 84.0
369.849426 156.0
370.128235 108.0
370.343689 152.0
370.604187 80.0
370.754883 144.0
370.880127 148.0
370.949127 60.0
370.995148 208.0
371.150726 10828.0
371.242676 120.0
371.27121 36.0
371.321289 76.0
371.367096 48.0
371.413147 88.0
371.442993 148.0
371.50766 100.0
371.690186 64.0
371.773804 84.0
371.83136 48.0
371.915802 64.0
372.15506 1864.0
372.257751 68.0
372.838348 64.0
373.143219 520.0
373.229736 132.0
373.272034 52.0
373.764404 92.0
373.895264 108.0
374.150269 272.0
374.214752 76.0
374.330688 76.0
374.638428 128.0
375.810516 64.0
375.964874 108.0
377.552734 80.0
379.202057 76.0
387.03656 72.0
392.31723 48.0
402.626343 68.0
448.76825 152.0
549.641724 104.0
553.929138 144.0
558.764709 88.0
560.506897 64.0
572.463745 116.0
577.020691 40.0
578.767151 116.0
634.100647 92.0
657.330078 72.0
784.521301 40.0
808.325867 20.0
851.731384 48.0
870.520996 196.0
870.708923 52.0
873.242126 80.0
890.085571 160.0
907.023987 44.0
909.297302 136.0
910.942566 208.0
920.634094 180.0
938.432434 64.0
949.709656 128.0
952.87738 136.0
954.08197 100.0
954.309448 72.0
964.191284 176.0
973.509155 56.0
975.105835 124.0
991.815308 152.0
996.321106 168.0
1006.303955 152.0
1013.730225 160.0
1014.325989 184.0
1015.346863 228.0
1018.336304 176.0
1019.975647 32.0
1030.159058 176.0
1032.619995 152.0
1033.893311 156.0
1034.616577 236.0
1041.111206 128.0
1048.343384 140.0
1051.006592 156.0
1052.233032 172.0
1052.962646 124.0
1054.287109 124.0
1054.843018 232.0
1058.550415 176.0
1060.720215 184.0
1061.738892 240.0
1072.708252 148.0
1080.152832 172.0
1082.266846 176.0
1085.071167 176.0
1085.779419 200.0
1096.522583 60.0
1097.168579 176.0
1101.623291 176.0
1108.975098 152.0
1109.598267 196.0
1124.385986 220.0
1130.093018 152.0
1131.766357 208.0
1140.743408 188.0
1146.673706 144.0
1147.738892 156.0
1153.92395 208.0
1154.383667 184.0
1158.966553 144.0
1159.522217 176.0
1159.583252 148.0
1162.051758 100.0
1165.596191 192.0
1167.132446 240.0
1170.051392 244.0
1172.060791 44.0
1173.703613 168.0
1177.996582 120.0
1178.310913 168.0
1180.63501 276.0
1183.461304 140.0
1184.838013 136.0
1188.238647 204.0
1192.187012 152.0
1197.904907 148.0
1202.835571 104.0
1204.935059 220.0
1205.00415 140.0
1208.302124 196.0
1210.413208 152.0
1212.352905 60.0
1219.077759 160.0
1222.443726 140.0
1229.322021 156.0
1230.473755 76.0
1236.807495 164.0
1243.67688 192.0
1245.095215 96.0
1248.16626 36.0
1252.889282 144.0
1254.235229 92.0
1254.474976 172.0
1260.029175 164.0
1260.778198 220.0
1262.071899 108.0
1263.974731 220.0
1265.248779 188.0
1266.495117 224.0
1272.899536 164.0
1277.363037 196.0
1281.812988 140.0
1284.023071 212.0
1284.272705 160.0
1288.577515 112.0
1294.987305 224.0
1296.155029 168.0
1297.717651 52.0
1299.532349 88.0
1301.700195 156.0
1307.847412 220.0
1307.955322 168.0
1310.310303 48.0
1315.993896 140.0
1316.853271 164.0
1317.098877 212.0
1324.737915 104.0
1325.556763 152.0
1329.327637 140.0
1329.465576 208.0
1332.588135 208.0
1332.813354 212.0
1338.938721 212.0
1339.463135 124.0
1340.854858 176.0
1342.859985 148.0
1345.567383 136.0
1347.407837 180.0
1348.98645 196.0
1352.029297 68.0
1352.146484 216.0
1354.328369 164.0
1355.083008 184.0
1355.955078 124.0
1357.494629 216.0
1357.7146 152.0
1358.059326 224.0
1360.561768 164.0
1360.723267 116.0
1361.083008 168.0
1362.493286 244.0
1366.353149 76.0
1366.426758 196.0
1367.295166 108.0
1371.449219 84.0
1374.414062 188.0
1375.159424 128.0
1376.86499 232.0
1377.758789 208.0
1379.288452 180.0
1381.729004 40.0
1382.12854 180.0
1382.217285 136.0
1382.498535 144.0
1382.846436 148.0
1384.371582 212.0
1386.942505 136.0
1388.959473 156.0
1393.183594 204.0
1400.853638 208.0
1403.574097 120.0
1404.946533 212.0
1408.335693 184.0
1408.582153 164.0
1413.007935 128.0
1415.126099 240.0
1416.017334 132.0
1416.878784 160.0
1417.725586 220.0
1417.875366 220.0
1419.299805 92.0
1419.764771 136.0
1419.817261 84.0
1420.012207 168.0
1421.347656 172.0
1424.658813 160.0
1426.627808 180.0
1432.671143 144.0
1433.989868 140.0
1435.271484 124.0
1438.485596 184.0
1446.029419 188.0
1446.21106 84.0
1447.891968 188.0
1449.73291 172.0
1450.733521 220.0
1453.501953 136.0
1457.177002 212.0
1459.837524 56.0
1460.689453 256.0
1461.161133 144.0
1461.526245 124.0
1463.406372 84.0
1463.916626 100.0
1464.89917 144.0
1472.435547 180.0
1479.94519 196.0
1481.147583 156.0
1483.461914 168.0
1486.61438 72.0
1494.321777 36.0
1498.248291 168.0
1499.812744 244.0
1501.956421 72.0
1503.576782 68.0
