>compound MLS001141387-01!(2S)-1-[6-[(10aS)-1,3-dioxo-10,10a-dihydro-5H-imidazo[1,5-b]isoquinolin-2-yl]hexanoyl]pyrrolidine-2-carboxylic acid
>formula C22H27N3O5
>ionization [M+H]+
>parentmass 414.203
#inchi InChI=1S/C22H27N3O5/c26-19(23-12-6-9-17(23)21(28)29)10-2-1-5-11-24-20(27)18-13-15-7-3-4-8-16(15)14-25(18)22(24)30/h3-4,7-8,17-18H,1-2,5-6,9-14H2,(H,28,29)/t17-,18-/m0/s1
#inchikey PNARHJLMOIEDMU
#Ion_Source LC-ESI
#Instrument qTof
#Compound_Source NIH Natural Product Library
#PI Dorrestein
#Data_Collector VVP/LMS
#Scan -1
#Precursor_MZ 414.203
#ExactMass 413.195
#Charge 1
#CAS_Number N/A
#Pubmed_ID N/A
#Smiles OC(=O)[C@@H]1CCCN1C(=O)CCCCCN2C(=O)[C@@H]3Cc4ccccc4CN3C2=O
#INCHI_AUX N/A
#Library_Class 1
#SpectrumID CCMSLIB00000080048
#IonMode Positive
#UpdateWorkflowName UPDATE-SINGLE-ANNOTATED-GOLD
#LibraryQualityString Gold
#TaskID b1d8e8f6646f4e71acdff9ca3d919d08
##Scan# 1855
#SpectrumFile p2-D03_GD3_01_18015.mzXML
#LibraryName NIH_Natural_Products_Library.mgf
#MQScore -1
#Organism NIH_Natural_Products_Library
#TIC_Query 0
#RT_Query -1
#MZErrorPPM -1
#SharedPeaks 0
#MassDiff 0
#LibMZ -1
#SpecMZ 414.203
#SpecCharge 0
#internalFilename spec-00000.mgf

>collision 10
95.514854 216.0
96.087578 156.0
97.108681 236.0
98.348221 136.0
99.30188 136.0
101.619865 180.0
101.688095 188.0
103.05587 392.0
103.956482 224.0
104.759583 132.0
104.996223 204.0
105.598503 152.0
107.053551 168.0
107.2369 144.0
107.965683 188.0
108.993858 212.0
109.237106 148.0
110.859375 164.0
112.523155 124.0
114.059906 192.0
114.584618 112.0
115.421288 128.0
115.686584 128.0
115.88147 88.0
116.025055 128.0
116.071556 1324.0
116.888474 60.0
116.96595 72.0
116.981018 152.0
117.072227 388.0
117.811256 156.0
117.936584 104.0
118.075958 164.0
118.180946 144.0
118.241539 208.0
118.854805 192.0
119.648102 208.0
121.527679 152.0
121.914139 116.0
122.060181 168.0
122.28141 196.0
122.439926 180.0
122.629395 192.0
125.281761 164.0
126.221382 52.0
127.872467 44.0
128.052582 324.0
129.55014 152.0
129.90831 204.0
130.06543 3716.0
130.092133 52.0
130.21019 56.0
130.730789 172.0
130.792252 80.0
131.045029 220.0
131.069733 604.0
131.106537 48.0
131.256989 196.0
132.081497 1724.0
132.333176 68.0
133.08699 348.0
136.388779 88.0
136.430618 152.0
137.336426 176.0
139.222794 132.0
141.521866 240.0
142.045609 164.0
142.071701 132.0
142.413528 140.0
144.078308 160.0
144.339096 124.0
146.058197 340.0
146.330566 164.0
147.060974 152.0
148.284775 140.0
152.03569 156.0
154.393295 184.0
154.979965 132.0
158.060684 280.0
159.065964 428.0
159.100159 192.0
159.471924 148.0
160.076508 220.0
160.567108 160.0
161.084534 216.0
161.79512 196.0
162.888092 208.0
165.171997 68.0
165.819778 184.0
166.795105 176.0
167.07283 60.0
167.677933 196.0
169.090622 72.0
169.388382 140.0
169.647507 172.0
170.067719 120.0
170.233887 96.0
171.099701 184.0
174.062042 124.0
175.050751 96.0
175.085464 476.0
176.068665 124.0
176.092438 180.0
177.03656 44.0
177.677994 80.0
178.644989 80.0
179.225372 132.0
179.63327 156.0
182.114548 156.0
182.794708 192.0
183.034271 256.0
183.104294 188.0
183.921234 180.0
184.094009 188.0
185.06955 404.0
186.252548 116.0
187.088303 3160.0
187.384201 92.0
187.804001 40.0
187.880371 52.0
188.041367 64.0
188.091553 476.0
188.336243 56.0
189.342728 76.0
196.076294 444.0
198.081726 168.0
199.141968 84.0
201.065247 500.0
201.107224 208.0
202.070816 240.0
202.265778 188.0
202.291565 152.0
202.571899 144.0
202.824097 100.0
203.023895 220.0
203.082748 3932.0
203.343124 196.0
203.450989 52.0
203.959457 76.0
204.087219 308.0
205.083527 148.0
205.534332 48.0
205.785507 172.0
206.869003 120.0
208.090271 116.0
208.285538 216.0
210.133682 204.0
212.132675 548.0
213.069107 340.0
213.130371 152.0
213.717697 36.0
215.084641 716.0
215.580978 60.0
216.089737 124.0
216.572754 164.0
221.112762 200.0
222.345627 268.0
224.717194 140.0
230.56366 232.0
231.065598 164.0
232.077179 184.0
232.189377 128.0
232.228806 64.0
235.088562 156.0
238.073273 132.0
238.12146 296.0
239.130844 28.0
239.155472 60.0
243.152771 344.0
245.107727 196.0
245.737549 184.0
253.130447 52.0
253.152618 76.0
254.138412 188.0
254.173309 124.0
255.154724 172.0
264.577362 156.0
266.3479 96.0
269.155151 104.0
271.145905 444.0
272.142181 196.0
272.177368 32.0
272.857483 60.0
274.460907 60.0
278.123077 96.0
281.128571 116.0
281.308594 48.0
284.686859 32.0
292.946411 148.0
293.021332 88.0
294.942566 180.0
295.257111 72.0
295.992859 44.0
296.904358 108.0
297.126556 424.0
298.129486 124.0
299.14267 708.0
300.140198 124.0
306.859711 152.0
315.139557 476.0
322.095154 116.0
328.037445 56.0
332.77298 96.0
332.84198 64.0
347.628418 116.0
362.743774 132.0
366.190002 92.0
368.902924 124.0
371.073547 60.0
392.1008 76.0
392.152039 28.0
392.494995 40.0
392.903656 52.0
400.488312 60.0
412.191772 120.0
413.08432 72.0
413.194794 228.0
413.691284 40.0
415.202606 152.0
415.612305 68.0
418.005585 56.0
428.594543 44.0
629.130615 88.0
765.138672 140.0
915.360474 132.0
1032.159668 52.0
1037.749268 164.0
1073.715576 116.0
1159.064209 200.0
1169.263794 64.0
1173.391479 188.0
1185.969238 188.0
1238.091919 148.0
1253.137695 144.0
1262.709351 204.0
1292.329712 208.0
1295.637329 204.0
1322.474487 140.0
1329.591309 156.0
1341.410278 144.0
1350.054565 148.0
1371.219482 156.0
1380.491577 144.0
1384.6875 196.0
1385.97644 124.0
1390.893188 168.0
1400.581543 128.0
1402.198364 180.0
1403.35376 176.0
1404.47229 144.0
1417.18811 104.0
1422.505127 172.0
1438.78772 152.0
1449.466919 68.0
1453.622192 144.0
1454.472168 240.0
1482.637939 180.0
1489.32019 156.0
1493.94751 204.0
1495.494141 168.0
