>compound MLS001049069-01!6,7-dimethoxy-1-methyl-3,4-dihydroisoquinoline
>formula C12H15NO2
>ionization [M+H]+
>parentmass 206.117691
#inchi InChI=1S/C12H15NO2/c1-8-10-7-12(15-3)11(14-2)6-9(10)4-5-13-8/h6-7H,4-5H2,1-3H3
#inchikey VASUQTGZAPZKFK
#Ion_Source LC-ESI
#Instrument qTof
#Compound_Source NIH Natural Product Library
#PI Dorrestein
#Data_Collector VVP/LMS
#Scan -1
#Precursor_MZ 206.118
#ExactMass 205.11
#Charge 1
#CAS_Number N/A
#Pubmed_ID N/A
#Smiles COc1cc2CCN=C(C)c2cc1OC
#INCHI_AUX N/A
#Library_Class 1
#SpectrumID CCMSLIB00000079420
#IonMode Positive
#UpdateWorkflowName UPDATE-SINGLE-ANNOTATED-GOLD
#LibraryQualityString Gold
#TaskID b1d8e8f6646f4e71acdff9ca3d919d08
##Scan# 1296
#SpectrumFile p1-B06_GB6_01_17890.mzXML
#LibraryName NIH_Natural_Products_Library.mgf
#MQScore -1
#Organism NIH_Natural_Products_Library
#TIC_Query 0
#RT_Query -1
#MZErrorPPM -1
#SharedPeaks 0
#MassDiff 0
#LibMZ -1
#SpecMZ 206.118
#SpecCharge 0
#internalFilename spec-00000.mgf

>collision 10
94.970406 232.0
94.987862 240.0
95.143105 188.0
95.319847 116.0
95.453972 184.0
95.537605 100.0
95.755608 168.0
96.25679 208.0
97.390701 84.0
97.406418 104.0
97.563622 148.0
97.638344 84.0
97.703255 120.0
97.963104 248.0
98.051773 132.0
98.217384 92.0
98.241058 128.0
98.389534 152.0
98.568802 172.0
98.683441 92.0
98.707169 140.0
99.130775 140.0
99.329033 192.0
99.767891 220.0
99.908844 200.0
100.076263 112.0
100.41449 240.0
100.534721 84.0
100.574638 136.0
100.588615 128.0
100.654495 112.0
100.668472 44.0
100.804039 176.0
101.124283 208.0
101.164314 156.0
101.20636 72.0
101.246407 64.0
101.559059 56.0
101.673416 180.0
101.797882 232.0
102.047615 220.0
102.403214 76.0
102.5644 152.0
103.05661 524.0
103.137642 140.0
103.228615 92.0
103.301422 152.0
103.325699 152.0
103.37426 232.0
103.455223 176.0
103.578743 164.0
103.770355 224.0
103.897003 116.0
104.060883 224.0
104.211685 164.0
104.382423 180.0
104.51667 124.0
104.769127 156.0
104.901588 120.0
104.936249 168.0
104.968872 136.0
105.04229 188.0
105.067245 376.0
105.197372 92.0
105.252495 192.0
105.442474 212.0
105.66127 112.0
105.712418 132.0
105.882332 188.0
106.041374 172.0
106.060585 132.0
106.337471 184.0
106.378525 160.0
106.949959 104.0
107.048584 180.0
107.425949 128.0
107.754189 224.0
107.944344 120.0
108.022942 56.0
108.082932 200.0
108.207123 172.0
108.368668 100.0
108.389389 224.0
108.708717 284.0
108.739853 116.0
108.824959 188.0
108.908028 56.0
109.084641 172.0
109.119987 200.0
109.640366 168.0
109.688301 252.0
109.917709 336.0
110.274818 136.0
110.312439 152.0
110.412804 140.0
110.479736 116.0
110.644821 152.0
110.747665 104.0
110.898521 148.0
110.936256 180.0
110.982376 120.0
111.059967 40.0
111.097725 124.0
111.295006 192.0
111.502968 72.0
111.635414 196.0
111.896324 200.0
111.965805 92.0
111.997398 128.0
112.313568 172.0
112.522476 272.0
112.615395 120.0
112.636513 112.0
112.809784 164.0
112.976845 232.0
113.068741 112.0
113.21814 312.0
113.449089 152.0
113.46817 172.0
113.586922 220.0
113.622986 160.0
113.805511 176.0
113.862846 172.0
114.153984 36.0
114.219917 268.0
114.428467 144.0
114.500862 156.0
115.056129 1492.0
115.097954 176.0
115.298752 180.0
115.405632 112.0
115.949348 224.0
116.062302 704.0
116.092979 140.0
116.217392 144.0
116.253868 144.0
116.756561 108.0
116.81678 148.0
117.060822 768.0
117.106651 60.0
117.1763 128.0
117.279732 124.0
117.411247 116.0
117.536362 40.0
117.652908 172.0
117.743599 200.0
117.903465 176.0
117.981277 100.0
118.043976 180.0
118.067238 440.0
118.143471 60.0
118.249496 128.0
118.375053 184.0
118.596031 124.0
118.637215 184.0
118.782509 204.0
118.806366 108.0
119.049652 944.0
119.129822 196.0
119.284111 52.0
119.388466 132.0
119.4907 72.0
119.645218 156.0
119.727959 120.0
119.77594 140.0
119.980446 164.0
120.04631 372.0
120.085381 148.0
120.292664 140.0
120.35379 124.0
120.570053 176.0
120.624695 204.0
120.830254 168.0
120.869637 172.0
120.924347 144.0
121.029427 124.0
121.064919 1292.0
121.097313 308.0
121.17617 244.0
121.847511 196.0
121.95079 160.0
122.060707 152.0
122.076103 136.0
122.478851 184.0
122.760948 116.0
122.866821 156.0
122.948463 224.0
122.968323 136.0
123.133911 128.0
123.334969 200.0
124.103142 192.0
124.318298 236.0
124.569191 248.0
124.783638 20.0
124.800316 108.0
124.847015 176.0
125.176353 108.0
125.566345 236.0
125.581955 84.0
125.648872 36.0
125.898865 184.0
126.319054 52.0
126.610016 136.0
126.706337 116.0
126.739944 156.0
126.856483 156.0
127.056068 140.0
127.460205 88.0
127.570328 128.0
127.788475 84.0
128.05188 252.0
128.187012 124.0
128.243347 120.0
128.518478 156.0
128.690002 156.0
128.857147 140.0
129.03569 180.0
129.062439 216.0
129.531281 172.0
129.744293 136.0
129.850861 188.0
129.977905 224.0
130.065964 680.0
130.177658 184.0
130.279861 128.0
130.554886 212.0
130.928101 132.0
131.043228 156.0
131.072449 692.0
131.094406 180.0
131.443283 92.0
131.651016 84.0
131.740097 76.0
131.781219 120.0
131.804062 92.0
131.833771 120.0
131.888626 148.0
131.913757 188.0
131.975494 180.0
132.056213 380.0
132.081467 7164.0
132.121384 212.0
132.140167 80.0
132.16304 56.0
132.20195 204.0
132.25 60.0
132.284348 172.0
132.316391 124.0
132.394241 44.0
132.42041 108.0
132.797592 200.0
132.9664 132.0
133.023956 148.0
133.049072 176.0
133.08847 1424.0
133.268188 76.0
133.302658 44.0
133.463562 152.0
133.507248 100.0
133.626862 200.0
133.700485 168.0
133.958359 96.0
134.062042 136.0
134.097366 276.0
134.158844 196.0
134.454086 56.0
134.472549 52.0
134.53949 72.0
134.654938 92.0
134.959976 84.0
134.990036 80.0
135.04509 348.0
135.070984 280.0
135.256088 52.0
135.339432 44.0
135.638275 212.0
135.65683 228.0
135.744934 204.0
135.884094 120.0
136.079605 168.0
136.106903 196.0
136.620544 48.0
137.896011 168.0
137.998856 116.0
138.305313 148.0
138.436417 192.0
138.506683 200.0
138.530106 52.0
139.562729 104.0
139.902267 200.0
140.717224 64.0
141.199265 144.0
141.360138 104.0
141.530563 112.0
142.06601 192.0
142.444839 160.0
142.472122 32.0
142.53627 104.0
143.021423 52.0
143.071655 296.0
143.134827 144.0
143.657639 188.0
143.679108 168.0
143.874802 148.0
144.051514 144.0
144.081635 4620.0
144.120789 192.0
144.144684 44.0
144.168579 28.0
144.190094 52.0
144.357437 188.0
144.407654 72.0
144.451477 212.0
144.713821 68.0
144.98027 136.0
145.015793 204.0
145.064758 604.0
145.088394 4160.0
145.133514 180.0
145.202789 168.0
145.416321 68.0
145.697266 152.0
145.766937 68.0
145.959229 192.0
146.02417 84.0
146.061172 1700.0
146.095657 712.0
146.130005 136.0
146.235886 88.0
146.334579 76.0
146.389969 144.0
146.49353 80.0
146.679077 92.0
146.957123 108.0
147.042511 304.0
147.067093 3408.0
147.090866 156.0
147.098358 44.0
147.405518 108.0
147.698044 176.0
147.815643 196.0
147.919144 224.0
148.04332 760.0
148.077637 944.0
148.191895 116.0
148.320328 32.0
148.354706 160.0
148.735107 32.0
148.75209 108.0
148.795792 104.0
148.861343 172.0
148.909912 92.0
148.971573 136.0
149.056244 704.0
149.142441 188.0
149.216095 96.0
149.303635 48.0
149.344971 184.0
149.636993 36.0
149.671066 172.0
149.873245 72.0
150.073914 388.0
150.212112 148.0
150.324341 96.0
150.480545 204.0
150.512299 128.0
150.991257 200.0
151.067078 180.0
151.488129 84.0
151.581223 112.0
151.644943 164.0
151.735641 132.0
152.304947 136.0
152.61705 136.0
153.030396 200.0
153.229889 212.0
153.819275 184.0
154.226837 168.0
154.488953 112.0
154.701767 140.0
155.063187 456.0
155.165024 48.0
155.289017 96.0
155.768051 100.0
155.912155 144.0
155.974289 200.0
156.056335 168.0
156.471817 156.0
157.049942 124.0
157.636627 276.0
157.759094 224.0
157.856598 228.0
157.956635 128.0
158.06517 116.0
158.114273 268.0
158.234421 156.0
158.487381 208.0
158.743057 180.0
158.805756 152.0
159.046616 144.0
159.070465 152.0
159.134491 204.0
159.31279 92.0
159.692352 140.0
160.001205 200.0
160.075851 5180.0
160.19072 64.0
160.389786 56.0
161.048996 364.0
161.083435 2344.0
161.240356 156.0
161.303543 88.0
161.427414 56.0
161.515945 116.0
161.563995 192.0
161.81543 148.0
161.849991 208.0
161.899414 220.0
161.920898 124.0
161.974091 136.0
162.02475 148.0
162.050079 164.0
162.091644 13180.0
162.137589 136.0
162.189468 128.0
162.209747 56.0
162.303543 88.0
162.402451 76.0
162.602875 44.0
162.912659 60.0
163.010803 196.0
163.095551 2140.0
163.136276 120.0
163.169327 72.0
163.278671 48.0
163.365143 84.0
163.398224 68.0
163.986435 56.0
164.076767 184.0
164.096054 264.0
164.215897 100.0
164.268356 120.0
164.315384 84.0
164.419998 220.0
164.486359 124.0
165.398895 140.0
165.429611 252.0
166.049683 180.0
166.098404 220.0
167.14917 176.0
168.456299 184.0
168.505386 76.0
168.779358 180.0
169.035431 76.0
170.000702 20.0
170.056488 128.0
170.425247 32.0
171.338455 152.0
172.034744 100.0
172.075714 864.0
172.165283 112.0
172.217529 136.0
173.057419 200.0
173.08168 284.0
173.174789 156.0
173.308395 136.0
173.447296 120.0
173.943039 172.0
174.054459 1420.0
174.092041 2108.0
174.120026 208.0
174.284454 36.0
174.368546 144.0
174.544678 96.0
174.718262 172.0
174.777557 268.0
174.815613 72.0
174.94194 152.0
175.063553 952.0
175.092316 544.0
175.126266 104.0
175.437195 144.0
175.613861 92.0
175.922592 52.0
175.94371 28.0
176.071167 4252.0
176.097351 340.0
176.123276 180.0
176.362076 168.0
176.398071 68.0
176.524979 48.0
176.840424 84.0
177.07872 6236.0
177.131042 216.0
177.191971 36.0
177.21582 88.0
177.244965 52.0
178.045425 152.0
178.080902 220.0
178.128418 252.0
178.40213 84.0
178.503159 80.0
178.556351 92.0
179.048691 112.0
179.075317 180.0
179.267136 132.0
180.262482 224.0
181.288589 160.0
181.421387 160.0
182.041168 72.0
182.116379 76.0
182.71312 196.0
183.08876 108.0
183.238113 40.0
183.469879 156.0
184.149857 116.0
184.220093 196.0
185.269699 204.0
186.058868 148.0
186.246246 220.0
186.702835 104.0
187.263474 92.0
187.377884 164.0
187.440552 176.0
187.775848 100.0
187.827667 204.0
187.945572 184.0
187.972275 92.0
188.021393 132.0
188.070511 5836.0
188.119644 128.0
188.59494 80.0
188.717941 52.0
188.739822 80.0
188.8246 180.0
188.966843 144.0
189.07338 480.0
189.243271 108.0
189.339111 120.0
189.495239 136.0
189.648483 100.0
189.737564 144.0
189.777542 124.0
189.913666 308.0
189.966766 152.0
190.02092 204.0
190.048096 244.0
190.086243 40152.0
190.127487 160.0
190.18129 120.0
190.230408 56.0
190.278839 140.0
190.315796 68.0
190.325668 52.0
190.346283 100.0
190.375717 80.0
190.460861 80.0
190.488327 60.0
190.53183 24.0
190.537781 28.0
190.584488 88.0
190.625702 152.0
190.652313 88.0
190.680664 124.0
190.738388 36.0
190.796112 56.0
190.856598 76.0
190.884094 48.0
190.919846 204.0
190.937668 100.0
191.013351 56.0
191.054565 212.0
191.09256 8624.0
191.178436 64.0
191.223587 88.0
191.266495 76.0
191.40416 72.0
191.470245 68.0
191.707153 148.0
191.82843 52.0
192.01387 140.0
192.097412 788.0
192.211792 60.0
192.335968 116.0
192.385666 64.0
192.471252 52.0
192.516357 84.0
192.53476 148.0
192.617615 144.0
192.653717 120.0
192.747467 56.0
192.866302 120.0
192.946472 84.0
193.026642 100.0
193.106842 184.0
193.178757 152.0
193.425034 116.0
193.485931 96.0
193.510849 52.0
193.569 136.0
193.646545 80.0
193.790588 56.0
193.82106 40.0
194.156479 68.0
194.717087 72.0
195.022705 192.0
195.083847 68.0
195.565063 36.0
196.064194 72.0
197.129608 176.0
197.842819 68.0
198.756821 68.0
199.796036 60.0
200.387253 176.0
201.56665 48.0
201.631653 112.0
202.10672 104.0
202.151993 128.0
202.338806 104.0
202.573853 84.0
203.163483 244.0
203.469986 168.0
203.839218 44.0
204.092194 212.0
205.43074 52.0
205.664719 188.0
205.731888 212.0
206.041656 196.0
206.083389 1064.0
206.117691 9076.0
206.31601 68.0
206.436691 76.0
206.52475 44.0
206.570511 52.0
206.596268 96.0
206.656342 68.0
206.908203 72.0
207.12056 812.0
207.21463 76.0
207.289139 92.0
207.495499 32.0
208.128433 208.0
208.572662 156.0
209.89917 92.0
210.620667 68.0
212.247101 72.0
212.479126 52.0
214.578918 108.0
214.978516 124.0
215.9543 76.0
217.60408 108.0
218.718231 92.0
228.491287 112.0
232.097534 44.0
249.809357 32.0
252.854172 64.0
253.459015 68.0
270.265656 80.0
277.508575 116.0
279.045776 104.0
280.217285 100.0
287.540863 112.0
295.68399 20.0
308.863464 48.0
317.41098 28.0
324.994263 88.0
329.151611 40.0
335.650421 68.0
346.178436 108.0
361.565369 72.0
389.07959 56.0
403.712769 60.0
406.4888 48.0
418.18042 76.0
420.964844 108.0
500.843201 20.0
506.005432 48.0
516.789246 76.0
526.781921 76.0
534.654419 76.0
542.232971 108.0
544.840698 72.0
545.351868 80.0
548.036926 60.0
570.548767 76.0
591.493469 208.0
594.328552 64.0
605.917847 160.0
625.394043 160.0
630.636108 120.0
632.957336 108.0
658.287109 108.0
678.161133 76.0
704.202087 40.0
742.601562 136.0
819.658386 208.0
840.542175 172.0
874.248413 76.0
875.590637 172.0
880.66864 32.0
885.808716 160.0
940.948242 172.0
954.925537 212.0
958.305054 148.0
961.153625 84.0
964.636841 168.0
983.570068 168.0
986.968628 36.0
988.513611 200.0
993.036743 92.0
995.704041 200.0
1004.988953 152.0
1008.146179 148.0
1019.076538 144.0
1020.392151 160.0
1039.252686 148.0
1056.997803 164.0
1083.98877 204.0
1087.766479 160.0
1115.510742 148.0
1124.609497 96.0
1126.392212 196.0
1147.208008 184.0
1149.750854 180.0
1152.465332 136.0
1153.391113 200.0
1160.282349 104.0
1161.170654 180.0
1163.59314 124.0
1164.523438 124.0
1168.554443 176.0
1182.69397 180.0
1195.156372 180.0
1199.026367 112.0
1202.861206 172.0
1206.557007 184.0
1211.089478 228.0
1212.322754 124.0
1213.036621 164.0
1213.216797 208.0
1214.589844 140.0
1216.505005 152.0
1218.310547 132.0
1220.513672 184.0
1222.30127 172.0
1223.199097 124.0
1223.881348 132.0
1227.797485 180.0
1228.857788 132.0
1235.655762 36.0
1236.026489 72.0
1238.210571 252.0
1239.814941 44.0
1242.963501 168.0
1250.996704 132.0
1259.387695 108.0
1260.192993 72.0
1262.355957 180.0
1264.598511 88.0
1272.339111 56.0
1278.565674 64.0
1283.915771 192.0
1288.605469 252.0
1291.436279 188.0
1292.316162 140.0
1295.029297 84.0
1297.279175 208.0
1298.347534 144.0
1298.734741 160.0
1303.595093 168.0
1308.126221 136.0
1309.141357 148.0
1309.371826 148.0
1309.746338 180.0
1314.583984 156.0
1318.967773 224.0
1322.05603 156.0
1322.128418 140.0
1322.89563 60.0
1324.271362 224.0
1326.271118 140.0
1326.539307 164.0
1327.692139 260.0
1332.991455 164.0
1334.11792 136.0
1335.055908 192.0
1338.366821 156.0
1338.956665 72.0
1339.539307 168.0
1348.550537 196.0
1350.919678 160.0
1352.588013 104.0
1352.646606 156.0
1354.660278 160.0
1357.298706 192.0
1359.337891 128.0
1361.914795 128.0
1365.104248 152.0
1366.354736 64.0
1369.95459 40.0
1370.109253 32.0
1374.901978 32.0
1374.953613 216.0
1375.300537 144.0
1378.779175 196.0
1381.485352 148.0
1383.994263 160.0
1384.245972 128.0
1384.786621 100.0
1388.603516 152.0
1389.582642 236.0
1390.020386 228.0
1392.40332 156.0
1393.636475 140.0
1395.122803 108.0
1395.427612 200.0
1396.877808 408.0
1400.614502 72.0
1402.611328 116.0
1402.872314 132.0
1403.028809 92.0
1403.692383 196.0
1405.743774 180.0
1408.252197 168.0
1412.198486 188.0
1417.089233 172.0
1418.780396 184.0
1419.530151 192.0
1420.107666 280.0
1420.655151 168.0
1423.00415 136.0
1423.807617 260.0
1424.678955 148.0
1427.091309 144.0
1427.459839 112.0
1427.963623 116.0
1429.234985 236.0
1429.287598 52.0
1431.884766 108.0
1432.005249 160.0
1433.41394 172.0
1435.079712 104.0
1440.166016 148.0
1442.932739 140.0
1444.580322 216.0
1445.957397 160.0
1448.902832 160.0
1449.706055 88.0
1450.5625 216.0
1450.797485 132.0
1453.36853 208.0
1454.90918 224.0
1456.800049 96.0
1457.1875 212.0
1458.616211 168.0
1461.726807 172.0
1462.42688 188.0
1466.303467 144.0
1468.072144 152.0
1470.75769 176.0
1472.635986 72.0
1474.492432 116.0
1475.501465 148.0
1475.822632 140.0
1476.220215 160.0
1477.321533 116.0
1478.071289 160.0
1482.044312 128.0
1482.849854 212.0
1483.692993 116.0
1483.754395 108.0
1483.930664 160.0
1484.881592 160.0
1487.805054 104.0
1491.177124 160.0
1491.776611 188.0
1495.630371 196.0
1496.600342 68.0
1497.839478 204.0
1500.622192 260.0
1500.984619 120.0
1503.630493 172.0
1504.240234 160.0
