>compound MLS001075929-01!N-[2-[7-methoxy-6-[(2,4,6-trioxo-1,3-diazinan-5-ylidene)methyl]-1,3-benzodioxol-5-yl]ethyl]-N-methylbenzamide
>formula C23H21N3O7
>ionization [M+H]+
>parentmass 452.146
#inchi InChI=1S/C23H21N3O7/c1-26(22(29)13-6-4-3-5-7-13)9-8-14-10-17-19(33-12-32-17)18(31-2)15(14)11-16-20(27)24-23(30)25-21(16)28/h3-7,10-11H,8-9,12H2,1-2H3,(H2,24,25,27,28,30)
#inchikey PVSWCIQNCLYJJV
#Ion_Source LC-ESI
#Instrument qTof
#Compound_Source NIH Natural Product Library
#PI Dorrestein
#Data_Collector VVP/LMS
#Scan -1
#Precursor_MZ 452.146
#ExactMass 451.138
#Charge 1
#CAS_Number N/A
#Pubmed_ID N/A
#Smiles COc1c2OCOc2cc(CCN(C)C(=O)c3ccccc3)c1C=C4C(=O)NC(=O)NC4=O
#INCHI_AUX N/A
#Library_Class 1
#SpectrumID CCMSLIB00000080342
#IonMode Positive
#UpdateWorkflowName UPDATE-SINGLE-ANNOTATED-GOLD
#LibraryQualityString Gold
#TaskID b1d8e8f6646f4e71acdff9ca3d919d08
##Scan# 1756
#SpectrumFile p2-E07_GE7_01_18031.mzXML
#LibraryName NIH_Natural_Products_Library.mgf
#MQScore -1
#Organism NIH_Natural_Products_Library
#TIC_Query 0
#RT_Query -1
#MZErrorPPM -1
#SharedPeaks 0
#MassDiff 0
#LibMZ -1
#SpecMZ 452.146
#SpecCharge 0
#internalFilename spec-00000.mgf

>collision 10
95.013412 136.0
95.326019 120.0
95.532112 104.0
95.683907 132.0
95.734535 200.0
95.89624 216.0
96.192719 180.0
96.364578 84.0
96.415382 132.0
96.534637 216.0
96.62265 152.0
97.599403 132.0
97.683975 80.0
98.018562 184.0
98.087654 132.0
98.196098 136.0
98.31842 268.0
98.77285 224.0
99.020264 120.0
99.184715 176.0
99.204536 180.0
99.396919 180.0
99.581551 292.0
99.712677 40.0
100.547157 164.0
101.43322 240.0
101.479332 180.0
101.780296 80.0
101.810417 160.0
101.896797 172.0
101.912865 160.0
101.945015 136.0
102.015366 192.0
102.574982 160.0
102.772629 116.0
103.053352 220.0
103.265541 212.0
103.743416 160.0
104.02742 208.0
104.13707 112.0
104.185822 176.0
104.360603 144.0
104.425682 100.0
104.517227 196.0
104.806107 160.0
104.953117 224.0
104.969429 64.0
104.992149 172.0
105.034164 33100.0
105.083656 48.0
105.109299 68.0
105.144875 44.0
105.220398 144.0
105.310249 80.0
105.344971 168.0
105.367447 28.0
105.414062 108.0
105.459404 232.0
105.573891 88.0
105.622978 56.0
105.667984 168.0
105.691895 64.0
105.721184 168.0
105.819435 36.0
105.95256 224.0
105.985886 76.0
106.036781 2596.0
106.059967 184.0
106.064728 76.0
106.072517 164.0
106.356537 44.0
106.468292 56.0
106.687263 60.0
106.701653 176.0
106.738663 40.0
106.819298 116.0
106.872368 88.0
106.954681 60.0
106.985565 168.0
107.045097 144.0
107.162682 72.0
107.210075 68.0
107.294586 92.0
107.401817 52.0
107.430695 100.0
108.361023 132.0
108.42733 48.0
108.763329 32.0
109.118568 80.0
109.958038 216.0
111.102631 108.0
111.136192 152.0
111.337715 148.0
111.411423 216.0
111.918098 80.0
112.139297 84.0
112.400795 164.0
112.424011 40.0
112.776711 144.0
113.925217 76.0
114.122871 84.0
114.755226 152.0
115.053917 160.0
116.364166 136.0
117.009155 48.0
117.071365 212.0
118.034035 64.0
118.785568 136.0
119.063385 84.0
119.361099 200.0
120.097206 56.0
120.459549 92.0
120.949364 204.0
121.091682 188.0
124.257195 136.0
124.352615 52.0
124.521347 108.0
124.767998 136.0
125.037148 144.0
125.478195 132.0
125.554016 124.0
126.291046 160.0
126.817215 168.0
127.045937 48.0
127.227715 172.0
128.046463 168.0
128.061691 164.0
128.688873 156.0
128.725006 176.0
129.031479 268.0
129.389755 172.0
130.042603 184.0
131.051849 788.0
131.249023 64.0
132.015564 180.0
132.079605 96.0
132.326767 172.0
133.028198 340.0
133.051498 140.0
133.082947 104.0
133.980347 172.0
134.420731 152.0
135.065323 192.0
136.075211 344.0
138.264542 60.0
138.592392 164.0
138.880737 208.0
139.519455 160.0
140.049088 204.0
140.334061 68.0
140.518021 140.0
141.029541 344.0
142.027298 112.0
143.049072 164.0
144.013168 100.0
144.098404 120.0
144.61972 220.0
144.636475 100.0
145.06337 532.0
145.144363 120.0
145.276276 40.0
146.018494 200.0
146.040146 232.0
146.076538 156.0
147.022339 172.0
147.04361 180.0
147.064163 116.0
147.293549 120.0
148.072372 120.0
148.118393 76.0
149.052292 196.0
150.057983 164.0
150.20401 144.0
151.678482 112.0
152.904114 144.0
153.089859 160.0
154.080322 140.0
154.362091 120.0
156.046631 276.0
156.117798 200.0
156.49852 124.0
157.064224 148.0
158.043549 160.0
158.62207 128.0
159.047424 556.0
159.387527 124.0
160.051575 108.0
160.076736 432.0
160.14476 72.0
161.004791 88.0
161.05896 144.0
161.078415 168.0
161.948166 128.0
162.021255 164.0
162.049866 160.0
162.090927 464.0
162.333389 40.0
163.099655 156.0
164.047058 140.0
164.064896 212.0
164.518997 148.0
164.91748 116.0
164.981384 140.0
165.054352 848.0
165.324127 52.0
165.472595 164.0
165.846603 36.0
166.065689 188.0
166.300735 144.0
168.050491 172.0
168.530731 68.0
168.993561 212.0
169.024612 100.0
169.648788 156.0
169.887375 212.0
170.022156 144.0
170.069427 200.0
170.265747 88.0
171.044678 264.0
171.065857 136.0
171.189545 60.0
172.049973 188.0
172.070862 116.0
173.059921 492.0
173.307999 140.0
174.029007 300.0
174.060791 180.0
174.928406 68.0
175.034653 292.0
175.061996 180.0
175.08638 176.0
175.244431 160.0
175.349838 52.0
175.476379 48.0
175.721649 140.0
176.071335 152.0
176.167816 204.0
176.987701 64.0
177.053192 512.0
177.136017 228.0
177.311188 176.0
177.793564 56.0
177.878494 144.0
178.077637 164.0
178.508163 76.0
179.082764 260.0
179.09967 140.0
179.480087 68.0
179.557419 28.0
182.06778 148.0
182.403214 112.0
183.030487 120.0
183.165146 104.0
184.038574 124.0
184.176651 184.0
184.622604 40.0
185.038635 180.0
185.060959 168.0
185.920258 92.0
185.982681 60.0
186.016647 172.0
186.055969 176.0
186.12114 116.0
187.031876 184.0
187.063309 116.0
187.108093 104.0
187.323227 116.0
187.361374 156.0
187.944824 112.0
188.052216 348.0
188.217789 180.0
188.797104 52.0
189.053589 2968.0
189.095322 60.0
189.232193 68.0
189.791138 48.0
190.059738 612.0
190.721786 64.0
190.916992 136.0
191.052933 160.0
191.115051 68.0
191.315964 112.0
191.563797 100.0
192.060272 144.0
192.13446 60.0
192.556778 84.0
192.993408 112.0
193.043182 128.0
193.081894 156.0
194.07048 160.0
195.079483 192.0
195.286819 132.0
195.492691 52.0
196.038971 140.0
196.161133 168.0
197.02623 128.0
197.067276 180.0
197.088257 216.0
198.060226 304.0
198.397537 208.0
198.924927 180.0
199.038116 200.0
199.07373 164.0
199.604843 168.0
200.052185 144.0
200.071548 132.0
200.463394 112.0
200.872208 172.0
201.056656 760.0
202.024765 176.0
202.058624 244.0
202.132278 68.0
202.290771 204.0
202.562622 116.0
203.003433 196.0
203.074081 800.0
203.694443 140.0
204.039581 328.0
204.073883 312.0
204.852203 116.0
205.074966 1396.0
205.333908 168.0
205.502213 124.0
205.570694 72.0
205.607803 64.0
205.650604 76.0
206.079819 472.0
206.216125 88.0
206.988541 76.0
207.089172 628.0
207.2005 68.0
207.435486 100.0
207.475616 204.0
207.498566 84.0
207.630463 104.0
208.04364 144.0
208.094727 212.0
208.359543 44.0
209.099396 108.0
210.361023 56.0
210.921417 148.0
212.021255 192.0
212.029373 140.0
212.040207 304.0
212.801559 76.0
213.043884 300.0
213.466965 108.0
214.029541 436.0
214.052643 420.0
214.142136 32.0
214.506348 60.0
214.914642 76.0
215.034302 180.0
215.063477 148.0
215.116028 152.0
215.720718 176.0
216.040985 604.0
216.069122 208.0
216.320389 36.0
217.041153 504.0
217.214142 144.0
217.533997 212.0
218.027435 152.0
218.077698 456.0
218.124435 156.0
218.718613 140.0
219.086197 560.0
219.13974 92.0
219.499344 160.0
219.788406 124.0
220.096756 4180.0
220.334625 32.0
220.396667 60.0
220.736603 84.0
220.860809 164.0
221.101669 476.0
221.882462 56.0
222.071182 208.0
222.096954 180.0
222.202759 64.0
222.793549 116.0
224.039383 232.0
225.060059 152.0
225.188461 224.0
226.04776 180.0
226.094345 108.0
227.05043 312.0
227.380035 108.0
228.031769 156.0
228.0578 164.0
228.257233 64.0
228.413635 244.0
228.883118 176.0
229.04924 2476.0
229.11203 48.0
229.491776 80.0
229.663666 56.0
230.05571 340.0
230.083115 96.0
230.140472 56.0
230.39418 68.0
230.663116 80.0
231.065521 1740.0
231.38916 160.0
231.707169 72.0
231.751953 92.0
231.928375 92.0
231.964752 40.0
232.062546 292.0
232.443954 52.0
232.926682 88.0
233.69278 80.0
234.068405 296.0
234.182892 76.0
237.091446 176.0
239.0784 140.0
240.024109 128.0
240.076538 160.0
241.044388 168.0
241.784927 84.0
242.042572 632.0
242.100708 80.0
243.031723 116.0
243.050735 412.0
243.37207 176.0
243.897095 52.0
244.064117 396.0
245.048523 196.0
245.123306 160.0
245.522324 100.0
245.728195 52.0
246.071518 152.0
246.568176 44.0
247.009033 116.0
247.062286 856.0
247.935822 148.0
248.57869 148.0
249.090439 252.0
249.11557 88.0
249.697067 76.0
250.068314 116.0
250.672974 48.0
253.083099 164.0
255.040985 164.0
255.104095 376.0
256.053131 368.0
256.10495 124.0
257.053314 296.0
257.739777 60.0
258.033813 120.0
258.075378 196.0
258.984253 84.0
259.070038 132.0
259.109161 144.0
259.272583 48.0
259.307831 76.0
260.035889 132.0
260.087341 400.0
260.826019 56.0
261.084045 188.0
262.081116 116.0
263.116425 68.0
264.658661 96.0
265.647125 72.0
266.069031 144.0
267.104767 72.0
268.068207 148.0
269.077026 228.0
270.008514 40.0
270.031403 172.0
270.067383 156.0
272.045563 124.0
272.079407 152.0
272.601654 56.0
274.081635 460.0
274.415314 64.0
274.722015 104.0
275.151031 116.0
277.085785 156.0
278.047394 200.0
282.097656 96.0
284.039856 312.0
284.10025 80.0
284.126068 172.0
284.603668 92.0
285.051636 924.0
285.255432 84.0
285.679138 48.0
285.769989 44.0
286.054474 344.0
286.113251 72.0
286.979126 120.0
287.067169 632.0
287.765259 124.0
288.021912 64.0
289.08075 268.0
289.686188 48.0
290.092834 120.0
291.443573 36.0
293.076813 212.0
293.104065 116.0
294.075989 44.0
295.507812 108.0
299.049255 156.0
299.071533 148.0
300.047607 532.0
301.04538 176.0
301.829803 68.0
302.04422 124.0
303.100159 188.0
305.52359 160.0
309.131348 168.0
312.120605 396.0
313.126953 328.0
313.161682 184.0
314.614471 60.0
315.946808 148.0
316.874359 164.0
317.078796 836.0
317.118866 44.0
317.860077 120.0
318.080109 100.0
318.126251 136.0
324.109497 92.0
324.250671 116.0
325.111359 96.0
325.143677 96.0
326.134949 108.0
330.082611 68.0
330.116943 140.0
331.113983 136.0
337.197083 92.0
340.622955 152.0
344.088287 180.0
346.108582 104.0
351.138702 124.0
358.814606 76.0
362.105865 160.0
365.157318 140.0
367.874084 116.0
370.804016 36.0
372.077515 84.0
373.087921 108.0
373.118652 268.0
375.091095 228.0
376.096375 128.0
379.206085 164.0
419.83429 48.0
420.813599 84.0
421.10498 160.0
422.219269 60.0
429.175568 88.0
431.268585 84.0
457.901245 140.0
474.978394 88.0
503.953339 92.0
526.097961 116.0
554.140137 100.0
662.626892 84.0
796.42688 120.0
811.448975 100.0
829.709961 88.0
848.029297 224.0
861.347961 192.0
916.859192 168.0
921.988892 52.0
939.018311 132.0
940.164124 84.0
951.212769 116.0
952.004761 84.0
983.712097 40.0
987.886414 124.0
987.930176 80.0
991.016663 216.0
1003.946655 216.0
1007.114868 148.0
1009.782043 140.0
1017.417419 288.0
1017.925354 164.0
1020.899353 132.0
1021.840698 136.0
1022.349731 160.0
1023.775696 196.0
1026.33728 160.0
1035.776489 176.0
1039.892822 224.0
1040.682373 68.0
1042.410278 196.0
1044.416138 112.0
1047.357666 188.0
1049.593872 196.0
1049.690552 152.0
1050.664551 172.0
1054.642212 28.0
1055.566772 168.0
1061.31665 220.0
1062.155762 204.0
1064.866211 180.0
1079.88916 216.0
1084.30188 224.0
1084.800049 164.0
1093.068726 168.0
1094.951538 216.0
1096.532715 160.0
1100.134155 164.0
1100.226562 200.0
1100.754761 112.0
1103.205933 136.0
1104.085327 180.0
1104.819458 116.0
1105.633301 120.0
1106.924194 128.0
1109.746826 164.0
1112.261108 172.0
1113.064331 176.0
1113.914429 184.0
1118.416016 116.0
1121.26001 144.0
1122.726685 172.0
1123.927368 140.0
1128.970703 192.0
1131.633789 200.0
1138.540405 132.0
1142.048584 204.0
1148.204468 60.0
1164.718872 152.0
1166.431274 64.0
1167.668701 156.0
1171.024048 216.0
1171.807373 200.0
1171.909546 212.0
1178.739624 264.0
1179.265869 144.0
1185.404541 196.0
1186.083008 56.0
1186.26123 196.0
1186.528564 232.0
1187.618896 216.0
1190.123657 152.0
1191.085083 152.0
1191.607178 204.0
1192.21875 244.0
1196.758667 192.0
1200.920898 120.0
1202.355957 152.0
1205.083496 216.0
1206.693848 252.0
1211.067261 152.0
1213.50647 172.0
1214.609131 188.0
1218.211792 168.0
1224.074829 276.0
1226.164673 236.0
1226.889648 168.0
1236.90686 108.0
1237.767944 60.0
1238.174072 136.0
1238.461304 168.0
1240.142822 48.0
1240.261963 116.0
1241.208374 100.0
1242.085083 168.0
1243.383057 244.0
1247.014038 148.0
1253.432007 156.0
1255.462158 168.0
1261.343384 136.0
1263.669922 208.0
1263.811523 212.0
1264.002563 160.0
1266.473267 168.0
1268.138306 88.0
1269.655396 156.0
1270.976685 76.0
1276.62915 188.0
1277.539551 168.0
1280.870972 192.0
1281.390991 224.0
1283.436523 152.0
1283.985596 140.0
1286.61853 132.0
1287.346802 112.0
1288.532471 188.0
1289.525757 172.0
1292.364624 132.0
1295.185181 76.0
1297.521362 120.0
1297.786621 96.0
1299.658569 172.0
1301.955688 156.0
1302.429688 260.0
1303.967163 144.0
1304.987915 136.0
1308.25415 152.0
1308.959717 104.0
1313.125 184.0
1318.554199 156.0
1319.139648 136.0
1319.689087 180.0
1319.906006 152.0
1321.366943 172.0
1325.211426 56.0
1327.364136 252.0
1330.012085 172.0
1331.289917 176.0
1335.687012 72.0
1337.440552 188.0
1339.515747 156.0
1340.13501 132.0
1342.030029 100.0
1343.080078 192.0
1344.145264 136.0
1344.225464 100.0
1345.984619 164.0
1346.327881 140.0
1347.606201 236.0
1351.020386 160.0
1353.223145 200.0
1353.464844 100.0
1353.523438 168.0
1360.114136 56.0
1361.281372 168.0
1363.125122 188.0
1364.984863 176.0
1365.212891 176.0
1372.001465 232.0
1379.834351 172.0
1380.544189 164.0
1381.224609 136.0
1383.104004 104.0
1383.799927 208.0
1383.866577 228.0
1384.273804 156.0
1386.82959 188.0
1390.405151 204.0
1400.619995 188.0
1402.207031 108.0
1403.735229 144.0
1406.712036 164.0
1408.556519 60.0
1412.585449 180.0
1413.385986 84.0
1418.763428 180.0
1419.528198 228.0
1420.795776 188.0
1421.726196 188.0
1429.120117 160.0
1432.915771 152.0
1434.459595 108.0
1437.914062 184.0
1438.140503 216.0
1441.584229 156.0
1445.750977 100.0
1446.280762 144.0
1450.58313 188.0
1452.061646 132.0
1452.873291 136.0
1453.207153 248.0
1456.182739 124.0
1457.664185 184.0
1460.218384 156.0
1460.530273 168.0
1461.930054 168.0
1462.866211 132.0
1465.158447 132.0
1465.989014 132.0
1467.452393 108.0
1467.795532 216.0
1467.871826 176.0
1468.390381 144.0
1477.105225 148.0
1479.117676 148.0
1480.043945 120.0
1480.955322 148.0
1485.324219 168.0
1491.144043 180.0
1491.659058 236.0
1491.835815 152.0
1493.350586 204.0
1497.599121 68.0
1498.138428 120.0
1502.524902 156.0
