>compound (2R)-N-methyl-1-phenyl-N-prop-2-ynylpropan-2-amine
>formula C13H17N
>ionization [M+H]+
>parentmass 188.144257
#inchi InChI=1S/C13H17N/c1-4-10-14(3)12(2)11-13-8-6-5-7-9-13/h1,5-9,12H,10-11H2,2-3H3/t12-/m1/s1
#inchikey MEZLKOACVSPNER
#Ion_Source LC-ESI
#Instrument qTof
#Compound_Source Commercial
#PI Dorrestein
#Data_Collector Garg_Neha
#Scan -1
#Precursor_MZ 188.143
#ExactMass 187.136
#Charge 1
#CAS_Number N/A
#Pubmed_ID N/A
#Smiles C[C@H](Cc1ccccc1)N(C)CC#C
#INCHI_AUX N/A
#Library_Class 1
#SpectrumID CCMSLIB00000079182
#IonMode Positive
#UpdateWorkflowName UPDATE-SINGLE-ANNOTATED-GOLD
#LibraryQualityString Gold
#TaskID 278b19f5865741e282cec7349aa7e7a1
##Scan# 1025
#SpectrumFile NCP003592_E2_F11_BE2_01_15736.mzXML
#LibraryName NIHcollectionI_05062014.mgf
#MQScore -1
#Organism NIHcollectionI_05062014
#TIC_Query 0
#RT_Query -1
#MZErrorPPM -1
#SharedPeaks 0
#MassDiff 0
#LibMZ -1
#SpecMZ 188.143
#SpecCharge 0
#internalFilename spec-00000.mgf

>collision 10
45.024887 172.0
45.174587 152.0
45.356705 144.0
45.516354 184.0
46.08342 144.0
46.358109 220.0
46.717915 160.0
47.008125 160.0
47.176125 180.0
47.449928 188.0
47.687408 240.0
47.863499 144.0
47.87727 196.0
47.90757 164.0
47.935127 152.0
48.068886 148.0
48.382637 180.0
48.494843 220.0
48.982552 164.0
49.154037 196.0
49.614201 160.0
49.80645 160.0
49.821899 172.0
49.996254 144.0
50.161045 176.0
50.422165 224.0
50.51973 236.0
50.630135 236.0
50.689632 144.0
50.91235 160.0
50.987297 164.0
51.010387 200.0
51.494846 176.0
51.587723 160.0
52.27618 152.0
52.489376 188.0
53.355213 140.0
53.682823 180.0
54.069962 164.0
54.17099 156.0
54.263317 176.0
54.75264 196.0
54.845215 168.0
55.276707 184.0
55.500378 164.0
55.723011 192.0
57.239716 216.0
57.310509 168.0
58.16346 276.0
58.300152 228.0
58.373119 180.0
58.447655 164.0
58.764576 192.0
58.813412 172.0
59.042587 180.0
59.108368 168.0
59.164997 168.0
59.437817 152.0
59.683582 208.0
59.708187 176.0
60.080944 176.0
60.457958 172.0
60.519878 160.0
60.772522 140.0
61.525803 212.0
61.625759 180.0
61.868172 140.0
62.329285 164.0
62.697517 168.0
63.013107 208.0
63.091404 180.0
63.232906 180.0
64.131874 336.0
64.636528 192.0
64.767807 212.0
64.831894 208.0
65.535713 232.0
65.6679 192.0
66.040146 160.0
66.11866 148.0
66.327591 208.0
66.553093 204.0
66.705811 216.0
66.744827 144.0
67.140533 144.0
68.189972 140.0
68.354424 164.0
68.680626 172.0
68.90844 168.0
69.23761 192.0
69.363533 152.0
69.863373 148.0
70.296577 148.0
70.436821 192.0
70.527046 156.0
70.664177 148.0
71.427483 188.0
71.479637 180.0
71.62442 200.0
71.802994 156.0
71.895866 164.0
72.260849 160.0
72.365784 184.0
72.480965 160.0
72.730263 140.0
72.762192 168.0
72.828743 176.0
73.148415 140.0
73.868607 168.0
74.032837 172.0
74.35685 184.0
74.428947 164.0
74.561226 164.0
75.795082 168.0
76.44278 156.0
76.62561 180.0
76.824348 140.0
77.485184 160.0
77.953667 148.0
78.716415 152.0
79.105377 192.0
79.60891 196.0
81.188271 180.0
82.385635 176.0
83.049553 180.0
83.803024 176.0
84.886078 160.0
84.953941 156.0
86.228134 228.0
86.820564 152.0
86.94857 208.0
87.394554 164.0
88.230103 192.0
88.273102 184.0
88.286194 148.0
88.346046 232.0
88.891266 148.0
89.278244 184.0
89.698105 176.0
90.959801 216.0
91.055046 28772.0
91.474457 188.0
91.79203 148.0
91.940002 156.0
92.058449 2252.0
92.507668 176.0
92.99646 140.0
93.029091 152.0
93.063957 192.0
94.182526 140.0
94.741562 196.0
96.080376 296.0
97.089516 276.0
97.33564 236.0
97.638268 168.0
98.379128 176.0
98.462746 172.0
99.602905 148.0
99.964745 152.0
100.906204 204.0
101.244362 248.0
102.264259 228.0
102.794289 200.0
102.82254 216.0
103.05072 176.0
103.066887 160.0
103.309494 208.0
103.426865 216.0
104.053253 204.0
104.382416 200.0
104.897507 164.0
104.989258 156.0
105.072067 272.0
106.454498 156.0
108.09745 160.0
108.453659 192.0
109.007782 176.0
110.381485 176.0
111.519844 172.0
112.495102 212.0
113.474609 156.0
114.181717 180.0
114.641556 144.0
115.442078 164.0
116.404243 172.0
116.952454 160.0
117.55806 180.0
117.724281 196.0
118.481819 188.0
118.727081 176.0
118.821686 200.0
118.873756 148.0
118.90197 252.0
118.993767 108.0
119.040451 176.0
119.085999 59036.0
119.183647 252.0
119.219383 100.0
119.366859 152.0
119.459686 100.0
119.917641 156.0
119.956871 152.0
120.089073 4516.0
120.165054 104.0
120.736343 140.0
120.844452 200.0
120.977028 184.0
121.093857 384.0
121.968529 204.0
122.699379 160.0
123.284302 144.0
126.368469 184.0
126.455742 196.0
126.899284 176.0
127.069733 152.0
127.093941 152.0
128.063324 156.0
128.961319 208.0
129.078873 188.0
129.137665 188.0
130.075729 192.0
131.090363 200.0
131.331757 216.0
132.101532 204.0
132.790726 180.0
133.136444 256.0
135.777679 176.0
137.704727 180.0
138.21669 144.0
140.75061 188.0
141.069565 156.0
143.084763 164.0
144.94426 148.0
145.102463 152.0
145.929672 180.0
147.000229 204.0
148.013046 140.0
148.11084 484.0
149.148438 196.0
153.957993 296.0
155.510284 144.0
155.803299 176.0
158.62822 148.0
162.215134 156.0
162.781113 204.0
163.129181 156.0
163.964035 140.0
164.24704 152.0
166.471115 176.0
167.868423 164.0
170.449219 176.0
170.698761 164.0
171.133301 160.0
177.001938 208.0
179.785156 212.0
180.808701 140.0
181.824417 200.0
183.015274 184.0
184.509964 144.0
184.774994 144.0
184.910294 180.0
185.552277 156.0
186.79332 152.0
187.370453 136.0
187.623901 176.0
187.844788 180.0
187.88768 144.0
187.970291 140.0
188.104019 192.0
188.144257 86248.0
188.544525 108.0
188.593155 192.0
189.069305 148.0
189.146713 12660.0
189.541336 132.0
189.679611 148.0
190.149338 552.0
190.445145 152.0
190.651428 100.0
191.064529 144.0
191.718964 140.0
302.566589 148.0
1105.624512 172.0
1110.971558 148.0
1132.917603 184.0
1142.234985 172.0
1142.32251 188.0
1156.187866 184.0
1158.95752 180.0
1162.822754 172.0
1174.198242 188.0
1177.842896 188.0
1190.4104 200.0
1193.261841 168.0
1203.458862 240.0
1206.408813 184.0
1215.315308 144.0
1221.533081 168.0
1224.679321 152.0
1232.038452 160.0
1234.617676 172.0
1243.444946 188.0
1255.77124 160.0
1266.181763 144.0
1272.166138 148.0
1275.170654 140.0
1293.09375 140.0
1293.759399 192.0
1300.389771 216.0
1301.768188 176.0
1312.958496 156.0
1328.539429 160.0
1330.621338 180.0
1335.133789 208.0
1336.959717 144.0
1338.757812 156.0
1347.233154 160.0
1350.742065 228.0
1356.723877 156.0
1357.626709 168.0
1366.551392 188.0
1366.669067 156.0
1372.281494 212.0
1378.555542 176.0
1386.496216 168.0
1389.395386 160.0
1391.636719 140.0
1391.941162 220.0
1401.566284 180.0
1409.864258 200.0
1421.734131 156.0
1422.154419 332.0
1425.488892 140.0
1429.36145 172.0
1430.678467 156.0
1432.711792 216.0
1437.220337 176.0
1440.995483 152.0
1450.902222 168.0
1452.350586 192.0
1453.223022 148.0
1453.375488 204.0
1453.708252 156.0
1459.489258 152.0
1459.991089 188.0
1467.941406 204.0
1470.680176 164.0
1473.704224 156.0
1474.324097 180.0
1474.674805 196.0
1483.960327 160.0
1485.55542 160.0
1485.685913 168.0
1488.909668 176.0
1490.307739 232.0
1490.699585 152.0
1493.175049 188.0
1496.714844 164.0
1499.218384 276.0
1503.050903 156.0
1503.529297 204.0
1510.444336 200.0
1510.885254 264.0
1518.041992 264.0
1527.182861 172.0
1527.890747 144.0
1538.871948 148.0
1541.65271 144.0
1551.812866 212.0
1553.734253 152.0
1554.817139 176.0
1555.288086 252.0
1557.612305 176.0
1570.134644 160.0
1570.639404 212.0
1570.702515 180.0
1574.727905 188.0
1575.383545 184.0
1576.853149 156.0
1579.715454 188.0
1580.039795 148.0
1581.899536 180.0
1583.047607 176.0
1584.108887 148.0
1585.661865 140.0
1590.889038 156.0
1595.210449 164.0
1595.512573 248.0
1596.681396 204.0
1606.805542 184.0
1608.625 148.0
1611.220459 160.0
1618.850952 208.0
1619.475586 176.0
1619.627808 184.0
1623.418701 160.0
1624.669922 144.0
1625.416138 236.0
1625.672852 164.0
1631.825684 200.0
1643.681885 252.0
1647.912842 164.0
1649.925171 168.0
1651.922729 160.0
1658.213989 140.0
1658.327515 184.0
1660.119141 156.0
1667.433716 188.0
1668.124634 156.0
1668.490479 156.0
1673.640503 160.0
1674.487427 160.0
1674.943604 184.0
1683.556274 152.0
1684.692261 144.0
1686.440186 172.0
1689.269409 152.0
1689.891113 252.0
1695.737915 168.0
1701.430664 156.0
1707.297363 148.0
1710.283813 152.0
1711.658691 336.0
1714.756226 236.0
1720.777954 164.0
1725.983276 200.0
1726.818481 200.0
1731.701538 140.0
1732.289673 168.0
1734.891724 260.0
1739.41272 220.0
1740.085205 168.0
1748.297485 172.0
1751.602905 172.0
1754.052734 152.0
1756.337402 176.0
1758.773804 272.0
1759.54187 224.0
1765.507812 144.0
1770.9646 200.0
1772.438965 184.0
1776.949829 140.0
1778.426758 180.0
1782.163818 200.0
1788.689819 160.0
1789.817871 188.0
1799.667603 236.0
1800.806152 172.0
1802.942993 248.0
1804.321411 140.0
1808.449463 176.0
1822.858154 200.0
1824.022461 192.0
1824.821655 144.0
1824.957642 160.0
1827.526245 176.0
1829.53479 140.0
1829.849854 188.0
1830.718262 148.0
1830.948242 168.0
1843.651123 156.0
1848.970459 176.0
1849.732178 144.0
1853.611816 164.0
1869.214233 232.0
1869.30896 152.0
1870.574097 160.0
1871.271362 144.0
1873.562256 164.0
1879.019409 148.0
1884.242676 140.0
1887.743286 212.0
1888.876221 148.0
1889.429932 164.0
1889.69812 232.0
1893.013184 148.0
1896.253296 228.0
1902.837158 232.0
1903.514404 184.0
1904.808472 156.0
1910.371826 204.0
1914.619385 148.0
1918.470581 180.0
1925.494629 200.0
1925.95752 140.0
1926.665039 160.0
1929.688965 180.0
1933.37146 184.0
1937.153931 208.0
1942.115234 156.0
1943.097656 164.0
1944.536743 216.0
1945.001953 208.0
1945.247681 188.0
1947.082764 144.0
1948.883545 208.0
1964.316528 172.0
1965.445801 204.0
1966.195801 148.0
1966.319458 140.0
1966.84021 140.0
1968.09375 180.0
1968.296875 152.0
1969.23291 184.0
1972.855713 184.0
1973.68689 164.0
1980.598511 172.0
1980.855469 156.0
1985.207153 200.0
1993.489502 168.0
1997.170166 200.0
2000.204346 184.0
2000.373413 232.0
2000.69397 188.0
2000.854248 216.0
