>compound MLS001162656-01!(2R)-2-phenyl-2-[[2-[(3,4,8,8-tetramethyl-2-oxo-9,10-dihydropyrano[2,3-h]chromen-5-yl)oxy]acetyl]amino]acetic acid
>formula C26H27NO7
>ionization [M+H]+
>parentmass 466.18602865609057
#inchi InChI=1S/C26H27NO7/c1-14-15(2)25(31)33-23-17-10-11-26(3,4)34-18(17)12-19(21(14)23)32-13-20(28)27-22(24(29)30)16-8-6-5-7-9-16/h5-9,12,22H,10-11,13H2,1-4H3,(H,27,28)(H,29,30)/t22-/m1/s1
#inchikey NOHZAMDNJBVHTA
#Ion_Source LC-ESI
#Instrument qTof
#Compound_Source NIH Natural Product Library
#PI Dorrestein
#Data_Collector VVP/LMS
#Scan -1
#Precursor_MZ 466.187
#ExactMass 465.179
#Charge 1
#CAS_Number N/A
#Pubmed_ID N/A
#Smiles Cc1c(C)c2c(OCC(=O)N[C@@H](C(=O)O)c3ccccc3)cc4OC(C)(C)CCc4c2oc1=O
#INCHI_AUX N/A
#Library_Class 1
#SpectrumID CCMSLIB00000080588
#IonMode Positive
#UpdateWorkflowName UPDATE-SINGLE-ANNOTATED-GOLD
#LibraryQualityString Gold
#TaskID b1d8e8f6646f4e71acdff9ca3d919d08
##Scan# 2301
#SpectrumFile p2-A11_GA11_01_17987.mzXML
#LibraryName NIH_Natural_Products_Library.mgf
#MQScore -1
#Organism NIH_Natural_Products_Library
#TIC_Query 0
#RT_Query -1
#MZErrorPPM -1
#SharedPeaks 0
#MassDiff 0
#LibMZ -1
#SpecMZ 466.187
#SpecCharge 0
#internalFilename spec-00000.mgf

>collision 10
95.047615 96.0
95.05175 92.0
95.168045 212.0
95.187462 208.0
95.229263 160.0
95.36425 84.0
95.414795 144.0
95.428398 228.0
95.484253 188.0
95.570389 192.0
95.60347 196.0
95.63266 176.0
95.663811 140.0
95.751572 200.0
95.825455 212.0
95.854675 72.0
95.927277 224.0
96.102318 172.0
96.245338 132.0
96.295578 84.0
96.315109 144.0
96.596588 184.0
96.690514 76.0
96.727699 100.0
96.833435 148.0
96.884361 120.0
96.909828 128.0
97.019585 156.0
97.147057 188.0
97.186295 128.0
97.211807 56.0
97.319763 172.0
97.335472 196.0
97.410103 160.0
97.443504 144.0
97.4589 172.0
97.777794 88.0
97.893944 120.0
97.960907 188.0
98.098854 116.0
98.234924 128.0
98.262543 156.0
98.422417 156.0
98.5271 200.0
98.612068 220.0
98.759163 184.0
98.999832 56.0
99.087448 172.0
99.140488 188.0
99.156342 148.0
99.229691 140.0
99.346703 112.0
99.819412 152.0
99.871117 208.0
99.924828 148.0
99.950691 256.0
100.085876 140.0
100.119904 168.0
100.222969 168.0
100.303207 60.0
100.386948 56.0
100.770187 68.0
100.796165 196.0
101.098129 228.0
101.112137 120.0
101.152168 172.0
101.222237 52.0
101.302353 100.0
101.500771 140.0
101.631149 92.0
101.655235 200.0
101.723473 172.0
101.799767 144.0
101.817841 160.0
102.119316 216.0
102.469582 188.0
102.493759 148.0
102.60865 96.0
102.624779 164.0
102.741753 168.0
102.836594 108.0
102.992073 168.0
103.054749 644.0
103.254822 180.0
103.387207 228.0
103.542213 252.0
103.609055 268.0
103.721893 88.0
103.746864 116.0
103.791466 124.0
103.821884 148.0
104.0187 212.0
104.04451 168.0
104.053139 120.0
104.062119 164.0
104.238045 200.0
104.264465 144.0
104.510521 144.0
104.655037 76.0
104.747757 112.0
104.823616 252.0
104.862823 216.0
104.954559 112.0
104.968834 220.0
105.036896 184.0
105.068985 216.0
105.105499 136.0
105.252472 136.0
105.411797 128.0
105.428146 120.0
105.489464 128.0
105.640793 124.0
105.743103 144.0
105.79837 188.0
105.870033 136.0
105.886421 148.0
105.962212 188.0
106.065735 5340.0
106.103622 44.0
106.267036 160.0
106.353897 76.0
106.503784 184.0
106.608566 164.0
106.696953 192.0
106.816231 156.0
106.877945 192.0
106.919106 212.0
106.98085 160.0
107.009674 128.0
107.049385 2980.0
107.068153 340.0
107.139427 132.0
107.174454 48.0
107.219788 116.0
107.248642 116.0
107.308426 176.0
107.329048 88.0
107.359512 232.0
107.397102 112.0
107.443077 208.0
107.56424 176.0
107.630302 180.0
107.731506 164.0
107.785225 96.0
107.832756 56.0
107.869965 200.0
107.90097 232.0
108.012749 160.0
108.046799 296.0
108.07885 168.0
108.188538 216.0
108.254799 212.0
108.663139 80.0
108.688034 168.0
108.746147 108.0
108.808418 184.0
108.829178 148.0
108.928871 60.0
108.955872 36.0
109.003662 128.0
109.028976 1260.0
109.059273 216.0
109.078484 184.0
109.246925 232.0
109.459221 156.0
109.488373 212.0
109.557114 48.0
109.580032 220.0
109.630035 52.0
109.685616 180.0
109.750938 152.0
109.87159 180.0
109.953293 152.0
110.024261 152.0
110.068108 112.0
110.101517 44.0
110.34182 216.0
110.360634 40.0
110.42128 192.0
110.513275 168.0
110.548897 108.0
110.627014 112.0
110.67868 188.0
110.756172 104.0
110.959442 156.0
111.132896 264.0
111.181786 104.0
111.261551 92.0
111.423264 136.0
111.456886 164.0
111.683937 148.0
111.730209 224.0
111.857079 224.0
111.917534 108.0
112.00177 152.0
112.100792 164.0
112.155586 56.0
112.227264 136.0
112.26944 120.0
112.315842 184.0
112.408669 152.0
112.526871 152.0
112.573326 200.0
112.598671 120.0
112.733879 208.0
113.074371 212.0
113.146339 132.0
113.214096 208.0
113.415375 164.0
113.440811 184.0
113.527016 188.0
113.593491 176.0
113.873672 180.0
113.905533 232.0
114.019295 804.0
114.07341 188.0
114.094666 128.0
114.181854 136.0
114.203117 64.0
114.409531 132.0
114.424431 168.0
114.507477 216.0
114.533043 160.0
114.635307 144.0
114.718338 188.0
114.754669 132.0
114.886902 152.0
114.989326 64.0
115.011047 224.0
115.052719 384.0
115.072578 76.0
115.136635 148.0
115.157997 36.0
115.20285 192.0
115.222076 68.0
115.247719 144.0
115.290459 204.0
115.331062 184.0
115.346024 152.0
115.462395 188.0
115.491432 40.0
115.713989 172.0
115.844627 68.0
115.934616 64.0
115.994629 100.0
116.047493 320.0
116.112556 52.0
116.234833 120.0
116.445221 156.0
116.526848 168.0
116.744164 160.0
116.829987 152.0
116.911751 220.0
116.965553 232.0
116.991386 84.0
117.012917 136.0
117.058098 1248.0
117.258484 152.0
117.331779 128.0
117.426659 120.0
117.525887 92.0
117.603577 36.0
117.629478 152.0
117.670502 244.0
117.771996 172.0
117.819519 136.0
117.957825 228.0
118.037697 136.0
118.065804 26564.0
118.126701 76.0
118.166771 188.0
118.174767 128.0
118.213043 172.0
118.297447 92.0
118.328903 76.0
118.420876 36.0
118.477196 156.0
118.492363 116.0
118.552551 36.0
118.605049 164.0
118.820419 192.0
118.877052 116.0
118.904366 184.0
118.958626 180.0
118.989021 152.0
119.049728 3880.0
119.068367 1780.0
119.131386 144.0
119.177979 44.0
119.258385 152.0
119.336647 72.0
119.367088 148.0
119.473663 276.0
119.652122 56.0
119.723984 72.0
119.75692 192.0
119.774078 200.0
119.798035 128.0
119.828537 48.0
119.9375 160.0
119.9702 56.0
120.052834 316.0
120.072845 184.0
120.135612 176.0
120.166481 156.0
120.404411 64.0
120.54641 156.0
120.659714 164.0
120.688499 128.0
120.78035 160.0
120.805191 168.0
120.826286 124.0
120.86348 64.0
120.953209 88.0
121.063637 2172.0
121.163002 200.0
121.2752 208.0
121.413322 144.0
121.549339 148.0
121.689812 44.0
121.821587 88.0
121.883102 156.0
122.034767 172.0
122.062637 364.0
122.142525 52.0
122.303154 216.0
122.62252 180.0
122.765823 160.0
122.823166 64.0
122.926865 168.0
123.044579 344.0
123.077759 156.0
123.249252 128.0
123.284615 128.0
123.331024 156.0
123.578705 176.0
123.682724 96.0
123.975075 180.0
124.057083 176.0
124.163513 128.0
124.345444 128.0
124.447556 36.0
124.505295 140.0
124.563042 52.0
124.863106 128.0
125.154625 60.0
125.192474 40.0
125.270882 220.0
125.611496 120.0
125.870392 196.0
125.997704 216.0
126.116142 140.0
126.134018 160.0
126.163078 184.0
126.221214 156.0
126.256996 144.0
126.310677 148.0
126.328568 196.0
126.760689 152.0
127.040077 188.0
127.072357 164.0
127.242935 88.0
127.312538 172.0
127.397896 112.0
127.42485 56.0
127.730591 160.0
127.861092 180.0
127.921867 172.0
128.020935 144.0
128.050156 616.0
128.084 228.0
128.320618 196.0
128.365723 80.0
128.397293 152.0
128.510086 176.0
128.638718 220.0
128.733551 76.0
128.853256 192.0
129.056168 376.0
129.070724 432.0
129.095123 184.0
129.21048 156.0
129.387009 116.0
129.423233 40.0
129.454941 136.0
129.479843 340.0
129.525146 100.0
129.588577 108.0
129.657532 140.0
129.676956 176.0
129.772171 204.0
129.842468 200.0
130.041595 192.0
130.06395 200.0
130.414612 188.0
131.048523 700.0
131.0746 104.0
131.288879 184.0
131.40065 200.0
131.606064 152.0
131.685989 136.0
131.704269 104.0
131.827637 64.0
132.060837 340.0
132.108871 108.0
132.131744 76.0
132.152344 104.0
132.291946 136.0
132.424759 76.0
132.587418 68.0
132.679108 216.0
132.713501 180.0
132.750198 40.0
132.770828 208.0
132.835052 104.0
132.949768 204.0
132.988785 136.0
133.024506 156.0
133.063873 204.0
133.46434 164.0
133.535629 148.0
133.715088 192.0
133.826645 104.0
133.848602 124.0
133.892365 160.0
134.016754 168.0
134.03212 308.0
134.060593 4324.0
134.115845 148.0
134.134293 104.0
134.37413 144.0
134.411041 40.0
134.542603 160.0
134.640533 120.0
134.698914 176.0
134.782806 220.0
134.803604 76.0
134.852142 108.0
134.889114 160.0
134.928421 144.0
134.953857 112.0
134.979294 140.0
135.007034 128.0
135.044189 5748.0
135.079803 992.0
135.120377 196.0
135.159714 60.0
135.310165 176.0
135.368042 40.0
135.620575 152.0
135.636795 60.0
135.731857 140.0
136.048004 884.0
136.076279 312.0
136.172791 128.0
136.193695 112.0
136.237823 68.0
136.28894 48.0
136.46257 120.0
136.498138 32.0
136.828232 124.0
136.942642 104.0
137.021851 128.0
137.045151 176.0
137.087311 168.0
137.37854 136.0
137.525543 80.0
137.57457 124.0
137.663284 144.0
137.740356 44.0
137.780075 144.0
137.885223 96.0
138.142426 136.0
138.163483 144.0
138.189224 32.0
138.430313 152.0
138.481842 128.0
138.664597 220.0
138.774765 212.0
138.976486 224.0
139.018723 112.0
139.060486 176.0
139.10556 160.0
139.157211 180.0
139.246445 120.0
139.354507 200.0
139.500214 200.0
139.613068 168.0
139.761612 168.0
139.810684 180.0
139.987244 40.0
140.013153 96.0
140.067322 164.0
140.246399 128.0
140.460983 56.0
140.524673 220.0
140.621429 56.0
140.647385 104.0
140.665436 168.0
140.708771 116.0
141.086777 112.0
141.143509 100.0
141.261765 180.0
141.302261 176.0
141.460876 172.0
141.623932 140.0
141.665939 224.0
141.715591 156.0
141.768448 112.0
141.929642 152.0
142.124146 156.0
142.295044 60.0
142.51593 156.0
142.559082 176.0
142.698944 132.0
142.798813 172.0
142.834503 112.0
142.870178 124.0
143.086746 152.0
143.170029 152.0
143.211121 176.0
143.31778 144.0
143.336838 136.0
143.382126 56.0
143.40596 160.0
143.560928 172.0
143.603851 164.0
143.631088 232.0
143.694504 160.0
143.768463 184.0
143.887817 72.0
144.054993 176.0
144.081268 152.0
144.212692 184.0
144.296371 128.0
144.382446 108.0
144.607346 164.0
144.767807 156.0
144.791687 100.0
144.830017 156.0
144.912903 180.0
145.063797 1612.0
145.152756 144.0
145.278275 112.0
145.315674 200.0
145.344772 168.0
145.419846 148.0
145.529831 108.0
145.539124 88.0
145.548233 168.0
145.60231 92.0
145.625717 156.0
145.694412 128.0
145.734436 136.0
145.792648 72.0
145.830566 224.0
145.891739 212.0
145.955566 152.0
145.97287 204.0
146.008484 132.0
146.030121 172.0
146.06076 28628.0
146.135971 40.0
146.17688 48.0
146.198532 36.0
146.226654 156.0
146.30925 96.0
146.384949 128.0
146.410385 120.0
146.453735 144.0
146.48024 148.0
146.504318 80.0
146.571259 72.0
146.629623 88.0
146.659073 160.0
146.763962 116.0
146.815262 148.0
146.897263 180.0
146.914154 56.0
146.93985 172.0
146.959991 148.0
147.013184 176.0
147.044418 25840.0
147.164642 172.0
147.18187 52.0
147.202255 76.0
147.230347 156.0
147.26416 68.0
147.290741 88.0
147.317307 104.0
147.365631 56.0
147.384949 100.0
147.440613 84.0
147.491287 76.0
147.542053 68.0
147.781494 48.0
147.822632 76.0
147.861343 80.0
147.90976 104.0
148.007507 108.0
148.048904 2788.0
148.072662 280.0
148.135498 156.0
148.168701 196.0
148.209366 128.0
148.282242 188.0
148.33609 128.0
148.396698 76.0
148.607712 136.0
148.649689 148.0
148.716919 60.0
148.736328 192.0
148.867432 68.0
148.97673 72.0
149.059647 1596.0
149.091583 164.0
149.204239 124.0
149.266205 124.0
149.309738 116.0
149.331635 188.0
149.488815 92.0
149.518295 72.0
149.583572 140.0
149.911057 76.0
149.962082 68.0
150.063034 228.0
150.098755 132.0
150.284134 44.0
150.362228 116.0
150.645462 192.0
150.672333 108.0
150.716309 164.0
150.738876 156.0
150.909409 68.0
150.960754 164.0
150.980316 56.0
151.036575 320.0
151.074921 172.0
151.229874 140.0
151.342484 140.0
151.421738 168.0
151.766373 64.0
151.891449 52.0
152.00676 96.0
152.038666 124.0
152.068939 540.0
152.091507 188.0
152.220322 36.0
152.259613 224.0
152.692169 48.0
152.74382 236.0
152.861923 52.0
153.174591 108.0
153.215698 164.0
153.329819 120.0
153.845352 164.0
154.070084 52.0
154.134323 148.0
154.22081 212.0
154.280136 124.0
154.450775 208.0
155.069778 208.0
155.154053 176.0
155.212204 204.0
155.357407 88.0
155.421921 128.0
155.518707 160.0
155.747147 140.0
155.844025 172.0
156.040375 96.0
156.093582 60.0
156.460831 152.0
156.600281 112.0
156.692444 180.0
156.834488 180.0
156.979095 220.0
157.036453 188.0
157.058975 152.0
157.087692 140.0
157.193634 212.0
157.233551 204.0
157.448257 144.0
157.723099 176.0
157.933136 184.0
158.023193 164.0
158.065735 168.0
158.183365 112.0
158.318573 32.0
158.536514 152.0
159.050674 148.0
159.083878 212.0
159.367096 128.0
159.414841 88.0
159.673782 216.0
159.797043 152.0
159.975723 48.0
160.021042 172.0
160.217484 184.0
160.293076 188.0
160.368683 72.0
160.454391 164.0
161.027206 64.0
161.06131 804.0
161.095398 228.0
161.190247 112.0
161.214157 80.0
161.254593 148.0
161.322845 156.0
161.423981 52.0
161.525146 64.0
161.78833 72.0
162.067825 240.0
162.726379 84.0
162.838104 152.0
162.98291 120.0
163.03627 304.0
163.074844 3468.0
163.262451 128.0
163.47113 52.0
163.570389 156.0
163.644226 172.0
163.690063 68.0
163.74353 128.0
164.07251 1696.0
164.135986 68.0
164.259766 180.0
164.562103 224.0
164.975983 148.0
165.059479 148.0
165.078079 356.0
165.114059 132.0
165.165207 172.0
165.36734 128.0
165.47998 252.0
165.543991 84.0
165.779953 148.0
165.98732 176.0
166.3311 132.0
166.441498 108.0
166.713791 144.0
166.819168 212.0
166.904022 56.0
166.978592 72.0
167.186981 88.0
167.300232 152.0
167.32341 40.0
167.344009 144.0
167.364609 72.0
167.573227 212.0
167.678879 196.0
167.699509 160.0
167.763947 116.0
167.781998 216.0
167.989944 220.0
168.060547 192.0
168.16893 48.0
168.233459 152.0
168.318665 80.0
168.527878 112.0
169.068329 116.0
169.208115 184.0
169.368668 44.0
169.79892 144.0
169.939804 244.0
170.045395 196.0
170.208939 156.0
170.523285 72.0
171.079941 172.0
171.132004 140.0
171.522781 124.0
171.54364 128.0
171.702682 192.0
171.765289 80.0
172.02623 144.0
172.086288 164.0
172.133286 132.0
172.209015 212.0
172.26387 64.0
172.337021 136.0
172.391891 136.0
172.420639 168.0
172.658554 48.0
172.794571 136.0
172.956696 168.0
173.06015 3448.0
173.197723 148.0
173.312988 100.0
173.341812 256.0
173.412567 192.0
173.603958 128.0
173.757248 172.0
173.837433 164.0
173.926666 156.0
174.021179 188.0
174.055862 2652.0
174.099945 140.0
174.118332 160.0
174.294342 116.0
174.378433 96.0
174.412598 44.0
174.601913 36.0
174.754486 144.0
174.938705 180.0
175.075089 1852.0
175.151688 168.0
175.178345 84.0
175.209961 216.0
175.406342 192.0
175.4366 108.0
175.476151 88.0
175.840179 76.0
175.908798 188.0
175.948395 128.0
176.022339 192.0
176.051376 180.0
176.077942 392.0
176.159668 156.0
176.270645 124.0
176.402786 120.0
176.950409 132.0
177.054764 1740.0
177.127838 76.0
177.26619 164.0
177.350418 80.0
177.443207 128.0
177.504196 244.0
177.541321 56.0
177.647415 224.0
177.673935 172.0
177.77211 128.0
177.926071 164.0
178.024307 204.0
178.058578 284.0
178.646255 192.0
179.062866 172.0
179.298615 64.0
179.469223 160.0
179.957489 200.0
180.071976 156.0
180.120407 100.0
180.229935 60.0
180.253983 168.0
180.451782 160.0
180.922653 188.0
181.051178 228.0
181.110092 164.0
181.212875 120.0
181.345886 164.0
181.772293 124.0
181.804504 156.0
181.8367 220.0
181.989716 220.0
182.027313 136.0
182.046112 152.0
182.446457 60.0
182.559387 80.0
182.59166 216.0
182.675034 116.0
182.693863 160.0
182.763824 56.0
182.890305 160.0
183.383209 152.0
183.814713 96.0
183.922668 108.0
184.025558 172.0
184.073578 140.0
184.108963 144.0
184.189987 180.0
184.214294 72.0
184.289948 224.0
184.343979 144.0
184.376419 180.0
184.471024 100.0
184.729263 40.0
184.944397 88.0
185.057098 384.0
185.09697 144.0
185.217865 104.0
185.909241 176.0
186.047668 92.0
186.161713 160.0
186.20787 196.0
186.25676 116.0
186.824905 92.0
187.081604 208.0
187.445679 68.0
187.489288 44.0
187.562881 220.0
187.740097 108.0
187.98288 128.0
188.051575 120.0
188.070679 188.0
188.124817 108.0
188.239487 136.0
188.446136 128.0
188.652054 200.0
189.055664 348.0
189.089706 196.0
189.122543 264.0
189.204666 140.0
189.256683 80.0
189.286804 100.0
189.358017 84.0
189.379929 280.0
189.423752 200.0
189.612808 156.0
189.653915 132.0
190.018646 88.0
190.062439 2028.0
190.573257 160.0
190.606888 116.0
190.881119 228.0
191.032043 576.0
191.070526 9500.0
191.128677 204.0
191.150696 80.0
191.199081 96.0
191.301407 132.0
191.335098 136.0
191.36438 76.0
191.472778 124.0
191.602249 124.0
191.808929 112.0
191.848923 100.0
191.930237 116.0
191.96608 60.0
192.033859 136.0
192.068237 2264.0
192.128815 184.0
192.228149 40.0
192.264023 164.0
192.335785 168.0
192.534576 44.0
192.595505 64.0
192.675446 132.0
192.741287 72.0
192.855057 132.0
192.949051 164.0
192.982224 112.0
193.071793 508.0
193.314163 100.0
193.372284 148.0
193.559784 148.0
193.569427 188.0
193.710083 120.0
193.815369 152.0
193.887421 120.0
194.073135 132.0
194.400467 136.0
194.553116 104.0
194.705841 156.0
195.174088 40.0
195.615051 188.0
195.745911 172.0
196.082993 144.0
196.314392 60.0
196.470581 128.0
196.608627 76.0
196.794327 32.0
197.69162 200.0
198.055588 168.0
198.075195 60.0
198.111603 216.0
198.355408 144.0
198.551666 192.0
199.110168 164.0
199.14949 172.0
199.177582 80.0
199.931091 88.0
200.043671 160.0
200.077454 160.0
200.102783 176.0
200.128128 168.0
200.359085 168.0
200.381622 152.0
200.833038 148.0
200.968063 196.0
201.054642 664.0
201.128937 136.0
201.312439 36.0
201.363281 128.0
201.435028 120.0
201.527252 88.0
201.757172 132.0
201.894608 60.0
201.945511 160.0
202.060623 232.0
202.316193 68.0
202.497421 116.0
202.522919 120.0
202.888458 188.0
203.039963 164.0
203.070465 3780.0
203.138016 184.0
203.191925 148.0
203.743729 140.0
203.773941 52.0
204.075348 928.0
204.103653 68.0
204.206039 56.0
204.23732 136.0
204.496246 44.0
204.553177 140.0
204.929092 76.0
205.074844 192.0
205.197006 196.0
205.422302 236.0
205.482208 196.0
205.868042 116.0
205.907532 252.0
206.061188 336.0
206.373337 180.0
206.584961 164.0
207.064941 560.0
207.16037 164.0
207.27211 224.0
207.54155 204.0
207.911591 120.0
208.066605 176.0
208.177139 148.0
208.261871 148.0
208.3423 64.0
208.508957 164.0
208.718811 200.0
210.075333 192.0
210.182083 188.0
210.43898 140.0
210.485168 88.0
210.618027 40.0
210.722031 196.0
210.808716 96.0
211.10553 212.0
211.271332 176.0
211.381271 56.0
211.424683 60.0
211.983597 152.0
212.085037 124.0
212.264786 176.0
212.734802 176.0
213.054794 224.0
213.09201 204.0
213.115265 140.0
213.138855 136.0
213.373932 192.0
213.784058 128.0
213.839355 92.0
213.973267 168.0
214.100388 192.0
214.491806 192.0
214.541367 112.0
214.71048 104.0
214.795074 124.0
214.84758 156.0
214.94516 152.0
215.069351 148.0
215.656448 164.0
215.738297 116.0
215.761002 212.0
215.799683 196.0
215.92543 80.0
216.062912 224.0
216.168243 176.0
216.258972 96.0
216.370209 56.0
216.460968 148.0
216.569336 188.0
216.67186 76.0
216.735977 156.0
216.979584 168.0
217.048599 448.0
217.081085 212.0
217.256897 172.0
217.290466 92.0
217.384369 200.0
217.525238 108.0
217.79245 176.0
217.936401 116.0
218.059204 572.0
218.280304 108.0
218.306778 112.0
218.339584 76.0
218.474426 152.0
218.503845 68.0
218.633377 380.0
218.718674 56.0
218.77507 100.0
218.821716 44.0
218.85614 152.0
218.912186 192.0
218.946442 156.0
218.97641 120.0
219.004517 272.0
219.066055 69816.0
219.141266 176.0
219.181519 52.0
219.207321 96.0
219.244522 156.0
219.278305 88.0
219.303482 96.0
219.330109 104.0
219.349731 68.0
219.38147 104.0
219.439331 196.0
219.46402 96.0
219.506775 40.0
219.550827 64.0
219.58934 184.0
219.635071 64.0
219.679306 52.0
219.699966 76.0
219.738312 60.0
219.783081 92.0
219.820938 48.0
219.868149 112.0
219.90564 120.0
219.944885 76.0
219.968018 88.0
220.069687 10232.0
220.120483 172.0
220.15451 96.0
220.210632 128.0
220.251205 76.0
220.328781 216.0
220.408554 72.0
220.460312 68.0
220.621353 64.0
220.707108 80.0
220.798035 64.0
220.822433 208.0
220.881592 36.0
220.94371 112.0
221.002884 40.0
221.035431 40.0
221.072556 604.0
221.115341 112.0
221.136047 40.0
221.159729 36.0
221.284058 104.0
221.310715 40.0
221.373917 128.0
221.462341 80.0
221.528336 100.0
221.559494 244.0
221.595596 160.0
221.6306 80.0
221.651352 96.0
221.719513 56.0
221.750351 200.0
221.833069 76.0
221.865891 52.0
221.894394 108.0
221.928558 92.0
221.989273 124.0
222.072311 120.0
222.116806 168.0
222.259216 84.0
222.330429 160.0
222.398697 192.0
222.609482 44.0
222.692642 76.0
222.75502 220.0
222.964111 108.0
223.117569 176.0
223.16217 136.0
223.21225 76.0
223.278137 36.0
223.501251 92.0
223.697678 76.0
223.724472 140.0
223.760193 152.0
224.010361 104.0
224.44548 164.0
224.466354 92.0
225.057175 136.0
225.281174 80.0
225.430557 124.0
225.568039 112.0
225.651749 124.0
226.112411 192.0
226.9422 64.0
227.257126 40.0
227.821548 52.0
228.371643 160.0
228.452866 88.0
228.66951 180.0
228.810989 128.0
229.048889 304.0
229.084351 208.0
229.122223 2448.0
229.161423 136.0
229.202545 72.0
229.25679 144.0
229.724121 160.0
229.850845 80.0
229.871964 80.0
230.062119 80.0
230.084473 248.0
230.124466 468.0
230.188934 44.0
230.287521 180.0
230.339935 60.0
230.638153 196.0
230.773254 148.0
230.82048 76.0
230.841644 64.0
230.929352 124.0
230.977753 140.0
231.003464 152.0
231.066086 23892.0
231.163315 108.0
231.213745 68.0
231.245758 60.0
231.286255 92.0
231.319687 192.0
231.354858 84.0
231.446487 68.0
231.472015 88.0
231.528595 60.0
231.66188 164.0
231.699524 80.0
231.794067 76.0
231.843674 176.0
231.869919 212.0
231.99115 152.0
232.069 4124.0
232.113464 140.0
232.195343 68.0
232.221848 92.0
232.270157 84.0
232.404663 152.0
232.458618 148.0
232.529083 120.0
232.683899 88.0
232.870255 136.0
232.929871 36.0
233.072891 544.0
233.116791 516.0
233.26413 56.0
233.371063 84.0
233.422226 88.0
233.510895 52.0
233.688324 100.0
233.778152 120.0
233.808578 72.0
233.867279 168.0
233.936417 60.0
233.963821 56.0
234.066681 112.0
234.117661 108.0
234.701126 112.0
235.058014 108.0
235.693161 44.0
235.784836 72.0
236.066086 132.0
236.323654 252.0
236.803635 48.0
236.84346 52.0
237.087769 92.0
238.011917 124.0
238.113251 168.0
238.638733 132.0
238.715607 48.0
239.069366 180.0
239.107956 140.0
239.241745 80.0
239.377213 96.0
239.552765 172.0
239.762283 128.0
239.978073 48.0
240.06749 112.0
240.342026 180.0
240.743317 156.0
240.91629 184.0
241.049149 104.0
241.080048 132.0
241.333527 104.0
242.091644 176.0
243.061905 188.0
243.195358 104.0
244.046555 208.0
244.10997 212.0
244.855637 204.0
245.00827 120.0
245.078537 264.0
245.117828 532.0
245.16095 36.0
245.403931 80.0
245.633224 84.0
245.82518 56.0
245.912567 80.0
245.975723 136.0
246.049911 144.0
246.074524 188.0
246.126282 144.0
246.221649 76.0
246.559067 136.0
247.060165 1804.0
247.099365 168.0
247.123215 136.0
247.134323 112.0
247.409866 52.0
247.842072 84.0
248.070038 356.0
248.088547 112.0
248.099808 216.0
248.174316 156.0
248.547577 88.0
249.075424 360.0
249.166122 48.0
249.417511 112.0
250.654358 208.0
250.874985 136.0
251.064178 84.0
251.103256 172.0
252.716248 68.0
252.918777 60.0
253.11824 100.0
253.913666 132.0
254.74527 148.0
255.117081 204.0
255.47644 172.0
255.600525 164.0
255.829681 136.0
256.103516 276.0
256.227753 120.0
256.281921 104.0
256.371155 56.0
256.406219 84.0
256.776031 64.0
256.807922 56.0
256.99295 92.0
257.059937 224.0
257.090668 116.0
257.125977 228.0
257.181244 96.0
257.599548 148.0
257.6922 192.0
257.941467 64.0
257.995819 164.0
258.075897 568.0
258.238831 88.0
258.525665 220.0
258.632385 184.0
258.702789 132.0
258.842773 184.0
258.885315 260.0
258.958954 356.0
259.06134 23148.0
259.136261 788.0
259.181152 56.0
259.208862 40.0
259.231293 40.0
259.256927 152.0
259.288971 64.0
259.330627 88.0
259.378723 48.0
259.449249 132.0
259.538544 56.0
259.569122 92.0
259.628113 76.0
259.633545 92.0
259.671082 128.0
259.739166 68.0
259.779541 40.0
259.827667 44.0
259.907867 204.0
260.008606 72.0
260.062561 4280.0
260.128906 156.0
260.193542 48.0
260.227234 32.0
260.334808 56.0
260.421539 88.0
260.524323 88.0
260.63678 108.0
260.700684 72.0
260.752472 80.0
260.774963 96.0
260.852112 100.0
260.881042 88.0
260.916412 92.0
261.025726 96.0
261.065247 516.0
261.164001 136.0
261.328064 124.0
261.382782 96.0
261.421387 44.0
261.456787 88.0
261.485748 100.0
261.580963 48.0
261.810913 52.0
261.888214 104.0
261.949402 152.0
261.997742 92.0
262.073761 188.0
262.855377 56.0
262.958649 132.0
263.055481 136.0
263.081299 140.0
263.48175 64.0
264.077606 244.0
264.254456 108.0
264.40332 60.0
265.082764 148.0
265.245453 52.0
265.320007 60.0
265.754608 92.0
266.244751 36.0
267.106079 104.0
267.327301 44.0
267.675629 116.0
267.867798 128.0
268.102386 128.0
268.297943 100.0
268.389221 48.0
269.570892 92.0
270.709747 124.0
271.518738 40.0
272.11496 208.0
272.579102 112.0
273.077057 160.0
273.115997 336.0
273.246552 28.0
273.898651 48.0
274.074005 152.0
274.120544 1092.0
274.229218 68.0
274.686188 76.0
274.907257 240.0
275.07489 348.0
275.129425 3148.0
275.326508 160.0
275.38266 96.0
275.574249 68.0
275.825409 52.0
275.930847 188.0
276.007263 144.0
276.086639 6980.0
276.132416 652.0
276.248688 84.0
276.321472 72.0
276.400879 80.0
276.450531 40.0
276.545258 108.0
276.566559 124.0
276.632568 100.0
276.702087 228.0
276.874268 64.0
276.997589 68.0
277.087463 1208.0
277.13266 156.0
277.606659 104.0
277.636505 56.0
278.095856 460.0
278.190002 44.0
278.290222 64.0
278.413086 164.0
278.798431 68.0
278.888184 92.0
278.967957 52.0
279.110901 156.0
279.786316 128.0
280.078705 120.0
280.195953 132.0
280.445892 84.0
280.585907 132.0
280.632568 100.0
281.102905 48.0
283.872711 188.0
286.073425 96.0
286.474152 164.0
286.615662 72.0
286.851593 108.0
286.972961 176.0
287.127747 3980.0
287.252869 100.0
288.13623 320.0
289.090881 72.0
289.226257 200.0
289.273651 64.0
289.395508 92.0
289.68338 136.0
289.873108 36.0
290.171387 104.0
291.106689 168.0
291.158844 160.0
291.892883 140.0
292.569946 136.0
293.926453 108.0
294.093689 148.0
294.288269 136.0
294.752808 132.0
295.099365 184.0
295.125366 116.0
295.659027 132.0
296.104065 204.0
296.549469 152.0
296.765442 72.0
296.943756 104.0
297.10498 112.0
299.094666 164.0
300.121277 272.0
300.214386 112.0
300.676666 112.0
301.084045 124.0
302.105957 176.0
302.90683 96.0
303.104309 160.0
303.142426 208.0
304.040619 124.0
304.498871 128.0
304.637817 84.0
305.176514 68.0
306.122986 96.0
307.096527 856.0
307.465149 92.0
307.527954 216.0
308.106018 156.0
309.930481 120.0
310.18631 72.0
312.10318 68.0
312.177032 128.0
312.993408 116.0
313.120209 132.0
314.130676 176.0
314.14328 236.0
315.077911 196.0
315.124207 3092.0
315.180359 164.0
315.466644 144.0
315.562103 156.0
315.636353 44.0
316.124451 1236.0
316.351044 92.0
316.400604 52.0
316.545746 188.0
316.974365 64.0
317.126953 148.0
317.445831 112.0
317.690582 84.0
318.36142 148.0
320.029114 356.0
322.108673 156.0
323.016235 44.0
323.04129 76.0
323.108826 148.0
325.938171 48.0
326.038788 124.0
328.108521 64.0
328.400604 88.0
328.472748 172.0
328.912964 84.0
330.136627 140.0
330.376495 176.0
330.636993 196.0
330.738342 156.0
331.141266 1156.0
331.796112 124.0
332.148804 1624.0
332.401855 84.0
332.710358 120.0
333.154877 564.0
333.444092 104.0
333.680389 120.0
334.145447 128.0
334.673676 48.0
334.761047 44.0
335.092255 284.0
335.150818 188.0
335.934662 104.0
336.102509 172.0
336.131683 228.0
337.117645 152.0
338.233154 20.0
340.348511 124.0
341.45462 56.0
342.065399 148.0
342.625153 164.0
342.967865 172.0
344.510315 76.0
347.108551 156.0
348.716003 152.0
349.400238 160.0
350.860107 44.0
351.206909 80.0
352.133026 192.0
353.109894 152.0
353.179077 164.0
354.444489 44.0
355.929901 36.0
356.260406 212.0
359.819305 120.0
360.571014 176.0
361.365112 32.0
362.035095 56.0
362.6716 120.0
362.993835 80.0
363.126587 76.0
363.388336 136.0
363.987854 164.0
364.060547 212.0
364.118896 2392.0
364.1651 148.0
364.272888 64.0
364.402039 68.0
364.470428 48.0
364.512238 92.0
364.694672 56.0
364.964569 88.0
365.120941 524.0
365.162323 40.0
365.306854 48.0
365.428589 204.0
365.649323 164.0
365.729248 96.0
365.938599 128.0
366.125122 344.0
366.437561 172.0
366.677612 48.0
367.13678 164.0
367.184692 36.0
367.287659 100.0
367.776062 108.0
369.518646 184.0
371.449921 160.0
372.589569 76.0
375.179596 176.0
375.758087 220.0
376.839142 48.0
376.955078 76.0
380.677765 96.0
381.956451 48.0
382.073151 168.0
382.119598 700.0
382.4039 100.0
383.061951 236.0
383.124268 64.0
383.272339 84.0
383.447693 124.0
384.148499 76.0
384.465576 88.0
385.305084 92.0
385.355865 108.0
386.243286 64.0
387.053406 204.0
389.528137 124.0
389.681366 228.0
392.110779 696.0
392.617859 136.0
392.767731 64.0
393.111389 308.0
393.174133 116.0
393.509644 64.0
393.537292 36.0
393.616272 44.0
394.003326 192.0
394.133728 152.0
395.573303 60.0
396.416931 152.0
398.119812 356.0
398.32132 28.0
398.579559 48.0
398.85379 40.0
399.146912 356.0
399.326935 140.0
400.138733 176.0
400.887543 100.0
402.974426 136.0
403.082306 144.0
404.049927 120.0
404.245972 144.0
404.76236 48.0
404.882507 196.0
405.307129 188.0
406.911469 132.0
407.574188 48.0
407.951996 68.0
408.064575 64.0
408.177155 112.0
408.309845 32.0
408.4104 92.0
408.607513 160.0
408.692017 100.0
408.836884 32.0
408.886292 172.0
408.936615 128.0
409.050201 104.0
409.203156 100.0
409.285217 160.0
409.31189 220.0
409.485046 112.0
409.547516 204.0
409.674377 152.0
409.750031 164.0
409.867767 104.0
409.899994 188.0
409.979462 248.0
410.023041 172.0
410.124908 21816.0
410.200439 124.0
410.247314 100.0
410.290955 68.0
410.343964 108.0
410.394562 40.0
410.456573 52.0
410.514801 52.0
410.562469 92.0
410.597412 28.0
410.657898 80.0
410.703552 104.0
410.758331 40.0
410.79245 112.0
410.863617 96.0
410.894257 76.0
410.960449 144.0
410.996155 52.0
411.043182 56.0
411.127228 7628.0
411.225433 96.0
411.287323 100.0
411.319641 84.0
411.3526 140.0
411.432648 44.0
411.513397 36.0
411.545715 32.0
411.606262 112.0
411.654724 68.0
411.699158 100.0
411.759735 140.0
411.884949 72.0
411.917267 96.0
411.994019 72.0
412.030365 32.0
412.130005 1828.0
412.271454 60.0
412.302612 64.0
412.342651 84.0
412.381927 60.0
412.551697 80.0
412.584045 52.0
412.618073 76.0
412.666748 44.0
412.733643 44.0
412.77002 64.0
412.931244 116.0
412.944794 148.0
413.089081 60.0
413.135559 200.0
413.1745 40.0
413.235168 76.0
413.271606 32.0
413.522491 52.0
413.60199 100.0
413.62854 256.0
413.692505 64.0
413.769409 100.0
413.813965 56.0
413.842285 36.0
414.109558 52.0
414.146027 96.0
414.206787 36.0
414.239166 80.0
414.312103 44.0
414.374725 84.0
414.486328 76.0
414.786224 116.0
414.984863 120.0
415.70282 64.0
416.059998 116.0
416.85202 40.0
416.937378 128.0
417.868561 36.0
419.379364 52.0
420.178619 164.0
421.18692 208.0
424.026459 136.0
425.174805 124.0
425.248657 36.0
426.41922 72.0
427.02771 92.0
427.517273 40.0
427.706604 56.0
428.847534 196.0
431.375122 104.0
431.406769 68.0
437.197052 164.0
438.492279 72.0
439.188568 172.0
447.47345 52.0
449.315186 140.0
450.860626 100.0
452.307129 132.0
461.077454 80.0
464.095337 144.0
465.258026 100.0
466.125641 108.0
466.18335 868.0
466.276062 172.0
466.809113 88.0
467.190399 236.0
468.212189 256.0
468.311096 164.0
468.500641 60.0
469.220337 60.0
469.401428 84.0
469.729218 52.0
471.058746 56.0
476.660736 52.0
477.247559 72.0
491.271454 52.0
493.771515 76.0
495.178894 96.0
495.440247 60.0
507.003113 40.0
512.913452 60.0
518.599609 60.0
520.091858 52.0
520.13269 88.0
523.834167 100.0
532.557129 100.0
536.96637 80.0
536.998657 48.0
541.143738 140.0
548.567688 76.0
553.126831 112.0
556.319153 28.0
560.26947 108.0
560.801941 48.0
561.768555 92.0
575.121582 88.0
584.856567 72.0
590.946777 44.0
592.098816 104.0
598.387146 76.0
601.355835 100.0
603.700867 96.0
606.207275 76.0
608.276978 72.0
609.077393 92.0
618.757751 56.0
622.853882 60.0
623.301025 56.0
632.147156 80.0
638.362488 48.0
655.773132 108.0
664.928101 100.0
666.442993 64.0
691.00946 128.0
697.922363 40.0
702.303833 40.0
708.096619 96.0
719.737427 48.0
747.183228 124.0
757.144958 104.0
757.407837 60.0
759.84729 136.0
767.906006 96.0
768.761108 64.0
771.279602 76.0
773.276306 116.0
777.932312 52.0
778.165466 152.0
782.619019 60.0
793.783264 216.0
803.688782 96.0
806.806396 152.0
807.592407 96.0
814.115601 232.0
817.008728 112.0
818.072876 156.0
819.109314 108.0
821.497742 96.0
821.994141 68.0
826.067688 168.0
826.382385 192.0
840.563293 172.0
846.152466 96.0
847.426636 164.0
849.908264 192.0
854.19574 104.0
856.594055 148.0
862.177734 84.0
865.037842 204.0
868.864563 160.0
870.789917 168.0
881.021545 116.0
883.250061 204.0
890.475281 104.0
892.519531 188.0
895.28656 76.0
897.437683 32.0
903.134766 204.0
905.337219 44.0
905.660645 144.0
907.260559 100.0
907.710266 180.0
909.582092 48.0
910.596802 228.0
915.9198 200.0
916.468018 168.0
917.932739 152.0
918.843506 212.0
920.074707 144.0
926.891052 32.0
927.194092 176.0
929.753296 200.0
933.270447 84.0
935.521484 104.0
936.434875 192.0
936.550598 168.0
939.52533 176.0
939.952393 68.0
940.739685 144.0
944.283691 84.0
944.418213 80.0
953.983948 196.0
960.178223 64.0
965.724426 108.0
970.41217 200.0
972.881348 212.0
973.35321 172.0
973.899719 152.0
977.791809 148.0
978.681946 200.0
980.863037 192.0
981.517029 168.0
981.786072 212.0
983.513367 168.0
985.230591 192.0
996.350586 188.0
999.620056 172.0
1000.217957 96.0
1007.899414 180.0
1008.67041 204.0
1011.865112 132.0
1012.450867 148.0
1013.942749 96.0
1018.802979 164.0
1019.171631 184.0
1020.391968 144.0
1021.186829 144.0
1021.981995 172.0
1024.261108 48.0
1029.337646 116.0
1029.420654 208.0
1029.676147 32.0
1032.571289 28.0
1032.897461 188.0
1035.720215 180.0
1036.322388 148.0
1037.219604 172.0
1040.805908 64.0
1042.000488 180.0
1043.542969 156.0
1043.626587 168.0
1044.842163 144.0
1047.449341 104.0
1052.260132 164.0
1054.598511 52.0
1056.376709 244.0
1057.903931 120.0
1062.258545 44.0
1066.719727 152.0
1068.540649 184.0
1069.659912 160.0
1075.095581 132.0
1076.36853 168.0
1076.682007 156.0
1083.917114 132.0
1086.132935 116.0
1086.323242 224.0
1087.044922 184.0
1088.068848 124.0
1089.750122 108.0
1095.071899 212.0
1098.35437 176.0
1098.868896 184.0
1100.307617 64.0
1100.433105 168.0
1103.928467 204.0
1104.15332 112.0
1105.132324 168.0
1105.661743 220.0
1111.466675 124.0
1113.45813 160.0
1119.543213 140.0
1119.689819 120.0
1124.122925 72.0
1125.5448 32.0
1126.42627 248.0
1127.66687 108.0
1127.809448 168.0
1128.17041 156.0
1128.397705 208.0
1131.368774 232.0
1132.044434 196.0
1132.151489 120.0
1133.330444 124.0
1137.924805 88.0
1139.274658 152.0
1140.033936 164.0
1140.773315 92.0
1141.707886 212.0
1153.980225 216.0
1154.230347 176.0
1154.568481 184.0
1155.18396 124.0
1156.855469 244.0
1158.677124 200.0
1159.693604 216.0
1162.854126 188.0
1163.01709 192.0
1163.579102 136.0
1164.021851 220.0
1164.504028 140.0
1164.599121 168.0
1165.557007 128.0
1166.943481 124.0
1167.147461 168.0
1167.41272 128.0
1168.310547 176.0
1173.070557 140.0
1173.595581 160.0
1175.430298 232.0
1179.077026 192.0
1181.230713 260.0
1182.612915 176.0
1183.112549 204.0
1183.283691 152.0
1184.256104 252.0
1184.790405 148.0
1184.845215 144.0
1185.45459 132.0
1186.394043 168.0
1187.861572 172.0
1189.220093 56.0
1193.534302 164.0
1195.6875 212.0
1205.362549 152.0
1205.867065 164.0
1209.276733 72.0
1209.761353 172.0
1210.633667 200.0
1212.469604 176.0
1212.864624 144.0
1213.800537 144.0
1217.388062 184.0
1217.61731 36.0
1219.027466 256.0
1219.103882 160.0
1223.590332 132.0
1223.8479 76.0
1225.721558 132.0
1226.146729 124.0
1226.794922 244.0
1230.576172 172.0
1231.916992 192.0
1231.979858 180.0
1233.265625 144.0
1236.356934 132.0
1236.468872 200.0
1237.833984 120.0
1239.171753 152.0
1240.16687 196.0
1240.377075 136.0
1240.987061 196.0
1241.533936 172.0
1241.618164 244.0
1242.873779 104.0
1243.512329 140.0
1243.898438 144.0
1243.95459 192.0
1244.832153 232.0
1246.426758 124.0
1251.026367 136.0
1251.681152 144.0
1252.420654 100.0
1256.269287 176.0
1256.403442 160.0
1258.774902 208.0
1260.554932 116.0
1261.127441 128.0
1261.403076 136.0
1261.565674 176.0
1261.735352 188.0
1263.616577 100.0
1264.692139 184.0
1266.554321 140.0
1267.468262 156.0
1268.531372 204.0
1269.672852 132.0
1273.199951 176.0
1274.713135 160.0
1276.660889 136.0
1277.606812 176.0
1278.361084 156.0
1279.52832 152.0
1279.720581 192.0
1280.147827 136.0
1282.791138 104.0
1283.154663 124.0
1283.59668 208.0
1284.809204 84.0
1285.05896 156.0
1285.55127 152.0
1285.850952 108.0
1286.286377 120.0
1286.607666 204.0
1288.307251 160.0
1288.392944 240.0
1289.479126 128.0
1289.550537 128.0
1289.97229 164.0
1292.990601 212.0
1293.234009 184.0
1293.606201 152.0
1294.680176 144.0
1294.980957 180.0
1296.413818 212.0
1296.714844 224.0
1298.657837 168.0
1299.310547 192.0
1299.360718 236.0
1299.604736 144.0
1299.748169 44.0
1299.977783 192.0
1301.801147 112.0
1302.483398 144.0
1303.52832 56.0
1304.890869 64.0
1305.013062 176.0
1305.15686 164.0
1305.257568 104.0
1306.134888 192.0
1309.150513 208.0
1309.81311 188.0
1311.717407 192.0
1312.133545 140.0
1312.854614 140.0
1314.434326 184.0
1314.860107 40.0
1314.946777 164.0
1316.000732 164.0
1317.192261 176.0
1317.560669 116.0
1317.986938 88.0
1318.528931 128.0
1318.933716 228.0
1321.638428 224.0
1323.701294 168.0
1323.802734 184.0
1324.251709 200.0
1325.273071 192.0
1327.795776 100.0
1328.789429 164.0
1328.840332 136.0
1329.471558 156.0
1330.429688 184.0
1331.148438 152.0
1334.054688 172.0
1334.105469 132.0
1334.338135 188.0
1336.09082 232.0
1336.963989 152.0
1337.138672 168.0
1337.45166 236.0
1337.568115 72.0
1338.121338 180.0
1339.16272 156.0
1339.373901 200.0
1340.422974 164.0
1342.157837 180.0
1342.993286 160.0
1343.609131 196.0
1343.784302 212.0
1344.88623 212.0
1345.346069 212.0
1346.003174 148.0
1346.287964 164.0
1348.362671 240.0
1348.786621 192.0
1349.035156 156.0
1350.153809 68.0
1351.79248 124.0
1352.553589 168.0
1353.161255 88.0
1353.512695 208.0
1354.105835 144.0
1354.515991 156.0
1355.5271 172.0
1356.619141 216.0
1357.366943 164.0
1357.447632 92.0
1358.188354 148.0
1358.804565 188.0
1359.494263 140.0
1363.175171 204.0
1363.812622 40.0
1364.106689 128.0
1364.327148 176.0
1364.503662 140.0
1364.606567 168.0
1364.893311 160.0
1365.106567 144.0
1365.702271 120.0
1366.798462 180.0
1368.286011 196.0
1370.597778 84.0
1370.664185 156.0
1374.609131 136.0
1375.435669 48.0
1375.612915 216.0
1376.786865 168.0
1378.397217 148.0
1378.692871 184.0
1380.126831 48.0
1380.393066 152.0
1381.561646 104.0
1384.159424 148.0
1384.289429 208.0
1384.640869 64.0
1385.337036 120.0
1385.544556 172.0
1385.61853 128.0
1386.381714 152.0
1386.730103 232.0
1386.952393 200.0
1387.226685 148.0
1387.419434 72.0
1387.938477 160.0
1388.309204 148.0
1389.043457 176.0
1389.317993 148.0
1389.896606 216.0
1390.430908 144.0
1390.527466 184.0
1392.324097 104.0
1393.096558 228.0
1393.267334 56.0
1394.136719 84.0
1395.251587 140.0
1396.10144 176.0
1397.088501 176.0
1397.89209 144.0
1399.343506 56.0
1399.492432 80.0
1400.028564 52.0
1400.594604 160.0
1401.130859 172.0
1402.442383 140.0
1402.725708 136.0
1403.23999 156.0
1404.671875 204.0
1405.194092 68.0
1406.171631 96.0
1406.492554 188.0
1406.89563 132.0
1407.239014 148.0
1407.702026 164.0
1407.754272 100.0
1408.97168 40.0
1409.121216 132.0
1411.812012 144.0
1412.365479 168.0
1412.941528 68.0
1413.46167 132.0
1414.019043 52.0
1414.490601 56.0
1415.463867 176.0
1416.230225 196.0
1416.752075 64.0
1417.516235 168.0
1418.415649 64.0
1420.2677 172.0
1422.646362 200.0
1423.562378 180.0
1423.69751 92.0
1424.486206 40.0
1425.410278 144.0
1426.635376 140.0
1426.936035 48.0
1427.657959 196.0
1428.018921 36.0
1429.756836 160.0
1430.35144 100.0
1431.006348 200.0
1431.872314 196.0
1432.527588 204.0
1434.058228 128.0
1434.449097 172.0
1434.954224 36.0
1438.522583 236.0
1438.794312 212.0
1439.896729 192.0
1440.689819 116.0
1441.596558 140.0
1442.919189 164.0
1443.22168 48.0
1443.932495 172.0
1444.219849 172.0
1444.446777 192.0
1444.908203 128.0
1445.422729 176.0
1445.663208 196.0
1446.308228 140.0
1447.936035 192.0
1448.132935 132.0
1450.875977 136.0
1452.726318 180.0
1453.098022 132.0
1454.221191 200.0
1454.851196 184.0
1455.534424 124.0
1455.997681 220.0
1458.04895 152.0
1458.793823 136.0
1459.325928 116.0
1460.382935 148.0
1460.824097 140.0
1460.915405 124.0
1463.805054 204.0
1464.988159 156.0
1465.216675 180.0
1466.481567 52.0
1466.626343 144.0
1466.694946 164.0
1470.416992 140.0
1471.72998 144.0
1471.928589 196.0
1472.37146 180.0
1473.265137 136.0
1473.654785 124.0
1473.838135 132.0
1473.899292 164.0
1474.113159 160.0
1476.039429 100.0
1476.758301 180.0
1476.903687 172.0
1477.332031 172.0
1478.089478 120.0
1478.755249 144.0
1478.931274 132.0
1480.688354 104.0
1481.205322 152.0
1482.101685 156.0
1482.553833 228.0
1483.105591 92.0
1483.780151 188.0
1484.171265 196.0
1484.424316 200.0
1484.784668 132.0
1485.82019 168.0
1486.894409 176.0
1487.769531 180.0
1488.813721 76.0
1489.159302 184.0
1489.405151 228.0
1489.643188 200.0
1491.833252 176.0
1492.156128 152.0
1492.425293 88.0
1493.732666 148.0
1494.640503 128.0
1498.035645 232.0
1498.10498 128.0
1499.199097 180.0
1500.054565 56.0
1500.285889 80.0
1502.020874 220.0
1502.568604 36.0
1502.738403 144.0
1502.8927 104.0
1503.34021 156.0
1503.733765 120.0
1503.826416 176.0
1504.266357 140.0
