>compound MLS001075496-01!
>formula C19H21N3O3
>ionization [M+H]+
>parentmass 340.165985
#inchi InChI=1S/C19H21N3O3/c1-25-16-7-5-15(6-8-16)20-19(24)21-10-13-9-14(12-21)17-3-2-4-18(23)22(17)11-13/h2-8,13-14H,9-12H2,1H3,(H,20,24)/t13-,14-/m0/s1
#inchikey NIKSXZOHKOSTKM
#Ion_Source LC-ESI
#Instrument qTof
#Compound_Source NIH Natural Product Library
#PI Dorrestein
#Data_Collector VVP/LMS
#Scan -1
#Precursor_MZ 340.166
#ExactMass 339.158
#Charge 1
#CAS_Number N/A
#Pubmed_ID N/A
#Smiles COc1ccc(NC(=O)N2C[C@@H]3C[C@@H](C2)c4cccc(=O)n4C3)cc1
#INCHI_AUX N/A
#Library_Class 1
#SpectrumID CCMSLIB00000080143
#IonMode Positive
#UpdateWorkflowName UPDATE-SINGLE-ANNOTATED-GOLD
#LibraryQualityString Gold
#TaskID b1d8e8f6646f4e71acdff9ca3d919d08
##Scan# 1496
#SpectrumFile p2-F04_GF4_01_18040.mzXML
#LibraryName NIH_Natural_Products_Library.mgf
#MQScore -1
#Organism NIH_Natural_Products_Library
#TIC_Query 0
#RT_Query -1
#MZErrorPPM -1
#SharedPeaks 0
#MassDiff 0
#LibMZ -1
#SpecMZ 340.166
#SpecCharge 0
#internalFilename spec-00000.mgf

>collision 10
95.050797 248.0
95.088768 124.0
95.127586 40.0
95.164474 168.0
95.234383 48.0
95.321808 144.0
95.368454 152.0
95.382057 124.0
95.428719 168.0
95.522064 224.0
95.6213 120.0
95.646606 124.0
95.685539 104.0
95.767326 152.0
95.92321 104.0
96.043198 316.0
96.170937 80.0
96.209976 212.0
96.232224 152.0
96.362511 196.0
96.413116 236.0
96.465889 128.0
96.49131 136.0
96.512817 164.0
96.540192 120.0
96.596909 108.0
96.626038 180.0
96.708443 192.0
96.72998 240.0
96.747597 184.0
96.894478 168.0
96.921707 192.0
96.979111 192.0
96.99202 160.0
97.012062 220.0
97.047356 124.0
97.066963 168.0
97.128563 168.0
97.390785 136.0
97.418289 168.0
97.443825 132.0
97.479851 160.0
97.654167 152.0
97.673836 184.0
97.764343 200.0
98.002609 120.0
98.205658 356.0
98.379311 192.0
98.397697 240.0
98.495819 160.0
98.579247 192.0
98.622276 196.0
98.685539 164.0
98.82003 84.0
98.835861 220.0
98.922943 184.0
99.010063 224.0
99.075432 88.0
99.216141 80.0
99.232002 156.0
99.263725 156.0
99.416473 192.0
99.478004 60.0
99.527641 184.0
99.648796 152.0
99.668671 124.0
99.770035 176.0
99.821732 76.0
99.859512 160.0
99.879402 120.0
99.895317 108.0
99.958984 76.0
99.976898 208.0
99.992821 148.0
100.034615 136.0
100.269905 160.0
100.383286 104.0
100.477036 196.0
100.600769 172.0
100.616737 168.0
100.880577 240.0
100.912125 156.0
100.968422 80.0
101.030434 144.0
101.070572 128.0
101.151817 176.0
101.184532 124.0
101.214569 164.0
101.304695 136.0
101.334747 144.0
101.366806 304.0
101.535202 116.0
101.593369 152.0
101.62748 124.0
101.672928 148.0
101.774002 204.0
101.950775 84.0
102.033653 188.0
102.061333 144.0
102.192078 144.0
102.333275 180.0
102.397408 168.0
102.45179 52.0
102.566658 52.0
102.653351 248.0
102.776398 248.0
102.798592 148.0
102.964134 176.0
103.054825 640.0
103.089386 60.0
103.154068 216.0
103.220787 216.0
103.317871 180.0
103.360359 128.0
103.398811 176.0
103.463585 144.0
103.585091 188.0
103.631683 72.0
103.741127 176.0
103.775589 84.0
103.905396 172.0
103.920242 120.0
103.984169 220.0
103.998741 240.0
104.050186 1140.0
104.146103 132.0
104.321724 100.0
104.358315 80.0
104.423393 76.0
104.439659 124.0
104.504761 136.0
104.606522 140.0
104.814262 172.0
104.973259 176.0
104.995689 144.0
105.012009 360.0
105.030365 100.0
105.056816 468.0
105.201775 200.0
105.248734 332.0
105.272522 224.0
105.2957 208.0
105.314087 60.0
105.334511 104.0
105.371284 56.0
105.416237 68.0
105.53479 160.0
105.551155 48.0
105.620689 208.0
105.639099 204.0
105.731171 128.0
105.784393 152.0
105.849907 120.0
105.874481 228.0
106.024033 84.0
106.065422 1712.0
106.094193 212.0
106.11013 92.0
106.13063 168.0
106.161392 92.0
106.22702 160.0
106.257011 168.0
106.343987 96.0
106.565765 140.0
106.613029 64.0
106.789841 120.0
106.820694 176.0
106.855667 60.0
106.931808 104.0
107.016205 180.0
107.03241 152.0
107.069283 160.0
107.112999 160.0
107.147072 268.0
107.176865 144.0
107.234573 152.0
107.25106 180.0
107.281982 172.0
107.502678 164.0
107.664078 188.0
107.700874 148.0
107.756653 108.0
107.92614 212.0
107.966858 232.0
108.00473 184.0
108.045181 1668.0
108.091621 116.0
108.182686 212.0
108.273796 136.0
108.342148 80.0
108.360794 120.0
108.422249 164.0
108.464417 328.0
108.553566 104.0
108.73613 136.0
109.051888 1252.0
109.16201 152.0
109.199448 136.0
109.230644 200.0
109.25145 184.0
109.282654 260.0
109.320107 208.0
109.567894 164.0
109.624153 136.0
109.697098 164.0
109.720032 188.0
109.914001 212.0
110.035065 40.0
110.059074 604.0
110.078911 144.0
110.13739 132.0
110.31292 172.0
110.398643 128.0
110.447517 260.0
110.466309 148.0
110.480217 184.0
110.545082 156.0
110.56601 120.0
110.607864 176.0
110.632988 168.0
110.705475 200.0
110.733498 144.0
110.896561 232.0
110.999649 204.0
111.115013 100.0
111.142288 248.0
111.247223 52.0
111.268219 120.0
111.369453 192.0
111.396324 124.0
111.437248 148.0
111.484573 72.0
111.532913 168.0
111.566544 212.0
111.644341 160.0
111.74321 184.0
111.846321 184.0
111.981079 204.0
112.217094 132.0
112.233963 160.0
112.255051 156.0
112.293015 196.0
112.34153 84.0
112.390053 132.0
112.432259 164.0
112.592705 132.0
112.62439 144.0
112.666634 48.0
112.722275 168.0
112.76384 140.0
112.930557 188.0
112.983757 232.0
113.040886 68.0
113.059929 100.0
113.093796 184.0
113.123428 60.0
113.186722 152.0
113.24836 200.0
113.261925 148.0
113.298302 228.0
113.356407 156.0
113.386078 156.0
113.536598 168.0
113.581139 156.0
113.810341 168.0
113.842194 96.0
113.905914 180.0
113.935654 84.0
113.990273 68.0
114.233719 96.0
114.267319 152.0
114.367332 172.0
114.382233 168.0
114.541939 176.0
114.6847 196.0
114.870216 128.0
114.934219 164.0
115.025101 196.0
115.053772 768.0
115.124207 224.0
115.145561 136.0
115.180801 296.0
115.278015 148.0
115.31221 260.0
115.464005 84.0
115.508926 168.0
115.662987 176.0
115.736801 92.0
115.793602 160.0
115.894287 176.0
115.947853 100.0
116.047447 712.0
116.107407 172.0
116.138771 88.0
116.228783 160.0
116.284576 136.0
116.353271 156.0
116.432716 188.0
116.65403 40.0
116.671227 124.0
116.714233 172.0
116.776596 196.0
116.845428 180.0
116.930832 192.0
117.024071 128.0
117.058044 2204.0
117.09729 120.0
117.133904 244.0
117.205002 216.0
117.252411 64.0
117.32354 104.0
117.344238 140.0
117.439987 132.0
117.679527 120.0
117.750786 40.0
117.79615 76.0
117.81559 152.0
117.850159 192.0
118.028481 144.0
118.035812 72.0
118.064903 1960.0
118.086464 192.0
118.250221 196.0
118.464592 124.0
118.551254 164.0
118.750717 188.0
118.945999 188.0
118.96244 200.0
119.06974 748.0
119.083244 172.0
119.128403 176.0
119.228355 168.0
119.606804 48.0
119.626396 124.0
119.752693 188.0
119.881233 140.0
120.029198 164.0
120.035583 144.0
120.079529 696.0
120.107285 164.0
120.149422 192.0
120.17997 156.0
120.197426 40.0
120.260712 104.0
120.345856 104.0
120.417915 240.0
120.470337 148.0
120.497971 236.0
120.542442 64.0
120.686707 40.0
120.739189 128.0
120.920784 48.0
120.938293 204.0
121.001778 180.0
121.043373 208.0
121.06591 192.0
121.081657 152.0
121.117836 184.0
121.174797 140.0
121.190132 172.0
121.315056 112.0
121.415924 84.0
121.665367 164.0
121.683632 200.0
121.698997 116.0
121.835167 196.0
121.884872 212.0
121.912071 188.0
121.997795 88.0
122.059319 3072.0
122.094063 220.0
122.10994 176.0
122.13633 84.0
122.184731 104.0
122.244133 192.0
122.406685 200.0
122.444473 156.0
122.484116 160.0
122.548004 112.0
122.592079 152.0
122.607506 180.0
122.813683 132.0
122.856667 156.0
122.914032 148.0
122.96479 48.0
123.064171 440.0
123.630013 120.0
123.73497 172.0
123.771683 140.0
123.789398 100.0
123.899185 184.0
123.965378 148.0
124.022308 224.0
124.097404 160.0
124.128448 44.0
124.278358 96.0
124.308128 180.0
124.385803 188.0
124.551964 248.0
124.678993 128.0
124.823486 180.0
124.852394 96.0
125.072136 184.0
125.208481 204.0
125.255257 164.0
125.308723 212.0
125.346603 36.0
125.367104 160.0
125.444664 212.0
125.498177 156.0
125.540543 168.0
125.589607 236.0
125.683304 156.0
125.734634 184.0
125.765877 116.0
125.821686 88.0
125.998123 156.0
126.051743 136.0
126.306618 68.0
126.335701 256.0
126.530403 76.0
126.555031 132.0
126.628311 208.0
126.675972 52.0
126.69165 44.0
126.718536 192.0
126.736458 188.0
126.805931 140.0
126.822906 188.0
126.877663 112.0
126.918015 180.0
126.960625 224.0
127.058838 148.0
127.218338 84.0
127.243355 368.0
127.290504 60.0
127.351143 180.0
127.391579 156.0
127.533142 132.0
127.553078 152.0
127.879517 168.0
127.913284 140.0
127.933723 252.0
128.012344 88.0
128.052353 464.0
128.147491 192.0
128.397949 192.0
128.578201 200.0
128.639145 144.0
128.691071 88.0
128.853683 164.0
128.889847 156.0
128.93956 148.0
128.9599 168.0
128.987015 84.0
129.00737 92.0
129.069901 1400.0
129.224487 96.0
129.262939 228.0
129.373856 172.0
129.396484 108.0
129.530106 116.0
129.643387 180.0
129.727249 128.0
129.808868 212.0
129.829285 164.0
129.845154 160.0
129.999435 76.0
130.064911 3464.0
130.088303 192.0
130.112915 68.0
130.21283 148.0
130.255981 60.0
130.294601 160.0
130.403687 108.0
130.480972 200.0
130.558273 148.0
130.591721 160.0
130.631058 140.0
130.658981 220.0
130.687943 120.0
130.78125 208.0
130.833878 132.0
131.039062 200.0
131.072128 2664.0
131.152527 120.0
131.225464 144.0
131.26651 76.0
131.289322 52.0
131.4198 196.0
131.57225 184.0
131.592804 212.0
131.731049 68.0
131.80751 240.0
131.93779 44.0
132.001816 204.0
132.043701 7384.0
132.079529 2260.0
132.098541 260.0
132.123032 60.0
132.141342 168.0
132.214996 104.0
132.246613 68.0
132.312988 52.0
132.413742 72.0
132.484756 228.0
132.507019 156.0
132.665802 168.0
132.720825 196.0
132.768982 188.0
132.818207 156.0
132.860733 152.0
132.936447 88.0
133.007599 236.0
133.051773 9688.0
133.08577 316.0
133.109955 212.0
133.155685 120.0
133.230347 48.0
133.246429 44.0
133.278595 68.0
133.357529 96.0
133.386475 176.0
133.515366 160.0
133.577469 180.0
133.598175 184.0
133.760483 196.0
133.814514 156.0
133.881287 68.0
133.919434 212.0
134.024109 348.0
134.059448 4676.0
134.09903 328.0
134.120895 60.0
134.275375 236.0
134.397644 80.0
134.427643 204.0
134.475708 140.0
134.561523 68.0
134.675903 68.0
134.707016 184.0
134.727798 180.0
134.762466 64.0
134.815613 172.0
134.839676 192.0
134.906586 100.0
135.063156 452.0
135.10463 116.0
135.312927 340.0
135.356125 320.0
135.532959 260.0
135.565399 52.0
135.627975 180.0
135.697525 84.0
135.725342 128.0
135.779739 100.0
135.955002 164.0
136.013031 212.0
136.071976 264.0
136.150009 184.0
136.21373 120.0
136.219696 52.0
136.227982 120.0
136.273132 180.0
136.303329 160.0
136.326569 164.0
136.384674 176.0
136.405594 132.0
136.671463 176.0
136.780106 216.0
136.856934 64.0
136.982697 204.0
137.23439 216.0
137.262375 228.0
137.306686 152.0
137.462982 148.0
137.549347 124.0
137.640396 108.0
137.691772 216.0
138.004898 160.0
138.224777 168.0
138.325714 156.0
138.515091 104.0
138.564285 156.0
138.579727 172.0
138.648651 128.0
138.730682 164.0
138.810394 220.0
138.897171 180.0
138.958176 180.0
139.002747 204.0
139.02153 196.0
139.171753 176.0
139.331467 172.0
139.473694 168.0
139.500671 80.0
139.550049 196.0
139.580612 144.0
139.700562 56.0
139.754669 52.0
139.87941 60.0
140.020676 204.0
140.047134 328.0
140.138763 160.0
140.156143 184.0
140.298721 136.0
140.367111 196.0
140.435501 68.0
140.454361 148.0
140.534576 172.0
140.555084 168.0
140.631332 136.0
140.756454 152.0
140.846771 216.0
140.891083 184.0
140.952515 212.0
141.061172 364.0
141.125061 180.0
141.151077 188.0
141.30246 80.0
141.456284 208.0
141.478363 124.0
141.685989 48.0
141.825806 192.0
141.904037 128.0
141.925369 160.0
142.064316 2264.0
142.09169 168.0
142.122253 108.0
142.205307 180.0
142.252777 80.0
142.271545 196.0
142.366745 188.0
142.399994 80.0
142.423752 164.0
142.466507 172.0
142.518784 148.0
142.567566 196.0
142.815933 160.0
142.84404 192.0
142.887299 192.0
142.944412 156.0
143.071243 816.0
143.199142 112.0
143.233627 144.0
143.265839 188.0
143.29863 168.0
143.346848 160.0
143.454102 168.0
143.606705 144.0
143.623413 84.0
143.663956 188.0
143.790421 176.0
143.86203 200.0
144.013031 152.0
144.04361 308.0
144.07933 1832.0
144.162979 108.0
144.323135 36.0
144.536026 80.0
144.576706 220.0
144.705963 208.0
144.99147 172.0
145.052505 976.0
145.080078 316.0
145.182816 52.0
145.242767 192.0
145.297943 188.0
145.432327 128.0
145.718094 164.0
145.744415 164.0
145.883926 80.0
145.944031 176.0
145.984909 124.0
146.060242 32120.0
146.096207 3192.0
146.126999 208.0
146.162003 156.0
146.222305 64.0
146.298218 112.0
146.382904 72.0
146.449203 96.0
146.502396 80.0
146.540955 28.0
146.587326 64.0
146.613235 260.0
146.630112 88.0
146.663162 168.0
146.683136 88.0
146.750641 192.0
146.931534 52.0
147.003906 116.0
147.03157 164.0
147.062653 4112.0
147.092804 220.0
147.136673 80.0
147.160812 52.0
147.197037 72.0
147.230835 64.0
147.250168 44.0
147.283981 60.0
147.339539 52.0
147.36853 108.0
147.424103 132.0
147.566727 124.0
147.617493 92.0
147.668289 220.0
147.748108 208.0
147.765045 168.0
147.810013 144.0
147.849731 228.0
147.873947 264.0
147.895721 88.0
147.915085 96.0
147.96109 124.0
147.985291 152.0
148.011932 156.0
148.035431 200.0
148.075333 22040.0
148.121216 32.0
148.154526 280.0
148.186325 40.0
148.242859 84.0
148.261444 52.0
148.298096 196.0
148.460236 32.0
148.482056 84.0
148.515396 220.0
148.58725 164.0
148.661591 88.0
148.802368 184.0
148.858215 76.0
148.90921 60.0
148.957794 148.0
149.00882 96.0
149.039505 108.0
149.079086 3536.0
149.12059 200.0
149.214615 100.0
149.321976 116.0
149.388062 176.0
149.419693 48.0
149.439087 124.0
149.473221 60.0
149.6436 136.0
149.660645 92.0
149.714218 108.0
149.855499 184.0
149.979797 36.0
150.053589 356.0
150.081085 364.0
150.152908 320.0
150.177292 140.0
150.222412 152.0
150.254868 100.0
150.685043 116.0
150.763245 140.0
150.804947 64.0
150.949036 92.0
150.988159 112.0
151.054611 156.0
151.2108 200.0
151.313614 156.0
151.433594 28.0
151.471832 144.0
151.788956 168.0
152.107895 72.0
152.203644 128.0
152.235565 168.0
152.387726 140.0
152.569733 104.0
152.636108 40.0
152.823059 196.0
152.872559 200.0
153.044571 112.0
153.258865 48.0
153.345123 100.0
153.36731 180.0
153.53743 132.0
153.660767 188.0
153.739716 264.0
153.922394 144.0
153.939682 260.0
154.033539 256.0
154.062775 996.0
154.097763 48.0
154.115067 108.0
154.174362 40.0
154.213913 120.0
154.391922 96.0
154.424072 68.0
154.54776 44.0
154.634384 184.0
154.661606 88.0
154.69873 164.0
154.760635 48.0
154.85968 76.0
154.971161 164.0
155.071777 640.0
155.132263 120.0
155.216553 268.0
155.283508 160.0
155.361465 140.0
155.454697 220.0
155.489441 72.0
155.608582 40.0
155.643356 216.0
155.953888 204.0
156.079941 2748.0
156.185135 32.0
156.292725 64.0
156.352478 216.0
156.41156 116.0
156.451401 188.0
156.523605 168.0
156.555969 152.0
156.575897 140.0
156.608276 60.0
156.673035 176.0
156.805099 136.0
156.882568 204.0
156.972809 148.0
157.004547 56.0
157.069641 164.0
157.087418 516.0
157.151733 180.0
157.236572 176.0
157.323944 228.0
157.436295 120.0
157.527969 68.0
157.608658 148.0
157.625656 140.0
157.666138 184.0
157.713623 68.0
157.87114 152.0
157.991348 188.0
158.059296 5860.0
158.178879 112.0
158.196396 44.0
158.297501 84.0
158.376694 52.0
158.436813 212.0
158.474396 76.0
158.557205 192.0
158.582153 100.0
158.636902 200.0
158.687439 260.0
158.717529 168.0
158.749527 100.0
158.807816 48.0
158.857971 116.0
159.00351 100.0
159.066574 5216.0
159.095123 228.0
159.156647 56.0
159.19162 56.0
159.36763 108.0
159.395264 80.0
159.475693 96.0
159.503342 136.0
159.568695 164.0
159.639099 96.0
159.666763 116.0
159.696945 160.0
159.752289 60.0
159.774933 160.0
159.807632 168.0
159.878983 80.0
159.910812 80.0
159.929031 272.0
159.97348 236.0
159.998917 328.0
160.024948 176.0
160.076385 63168.0
160.122299 56.0
160.136948 120.0
160.174438 112.0
160.216766 80.0
160.258438 96.0
160.297928 56.0
160.318497 180.0
160.345718 124.0
160.395905 116.0
160.432144 144.0
160.472473 104.0
160.489685 112.0
160.494232 68.0
160.505524 180.0
160.537048 148.0
160.571716 164.0
160.5923 124.0
160.609116 192.0
160.633972 76.0
160.668335 120.0
160.705322 212.0
160.74469 240.0
160.779449 104.0
160.815048 64.0
160.850388 84.0
160.911819 84.0
160.941879 124.0
160.989853 48.0
161.080139 9324.0
161.154053 40.0
161.197006 64.0
161.232376 52.0
161.26387 216.0
161.292404 124.0
161.331528 84.0
161.493103 168.0
161.540848 72.0
161.586395 168.0
161.639526 184.0
161.796448 116.0
161.879349 224.0
161.950928 188.0
162.003342 196.0
162.090225 1944.0
162.157669 40.0
162.201782 172.0
162.220032 60.0
162.242706 136.0
162.28363 196.0
162.323471 88.0
162.374191 104.0
162.399551 220.0
162.422379 80.0
162.450287 208.0
162.468048 116.0
162.495956 80.0
162.589844 96.0
162.683762 244.0
162.709137 36.0
162.754837 88.0
162.82341 136.0
162.858963 260.0
162.904694 152.0
163.094391 344.0
163.125778 56.0
163.151199 68.0
163.186783 60.0
163.230011 52.0
163.296143 64.0
163.41629 68.0
163.637131 88.0
163.672775 72.0
163.698242 40.0
163.904572 68.0
164.054947 72.0
164.085541 112.0
164.10849 148.0
164.265015 144.0
164.294662 164.0
164.340591 76.0
164.437561 60.0
164.52179 96.0
164.585632 116.0
164.613708 76.0
164.6418 44.0
164.669891 152.0
164.907516 100.0
165.191345 76.0
165.495102 116.0
165.567596 232.0
165.869934 100.0
166.067368 120.0
166.211029 192.0
166.308548 104.0
166.367599 176.0
166.580734 64.0
166.657822 68.0
166.835159 112.0
166.865997 56.0
166.984299 184.0
167.107773 116.0
167.347137 40.0
167.439835 128.0
167.548019 104.0
167.658829 52.0
167.764496 124.0
167.790283 56.0
168.577545 40.0
168.6008 52.0
168.719696 156.0
168.794678 244.0
168.817947 44.0
169.071472 204.0
169.270813 128.0
169.33815 192.0
169.693161 160.0
169.991455 216.0
170.053467 336.0
170.084885 164.0
170.113449 36.0
170.256134 92.0
170.263687 88.0
170.302994 180.0
170.542038 88.0
170.734436 120.0
171.062057 464.0
171.08931 368.0
171.158615 152.0
171.312271 212.0
171.674576 136.0
171.896301 244.0
171.922409 160.0
172.018967 168.0
172.037247 108.0
172.075348 10016.0
172.168945 64.0
172.196533 72.0
172.213547 64.0
172.233093 60.0
172.311462 88.0
172.376785 120.0
172.439514 68.0
172.569534 184.0
172.665741 136.0
172.71666 56.0
172.816071 92.0
172.967865 88.0
173.051529 196.0
173.07959 896.0
173.155716 228.0
173.28241 108.0
173.310944 56.0
173.337143 148.0
173.355484 112.0
173.557327 80.0
173.586182 80.0
173.625519 160.0
173.759293 100.0
173.803894 136.0
173.898376 164.0
173.93512 144.0
173.998123 140.0
174.054688 532.0
174.091736 28200.0
174.155685 172.0
174.198929 120.0
174.25116 128.0
174.273895 44.0
174.342224 68.0
174.364243 112.0
174.449982 44.0
174.470963 140.0
174.52832 116.0
174.563797 168.0
174.615021 68.0
174.641937 148.0
174.778748 68.0
174.855453 136.0
174.915588 68.0
175.018265 40.0
175.049377 172.0
175.095413 3056.0
175.155212 124.0
175.222519 68.0
175.244781 92.0
175.289581 48.0
175.368652 88.0
175.466187 68.0
175.719376 56.0
176.025024 120.0
176.07045 256.0
176.09639 392.0
176.165543 116.0
176.232468 180.0
176.294998 148.0
176.333405 108.0
176.378067 140.0
176.403366 88.0
176.421875 48.0
176.448318 96.0
176.509125 172.0
176.564667 68.0
176.744553 56.0
177.003952 112.0
177.030441 140.0
177.205261 96.0
177.358963 164.0
177.75943 84.0
177.78862 64.0
177.985062 192.0
178.091293 156.0
178.1577 188.0
178.184265 136.0
178.249481 88.0
179.048782 180.0
179.082703 136.0
179.131348 196.0
179.725876 176.0
179.792587 72.0
179.904694 212.0
180.086273 60.0
180.984833 160.0
181.010178 216.0
181.078598 228.0
181.142838 108.0
181.36792 188.0
181.426895 172.0
181.692398 148.0
182.058914 228.0
182.34491 188.0
182.514282 168.0
182.581497 252.0
182.664886 196.0
182.753662 248.0
182.837082 108.0
182.866684 128.0
182.963593 56.0
183.017441 84.0
183.141327 100.0
183.319138 204.0
183.354172 148.0
183.413467 192.0
183.537476 44.0
183.915176 172.0
184.039352 168.0
184.062988 144.0
184.314072 188.0
184.504074 132.0
184.625748 64.0
184.647385 136.0
184.677139 36.0
185.199524 152.0
185.237442 232.0
185.394592 120.0
185.573502 168.0
185.600616 92.0
185.706833 144.0
185.785034 76.0
185.955994 132.0
186.018417 152.0
186.446213 168.0
186.722168 48.0
186.784714 184.0
186.8228 64.0
186.893539 48.0
187.087204 376.0
187.111877 164.0
187.2202 196.0
187.487183 108.0
187.683456 204.0
187.76799 52.0
187.797989 64.0
187.948029 56.0
188.070129 4512.0
188.111786 40.0
188.245575 128.0
188.551544 120.0
188.69368 56.0
188.748367 20.0
188.852295 128.0
188.871445 176.0
188.931625 140.0
189.012238 172.0
189.041061 168.0
189.102554 24416.0
189.232666 56.0
189.254578 80.0
189.292908 52.0
189.380554 72.0
189.402466 84.0
189.435333 60.0
189.528488 88.0
189.555893 68.0
189.673737 100.0
189.786133 48.0
189.808075 76.0
189.972641 108.0
190.027512 124.0
190.104874 2440.0
190.340408 32.0
190.398087 100.0
190.425552 68.0
190.480484 64.0
190.521683 48.0
190.664566 120.0
191.11821 12672.0
191.175766 136.0
191.236633 92.0
191.257721 116.0
191.332977 100.0
191.357758 44.0
191.407318 188.0
191.432114 180.0
191.575333 40.0
191.687683 72.0
191.748932 40.0
191.861938 56.0
192.010834 136.0
192.122147 1636.0
192.256378 72.0
192.439621 96.0
192.554535 68.0
192.590454 208.0
192.802185 252.0
192.995682 164.0
193.126663 184.0
193.17923 124.0
193.287125 112.0
193.351654 140.0
193.630402 100.0
193.667236 104.0
193.96843 68.0
194.032196 60.0
194.659271 104.0
195.376373 192.0
195.440369 160.0
195.722168 184.0
195.902527 180.0
196.312256 164.0
196.362442 164.0
196.39592 132.0
196.708435 136.0
197.110626 20.0
197.348206 52.0
197.751038 244.0
198.392502 164.0
198.569153 396.0
198.678558 60.0
198.86937 176.0
199.085068 924.0
199.341187 156.0
200.068573 164.0
200.092194 252.0
200.596466 56.0
200.703598 100.0
200.934875 160.0
201.064972 428.0
201.090088 92.0
201.248169 32.0
201.428909 76.0
201.697357 72.0
201.759552 116.0
201.856934 40.0
201.912247 168.0
202.014069 128.0
202.056503 120.0
202.203644 236.0
202.297058 164.0
202.657028 76.0
202.761368 208.0
202.99971 124.0
203.019562 80.0
204.53392 156.0
204.579468 68.0
205.089355 148.0
205.286087 244.0
205.682663 152.0
206.094345 152.0
206.339706 88.0
206.468384 136.0
206.597092 204.0
206.986343 120.0
207.516434 200.0
207.725784 120.0
207.886459 92.0
208.567917 192.0
208.607376 128.0
208.883438 100.0
209.08197 56.0
209.119385 172.0
209.247665 120.0
209.404419 156.0
209.750183 192.0
209.946243 184.0
210.232254 196.0
211.494843 100.0
212.053848 44.0
212.192993 132.0
212.303177 200.0
212.54686 128.0
213.025909 60.0
213.171173 160.0
213.997269 112.0
214.352631 164.0
214.714111 80.0
214.737442 152.0
214.883301 188.0
215.075821 156.0
215.286118 152.0
215.492599 128.0
215.608994 216.0
215.654236 180.0
215.721466 68.0
215.83548 88.0
215.882278 168.0
216.151398 144.0
216.201141 116.0
216.341644 140.0
216.41777 152.0
216.485107 180.0
216.517334 196.0
216.543686 76.0
216.575912 68.0
216.660858 112.0
216.704803 184.0
216.78685 100.0
216.824951 192.0
216.861664 164.0
216.940231 144.0
216.986176 148.0
217.030823 424.0
217.097763 66936.0
217.199936 244.0
217.235931 96.0
217.28508 48.0
217.317596 80.0
217.337479 72.0
217.375854 108.0
217.399384 96.0
217.457336 184.0
217.505417 152.0
217.582443 64.0
217.601959 208.0
217.612366 80.0
217.621246 220.0
217.64563 116.0
217.680222 52.0
217.722687 152.0
217.808929 308.0
217.851303 192.0
217.915314 92.0
217.951813 228.0
217.978256 84.0
218.004715 328.0
218.031158 40.0
218.099747 8936.0
218.157547 48.0
218.203857 72.0
218.253235 92.0
218.325409 120.0
218.36615 36.0
218.396317 80.0
218.483978 80.0
218.622269 120.0
218.651703 108.0
218.751785 56.0
218.967514 60.0
219.099472 396.0
219.152313 36.0
219.214188 56.0
219.240707 72.0
219.264282 76.0
219.315338 76.0
219.345444 112.0
219.447937 80.0
219.494232 92.0
219.517822 104.0
219.581223 256.0
219.634323 48.0
219.652466 140.0
219.676559 112.0
219.706589 232.0
219.740677 148.0
219.851166 52.0
219.901337 108.0
219.975143 96.0
219.998749 140.0
220.096176 140.0
220.341339 92.0
220.379745 56.0
220.639832 132.0
220.752182 36.0
221.098312 56.0
221.190063 144.0
221.622452 40.0
222.987518 60.0
223.323502 64.0
223.558533 84.0
223.641861 44.0
223.689484 72.0
224.464127 76.0
224.914612 148.0
225.446243 88.0
226.496414 104.0
226.963928 68.0
227.080887 76.0
228.522812 68.0
229.218369 68.0
231.066238 84.0
231.232666 52.0
231.265961 56.0
231.762619 96.0
233.191956 68.0
233.407806 168.0
233.5112 104.0
233.657211 92.0
234.973358 108.0
235.022186 176.0
235.107697 2056.0
235.235825 152.0
235.49231 164.0
236.113007 540.0
236.34938 56.0
236.397247 104.0
236.779922 64.0
237.81929 128.0
240.954163 68.0
243.85463 116.0
249.03186 140.0
249.905792 128.0
251.077621 48.0
252.113113 104.0
253.084244 128.0
255.124283 168.0
255.760498 88.0
260.114136 48.0
261.2453 52.0
261.744171 52.0
262.469177 96.0
263.082184 84.0
267.054901 60.0
267.126465 188.0
269.163452 180.0
271.956024 60.0
272.984344 140.0
273.823517 68.0
278.839233 68.0
279.148407 52.0
283.555176 44.0
285.90271 136.0
290.945892 84.0
291.44516 72.0
292.101288 92.0
294.415588 96.0
298.249481 148.0
298.431671 64.0
299.963684 224.0
304.819489 72.0
308.042267 124.0
316.564514 88.0
319.866425 60.0
320.340027 136.0
320.443329 96.0
321.213379 172.0
322.159027 340.0
323.407318 76.0
325.878174 92.0
328.11319 160.0
328.650604 76.0
329.072906 104.0
329.737579 48.0
331.604492 116.0
332.540863 48.0
332.686035 60.0
336.505096 28.0
336.54892 132.0
338.146423 96.0
339.307617 112.0
339.626648 140.0
339.674347 88.0
340.000885 112.0
340.165985 2356.0
340.210114 108.0
340.25415 52.0
340.779358 48.0
341.171478 588.0
342.174805 380.0
342.762634 84.0
342.869476 76.0
343.219696 96.0
343.278687 56.0
345.809357 56.0
350.727081 92.0
353.988647 60.0
358.824493 92.0
360.71582 60.0
361.177155 36.0
363.848755 76.0
364.730072 116.0
368.162903 92.0
368.789459 72.0
374.891754 96.0
381.603821 68.0
381.751556 96.0
386.659302 44.0
390.704865 72.0
390.87796 64.0
391.299133 148.0
393.487274 152.0
408.073944 52.0
410.413269 44.0
410.727844 60.0
414.767334 76.0
424.503418 56.0
435.639282 72.0
443.316498 48.0
448.869598 88.0
450.388916 40.0
452.981903 92.0
453.117462 76.0
454.703369 44.0
458.914734 92.0
474.544128 48.0
481.615814 40.0
497.974731 136.0
512.005005 76.0
522.715881 96.0
537.157288 88.0
545.213623 100.0
546.492432 56.0
562.709595 68.0
564.202515 112.0
567.203735 88.0
613.20752 64.0
620.652466 72.0
668.09552 60.0
682.525635 120.0
707.26239 224.0
721.01123 48.0
739.859192 136.0
740.481873 40.0
761.134155 108.0
763.079224 236.0
767.864441 148.0
770.044495 136.0
774.552307 60.0
791.354126 48.0
806.809021 56.0
838.259521 148.0
848.072693 148.0
849.156921 172.0
851.217102 60.0
869.4953 112.0
895.027527 156.0
895.480103 140.0
896.504822 96.0
897.989258 52.0
900.549744 44.0
901.906067 176.0
902.545715 176.0
902.629456 100.0
906.478455 152.0
918.050354 176.0
920.548706 184.0
920.615112 152.0
922.421631 256.0
929.792786 248.0
931.492859 200.0
941.713684 236.0
956.115295 40.0
956.201477 136.0
957.191772 152.0
957.950134 192.0
964.064514 144.0
965.072083 204.0
968.184631 140.0
969.423645 52.0
970.359558 196.0
975.251221 148.0
976.749756 40.0
980.560242 144.0
981.015259 96.0
983.042297 88.0
992.725952 180.0
993.190063 52.0
998.748901 60.0
999.32135 164.0
1000.592712 204.0
1003.093628 92.0
1008.168152 44.0
1016.286011 184.0
1022.042664 152.0
1026.405884 112.0
1027.585815 144.0
1027.981445 92.0
1028.370728 120.0
1034.06543 128.0
1035.031982 156.0
1036.396362 136.0
1037.319214 148.0
1044.369629 60.0
1048.728516 208.0
1050.456665 60.0
1054.763672 148.0
1055.604126 164.0
1057.525513 172.0
1058.360596 152.0
1063.754639 76.0
1066.034302 244.0
1076.0 68.0
1076.822754 240.0
1079.077148 128.0
1083.350586 204.0
1084.982422 244.0
1085.428223 52.0
1086.950073 116.0
1087.094482 244.0
1088.505737 112.0
1091.791504 104.0
1093.870605 152.0
1094.68042 120.0
1097.006226 168.0
1101.189575 136.0
1102.504272 220.0
1102.947021 192.0
1105.043335 116.0
1111.801025 144.0
1111.848633 176.0
1112.71814 184.0
1115.947144 188.0
1119.313843 128.0
1119.487061 200.0
1119.540283 212.0
1123.566162 144.0
1125.014404 148.0
1125.842285 164.0
1129.203857 144.0
1131.050537 184.0
1134.31189 172.0
1134.406494 164.0
1135.740967 176.0
1135.821411 64.0
1135.908569 196.0
1135.989136 168.0
1136.928467 156.0
1137.25061 220.0
1145.2854 116.0
1145.878174 208.0
1146.383545 132.0
1148.581421 128.0
1148.945801 164.0
1149.384277 108.0
1155.701904 76.0
1157.915527 116.0
1159.670288 160.0
1160.80249 48.0
1165.289062 120.0
1166.199585 124.0
1166.281128 216.0
1166.967773 156.0
1170.138306 56.0
1171.541138 128.0
1172.826172 180.0
1173.354004 116.0
1173.572144 164.0
1173.803955 152.0
1178.636719 156.0
1179.320068 28.0
1179.709717 188.0
1179.901123 176.0
1181.330444 140.0
1182.041992 124.0
1182.302002 212.0
1182.562012 192.0
1183.849121 44.0
1186.685913 204.0
1189.677124 196.0
1189.979126 200.0
1192.266602 140.0
1193.393921 216.0
1195.890991 184.0
1196.896118 64.0
1200.713745 180.0
1203.328979 140.0
1203.467163 32.0
1203.625854 160.0
1204.226685 200.0
1204.758545 68.0
1205.110962 92.0
1206.458618 192.0
1206.749023 336.0
1210.956299 124.0
1212.272827 104.0
1212.660645 152.0
1214.234497 168.0
1215.871826 164.0
1222.612915 132.0
1223.322876 132.0
1226.178589 68.0
1228.019165 72.0
1228.137817 56.0
1230.796631 240.0
1231.138794 160.0
1231.739502 136.0
1232.137695 196.0
1232.99707 164.0
1233.549316 196.0
1234.325317 236.0
1235.227539 148.0
1235.451416 196.0
1235.507324 144.0
1238.559448 272.0
1242.828735 144.0
1242.906006 124.0
1244.63269 204.0
1247.970215 180.0
1248.082642 156.0
1248.891357 200.0
1250.573242 128.0
1253.361694 132.0
1253.911377 88.0
1254.235596 140.0
1254.97583 112.0
1256.428711 132.0
1256.583862 60.0
1257.345947 116.0
1259.195679 148.0
1260.439087 124.0
1260.834717 228.0
1261.028076 212.0
1261.350708 192.0
1263.231689 188.0
1264.767212 60.0
1266.700195 160.0
1267.500854 140.0
1268.407959 160.0
1269.733765 192.0
1270.024658 172.0
1270.32251 180.0
1270.514038 172.0
1271.273315 216.0
1272.195923 192.0
1272.408936 124.0
1272.884644 124.0
1273.758179 192.0
1275.229004 148.0
1277.504395 188.0
1277.840576 76.0
1279.133911 124.0
1280.387085 208.0
1280.657715 116.0
1280.864258 144.0
1284.61499 228.0
1285.505615 156.0
1285.905151 164.0
1286.81897 204.0
1286.940308 40.0
1287.825806 132.0
1289.326172 168.0
1292.401001 160.0
1295.758911 172.0
1296.310547 140.0
1296.468262 212.0
1297.2854 36.0
1298.396729 168.0
1298.889771 160.0
1299.22876 40.0
1300.089722 184.0
1300.505981 192.0
1301.618774 32.0
1301.776733 164.0
1302.451904 172.0
1303.86731 216.0
1303.946289 120.0
1306.405396 224.0
1307.189697 116.0
1307.578247 120.0
1310.718018 128.0
1312.375854 136.0
1312.750732 180.0
1313.818237 176.0
1314.31604 216.0
1314.893311 144.0
1316.763306 108.0
1317.184448 176.0
1319.313965 132.0
1321.288208 144.0
1321.751221 192.0
1321.852539 68.0
1321.924927 60.0
1321.997314 56.0
1322.547363 188.0
1323.307129 216.0
1323.973633 212.0
1325.255737 40.0
1325.944214 116.0
1326.350098 208.0
1327.77832 172.0
1328.532715 156.0
1329.954956 140.0
1331.102051 172.0
1331.813721 172.0
1333.760986 208.0
1334.160767 148.0
1334.6698 156.0
1334.887939 176.0
1335.236938 264.0
1335.338745 196.0
1335.862427 140.0
1337.208618 204.0
1338.591797 156.0
1339.83728 196.0
1340.003418 200.0
1340.237915 204.0
1340.893799 168.0
1341.695679 176.0
1344.401611 168.0
1345.040405 188.0
1345.102295 152.0
1345.679077 148.0
1345.941895 48.0
1346.153687 172.0
1346.803589 204.0
1347.62915 140.0
1347.709473 244.0
1347.979858 148.0
1348.79834 136.0
1349.127319 152.0
1349.427979 156.0
1349.533081 104.0
1350.326538 184.0
1350.494751 176.0
1350.553223 220.0
1353.209595 168.0
1353.38623 168.0
1354.044434 176.0
1354.447266 124.0
1355.084595 164.0
1355.216431 228.0
1355.319092 132.0
1355.509521 88.0
1355.817383 88.0
1356.205811 156.0
1356.594238 36.0
1357.195435 252.0
1358.361572 144.0
1358.765015 168.0
1359.843628 184.0
1361.010864 52.0
1363.626099 204.0
1365.434326 176.0
1366.383545 208.0
1366.939087 248.0
1367.141479 32.0
1369.276367 244.0
1369.408936 196.0
1370.366577 40.0
1371.014038 152.0
1371.12561 80.0
1373.92749 48.0
1373.993896 216.0
1374.908813 152.0
1375.897949 56.0
1378.138794 228.0
1378.512573 160.0
1379.007812 72.0
1379.429077 144.0
1380.353271 188.0
1380.878296 180.0
1381.225098 148.0
1381.351685 136.0
1382.831543 160.0
1383.046143 108.0
1383.386719 192.0
1384.615723 180.0
1385.200928 96.0
1385.563965 112.0
1387.43335 308.0
1387.787354 168.0
1389.240967 144.0
1389.515381 168.0
1389.841919 128.0
1389.968018 200.0
1390.999634 268.0
1391.185181 224.0
1392.402954 144.0
1393.234863 144.0
1394.029907 112.0
1395.360352 164.0
1395.696167 168.0
1397.338623 192.0
1397.472534 56.0
1398.18689 160.0
1398.894043 180.0
1400.115112 160.0
1400.517212 92.0
1401.768921 176.0
1402.20105 132.0
1403.527954 196.0
1403.721924 148.0
1404.422852 156.0
1405.303223 244.0
1405.758301 180.0
1407.691772 68.0
1408.931641 156.0
1410.986816 112.0
1411.465332 132.0
1411.719482 112.0
1411.936401 108.0
1413.17688 176.0
1413.499878 68.0
1413.671997 96.0
1414.113525 152.0
1416.045166 312.0
1416.404663 172.0
1416.587524 148.0
1417.056396 52.0
1417.648315 236.0
1418.292847 76.0
1419.36499 172.0
1421.270142 176.0
1421.833008 232.0
1422.515991 60.0
1422.838745 160.0
1422.928833 152.0
1423.619629 68.0
1423.694702 172.0
1425.625366 188.0
1425.723145 180.0
1426.090698 180.0
1429.151978 136.0
1429.55835 208.0
1431.048706 180.0
1432.163208 168.0
1432.321411 100.0
1433.127441 88.0
1433.217896 112.0
1434.257935 132.0
1434.664917 88.0
1435.562134 184.0
1435.65271 120.0
1437.455566 168.0
1437.855591 132.0
1437.998901 204.0
1438.149902 168.0
1439.357788 32.0
1440.165894 192.0
1440.369751 216.0
1440.671997 152.0
1442.024536 208.0
1442.939087 116.0
1443.665039 120.0
1444.050659 176.0
1444.345703 160.0
1444.935791 84.0
1445.192993 148.0
1445.351929 224.0
1445.593994 132.0
1446.010254 148.0
1446.540039 208.0
1447.168457 128.0
1447.880249 212.0
1447.971069 104.0
1448.175537 232.0
1448.940674 52.0
1449.039185 56.0
1449.114868 160.0
1450.259155 56.0
1450.365356 176.0
1450.880371 176.0
1451.108276 192.0
1451.889282 156.0
1452.450439 184.0
1453.239502 40.0
1453.338135 208.0
1453.656738 44.0
1454.150024 200.0
1455.060913 108.0
1455.729126 68.0
1456.33667 196.0
1456.757202 144.0
1457.286255 188.0
1457.505127 208.0
1457.59021 76.0
1457.681396 104.0
1458.144897 132.0
1458.737793 100.0
1461.300659 156.0
1461.407104 256.0
1463.964722 132.0
1464.375977 240.0
1464.566406 132.0
1465.04834 176.0
1467.77478 140.0
1468.308594 164.0
1470.986694 168.0
1471.093628 164.0
1471.292114 152.0
1471.658569 44.0
1472.490845 132.0
1472.811646 224.0
1472.872803 300.0
1473.155396 252.0
1473.577637 76.0
1474.276489 168.0
1474.402588 168.0
1474.805908 104.0
1474.905273 208.0
1475.348633 228.0
1475.463257 44.0
1476.220215 164.0
1476.388428 220.0
1476.480225 240.0
1476.755615 156.0
1476.893311 108.0
1477.597046 216.0
1478.668335 124.0
1478.928467 236.0
1479.234741 52.0
1479.808838 128.0
1480.421387 172.0
1485.272827 56.0
1487.421265 120.0
1488.081543 228.0
1488.649658 180.0
1489.171875 176.0
1489.963135 84.0
1490.024536 204.0
1490.800659 136.0
1490.931274 152.0
1491.384766 172.0
1491.838257 208.0
1491.999634 172.0
1492.068848 180.0
1492.376343 164.0
1493.191528 84.0
1493.268433 132.0
1493.506836 208.0
1493.622192 164.0
1493.891479 120.0
1495.538086 60.0
1495.680542 188.0
1497.05481 156.0
1497.262695 160.0
1497.547729 48.0
1498.441284 188.0
1498.949829 224.0
1499.83606 116.0
1501.709595 172.0
1502.141602 120.0
1503.785034 144.0
