>compound CandesartanCilextil
>formula C33H34N6O6 
>ionization [M+H]+
>parentmass 611.261
#inchi InChI=1S/C33H34N6O6/c1-3-42-32-34-28-15-9-14-27(31(40)43-21(2)44-33(41)45-24-10-5-4-6-11-24)29(28)39(32)20-22-16-18-23(19-17-22)25-12-7-8-13-26(25)30-35-37-38-36-30/h7-9,12-19,21,24H,3-6,10-11,20H2,1-2H3,(H,35,36,37,38)
#inchikey GHOSNRCGJFBJIB
#Ion_Source LC-ESI
#Instrument qTof
#Compound_Source Isolated
#PI Sirenas
#Data_Collector Ed Esquenazi 
#Scan -1
#Precursor_MZ 611.261
#ExactMass 0.0
#Charge 1
#CAS_Number N/A
#Pubmed_ID N/A
#Smiles N/A
#INCHI_AUX N/A
#Library_Class 3
#SpectrumID CCMSLIB00000006591
#IonMode Positive
#UpdateWorkflowName UPDATE-SINGLE-ANNOTATED-BRONZE
#LibraryQualityString Bronze
#TaskID d19310cd93df49b68e9fcbec27720eb5
##Scan# 3
#SpectrumFile CandesartanCilextil.mgf
#LibraryName fda_library.mgf
#MQScore -1
#Organism fda_library
#TIC_Query 0
#RT_Query -1
#MZErrorPPM -1
#SharedPeaks 0
#MassDiff 0
#LibMZ -1
#SpecMZ 611.261
#SpecCharge 0
#internalFilename spec-00000.mgf

>collision 10
104.149994 2.65
105.04438 180.194595
105.073685 5.028571
106.063652 9.638095
108.568115 3.816667
109.09919 92.44265
109.347038 4.05
110.530701 5.602083
116.047539 8.861734
116.757591 10.80357
117.042938 46.070011
117.055214 48.610771
117.902466 1.408333
119.060043 158.585999
119.262451 5.221552
119.35746 2.88
123.053307 5.417857
123.319733 5.061364
123.596176 22.347969
127.050041 38.97839
127.107353 7.4
128.066925 10.67273
129.043427 13.8689
129.071167 10.6564
130.030273 3.029762
130.061981 5.409
130.09375 4.615244
130.252502 6.903049
130.272369 3.421552
130.591354 7.168243
131.059998 68.248177
133.038681 97.630753
133.151001 7.442
133.524551 4.705882
138.040451 9.913806
138.337738 3.05
139.056183 22.09697
139.343262 12.62549
139.450241 2.314286
140.0466 37.627529
140.070984 1.8
141.191391 1.645
143.514053 29.656281
144.052139 44.076851
144.232513 3.08
145.039078 186.223404
145.373169 6.7125
146.226334 4.48
146.235077 4.905882
146.256592 20.67301
146.283371 7.92674
146.304581 33.289951
146.33226 11.32272
146.387054 5.5125
146.404541 14.40357
146.453949 6.86579
146.517075 9.472059
146.538132 1.807143
146.554977 8.600491
146.576706 18.50083
146.710846 2.804167
146.824646 11.40285
147.054626 6707.724121
147.119873 1.0
147.127716 8.839286
147.151154 30.610201
147.179169 12.11912
147.201965 17.167999
147.216858 15.13155
147.233047 3.35625
147.242645 7.825
147.280533 15.55227
147.328796 28.903009
147.339371 7.6
147.35585 27.22827
147.373184 15.91667
147.396683 7.057143
147.43161 3.15625
147.460449 21.885521
147.473541 6.646154
147.482986 4.006081
147.505692 5.228571
147.524521 13.72857
147.533691 8.314683
147.553421 8.00119
147.601303 4.823148
147.67337 8.26579
147.68161 4.004167
147.801559 10.56
147.90892 4.245
148.392715 7.006082
148.5121 6.3125
151.051697 106.752197
151.39653 5.5
152.061432 142.273407
152.428802 7.706132
153.050674 35.106979
153.069626 222.996307
153.694183 3.207759
155.060699 40.379089
156.153824 7.938
156.281418 8.795931
158.067032 102.646797
158.122284 15.66534
158.395477 10.36296
159.576126 14.48333
160.050339 26.033211
160.141953 15.42767
160.170654 4.222727
160.191818 1.825
160.205658 5.249138
160.26004 11.00119
160.296463 7.125
160.328491 4.600926
160.362808 4.7
160.394669 8.432692
160.412445 17.047119
160.491562 3.313636
160.685867 4.849138
160.841217 10.98896
160.910477 8.877054
161.034088 3374.115967
161.069611 110.165497
161.092026 21.299179
161.104248 14.02667
161.126785 6.817857
161.153305 12.83571
161.168396 29.826191
161.204575 18.705351
161.238434 31.60907
161.251312 9.960714
161.267258 5.004167
161.304871 4.072222
161.32106 17.341351
161.347672 5.336111
161.369049 5.931521
161.400757 4.003846
161.431198 4.496154
161.453735 9.83477
161.493027 3.61
161.593857 13.83457
161.707214 25.093081
161.75531 14.9288
161.776581 6.436364
162.006989 3.563636
162.033813 26.689131
162.426239 2.136111
162.991272 6.168023
163.053375 12.8004
163.133423 2.664474
164.061066 49.681671
164.536499 7.605
164.674438 2.207143
164.77713 4.009
165.069 671.299377
165.134583 3.839516
165.162109 6.4
165.200058 5.096053
165.340698 11.64038
165.452179 3.721
165.514801 7.254348
165.564301 4.025
165.868561 5.439516
166.37973 3.072727
167.084656 421.975891
167.120972 3.20119
167.148666 1.066667
167.250641 16.314289
167.436111 3.344048
167.877991 2.977941
168.223709 4.648077
170.124435 1.832143
171.054886 27.84808
172.047989 72.098083
172.2052 5.588235
173.033783 1170.079956
173.087982 3.24
173.133774 2.133333
173.151367 4.5125
173.37117 6.420455
173.462799 2.40625
173.536118 3.025
173.650696 4.2
173.678314 8.602403
173.80661 3.481
173.907974 7.482692
174.053177 39.444901
174.28421 23.152969
174.302933 32.366402
175.046906 81.078796
175.085373 2512.89502
175.153336 14.408
175.217484 8.405232
175.236649 3.15625
175.263535 4.049
175.315033 10.3967
175.333237 10.70179
175.35611 9.19375
175.386978 14.21476
175.406326 5.032143
175.435974 10.11369
175.471725 10.90637
175.516174 9.013158
175.583099 3.015385
175.608658 5.756482
175.622955 7.232142
175.70932 6.357143
176.13942 4.015
176.726715 7.221551
177.008774 4.805
177.064392 121.401199
177.113724 2.041667
177.123108 7.00119
177.142639 7.043919
178.077194 3996.329102
178.134827 20.598669
178.194138 7.422571
178.251968 3.822727
178.279251 2.801471
178.30127 13.0004
178.330475 2.5
178.339645 13.01885
178.38353 15.96825
178.479034 5.236363
178.5121 3.408333
178.567307 5.209783
178.590607 5.003572
178.646393 9.176364
179.219849 14.30651
179.282806 2.933333
179.3181 2.184091
179.349213 4.601087
179.374069 4.344048
179.395874 10.48649
179.451721 3.600714
179.53096 7.102273
179.619568 10.11364
179.801849 10.4
179.834076 6.820082
180.058136 11.33513
180.160324 9.712963
180.203384 10.81417
180.273087 3.440909
180.319595 7.602941
180.370972 10.01885
180.389664 7.679717
180.404282 11.25709
180.441071 8.804762
180.483124 6.630769
180.492477 2.4
180.525162 14.60122
180.607651 2.489286
180.716827 10.60425
180.793457 6.163333
180.904007 6.76875
181.008194 3.248529
181.465927 2.604167
182.05777 25.484209
182.150497 4.888043
182.179062 11.40741
183.09584 28.132389
184.986954 3.448529
185.907349 8.264286
185.968506 2.425
186.019821 16.232889
186.065231 70.677353
186.118073 18.867001
186.139984 24.255369
186.164032 2.535
186.213776 3.081667
186.299789 1.889286
186.366409 3.448529
186.542511 9.795271
186.765991 6.955882
186.799301 29.99144
187.009445 4.401191
187.049606 2920.310059
187.106934 13.3
187.128403 7.706666
187.196732 5.138722
187.223618 7.442
187.275955 6.05473
187.328568 5.605556
187.361908 8.562963
187.385468 7.069231
187.420715 5.41
187.44075 6.52
187.480728 24.572001
187.633179 10.20317
187.73349 6.907558
187.785706 5.603125
187.862 7.392308
187.928436 9.857653
187.957336 2.048077
187.981216 9.210965
188.005188 13.02033
188.093292 10.99352
188.146393 19.133141
188.219772 3.813334
188.278503 3.92
188.345581 4.802273
188.568405 12.24033
188.598648 14.58066
188.683975 16.3895
188.699753 5.125
188.715668 5.144048
188.73082 3.861538
188.749939 3.434615
188.777863 5.028571
188.873856 7.688095
188.960312 19.354561
188.979416 5.047059
189.065262 8909.426758
189.125031 22.55574
189.207031 35.086239
189.22348 22.998039
189.249573 20.2714
189.285324 11.80216
189.309555 4.437121
189.337326 10.162
189.352524 7.633161
189.372574 44.591042
189.390793 54.262711
189.444275 16.42008
189.504761 7.888888
189.528336 14.32
189.554504 7.413333
189.587601 33.056561
189.635498 24.81543
189.649445 10.20161
189.668716 5.002273
189.786194 15.19527
189.811432 5.048077
189.82811 10.85728
189.860413 6.428743
189.931427 4.248077
190.00061 8.335714
190.122955 13.41739
190.162521 9.2
190.191544 24.501671
190.239151 4.356482
190.306061 11.06544
190.425781 37.26461
190.46489 6.402941
190.479858 20.65
190.512878 20.530331
190.542023 6.097973
190.60762 6.65
190.653946 9.45
190.671387 5.017857
190.706131 2.801667
190.719421 14.401
190.76622 12.91921
190.789719 24.73208
190.878021 10.67
191.012344 11.83676
191.041214 127.132698
191.119934 13.11024
191.176117 3.828125
191.242508 27.839291
191.322678 9.377325
191.334198 5.464474
191.594818 8.283956
191.613968 12.60208
191.662964 11.83142
191.864365 9.176961
191.932068 7.632692
191.985062 14.41824
192.000412 1.808333
192.080368 6387.937012
192.126053 14.605
192.136627 33.025002
192.15683 24.045811
192.206131 15.89423
192.225204 2.616667
192.26355 27.186371
192.286774 7.178704
192.298157 15.91622
192.336121 12.4
192.351578 6.806896
192.365936 18.81893
192.376709 6.423529
192.391403 10.90756
192.448105 4.805556
192.460876 5.32
192.484467 32.100929
192.547745 26.228081
192.583878 19.875
192.605484 8.497355
192.712479 9.328571
192.73761 3.65
192.767319 16.064011
192.792084 29.79553
192.810226 11.20317
192.912064 3.44537
192.940323 9.435714
193.021469 7.763423
193.0522 67.628563
193.134964 22.79738
193.170273 8.035256
193.187378 14.6509
193.201675 10.4
193.250641 15.64786
193.322235 9.793108
193.453232 4.400676
193.516144 4.218939
193.604843 18.249689
193.821136 11.02935
193.859894 3.675
193.928787 4.090909
194.09581 1968.543945
194.160324 2.448077
194.174866 4.615244
194.223343 15.67665
194.262634 8.603333
194.366623 7.50625
194.398193 9.526667
194.427032 11.86667
194.44162 7.73913
194.496109 12.37482
194.571808 9.336111
194.592209 4.413236
194.678833 11.69423
194.737595 6.407258
194.752472 2.938889
194.825516 13.44444
195.132294 5.822727
195.255569 18.86297
195.427811 9.669444
195.447052 10.81286
195.55574 7.673684
195.618454 4.290909
195.645294 1.5125
195.820175 5.867857
195.878845 2.618182
196.073807 35.07222
196.349579 5.489815
196.411423 5.438235
196.516052 3.025
196.550201 4.775
196.864899 5.003572
197.387543 8.186865
198.635849 10.603
199.046692 22.003571
201.062317 43.47073
201.608353 10.6
201.702835 7.645454
202.42421 5.308333
203.055771 35.972961
203.071121 141.818497
203.127838 5.806428
203.827362 2.20119
203.852203 7.40051
203.920731 9.511694
204.061142 38.24229
204.133316 12.28981
204.87645 2.61
205.072983 727.106873
205.115799 40.210991
205.145691 10.30932
205.171112 10.86483
205.2005 1.003571
205.248306 7.889815
205.300735 14.01023
205.394958 3.296429
205.535645 16.570681
205.594315 1.0125
205.699448 8.094999
205.728561 5.938462
205.754639 17.33777
205.788971 10.45788
205.822372 8.106177
205.844467 6.828448
205.860748 8.3375
205.894257 9.851923
205.919052 37.69936
205.933716 10.81324
205.94519 13.54569
205.979889 33.151272
206.018784 26.71489
206.085922 919.637329
206.173141 28.32406
206.199478 12.86173
206.211716 1.689286
206.267746 17.724449
206.28894 30.8025
206.314941 11.978
206.366409 23.840509
206.408096 6.434615
206.453247 16.84063
206.483566 40.22604
206.496902 14.69481
206.519165 21.161289
206.558243 3.411842
206.593323 3.813236
206.63324 3.845371
206.648743 4.306579
206.713257 7.216143
206.754013 11.35109
206.808929 62.99229
206.843323 5.409091
206.867615 20.228519
207.016083 30.901291
207.048904 36.808418
207.091583 23034.480469
207.151047 110.613998
207.214279 24.598721
207.242554 7.344048
207.269012 15.31907
207.339859 30.053841
207.385986 21.40029
207.424118 2.401316
207.438553 91.663254
207.471069 40.999168
207.504089 49.595371
207.544205 68.655121
207.574844 14.46806
207.585571 32.040249
207.60405 29.00769
207.620972 17.326
207.637054 37.581169
207.710602 38.753681
207.72905 45.082359
207.753159 19.0861
207.788361 7.420455
207.860764 54.774689
207.902679 19.480499
207.953125 14.26176
208.073792 207.281097
208.108795 919.361023
208.171341 9.74188
208.251617 11.71422
208.312256 27.70554
208.427414 9.006666
208.523575 4.044565
208.739212 7.347222
208.873978 29.42609
208.920486 9.698267
209.20192 3.783696
209.217422 4.672059
209.260651 15.47647
209.341507 2.269444
209.397873 7.638095
209.553955 2.0
209.569061 1.6
209.657257 2.3
209.774048 7.65
210.062836 14.80147
210.090424 166.058197
210.234207 6.665323
210.49675 6.4625
210.912018 4.31413
211.182449 2.911364
212.044556 15.18825
212.424423 4.188462
212.448654 10.15105
216.081055 92.861893
216.212814 2.475
216.36055 1.601667
216.540344 4.696429
216.750748 2.202273
216.864365 5.778125
217.089935 51.075901
217.201721 8.20862
217.237595 2.001316
217.292542 2.025
217.478622 7.360555
217.571014 3.661538
217.617416 15.82603
217.747284 11.9875
217.771194 4.835
218.060501 55.56599
218.095367 585.523376
218.15477 3.845371
218.177277 5.8
218.189789 7.025
218.30983 5.849138
218.403122 6.69
218.52652 7.400455
218.835144 4.029762
218.900955 22.009621
219.005188 13.92388
219.064575 79.375198
219.091476 372.540588
219.102859 8.6025
219.214508 8.004591
219.295166 6.15625
219.433777 6.002778
219.530914 3.1
219.659378 4.247059
219.764069 5.422368
219.793106 5.805
219.855423 2.281667
220.061462 34.17672
220.098495 993.911377
220.159805 5.615385
220.177246 2.9125
220.263687 22.97967
220.39682 8.022223
220.676285 3.0375
220.88826 10.55103
220.909058 5.405
221.027847 18.674999
221.070999 481.332489
221.33316 8.266924
221.42627 3.210714
221.55571 6.729346
221.56781 2.408333
221.655655 11.6605
221.685272 5.136291
221.856674 7.425
222.109741 44.709309
222.269745 4.938889
222.796799 8.512209
223.095322 4.601191
223.121078 351.710602
223.195053 4.817857
223.218842 4.96
223.257431 5.4
223.420654 3.755556
225.09639 11.09534
227.080002 43.588612
230.050674 5.304167
231.090851 45.818668
231.628555 3.408333
231.668427 7.449167
231.735077 9.728571
231.753342 3.04
231.768311 8.719118
231.804489 5.511207
231.869873 10.36296
231.911346 1.802778
231.924271 2.632692
231.95871 6.297581
232.056946 20.90089
232.09906 208.838104
232.138824 4.562782
232.20282 3.82
232.237457 9.177857
232.695526 17.075001
232.791611 2.401667
232.832413 5.6
232.935013 9.457075
232.988052 5.800714
233.036118 23.08374
233.070847 4802.705078
233.106415 1620.906982
233.16153 9.85
233.176071 25.03863
233.224152 10.81
233.253036 10.23269
233.266678 9.320715
233.279709 9.037122
233.291931 18.20606
233.319336 7.279717
233.335999 18.61725
233.382675 15.78228
233.402023 14.82227
233.426575 10.79397
233.450745 29.508619
233.479889 25.604099
233.50354 10.51468
233.517502 4.872222
233.575897 19.180229
233.61911 8.838298
233.650955 8.813334
233.689789 19.478491
233.713165 28.63883
233.753418 56.340931
233.780762 14.93712
233.817932 44.88839
233.853638 31.891001
233.88031 20.798401
233.923553 14.40116
234.001312 13.24081
234.020081 34.954651
234.114227 815.581421
234.240738 14.09136
234.280258 24.408609
234.369919 6.946104
234.400665 6.89
234.524567 6.061364
234.542221 16.772449
234.599808 7.403169
234.640167 4.881667
234.671234 34.013161
234.736221 15.6125
234.917267 13.81659
234.967438 7.881757
235.059387 3.456818
235.095749 1026.909058
235.122498 13913.530273
235.18988 56.942921
235.255371 24.676821
235.28627 18.420509
235.330368 3.003846
235.370285 28.694031
235.408524 64.010391
235.432465 40.299419
235.460327 15.03251
235.472961 17.523029
235.512756 34.339458
235.526413 34.874519
235.568359 51.25956
235.639481 18.29225
235.710144 20.58054
235.724472 11.47692
235.797211 21.110901
235.855957 4.984091
236.011063 22.396999
236.030579 3.248077
236.274429 6.897059
236.343613 16.292219
236.376297 12.25208
236.445877 6.378125
236.625061 8.969
236.652802 13.58462
236.677109 4.618182
236.971909 10.29423
237.114212 113.050201
237.266251 8.296969
237.299454 1.816667
237.448502 5.160714
237.475388 14.63704
237.496735 1.003571
237.555161 1.65
237.58252 1.6
237.659378 7.223529
237.770279 8.162001
237.797058 4.809091
237.936554 1.6
238.033173 4.65
239.082657 29.442261
239.273987 4.272059
239.823273 2.4125
243.085297 33.34605
244.088531 13.90797
244.109848 14.00179
244.405487 11.7931
245.068039 14.66923
245.083801 11.22227
245.705124 5.381452
246.07637 74.203598
246.114029 2.401471
246.33934 4.890909
246.859573 3.8
247.086899 222.978699
247.124741 3.403333
247.352417 11.92206
247.51326 6.845
248.061172 5.213334
248.115601 13.04447
249.10257 199.617294
249.234161 1.632143
249.872269 6.568023
250.196838 14.38606
251.068207 11.74423
251.128662 81.283493
253.127121 15.27769
255.076309 13.51406
255.813278 5.800757
257.084137 16.41552
257.367218 4.0125
258.104065 14.74545
259.082703 6.40119
259.723022 2.636765
260.098816 7.446296
261.101044 483.558289
261.170959 1.65
261.33017 39.631458
261.446655 30.554041
261.496796 20.963831
261.576477 2.42
261.62149 6.005
261.644012 19.09487
261.675018 6.9
261.705109 5.808333
261.790314 2.417308
261.807587 3.783696
262.110291 338.87381
262.179047 7.463043
262.201416 5.805
262.218323 5.352027
262.24646 16.559259
262.593933 2.3125
263.12854 2599.1521
263.19986 3.641667
263.230865 14.5898
263.267181 10.20667
263.3573 9.003333
263.375793 3.65
263.408295 23.11668
263.471802 10.10658
263.508331 21.27319
263.566406 5.809524
263.690399 18.045
263.83194 2.211842
263.877136 5.800862
263.92807 3.405
263.993011 3.925
264.07608 6.223529
264.499146 11.62105
264.515228 3.9
264.628052 6.246154
264.805664 12.21607
265.151489 19.94405
265.351685 6.153846
266.092346 39.825001
267.095184 184.914703
268.111877 38.0467
270.124359 8.006896
271.143066 15.09
274.057434 6.387903
275.069977 15.68096
276.486725 8.023529
277.16806 4.528571
278.23526 17.49259
278.386963 9.778571
279.083557 27.424709
280.093414 29.0355
280.706573 5.236363
281.105194 124.8983
281.128571 13.55577
281.300323 5.646154
281.540924 2.85
281.674957 6.237122
282.085144 25.750879
282.113281 270.879913
282.194855 4.609524
282.380096 1.936111
282.416962 5.29
282.546783 12.23116
282.650299 1.669444
282.937531 4.65473
283.136108 3.825
283.177521 1.032143
289.076324 14.90455
289.101044 45.318432
289.167572 7.581451
289.335602 6.064286
289.849182 5.04939
289.991333 4.615244
290.173431 13.70637
291.082642 11.52
292.068848 16.001249
292.093872 17.64971
292.907349 1.0125
293.092529 162.351593
293.145325 2.003572
293.611603 6.223529
294.075623 6.784091
294.113953 114.663002
294.338135 4.616667
294.375854 2.184091
294.566376 7.11579
295.109161 90.340012
295.545074 4.805
295.828186 8.473485
296.005676 5.911364
296.113434 284.839813
296.179291 1.225
296.311005 3.466667
296.588196 3.09
296.682373 13.07302
296.70639 4.404167
296.994263 3.75
297.492218 5.657857
297.810028 1.402273
298.008179 5.7
298.094543 41.64695
298.139801 7.5125
303.663055 7.067308
305.094788 63.61655
305.235718 3.248529
305.355682 3.853333
305.508331 4.446154
306.099945 39.24641
306.170837 5.677564
306.364166 5.3
306.380859 6.825
306.572723 6.486224
307.086151 51.536999
307.113525 143.554001
307.212646 9.081429
307.267517 6.210526
307.346802 5.000609
307.38028 17.25128
307.398651 1.075
307.737244 3.025
308.116455 496.219299
308.185699 1.2
308.445587 6.106522
308.470154 9.15
308.522552 3.608333
308.557068 2.605
308.766693 7.829762
308.908051 4.472222
308.989594 6.514796
309.064819 14.51304
309.102081 2358.952881
309.180328 8.878261
309.233429 19.28677
309.270966 8.204787
309.302124 5.938462
309.326019 7.422222
309.344391 4.283333
309.362457 3.235714
309.416443 9.791951
309.460815 14.20833
309.534088 6.219565
309.589569 5.253125
309.648132 37.304482
309.685425 8.777857
309.788391 13.03461
309.80957 22.10059
309.886444 7.403571
309.907562 7.804412
309.987457 6.468903
310.010803 21.077971
310.044678 8.826087
310.108398 1315.597046
310.213867 10.14468
310.256775 13.90916
310.369812 29.68231
310.46048 7.11579
310.551147 7.256396
310.593658 6.12803
310.745178 17.0909
310.907013 8.782273
310.955688 9.0
311.043121 5.778125
311.109589 342.076904
311.287048 3.6125
311.663574 4.272222
311.772156 8.834322
311.815216 3.264474
311.887604 8.638235
311.907288 5.400714
312.158478 8.45
312.312927 11.01324
312.423798 22.89035
312.496918 3.159211
312.675781 3.461538
313.947357 4.45
317.178711 49.88871
317.201935 12.10403
318.019531 3.601316
319.118164 9.614555
319.230438 7.243085
319.39209 5.829878
319.443176 7.236364
320.045227 1.607143
320.080841 79.607971
320.105103 449.815887
320.204376 5.584091
320.288513 4.744048
320.519043 16.573311
321.23999 3.845
321.287292 29.01446
321.32547 8.25
321.359772 26.428221
321.4086 3.075
321.736816 6.453333
322.024597 36.212631
322.058624 5.009
322.096344 1159.103027
322.164764 8.42402
322.190277 2.225
322.227203 10.81286
322.33493 7.984091
322.542603 27.474319
322.595978 10.29605
322.820312 1.405
322.876495 3.963636
322.919922 1.869444
322.995789 8.801389
323.082245 40.5868
323.124634 376.2883
323.158905 57.808788
323.197021 5.536111
323.230896 14.25229
323.252167 8.4
323.289703 2.601191
323.452362 2.0
323.477386 5.408333
323.602539 9.25285
323.891907 10.47108
324.078857 23.80554
324.112701 907.365479
324.203613 7.048077
324.272522 6.026515
324.297577 3.2
324.341431 1.602778
324.429138 1.833333
324.49176 5.800807
324.667389 7.168023
324.716919 6.803125
325.030884 7.047059
325.151276 21.63624
325.221039 14.07222
325.307037 3.721
325.816803 35.34528
325.979187 4.628572
326.09436 4.205
326.135986 11.50784
326.915344 8.059524
327.129181 10.24654
329.112335 19.401779
330.650818 17.50395
331.352661 10.76111
332.076721 28.98481
333.086975 130.445908
333.382233 4.004167
333.559601 4.001087
334.096283 72.750893
334.150818 1.64
334.252594 3.201923
334.436951 4.825
334.472015 6.0
334.729706 2.028572
334.825287 11.63125
335.092285 214.064804
335.144104 5.55
335.184387 12.01676
335.226837 18.27812
335.284027 16.071711
335.329071 23.397301
335.404724 4.620162
335.430206 3.606818
335.481171 12.30095
335.545258 7.568421
335.871307 6.446429
335.925873 3.6
335.965607 3.609783
336.020935 24.578131
336.044617 28.91486
336.112274 62.431789
336.148926 102.5811
336.187042 65.694847
336.220551 19.07583
336.25235 64.167374
336.30011 20.5317
336.35257 6.012941
336.3862 9.547449
336.452423 20.00654
336.562378 12.20635
336.667847 19.8552
336.705719 5.833333
336.843262 17.13364
336.894714 31.031679
337.098022 3230.456055
337.274628 13.27656
337.330017 30.98555
337.371735 49.520309
337.440643 15.03924
337.466675 19.986179
337.518219 15.72917
337.577087 21.30254
337.612793 11.00161
337.664459 20.61512
337.734253 4.803571
337.790771 13.72143
337.93454 53.15028
337.997925 47.287151
338.104919 13475.94043
338.18222 29.963461
338.245911 6.200758
338.290436 24.37818
338.312073 10.025
338.403412 18.60029
338.469727 47.02972
338.528687 45.226318
338.551971 39.549259
338.613403 22.140181
338.652832 12.50403
338.681091 20.3419
338.721649 55.94133
338.768066 33.550819
338.802765 29.69388
338.824982 10.5391
338.860229 24.340481
338.899689 21.308001
338.975739 47.146271
339.067383 22.94306
339.324402 14.66478
339.385742 7.210965
339.430878 25.446211
339.503906 21.40814
339.584473 9.879032
339.648621 8.406081
339.886597 14.8
340.001099 1.617308
340.124786 24.025
340.166534 6.818939
340.227448 6.273485
340.40387 7.289286
340.53009 5.4
340.606567 8.783696
340.643066 9.800397
340.822876 5.269444
340.899933 9.012162
340.919342 9.15
340.985504 4.514286
341.009155 6.453333
341.69046 2.801191
341.851227 2.222222
342.102203 9.4875
342.185913 6.714189
342.456055 6.807758
342.642853 7.639062
342.675537 14.23325
342.69397 2.881667
342.977814 11.37059
343.532227 5.136291
345.094604 11.35357
345.200928 33.697609
345.435638 7.873485
346.108612 42.653381
346.511047 6.108333
346.653534 6.007143
346.6987 3.731522
346.718353 6.817391
346.767242 13.44941
346.804169 5.176471
346.823151 7.044736
346.857483 8.2325
346.888062 66.82299
346.927826 68.911751
346.978088 49.228981
347.017426 23.096029
347.066101 31.374069
347.134369 36.087849
347.164154 55.038651
347.198181 25.66589
347.239105 30.076191
347.26062 30.04294
347.326874 29.281891
347.366425 31.151501
347.458069 65.211906
347.526733 19.898439
347.794464 3.6125
347.859985 28.906481
347.908142 12.0277
347.963898 7.625
348.019348 24.677879
348.062225 203.639496
348.102356 691.77063
348.299805 49.550789
348.418304 52.53685
348.503204 47.92342
348.593018 1.469445
348.716339 6.2
348.739899 7.048529
348.785004 16.752939
348.950256 6.243085
348.985626 16.383471
349.108765 21008.330078
349.534302 8.758608
349.603058 67.422127
349.656097 74.608437
349.695404 18.015659
349.715637 9.694315
349.749451 38.748631
349.789551 79.425941
349.877655 17.13608
349.902252 42.498791
349.934326 20.651199
349.971283 49.48563
350.029877 138.469101
350.093842 9726.121094
350.113678 740.769226
350.169464 351.327087
350.214264 35.266418
350.287201 7.275
350.306244 33.1208
350.371094 55.188641
350.442413 34.47514
350.480896 22.512529
350.573547 21.618971
350.694183 10.205
350.731079 17.86705
350.772217 9.037828
350.844727 62.728298
350.893585 76.783241
350.922668 54.519859
351.009277 8.585795
351.050201 22.414841
351.200165 14.15238
351.245575 17.639099
351.370728 68.648628
351.416443 3.645
351.450989 22.650511
351.511749 27.878281
351.5354 19.608999
351.630463 13.86858
351.708923 17.40115
352.108429 13233.75
352.259308 30.707029
352.298981 20.91803
352.334961 103.344902
352.404205 42.93441
352.470367 27.70129
352.491669 11.21318
352.557037 80.210648
352.612701 47.8591
352.661469 44.307381
352.697662 22.454491
352.730621 30.0849
352.964264 50.80563
353.021454 23.71911
353.09317 1.675
353.201019 26.83548
353.278687 12.36455
353.389832 3.801471
353.435638 3.432143
353.579376 7.001667
353.63208 12.27923
353.684204 2.601087
353.761353 10.04564
353.812012 9.178704
353.835785 29.926189
353.939545 7.688
353.985229 6.813298
354.083405 10.17905
354.160156 18.457411
354.240448 1.0
354.397705 2.205
354.423706 3.072059
354.511841 4.584091
354.738342 3.0
354.855469 2.694231
355.113434 2.778572
355.253204 7.353846
355.302063 10.40346
355.409668 3.336111
355.445526 4.804167
355.547913 13.73885
355.734985 8.651428
355.826874 3.504167
356.161591 3.912037
356.338867 3.05
356.450562 8.025
356.579193 7.831818
356.819397 7.0225
356.915497 6.689286
357.537079 7.339103
357.633514 3.306579
357.653534 2.938889
358.069641 5.603333
358.350891 6.136291
358.69458 4.01
360.108124 30.18412
360.408905 3.209
361.00354 2.645
361.102875 59.953709
361.393768 9.480385
362.0224 4.881
362.114777 70.710876
362.414673 3.472222
362.453796 2.355769
362.956299 7.5
363.009125 13.24715
363.075439 6.16
363.107239 39.43948
363.205872 3.933333
363.274506 3.696429
363.320251 6.038236
363.440765 5.915
363.634125 2.664474
363.931 5.360714
364.133331 33.409081
364.210114 9.889286
364.330444 19.26503
364.601654 4.5125
364.670288 4.592391
364.727875 3.6
364.753754 22.0063
364.81958 18.805639
364.869263 22.45166
364.901031 12.11846
364.944824 17.10643
364.967102 12.33462
365.032349 20.035561
365.06723 11.23215
365.102325 202.826096
365.137726 320.576904
365.173615 4.215
365.221283 8.272058
365.291077 28.956369
365.428284 5.401667
365.843018 8.816029
366.042297 52.641029
366.110596 913.668518
366.23114 13.16008
366.361725 20.549789
366.390747 7.20049
366.556885 16.637991
366.610535 2.800926
366.702972 4.272059
366.772278 12.85412
366.857971 5.05
366.898529 11.153
367.06424 12.65813
367.119141 7925.794922
367.28418 19.54455
367.319153 4.592391
367.340393 21.28595
367.410767 10.73136
367.462891 81.383743
367.510315 6.872
367.538177 8.83
367.606384 22.51717
367.637482 10.42849
367.657776 18.878941
367.68689 20.481701
367.715057 9.869444
367.749878 10.4565
367.797791 9.601667
367.861572 11.07222
367.91098 17.215031
367.978607 26.440411
368.023285 16.906481
368.073792 49.80751
368.184143 26.075109
368.245972 14.39557
368.320038 20.719419
368.425751 9.160714
368.861298 16.62425
369.048218 7.328104
369.192871 4.837121
369.414856 20.306129
369.510223 9.152381
369.748322 7.453409
369.808105 3.200806
370.854919 7.418182
370.898315 2.032143
370.999603 2.827174
371.408752 3.025
374.937073 2.906579
375.059784 2.755769
375.119385 93.903641
375.246887 5.698256
375.31427 2.811842
375.529907 4.296154
376.554291 6.938461
377.138885 1415.38501
377.226318 6.458134
377.264557 5.206429
377.28537 6.013333
377.339233 10.70183
377.379456 8.428572
377.453796 4.413333
377.541229 3.441667
377.555206 21.28603
377.629547 5.410526
377.660522 4.232692
377.710663 5.851624
377.81012 19.71454
377.884125 22.00128
377.931915 8.000555
377.967865 6.817391
377.999359 3.801667
378.089386 11.00122
378.114624 13.82012
378.285583 3.413333
378.407379 12.65887
378.69165 2.422222
378.847382 2.611842
378.870636 8.634756
379.186371 8.842064
379.850555 2.056818
380.137909 2703.587891
380.229431 5.104167
380.270599 5.370454
380.291046 8.641666
380.311401 27.10825
380.365875 31.738461
380.448517 22.34927
380.483673 33.559811
380.541931 5.72
380.569244 3.6
380.612549 12.20357
380.671722 9.269898
380.908722 4.73629
380.931366 5.441
381.010498 4.814286
381.056061 12.43332
381.214264 6.20061
382.09848 18.81065
382.186188 7.228571
382.205872 10.84
382.655609 6.089894
382.732635 18.22234
383.19342 4.416667
385.126465 6.161
386.264191 7.537195
389.977081 4.245
390.686707 7.192021
391.149139 18.471279
391.758301 6.669444
392.544098 21.36619
392.68158 16.4447
392.744293 10.47138
392.828705 18.50322
392.873871 8.226842
392.904053 2.425
393.02124 17.67506
393.076843 22.831841
393.137573 261.510712
393.269257 15.96228
393.36676 17.82773
393.42926 6.091129
393.463806 2.133333
393.803741 16.288031
393.876526 5.8375
393.897705 4.001667
394.400696 8.370455
394.43631 9.001351
394.769043 27.44063
395.059479 55.93652
395.096161 13.67217
395.150116 6889.007812
395.305634 62.45171
395.381866 55.68911
395.404297 39.06308
395.438568 6.91601
395.466217 74.585709
395.527863 18.677031
395.576752 16.98418
395.621094 16.607691
395.653168 17.72995
395.695831 29.491899
395.720764 48.139359
395.828949 35.6469
395.945557 24.878071
396.012726 18.896179
396.45639 5.413333
396.765015 4.975
396.906769 7.458064
397.038727 6.644643
397.066193 8.80625
398.092957 6.03141
398.468201 11.29868
399.322449 9.76129
402.309814 2.881667
405.365356 3.053261
406.158325 32.357368
406.220306 2.008333
409.157623 4.064474
413.170166 4.496154
419.402283 2.410714
420.450256 4.686429
420.508575 9.51368
420.528717 6.206429
420.742767 3.627174
420.795135 2.064286
421.156342 21.447121
421.928162 3.045
421.98764 3.955769
422.092346 5.289286
422.349884 5.29
422.457245 6.192857
423.155579 1339.012939
423.250183 5.825
423.27182 17.70977
423.368866 10.28489
423.509979 11.94443
423.580475 1.44
423.607574 31.14031
423.680695 15.83855
423.786652 3.85
423.816864 2.688889
423.845734 10.49007
423.93158 10.566
423.97406 6.257143
424.282715 3.969
424.395508 3.694231
424.441742 16.74931
424.461609 13.0
424.641052 3.008333
424.78421 5.003333
425.081512 8.477564
425.731171 6.319681
429.591766 5.401667
431.322235 5.938793
432.158295 17.49757
434.373901 4.705882
449.182129 14.25
449.203064 17.66181
452.719055 7.103049
477.223206 9.585257
499.028748 4.156482
687.761475 8.557353
1091.361938 5.253125
1115.617676 11.20119
1451.856934 7.459314
1595.661987 17.25185
