>compound Simvastatin (Zocor)
>formula C25H38O5
>ionization [M+H]+
>parentmass 419.279938
#inchi InChI=1S/C25H38O5/c1-6-25(4,5)24(28)30-21-12-15(2)11-17-8-7-16(3)20(23(17)21)10-9-19-13-18(26)14-22(27)29-19/h7-8,11,15-16,18-21,23,26H,6,9-10,12-14H2,1-5H3/t15-,16-,18+,19+,20+,21+,23-/m0/s1
#inchikey RYMZZMVNJRMUDD
#Ion_Source LC-ESI
#Instrument qTof
#Compound_Source Commercial
#PI Dorrestein
#Data_Collector Garg_Neha
#Scan -1
#Precursor_MZ 419.279
#ExactMass 418.272
#Charge 1
#CAS_Number 79902-63-9
#Pubmed_ID N/A
#Smiles C1[C@H](C=C2[C@]([C@@H]1OC(=O)C(CC)(C)C)([C@@H]([C@H](C=C2)C)CC[C@]3(OC(C[C@@H](C3)O)=O)[H])[H])C
#INCHI_AUX N/A
#Library_Class 1
#SpectrumID CCMSLIB00000078292
#IonMode Positive
#UpdateWorkflowName UPDATE-SINGLE-ANNOTATED-GOLD
#LibraryQualityString Gold
#TaskID 77f51c88eb8b467eb4a01dd2d0cb90d2
##Scan# 2765
#SpectrumFile Plate4_61_88_GH5_01_16506.mzXML
#LibraryName FDALibrary_2_04302014.mgf
#MQScore -1
#Organism FDALibrary_2_04302014
#TIC_Query 0
#RT_Query -1
#MZErrorPPM -1
#SharedPeaks 0
#MassDiff 0
#LibMZ -1
#SpecMZ 419.279
#SpecCharge 0
#internalFilename spec-00000.mgf

>collision 10
45.692474 212.0
45.850018 232.0
46.122654 216.0
46.145638 232.0
46.221382 224.0
46.234913 172.0
46.448986 188.0
46.658115 140.0
46.889519 156.0
47.151554 176.0
47.842876 148.0
47.936535 184.0
48.894859 164.0
49.433537 140.0
49.458729 200.0
49.604408 204.0
49.996925 224.0
51.011822 172.0
51.159767 164.0
51.393501 160.0
51.406342 188.0
52.63512 188.0
53.118507 176.0
53.340679 152.0
53.432297 176.0
53.639084 144.0
53.666782 188.0
53.68428 192.0
54.748215 188.0
55.115524 212.0
55.332943 152.0
56.233768 168.0
56.713882 156.0
56.762508 212.0
57.200554 152.0
57.677216 152.0
58.008717 184.0
58.362453 188.0
59.067036 208.0
59.654343 192.0
60.025391 180.0
60.05315 172.0
60.273911 148.0
60.417702 192.0
60.784904 152.0
60.851646 148.0
61.224838 240.0
61.291821 212.0
61.636265 204.0
61.656979 148.0
62.073391 212.0
62.271126 148.0
62.885162 212.0
63.527588 144.0
63.808681 144.0
63.824581 184.0
64.044197 168.0
64.158928 184.0
64.697304 148.0
65.468018 152.0
65.813095 180.0
66.514084 160.0
67.997772 152.0
68.593185 204.0
68.614616 180.0
69.053856 160.0
69.348564 152.0
69.820076 224.0
69.973167 232.0
70.528671 164.0
70.674164 156.0
71.419014 152.0
71.479584 244.0
71.577209 196.0
71.596619 160.0
71.619316 172.0
72.029198 144.0
72.91024 148.0
73.061569 192.0
74.022507 164.0
74.297897 136.0
74.368805 196.0
74.695282 164.0
75.717072 156.0
75.744789 208.0
76.723145 160.0
77.117645 176.0
77.749901 192.0
78.006332 184.0
79.223969 176.0
79.722549 264.0
79.811424 200.0
79.855888 172.0
80.211998 180.0
80.224472 244.0
82.455635 140.0
83.625465 208.0
84.112129 180.0
84.699089 244.0
85.610054 160.0
86.375092 184.0
86.424095 176.0
86.801964 160.0
87.634682 148.0
87.727867 228.0
87.947975 184.0
88.119781 148.0
89.009476 176.0
90.603241 164.0
91.938042 180.0
92.096504 160.0
92.461685 164.0
92.475082 156.0
92.756645 164.0
93.0924 220.0
93.440308 152.0
94.474365 204.0
95.090149 216.0
95.726257 176.0
95.936684 164.0
96.28009 208.0
96.305481 208.0
96.735657 192.0
97.577271 160.0
98.03392 164.0
99.763824 184.0
100.259438 160.0
101.058174 180.0
101.908287 148.0
101.968575 248.0
102.091209 188.0
103.521988 228.0
103.606575 168.0
104.264481 140.0
104.57972 236.0
105.070122 684.0
106.071838 176.0
106.189735 148.0
106.606491 184.0
106.816208 144.0
106.931427 164.0
107.046669 168.0
107.084068 740.0
107.35582 188.0
107.905067 160.0
108.091286 128.0
108.600853 164.0
108.80629 216.0
109.803009 176.0
109.90731 192.0
110.22052 188.0
110.615791 188.0
110.726768 196.0
111.135536 268.0
112.279877 156.0
112.549988 156.0
112.924034 168.0
112.981148 148.0
113.616699 160.0
114.686111 212.0
115.051079 168.0
116.11882 180.0
116.451492 168.0
117.067726 320.0
117.271233 204.0
118.500824 164.0
118.834717 140.0
119.087196 484.0
119.434296 168.0
119.621429 140.0
120.270996 148.0
120.50029 208.0
120.576775 276.0
121.104149 160.0
122.016914 240.0
122.129066 164.0
122.792023 152.0
123.081108 176.0
124.356239 196.0
125.059036 936.0
125.597801 300.0
125.687035 224.0
125.704887 204.0
125.981743 200.0
126.008553 168.0
126.06218 204.0
126.17617 204.0
126.249962 168.0
126.578911 184.0
127.092216 232.0
128.061493 480.0
128.196289 176.0
128.453323 156.0
128.909378 152.0
128.936493 140.0
129.070251 552.0
129.225937 204.0
129.703766 176.0
130.075775 192.0
131.084396 1664.0
132.086685 364.0
133.066406 172.0
133.101196 728.0
133.128403 212.0
134.530609 220.0
135.083054 188.0
135.117599 224.0
136.10495 228.0
136.33493 148.0
136.613937 160.0
137.776779 144.0
138.708603 168.0
139.739548 224.0
140.399094 176.0
140.833359 196.0
140.866425 176.0
140.946762 208.0
140.968033 164.0
141.06752 176.0
141.623352 168.0
142.07605 724.0
142.66745 172.0
143.026642 172.0
143.085068 2668.0
143.136536 124.0
143.608017 172.0
143.980331 144.0
144.004211 184.0
144.08992 388.0
144.126053 180.0
144.575607 204.0
144.738388 224.0
145.101364 2456.0
145.616089 212.0
146.103348 780.0
146.169006 172.0
146.236389 176.0
146.29657 140.0
147.082413 256.0
147.121414 328.0
147.285233 196.0
149.094604 324.0
149.126694 188.0
149.720322 156.0
149.873795 148.0
150.061462 184.0
151.075119 140.0
151.483795 164.0
151.831848 148.0
152.888229 180.0
153.075317 192.0
153.346313 144.0
153.977905 196.0
154.083252 496.0
154.887695 172.0
155.083755 896.0
155.267319 168.0
156.093384 384.0
156.741455 216.0
157.008194 144.0
157.070541 144.0
157.100876 1680.0
157.599808 196.0
157.697266 188.0
158.015244 176.0
158.104416 780.0
158.220062 148.0
158.693588 212.0
159.064148 152.0
159.115601 2988.0
159.165298 176.0
159.238113 148.0
159.728241 172.0
160.075058 240.0
160.12059 1108.0
160.287155 152.0
160.614899 144.0
161.132401 208.0
162.09642 172.0
162.121628 156.0
163.074127 156.0
163.112366 432.0
164.076401 180.0
164.114639 180.0
164.293167 152.0
164.589233 176.0
165.08812 336.0
165.567352 192.0
166.078552 176.0
166.933884 148.0
167.104614 356.0
168.0905 140.0
168.118881 180.0
168.467438 208.0
168.631638 152.0
168.831894 156.0
169.100616 1928.0
169.966492 160.0
170.105392 336.0
170.200104 168.0
171.116531 3032.0
171.375778 152.0
171.87117 160.0
172.119751 912.0
172.38559 220.0
172.458771 176.0
172.667923 184.0
172.754242 152.0
172.987137 208.0
173.131592 9776.0
174.135178 1476.0
174.332642 164.0
175.0271 184.0
177.085312 296.0
178.049683 192.0
178.076248 148.0
178.18782 156.0
179.081604 148.0
179.113571 164.0
180.375717 140.0
180.477295 144.0
180.867889 184.0
181.076721 168.0
181.097565 384.0
181.800568 236.0
182.108582 128.0
182.321564 176.0
183.116287 2308.0
183.190628 196.0
183.802643 236.0
183.94838 196.0
184.120438 460.0
185.037842 252.0
185.129425 528.0
186.127808 208.0
186.597855 168.0
186.872559 192.0
187.07666 148.0
187.112061 300.0
187.142044 288.0
187.815125 172.0
189.025391 144.0
189.094894 208.0
189.125519 184.0
189.1595 144.0
189.321045 140.0
190.095444 204.0
190.132507 176.0
190.162704 180.0
191.107162 696.0
191.226349 140.0
192.093781 172.0
192.505539 156.0
193.099915 192.0
193.120239 324.0
193.168854 152.0
194.013474 160.0
194.113556 396.0
195.023895 188.0
195.112564 216.0
195.594101 220.0
196.126495 296.0
196.890579 236.0
197.100082 184.0
197.130203 1488.0
197.301315 176.0
198.012054 176.0
198.131775 484.0
199.044052 172.0
199.099274 240.0
199.14772 17684.0
199.41951 128.0
199.853561 196.0
200.049103 172.0
200.116425 164.0
200.15126 3136.0
200.188538 160.0
200.561768 176.0
200.751129 180.0
201.034225 188.0
201.121719 168.0
201.163757 2480.0
201.291107 140.0
202.164398 1220.0
202.308167 100.0
203.106705 344.0
204.099197 140.0
204.43486 140.0
204.471848 160.0
205.121246 156.0
205.183975 188.0
205.977295 144.0
206.127457 96.0
206.938187 172.0
207.114944 584.0
207.178757 148.0
208.127975 212.0
208.426804 152.0
209.120026 488.0
210.140625 180.0
210.619186 204.0
210.971725 200.0
211.108353 256.0
211.144363 728.0
212.144165 168.0
212.837555 152.0
213.137589 204.0
213.168701 184.0
214.160767 140.0
214.452133 144.0
215.17511 864.0
216.177887 176.0
217.124557 188.0
217.232895 176.0
217.341446 152.0
219.119995 136.0
219.311798 204.0
220.377121 176.0
220.616516 140.0
221.129913 376.0
222.133636 180.0
223.041321 168.0
223.146973 1564.0
223.969681 236.0
224.151596 648.0
225.126389 168.0
225.163849 8320.0
226.008682 196.0
226.167404 1088.0
226.442749 224.0
227.157455 136.0
227.179581 272.0
227.772507 140.0
229.12085 800.0
229.984604 208.0
230.1306 188.0
233.133194 212.0
233.870377 220.0
234.14447 296.0
235.149918 128.0
237.14769 172.0
238.175568 152.0
239.017929 212.0
239.057938 160.0
239.176193 2212.0
240.184601 608.0
241.15033 164.0
241.194885 160.0
243.133942 332.0
243.174133 7420.0
243.261368 152.0
244.121216 152.0
244.17453 1444.0
245.166428 144.0
245.989883 140.0
247.135498 352.0
248.093582 168.0
249.162064 3400.0
250.165863 524.0
251.165848 200.0
252.641052 228.0
255.168655 156.0
255.741257 224.0
256.827759 176.0
257.144012 256.0
257.191559 304.0
259.203094 372.0
259.433868 212.0
264.844269 160.0
265.159119 160.0
267.038361 180.0
267.090393 164.0
267.17337 4912.0
267.327881 148.0
267.467834 156.0
268.174438 1008.0
268.758392 160.0
269.180725 192.0
274.122925 148.0
274.911041 176.0
277.418152 176.0
284.5979 180.0
285.184723 9972.0
286.186798 2220.0
287.195282 204.0
293.10498 152.0
296.690277 148.0
302.875854 232.0
303.125244 156.0
303.195251 4316.0
303.256989 180.0
304.198181 1320.0
305.199615 308.0
306.140564 168.0
308.93631 160.0
317.070099 160.0
317.545197 172.0
321.206116 156.0
322.211884 184.0
331.29953 148.0
341.259521 164.0
375.10965 176.0
416.294495 172.0
417.196503 156.0
417.235046 144.0
418.243439 204.0
419.279938 220.0
420.291321 132.0
421.181793 184.0
421.231079 116.0
429.926941 152.0
434.059509 168.0
1237.736206 212.0
1269.971069 148.0
1326.425659 160.0
1391.953125 160.0
1402.867676 152.0
1445.256714 160.0
1461.638672 144.0
1484.624146 188.0
1563.222046 244.0
1566.237427 224.0
1596.216309 212.0
1605.924194 184.0
1612.255249 196.0
1618.782959 168.0
1618.838989 168.0
1626.262817 200.0
1626.760376 208.0
1630.961426 148.0
1639.041382 220.0
1649.64624 148.0
1655.520264 152.0
1664.911011 212.0
1666.056274 144.0
1702.000977 184.0
1712.411865 160.0
1734.323486 192.0
1739.897827 184.0
1742.156738 148.0
1752.197998 192.0
1778.950684 160.0
1781.671509 220.0
1790.141357 164.0
1796.632202 176.0
1803.521729 176.0
1807.13269 156.0
1812.221191 140.0
1815.68811 156.0
1819.633789 184.0
1829.018799 176.0
1831.232544 188.0
1835.374146 192.0
1844.671387 208.0
1849.469971 216.0
1861.63562 164.0
1871.145386 208.0
1875.409424 192.0
1879.72998 184.0
1898.649048 224.0
1901.190918 228.0
1918.264282 152.0
1935.326294 192.0
1937.918823 180.0
1940.88147 140.0
1943.539062 212.0
1962.449585 180.0
1968.555542 144.0
1969.650635 224.0
1990.453979 176.0
