>compound MLS001148658-01!
>formula C20H31NO
>ionization [M+H]+
>parentmass 302.245941
#inchi InChI=1S/C20H31NO/c22-20(18-10-4-1-5-11-18,19-12-6-2-7-13-19)14-17-21-15-8-3-9-16-21/h1,4-5,10-11,19,22H,2-3,6-9,12-17H2
#inchikey HWHLPVGTWGOCJO
#origInchi InChI=1S/C20H31NO.ClH/c22-20(18-10-4-1-5-11-18,19-12-6-2-7-13-19)14-17-21-15-8-3-9-16-21;/h1,4-5,10-11,19,22H,2-3,6-9,12-17H2;1H
#Ion_Source LC-ESI
#Instrument qTof
#Compound_Source NIH Pharmacologically Active Library
#PI Dorrestein
#Data_Collector VP/LMS
#Scan -1
#Precursor_MZ 302.255
#ExactMass 301.241
#Charge 1
#CAS_Number N/A
#Pubmed_ID N/A
#Smiles OC(CCN1CCCCC1)(C2CCCCC2)c3ccccc3.Cl
#INCHI_AUX N/A
#Library_Class 1
#SpectrumID CCMSLIB00000085503
#IonMode Positive
#UpdateWorkflowName UPDATE-SINGLE-ANNOTATED-GOLD
#LibraryQualityString Gold
#TaskID d252d724072548979f1f6f1ced849daf
##Scan# 1740
#SpectrumFile p4-B09_GB9_01_18345.mzXML
#LibraryName Pharm_Active_Library.mgf
#MQScore -1
#Organism Pharm_Active_Library
#TIC_Query 0
#RT_Query -1
#MZErrorPPM -1
#SharedPeaks 0
#MassDiff 0
#LibMZ -1
#SpecMZ 302.255
#SpecCharge 0
#internalFilename spec-00000.mgf

>collision 10
44.970116 148.0
44.983463 160.0
45.014172 156.0
45.039547 56.0
45.05481 160.0
45.086308 200.0
45.101009 184.0
45.114376 196.0
45.145695 180.0
45.167866 136.0
45.183441 124.0
45.198803 160.0
45.251606 152.0
45.293686 176.0
45.315121 148.0
45.374599 180.0
45.38884 124.0
45.408955 196.0
45.444096 184.0
45.45591 232.0
45.510941 128.0
45.570038 132.0
45.58213 92.0
45.617073 148.0
45.633205 164.0
45.646652 152.0
45.688347 224.0
45.729553 340.0
45.763714 72.0
45.783913 220.0
45.803585 152.0
45.839146 128.0
45.874187 112.0
45.887669 152.0
45.965897 192.0
46.006386 196.0
46.0895 208.0
46.121555 200.0
46.159462 188.0
46.179649 160.0
46.194225 108.0
46.225342 284.0
46.237522 200.0
46.279484 48.0
46.332302 240.0
46.370243 92.0
46.390575 172.0
46.429539 212.0
46.435287 156.0
46.437016 208.0
46.564255 184.0
46.58989 440.0
46.656651 144.0
46.674328 164.0
46.829464 216.0
46.879871 156.0
46.911808 148.0
46.924332 168.0
47.024429 196.0
47.080406 208.0
47.110455 200.0
47.166771 168.0
47.219803 128.0
47.238953 212.0
47.255367 160.0
47.356667 208.0
47.490791 196.0
47.5541 176.0
47.596657 84.0
47.617256 204.0
47.645943 212.0
47.667835 132.0
47.683201 136.0
47.729939 104.0
47.791836 176.0
47.823486 184.0
47.891418 148.0
47.936417 160.0
47.945911 148.0
47.992928 144.0
48.026028 164.0
48.048096 124.0
48.059135 164.0
48.074314 192.0
48.114342 176.0
48.133671 200.0
48.215172 200.0
48.310577 184.0
48.323029 136.0
48.395683 148.0
48.40469 184.0
48.47118 188.0
48.497513 196.0
48.551582 68.0
48.596161 172.0
48.68203 132.0
48.713974 132.0
48.734814 156.0
48.775112 164.0
48.85994 152.0
48.894726 92.0
48.949017 136.0
49.003338 176.0
49.017273 132.0
49.060478 184.0
49.141365 72.0
49.186024 192.0
49.198586 144.0
49.236286 384.0
49.286575 140.0
49.317318 172.0
49.38736 168.0
49.406811 140.0
49.429199 148.0
49.440392 148.0
49.471184 180.0
49.527195 244.0
49.560818 180.0
49.579033 92.0
49.594452 192.0
49.628094 140.0
49.683994 224.0
49.717869 176.0
49.802441 204.0
49.841442 116.0
49.858303 108.0
49.894852 188.0
49.918755 176.0
49.934223 176.0
49.951099 156.0
50.029903 340.0
50.096092 120.0
50.172188 472.0
50.211105 220.0
50.235756 156.0
50.246933 144.0
50.261044 172.0
50.275154 164.0
50.335854 176.0
50.354248 160.0
50.383877 140.0
50.411846 196.0
50.441814 168.0
50.557789 156.0
50.591759 184.0
50.601669 120.0
50.654068 152.0
50.69799 160.0
50.729172 172.0
50.783051 156.0
50.90794 148.0
50.933506 168.0
51.006466 184.0
51.017342 164.0
51.058578 48.0
51.0728 164.0
51.087299 208.0
51.132557 144.0
51.167637 180.0
51.186653 228.0
51.199371 180.0
51.243626 72.0
51.256447 152.0
51.381645 188.0
51.539902 136.0
51.5504 180.0
51.641895 308.0
51.670506 40.0
51.696735 96.0
51.743496 132.0
51.760677 148.0
51.772133 172.0
51.783588 160.0
51.816536 148.0
51.905399 224.0
51.961617 224.0
51.994339 208.0
52.023045 232.0
52.067554 164.0
52.083466 208.0
52.11496 180.0
52.148846 200.0
52.154652 116.0
52.15844 156.0
52.227089 180.0
52.278881 80.0
52.340778 216.0
52.371021 136.0
52.401272 112.0
52.444286 160.0
52.476219 164.0
52.556988 232.0
52.649372 88.0
52.733978 128.0
52.746174 336.0
52.779293 176.0
52.879242 156.0
52.900951 184.0
52.938934 188.0
52.976254 184.0
53.141525 136.0
53.156033 160.0
53.18671 176.0
53.251846 88.0
53.26347 132.0
53.276543 76.0
53.298508 168.0
53.359379 272.0
53.425961 148.0
53.466721 176.0
53.476765 172.0
53.512455 204.0
53.59079 152.0
53.656376 164.0
53.675327 208.0
53.726376 60.0
53.809563 176.0
53.834385 164.0
53.854832 144.0
53.876743 204.0
53.904503 216.0
53.952732 168.0
53.97028 180.0
53.990749 76.0
54.005409 176.0
54.063896 176.0
54.163452 224.0
54.176636 168.0
54.255772 188.0
54.277763 192.0
54.299763 212.0
54.386326 152.0
54.408344 184.0
54.440582 184.0
54.483242 152.0
54.496464 132.0
54.510967 184.0
54.541351 220.0
54.567608 240.0
54.646431 84.0
54.666405 132.0
54.686161 124.0
54.699799 156.0
54.720528 104.0
54.829021 132.0
54.84631 192.0
54.91748 72.0
54.939804 180.0
54.969116 152.0
55.000107 248.0
55.016151 92.0
55.084274 160.0
55.135986 76.0
55.164066 204.0
55.209904 116.0
55.233173 196.0
55.320869 196.0
55.340118 128.0
55.384544 132.0
55.434914 136.0
55.475136 176.0
55.612881 196.0
55.706425 104.0
55.722767 136.0
55.739109 188.0
55.805996 140.0
55.94733 100.0
55.982422 136.0
56.014343 192.0
56.081394 232.0
56.1455 76.0
56.181301 132.0
56.222126 140.0
56.238003 132.0
56.26487 168.0
56.296021 176.0
56.354481 212.0
56.381058 188.0
56.407124 176.0
56.424725 160.0
56.469585 220.0
56.49202 48.0
56.517452 148.0
56.535278 224.0
56.617748 84.0
56.638714 232.0
56.691151 168.0
56.758495 160.0
56.769783 208.0
56.863617 172.0
56.922161 52.0
56.952198 164.0
56.974731 160.0
57.027325 140.0
57.079941 76.0
57.159485 192.0
57.180729 192.0
57.230408 188.0
57.251488 340.0
57.266548 184.0
57.356831 152.0
57.375042 188.0
57.397743 140.0
57.420277 192.0
57.559078 192.0
57.574471 232.0
57.62859 132.0
57.722301 160.0
57.734402 184.0
57.745861 208.0
57.779778 192.0
57.813919 156.0
57.826687 192.0
57.885727 168.0
58.038769 164.0
58.064545 164.0
58.161964 192.0
58.182899 140.0
58.240604 100.0
58.351589 112.0
58.397156 144.0
58.45192 152.0
58.509758 188.0
58.556961 140.0
58.585903 140.0
58.601135 240.0
58.617897 116.0
58.736813 200.0
58.759697 144.0
58.77953 172.0
58.826843 228.0
58.857376 128.0
58.874886 212.0
58.88792 144.0
58.909302 192.0
58.944443 128.0
58.985706 108.0
59.016087 156.0
59.0215 136.0
59.072998 140.0
59.129482 76.0
59.149376 164.0
59.184361 108.0
59.218994 188.0
59.242786 224.0
59.282623 128.0
59.320061 216.0
59.363914 136.0
59.380737 156.0
59.412949 132.0
59.455914 160.0
59.466656 188.0
59.477398 192.0
59.513702 136.0
59.524364 108.0
59.541885 76.0
59.559002 192.0
59.632526 176.0
59.680183 200.0
59.700172 176.0
59.726318 172.0
59.758621 52.0
59.778625 224.0
59.844585 188.0
59.860569 204.0
59.889374 188.0
59.904873 84.0
59.941853 164.0
59.974213 172.0
60.193283 192.0
60.235302 96.0
60.288887 216.0
60.310696 264.0
60.374836 320.0
60.400375 164.0
60.443691 136.0
60.550678 180.0
60.567543 216.0
60.612473 136.0
60.627968 156.0
60.676018 256.0
60.691456 192.0
60.720985 176.0
60.822628 256.0
60.836121 196.0
60.869961 152.0
60.897736 172.0
60.915001 196.0
60.949181 152.0
60.960056 140.0
60.975597 152.0
61.000465 180.0
61.023785 168.0
61.059185 156.0
61.124886 136.0
61.142006 212.0
61.165352 136.0
61.182472 192.0
61.238529 184.0
61.269684 176.0
61.319279 164.0
61.36631 148.0
61.383461 256.0
61.399055 68.0
61.475498 152.0
61.50671 156.0
61.537933 232.0
61.575409 76.0
61.608212 188.0
61.637897 200.0
61.709389 184.0
61.852154 124.0
61.872089 136.0
61.927307 192.0
61.989292 92.0
62.046398 176.0
62.067757 212.0
62.102848 160.0
62.119415 164.0
62.135792 164.0
62.218296 160.0
62.265121 160.0
62.391777 168.0
62.404354 96.0
62.495281 232.0
62.517609 192.0
62.604191 148.0
62.634113 200.0
62.667194 176.0
62.686104 160.0
62.701862 92.0
62.731812 112.0
62.795101 172.0
62.816963 108.0
62.859562 116.0
62.908485 64.0
62.935326 256.0
62.973225 128.0
63.044319 144.0
63.069607 164.0
63.082249 100.0
63.109127 428.0
63.123356 128.0
63.139023 172.0
63.149811 212.0
63.167957 160.0
63.205608 168.0
63.256382 196.0
63.271275 180.0
63.282497 208.0
63.306919 120.0
63.330673 188.0
63.360771 244.0
63.378201 124.0
63.440006 248.0
63.459106 168.0
63.479645 168.0
63.499714 208.0
63.601807 108.0
63.620853 124.0
63.658062 176.0
63.739971 100.0
63.75745 64.0
63.78447 48.0
63.813084 148.0
63.824215 204.0
63.840115 124.0
63.868744 192.0
63.935566 168.0
64.023125 164.0
64.056015 196.0
64.161743 108.0
64.176094 232.0
64.239883 132.0
64.322861 148.0
64.350006 120.0
64.375549 180.0
64.407494 136.0
64.522842 196.0
64.706528 136.0
64.749763 56.0
64.764175 136.0
64.82666 208.0
64.852303 160.0
64.903603 148.0
64.995277 196.0
65.05574 164.0
65.073669 160.0
65.08812 252.0
65.107391 216.0
65.121849 152.0
65.18129 144.0
65.210213 240.0
65.239143 108.0
65.250397 176.0
65.274483 176.0
65.300247 196.0
65.461174 188.0
65.482109 160.0
65.512718 144.0
65.594902 216.0
65.612633 168.0
65.694878 156.0
65.777176 132.0
65.826164 220.0
65.838524 176.0
65.912872 168.0
65.929955 176.0
65.945152 196.0
66.064812 140.0
66.121445 84.0
66.171623 136.0
66.197525 152.0
66.213722 284.0
66.246117 164.0
66.262314 84.0
66.309311 172.0
66.414696 124.0
66.452003 92.0
66.507179 164.0
66.525032 124.0
66.614349 144.0
66.663086 100.0
66.732986 176.0
66.745987 84.0
66.788277 212.0
66.811813 212.0
66.84359 156.0
66.864738 144.0
66.921715 180.0
66.981972 144.0
67.012924 140.0
67.02433 148.0
67.118866 236.0
67.154663 80.0
67.174316 244.0
67.195526 40.0
67.206947 244.0
67.233765 128.0
67.25264 164.0
67.273857 132.0
67.298347 88.0
67.31794 180.0
67.366936 240.0
67.378372 200.0
67.472755 160.0
67.48951 172.0
67.523849 180.0
67.54348 212.0
67.571289 176.0
67.584381 472.0
67.633476 168.0
67.649841 172.0
67.728439 188.0
67.7481 140.0
67.951385 152.0
68.00882 192.0
68.04657 164.0
68.061348 140.0
68.110619 140.0
68.154427 168.0
68.176338 176.0
68.26017 208.0
68.271683 172.0
68.357224 168.0
68.386299 276.0
68.400017 184.0
68.442818 72.0
68.502106 208.0
68.684235 188.0
68.698273 212.0
68.744469 116.0
68.842804 176.0
68.861679 152.0
68.889763 96.0
68.912888 156.0
68.926109 220.0
68.947586 80.0
68.969078 136.0
69.025284 208.0
69.074898 144.0
69.094749 160.0
69.144394 180.0
69.19239 104.0
69.265259 176.0
69.297112 208.0
69.319931 156.0
69.376282 212.0
69.465828 196.0
69.575356 192.0
69.616859 156.0
69.637688 156.0
69.656723 40.0
69.691612 256.0
69.771385 184.0
69.796326 184.0
69.861183 196.0
69.909439 196.0
69.952713 52.0
69.995995 192.0
70.039299 144.0
70.064285 164.0
70.153259 184.0
70.16761 176.0
70.250992 40.0
70.289368 188.0
70.307724 168.0
70.35112 176.0
70.377289 148.0
70.42292 84.0
70.435143 164.0
70.494759 152.0
70.628502 92.0
70.668655 108.0
70.791862 156.0
70.817642 176.0
70.846115 164.0
70.916489 160.0
70.933762 224.0
70.971809 208.0
71.037216 192.0
71.062378 140.0
71.100975 72.0
71.189949 192.0
71.210098 148.0
71.223541 208.0
71.252098 172.0
71.381516 136.0
71.408287 204.0
71.42337 192.0
71.643303 172.0
71.715775 196.0
71.770477 220.0
71.804535 164.0
71.864929 176.0
71.920616 172.0
71.95269 180.0
72.060783 164.0
72.158806 156.0
72.190933 144.0
72.261971 160.0
72.333046 64.0
72.362236 216.0
72.39061 92.0
72.404823 228.0
72.415665 136.0
72.475304 164.0
72.51767 224.0
72.531227 188.0
72.595253 184.0
72.63636 192.0
72.733078 120.0
72.768723 172.0
72.787399 200.0
72.846848 168.0
72.862137 136.0
72.902649 180.0
72.92424 152.0
72.979401 116.0
73.037224 184.0
73.067261 252.0
73.09507 300.0
73.106979 164.0
73.130806 148.0
73.158043 200.0
73.190384 136.0
73.256805 236.0
73.270439 140.0
73.38121 44.0
73.417023 92.0
73.464378 188.0
73.558632 140.0
73.613266 164.0
73.698669 200.0
73.761902 188.0
73.854652 180.0
73.881607 100.0
73.898766 136.0
73.915825 152.0
73.967316 184.0
73.998817 164.0
74.024025 212.0
74.056206 72.0
74.071617 136.0
74.13501 140.0
74.169289 148.0
74.234436 164.0
74.263588 152.0
74.304756 216.0
74.407051 232.0
74.433487 128.0
74.500465 180.0
74.524521 148.0
74.55201 64.0
74.615608 148.0
74.722237 236.0
74.916771 104.0
74.933998 116.0
74.990868 176.0
75.077065 116.0
75.19783 144.0
75.230629 180.0
75.261703 140.0
75.311783 176.0
75.329056 172.0
75.349785 148.0
75.456039 176.0
75.48114 144.0
75.514 156.0
75.562431 168.0
75.579964 184.0
75.624733 100.0
75.674934 196.0
75.7061 184.0
75.749397 136.0
75.799355 168.0
75.810448 168.0
75.886307 128.0
75.931389 108.0
75.959145 176.0
75.995575 28.0
76.059784 160.0
76.089294 196.0
76.101448 220.0
76.122284 176.0
76.176125 220.0
76.208015 224.0
76.27343 68.0
76.389931 148.0
76.452568 160.0
76.469971 104.0
76.487381 108.0
76.579659 136.0
76.661537 156.0
76.745209 112.0
76.866043 188.0
76.938568 140.0
76.991249 120.0
77.01046 144.0
77.080338 32.0
77.111794 144.0
77.197456 192.0
77.245667 240.0
77.283165 164.0
77.29541 200.0
77.354919 244.0
77.407356 144.0
77.473709 172.0
77.507286 244.0
77.519547 172.0
77.587906 208.0
77.626137 164.0
77.649277 392.0
77.796478 192.0
77.815979 188.0
77.880951 184.0
77.92662 176.0
77.942436 160.0
77.973022 200.0
78.014496 260.0
78.042625 228.0
78.060211 176.0
78.083069 128.0
78.288971 40.0
78.422867 136.0
78.440491 144.0
78.454597 176.0
78.484566 144.0
78.514542 164.0
78.54982 212.0
78.593925 120.0
78.632744 148.0
78.678635 148.0
78.705124 136.0
78.726311 168.0
78.809525 144.0
78.865883 92.0
78.955086 200.0
79.000267 172.0
79.025032 156.0
79.039192 76.0
79.092278 256.0
79.120804 180.0
79.132736 136.0
79.150703 220.0
79.269722 168.0
79.430717 176.0
79.492928 120.0
79.538704 172.0
79.578011 156.0
79.685493 116.0
79.704117 212.0
79.782318 64.0
79.80365 60.0
79.846329 224.0
79.872017 216.0
79.91748 180.0
79.949509 168.0
79.967308 152.0
79.986885 132.0
80.014565 188.0
80.050484 124.0
80.115097 224.0
80.200874 204.0
80.229149 96.0
80.295128 188.0
80.382538 116.0
80.398598 156.0
80.420013 80.0
80.511063 224.0
80.68438 220.0
80.704048 204.0
80.75 184.0
80.893684 64.0
80.942207 352.0
80.975578 184.0
81.058456 168.0
81.094299 176.0
81.114014 148.0
81.262856 176.0
81.320496 168.0
81.348999 204.0
81.395386 220.0
81.468834 180.0
81.482681 236.0
81.496262 132.0
81.543053 204.0
81.708412 156.0
81.731804 192.0
81.791191 156.0
81.803795 148.0
81.832596 256.0
81.96949 172.0
81.994713 72.0
82.021751 96.0
82.057808 44.0
82.126328 116.0
82.258049 160.0
82.2761 204.0
82.292351 168.0
82.330269 120.0
82.357361 180.0
82.429619 120.0
82.456726 236.0
82.485649 132.0
82.729851 156.0
82.749771 248.0
82.860245 104.0
82.914604 240.0
82.932724 200.0
82.978043 144.0
83.132217 200.0
83.183037 168.0
83.217529 52.0
83.23024 228.0
83.300697 196.0
83.331383 192.0
83.35376 136.0
83.408279 148.0
83.441002 140.0
83.546112 220.0
83.568314 188.0
83.586502 120.0
83.606522 88.0
83.668411 156.0
83.681152 172.0
83.728493 192.0
83.806824 200.0
83.81958 164.0
83.850555 188.0
83.930817 148.0
83.998245 172.0
84.193535 208.0
84.285713 200.0
84.337868 120.0
84.368942 168.0
84.440254 216.0
84.518913 108.0
84.590286 160.0
84.694664 180.0
84.732445 192.0
84.745956 188.0
84.813759 192.0
84.843086 184.0
84.920105 80.0
84.940704 156.0
84.989807 152.0
85.004494 140.0
85.061386 292.0
85.281403 204.0
85.340622 172.0
85.376213 248.0
85.475891 236.0
85.58165 220.0
85.660843 140.0
85.699532 128.0
85.717957 144.0
85.743752 84.0
85.77877 132.0
85.907852 196.0
85.966896 180.0
85.987198 60.0
86.016724 384.0
86.044418 104.0
86.07135 136.0
86.125671 124.0
86.273499 196.0
86.408501 140.0
86.451057 164.0
86.464012 144.0
86.481651 168.0
86.582489 200.0
86.626945 212.0
86.641762 152.0
86.68438 180.0
86.809113 152.0
86.906883 216.0
86.938431 160.0
86.958847 176.0
86.982971 64.0
87.073952 252.0
87.120384 64.0
87.157547 204.0
87.174271 112.0
87.246758 196.0
87.266457 168.0
87.300674 172.0
87.342682 164.0
87.509071 216.0
87.535789 276.0
87.587288 184.0
87.662071 144.0
87.67672 148.0
87.730095 220.0
87.814682 168.0
87.896759 176.0
87.909821 160.0
87.99382 28.0
88.133263 200.0
88.13916 132.0
88.145576 176.0
88.208649 340.0
88.221733 156.0
88.236694 132.0
88.251648 172.0
88.298401 44.0
88.433105 152.0
88.558548 164.0
88.618538 164.0
88.684074 120.0
88.725319 220.0
88.747818 124.0
88.78157 104.0
88.794693 136.0
88.895996 164.0
88.957794 160.0
89.046181 36.0
89.061211 112.0
89.143867 144.0
89.187439 176.0
89.291679 212.0
89.393967 112.0
89.512558 84.0
89.595436 160.0
89.670807 136.0
89.687767 196.0
89.702843 116.0
89.744324 168.0
89.778259 44.0
89.855598 200.0
90.170937 220.0
90.214409 140.0
90.227646 148.0
90.288155 216.0
90.337326 152.0
90.373817 188.0
90.441399 112.0
90.517128 180.0
90.555 216.0
90.626984 84.0
90.7407 188.0
90.757767 120.0
90.875359 124.0
91.055023 2668.0
91.097481 144.0
91.291344 224.0
91.303619 168.0
91.31987 136.0
91.342697 144.0
91.376938 208.0
91.470184 156.0
91.565666 240.0
91.58062 152.0
91.609192 88.0
91.63205 224.0
91.653008 148.0
91.670158 84.0
91.693451 236.0
91.723526 152.0
91.759743 124.0
91.799782 88.0
91.819901 168.0
91.939041 236.0
91.954308 160.0
91.985474 196.0
92.011574 168.0
92.026848 156.0
92.051445 136.0
92.063332 152.0
92.141441 104.0
92.263748 152.0
92.290512 172.0
92.378487 136.0
92.45311 136.0
92.481819 192.0
92.504784 176.0
92.634995 88.0
92.671021 264.0
92.686729 112.0
92.723137 144.0
92.743286 176.0
92.765305 152.0
92.928314 152.0
92.959015 112.0
92.974365 180.0
93.039627 76.0
93.070496 604.0
93.164452 152.0
93.264091 168.0
93.320122 192.0
93.393196 176.0
93.406662 200.0
93.441284 188.0
93.470146 152.0
93.549057 184.0
93.610664 128.0
93.629921 160.0
93.696678 184.0
93.768631 168.0
93.797546 168.0
93.818748 116.0
93.893944 132.0
93.920952 200.0
94.067146 292.0
94.23391 200.0
94.258797 144.0
94.276184 160.0
94.318703 60.0
94.397224 164.0
94.413445 128.0
94.457924 152.0
94.483078 128.0
94.525642 56.0
94.565277 400.0
94.616608 220.0
94.632607 76.0
94.682442 160.0
94.697937 200.0
94.746361 200.0
94.765732 188.0
94.796066 232.0
94.817368 136.0
94.866508 184.0
94.891716 148.0
94.982857 184.0
95.021652 164.0
95.052696 76.0
95.085625 984.0
95.128387 324.0
95.229866 112.0
95.260216 140.0
95.320786 268.0
95.410072 192.0
95.426086 128.0
95.441177 68.0
95.464508 156.0
95.527557 212.0
95.583168 204.0
95.616249 116.0
95.664909 228.0
95.770058 200.0
95.783691 156.0
95.809013 196.0
95.826424 184.0
95.84993 164.0
95.888908 112.0
95.931786 124.0
96.048782 72.0
96.082474 2344.0
96.121414 140.0
96.155205 132.0
96.182404 196.0
96.243813 184.0
96.261032 148.0
96.314873 200.0
96.388481 64.0
96.406067 184.0
96.429733 184.0
96.45797 176.0
96.49826 200.0
96.51944 192.0
96.694725 176.0
96.834503 92.0
96.85997 132.0
96.897621 164.0
96.940292 172.0
96.952621 152.0
97.022614 204.0
97.055946 40.0
97.089851 332.0
97.128502 96.0
97.154007 48.0
97.175865 224.0
97.23642 96.0
97.281563 160.0
97.303154 176.0
97.318977 136.0
97.341034 164.0
97.37188 120.0
97.385628 180.0
97.413574 200.0
97.434738 172.0
97.464211 168.0
97.531029 180.0
97.605728 192.0
97.637192 204.0
97.664726 312.0
97.727646 244.0
97.755699 176.0
97.789383 168.0
97.813591 232.0
97.849548 376.0
97.86039 224.0
97.873985 132.0
97.902 228.0
97.922974 148.0
97.944931 248.0
97.964218 696.0
97.986572 428.0
98.007225 520.0
98.037514 548.0
98.053001 408.0
98.098343 168528.0
98.153694 180.0
98.172668 136.0
98.198479 36.0
98.221542 136.0
98.23922 160.0
98.274742 316.0
98.291992 180.0
98.317696 280.0
98.380531 180.0
98.401222 228.0
98.422333 3372.0
98.456528 344.0
98.480606 88.0
98.484863 40.0
98.492416 108.0
98.53109 84.0
98.539352 76.0
98.569298 100.0
98.594238 52.0
98.615753 104.0
98.62999 80.0
98.655312 56.0
98.671913 104.0
98.698097 76.0
98.713913 52.0
98.744598 64.0
98.759399 36.0
98.77668 120.0
98.840515 180.0
98.864258 92.0
98.891243 132.0
98.916443 244.0
98.933228 188.0
98.951347 100.0
98.985008 204.0
99.008224 228.0
99.034515 80.0
99.049316 36.0
99.064232 172.0
99.100029 15952.0
99.134117 172.0
99.180199 136.0
99.200371 160.0
99.216202 64.0
99.248024 76.0
99.280273 144.0
99.31002 116.0
99.326881 96.0
99.351677 92.0
99.368057 120.0
99.385155 64.0
99.433029 124.0
99.454857 36.0
99.472725 80.0
99.492577 104.0
99.514328 92.0
99.538116 64.0
99.557037 92.0
99.577957 52.0
99.605026 116.0
99.633575 144.0
99.652832 104.0
99.67939 132.0
99.702637 132.0
99.715561 180.0
99.760025 168.0
99.795319 252.0
99.816238 84.0
99.837616 276.0
99.85141 88.0
99.86924 180.0
99.881088 196.0
99.91449 140.0
99.929459 112.0
99.950546 140.0
100.010506 108.0
100.047684 172.0
100.104218 496.0
100.154747 140.0
100.176659 72.0
100.2444 52.0
100.279274 48.0
100.334534 132.0
100.36599 76.0
100.383934 40.0
100.406784 76.0
100.425072 88.0
100.488701 76.0
100.573463 40.0
100.627357 68.0
100.661301 208.0
100.677277 88.0
100.720078 80.0
100.761169 96.0
100.785149 132.0
100.801132 48.0
100.839104 44.0
100.857086 68.0
100.949051 136.0
101.109093 72.0
101.259247 60.0
101.477661 120.0
101.50573 48.0
101.571915 80.0
101.593979 256.0
101.620064 60.0
101.750511 64.0
101.780022 92.0
101.88105 60.0
101.921234 100.0
101.939316 52.0
102.032684 108.0
102.049194 180.0
102.120949 172.0
102.204742 172.0
102.247948 76.0
102.289261 72.0
102.520882 48.0
102.619652 132.0
102.732582 56.0
103.052017 512.0
103.166756 116.0
103.243591 192.0
103.443893 80.0
103.50058 120.0
103.674789 40.0
103.713295 52.0
103.731537 112.0
104.047997 44.0
104.167 80.0
104.301918 128.0
104.444252 124.0
104.664803 96.0
104.739395 64.0
104.861641 128.0
104.920753 112.0
104.957451 116.0
104.981926 180.0
105.010475 200.0
105.071053 2060.0
105.141045 120.0
105.187988 92.0
105.239021 132.0
105.351349 52.0
105.392212 156.0
105.420815 136.0
105.457603 96.0
105.559822 48.0
105.754173 44.0
105.791016 200.0
105.813927 104.0
105.938454 160.0
106.068672 304.0
106.110329 92.0
106.252106 88.0
106.278778 128.0
106.36087 120.0
106.414246 100.0
106.701874 44.0
106.771782 104.0
106.963127 44.0
107.000183 36.0
107.04882 1832.0
107.067619 48.0
107.086662 148.0
107.101082 112.0
107.16082 56.0
107.220581 48.0
107.247375 36.0
107.375198 116.0
107.515488 56.0
107.571213 168.0
107.594673 132.0
107.620758 48.0
107.740547 60.0
107.75914 96.0
108.056366 136.0
108.139626 88.0
108.189308 48.0
108.241066 108.0
108.394348 96.0
108.508347 96.0
108.537369 40.0
108.558105 180.0
108.942078 68.0
109.297592 136.0
109.343376 36.0
110.077171 104.0
110.154449 64.0
110.424072 124.0
110.478462 184.0
111.01255 116.0
111.442848 120.0
111.507988 48.0
111.522705 80.0
111.783478 128.0
111.996109 52.0
112.112473 548.0
112.360786 52.0
112.447304 180.0
112.814827 100.0
113.032669 116.0
114.859741 92.0
115.055214 1924.0
115.293152 72.0
115.42569 84.0
115.541183 48.0
115.586113 64.0
115.676003 128.0
115.881592 120.0
115.907303 92.0
116.057243 576.0
116.649872 76.0
116.923027 168.0
116.974678 124.0
117.002663 236.0
117.070473 6144.0
117.11895 108.0
117.213737 84.0
117.299942 124.0
117.332283 72.0
117.653725 80.0
117.75737 84.0
118.073456 720.0
118.562164 76.0
118.746445 92.0
118.818024 164.0
118.841888 148.0
118.928696 64.0
119.024216 128.0
119.086273 464.0
119.713524 176.0
120.09491 136.0
121.058701 184.0
121.10556 284.0
121.345734 140.0
121.5541 124.0
121.648476 68.0
122.07251 84.0
122.252892 120.0
123.466217 100.0
124.092644 204.0
124.115028 112.0
125.268471 232.0
125.446739 68.0
126.143204 220.0
126.583946 164.0
127.452019 72.0
127.550896 176.0
128.061325 1208.0
128.305008 108.0
128.52153 96.0
128.758545 196.0
129.038742 104.0
129.070541 3824.0
129.873932 180.0
130.055862 40.0
130.074966 520.0
130.401093 184.0
130.924347 128.0
131.085587 1444.0
131.122543 120.0
131.188644 160.0
132.089859 272.0
132.177567 48.0
133.062607 140.0
133.099014 148.0
134.41333 156.0
136.386475 148.0
136.61203 80.0
137.434418 76.0
137.812668 280.0
138.495758 244.0
138.908295 176.0
138.981018 180.0
141.067627 308.0
141.424805 128.0
142.079803 124.0
143.086578 1284.0
143.811111 136.0
143.837372 76.0
144.0905 364.0
145.066895 180.0
145.11525 92.0
147.114029 40.0
147.488449 68.0
147.510193 84.0
148.222458 192.0
149.233871 108.0
149.306824 52.0
149.735138 116.0
150.93576 148.0
152.114182 60.0
153.321808 60.0
154.249832 120.0
155.064133 124.0
155.086441 124.0
157.101578 620.0
157.507446 64.0
158.093414 160.0
158.098648 60.0
158.108826 128.0
159.019745 244.0
159.112625 60.0
160.68808 52.0
162.992142 160.0
163.378586 116.0
163.627991 72.0
164.962189 232.0
165.072128 124.0
165.91449 128.0
166.972382 128.0
168.50351 96.0
168.927475 160.0
171.11554 272.0
172.119858 300.0
173.112625 88.0
173.133575 144.0
173.81514 124.0
174.187943 132.0
176.938416 160.0
177.078751 236.0
178.075974 140.0
178.163635 180.0
178.426727 80.0
180.899689 128.0
182.272842 156.0
184.409882 76.0
186.255035 100.0
187.136124 144.0
187.779221 104.0
187.822861 80.0
188.590103 172.0
188.937378 108.0
189.125946 304.0
189.68222 100.0
189.857697 48.0
190.128845 148.0
190.497208 176.0
190.879227 172.0
191.083206 316.0
193.323257 120.0
195.151199 112.0
195.958328 88.0
197.018463 148.0
197.532822 72.0
198.115067 132.0
198.476608 48.0
198.96199 132.0
199.150223 684.0
199.653183 208.0
200.15126 252.0
201.406219 48.0
203.081818 144.0
203.246353 132.0
204.249191 76.0
205.685287 132.0
206.328018 188.0
207.272507 148.0
207.58783 112.0
207.67099 60.0
211.824524 84.0
212.679901 120.0
216.962128 176.0
218.745255 192.0
218.877731 144.0
219.057388 124.0
221.62764 172.0
222.440231 160.0
223.221588 84.0
229.154114 36.0
231.122681 56.0
231.237686 84.0
232.131363 44.0
234.383759 140.0
236.787888 48.0
241.846466 132.0
242.754196 112.0
245.896255 120.0
249.212433 156.0
251.224167 72.0
251.994476 96.0
253.833435 156.0
255.475449 96.0
256.370117 236.0
260.15387 100.0
260.404327 36.0
264.165863 88.0
266.210968 100.0
269.85553 100.0
271.015747 92.0
273.64328 88.0
277.734344 132.0
277.833862 180.0
277.90686 68.0
279.887817 104.0
282.912628 36.0
283.240784 132.0
283.636169 100.0
284.102295 84.0
284.237213 7188.0
284.353943 56.0
284.40094 52.0
284.528503 52.0
284.669495 36.0
285.119659 68.0
285.238586 2152.0
285.294434 164.0
285.442383 60.0
285.593719 36.0
286.246155 140.0
286.344238 104.0
286.748535 60.0
286.890106 80.0
287.008118 96.0
287.132874 92.0
287.264404 88.0
287.294769 120.0
287.374115 132.0
287.834778 40.0
288.1185 60.0
290.532227 88.0
291.391144 80.0
292.176483 96.0
293.671875 208.0
298.906494 68.0
299.739807 180.0
300.015533 88.0
300.063782 152.0
300.208282 136.0
300.315521 68.0
300.912506 52.0
301.337311 88.0
302.090942 64.0
302.167053 300.0
302.245941 3788.0
302.322754 120.0
302.364563 100.0
302.734711 68.0
302.855927 144.0
302.921722 88.0
302.949432 52.0
302.977142 80.0
303.248413 1032.0
303.458893 96.0
304.12146 44.0
304.258118 236.0
304.308899 56.0
304.687469 36.0
305.094055 124.0
305.3479 112.0
305.723602 96.0
306.531494 140.0
306.566345 60.0
312.184875 64.0
332.405792 76.0
341.039246 156.0
349.165771 136.0
356.399109 56.0
360.653748 88.0
396.883331 88.0
403.560486 44.0
408.955963 108.0
418.778534 72.0
449.840027 64.0
454.168732 108.0
456.109161 96.0
484.392639 100.0
494.900543 52.0
506.03595 68.0
515.228577 180.0
515.590088 200.0
548.562561 28.0
550.634216 44.0
551.750977 88.0
563.774414 76.0
565.83197 132.0
587.085999 72.0
587.211365 64.0
606.882019 64.0
610.70752 44.0
622.23114 112.0
639.789062 204.0
648.963806 60.0
659.496399 72.0
684.544373 60.0
688.700867 56.0
690.404602 104.0
696.96228 128.0
716.874451 168.0
718.36731 136.0
724.456055 136.0
724.975769 60.0
737.942749 184.0
754.415588 176.0
756.034546 36.0
756.75708 140.0
758.422424 188.0
764.07843 184.0
764.485596 208.0
766.368774 52.0
768.105347 232.0
768.888794 120.0
769.865967 140.0
773.885864 36.0
780.071594 152.0
783.377014 116.0
784.223938 132.0
788.62207 136.0
791.643066 180.0
791.96228 88.0
792.505676 144.0
795.528503 216.0
797.134827 140.0
800.926697 184.0
804.603333 132.0
806.444824 200.0
806.597412 180.0
808.356323 120.0
810.876343 64.0
811.069092 160.0
814.013489 140.0
814.110046 160.0
815.501953 164.0
816.002136 120.0
817.913574 152.0
819.422607 204.0
820.801941 164.0
824.838257 180.0
825.215515 164.0
825.587219 180.0
826.674133 164.0
826.805725 132.0
827.887695 168.0
828.088135 172.0
829.8703 56.0
830.156982 184.0
830.701843 92.0
830.851013 140.0
831.223938 100.0
832.406433 164.0
832.969238 148.0
834.802612 124.0
835.740234 160.0
836.954712 184.0
837.08136 76.0
837.219604 144.0
837.72644 184.0
840.684204 152.0
841.082397 28.0
843.491089 204.0
844.063416 144.0
844.387268 176.0
845.046692 84.0
845.174011 176.0
845.347595 64.0
846.128967 200.0
846.899109 132.0
848.689819 164.0
849.043518 152.0
850.853882 200.0
853.485779 160.0
853.875427 244.0
854.462891 144.0
854.934204 248.0
857.484985 172.0
858.971802 232.0
859.251831 180.0
859.800293 80.0
860.033752 144.0
860.319763 192.0
862.042786 196.0
862.603821 168.0
863.73822 116.0
863.843506 168.0
866.489563 164.0
868.4328 176.0
868.969543 196.0
869.450684 180.0
869.609131 144.0
869.890869 100.0
869.978943 176.0
870.466248 172.0
871.723328 56.0
871.852844 172.0
873.334167 216.0
875.49408 220.0
876.418884 144.0
876.984619 180.0
878.765503 152.0
879.042786 236.0
879.544434 212.0
880.28241 208.0
880.760132 208.0
881.150696 204.0
881.771118 160.0
881.883423 152.0
882.190796 188.0
882.415894 196.0
882.858887 164.0
884.178162 180.0
885.33844 120.0
886.173645 124.0
887.210815 92.0
887.507202 184.0
888.123962 104.0
888.960449 184.0
889.126648 132.0
889.892395 164.0
890.68811 108.0
891.139587 224.0
891.38324 140.0
892.631531 136.0
892.916992 192.0
893.601013 76.0
894.35675 172.0
894.993774 208.0
896.179016 164.0
896.637878 148.0
897.15387 212.0
898.074707 124.0
898.856201 124.0
899.3396 196.0
900.038086 116.0
900.575562 144.0
901.125122 184.0
901.591187 100.0
901.746582 176.0
901.99762 188.0
902.105225 156.0
902.314453 184.0
902.774841 172.0
903.594299 184.0
903.833618 140.0
904.767273 148.0
904.857056 168.0
905.491821 128.0
907.085571 208.0
907.649109 220.0
908.134888 164.0
909.184753 192.0
909.34082 176.0
909.466858 132.0
910.49353 148.0
911.664978 108.0
912.235962 212.0
912.692871 204.0
913.300232 176.0
913.721313 224.0
914.882812 156.0
914.973145 76.0
915.476807 196.0
915.683655 236.0
915.731812 148.0
916.53302 140.0
916.635437 144.0
917.208008 48.0
917.334595 216.0
918.009827 124.0
918.251099 164.0
918.830139 172.0
919.934509 76.0
920.097473 132.0
921.420105 192.0
921.474487 132.0
922.270142 204.0
922.495789 124.0
923.838257 268.0
923.989502 160.0
924.316223 168.0
924.491699 160.0
924.685364 104.0
925.405701 156.0
925.599487 248.0
925.877991 132.0
926.289856 136.0
926.750305 172.0
926.968445 80.0
927.719971 160.0
928.380859 160.0
928.757629 156.0
929.715454 172.0
930.978149 116.0
931.08136 160.0
931.366821 212.0
931.470093 192.0
931.652344 176.0
931.719177 148.0
931.840698 176.0
932.22345 156.0
932.265991 108.0
932.338928 108.0
932.964966 192.0
933.785828 60.0
933.950073 172.0
934.010864 168.0
934.272461 140.0
935.361694 164.0
935.544312 164.0
935.726929 200.0
935.836548 144.0
936.019226 140.0
936.067932 224.0
937.146057 220.0
937.572571 160.0
938.084534 80.0
938.340576 156.0
938.944275 160.0
939.566406 208.0
939.651855 60.0
939.865356 176.0
940.127747 200.0
940.872437 144.0
941.348633 76.0
941.598145 188.0
941.708984 192.0
942.081604 60.0
942.344299 164.0
942.619202 132.0
942.741455 184.0
942.839233 188.0
943.004211 100.0
943.132568 236.0
943.542114 188.0
943.664429 156.0
943.878418 68.0
944.22699 164.0
945.958557 52.0
946.099304 224.0
946.301331 76.0
947.477234 204.0
947.930664 56.0
948.739685 220.0
949.426392 156.0
949.53064 192.0
950.248352 164.0
950.464355 176.0
950.806702 124.0
951.500305 176.0
951.690674 44.0
951.954712 136.0
952.027405 176.0
952.132751 192.0
952.51355 160.0
952.937439 144.0
953.392151 212.0
954.154358 192.0
954.812256 212.0
954.996765 160.0
955.218201 120.0
955.427368 148.0
955.54425 60.0
955.771912 160.0
955.913452 148.0
956.645813 88.0
957.126038 172.0
957.181152 156.0
957.353882 192.0
957.415466 164.0
957.637207 188.0
958.219971 124.0
958.875549 180.0
959.109741 164.0
959.701538 208.0
960.133179 108.0
960.219543 248.0
960.361389 156.0
960.534119 200.0
960.922729 76.0
962.124634 128.0
962.644836 156.0
962.879517 124.0
963.843201 140.0
964.220154 128.0
965.9328 164.0
966.718506 28.0
966.984619 148.0
967.343628 148.0
967.417908 156.0
967.944153 116.0
968.198059 160.0
968.365295 192.0
968.637817 84.0
968.693542 180.0
969.57959 64.0
969.62915 336.0
970.143616 128.0
970.267578 132.0
970.372986 72.0
970.434998 68.0
970.490784 68.0
970.670593 148.0
971.104736 196.0
971.438049 184.0
971.507874 216.0
972.075684 220.0
972.177979 140.0
972.618652 164.0
972.916626 188.0
973.01593 132.0
973.313965 160.0
973.419495 192.0
973.990845 136.0
974.171021 80.0
974.233154 176.0
974.854431 208.0
974.956238 180.0
975.345398 148.0
975.513245 156.0
976.029297 164.0
976.240723 108.0
976.302856 172.0
976.719604 128.0
977.186157 228.0
977.690186 188.0
977.802185 140.0
979.009888 144.0
979.07843 176.0
979.33374 160.0
979.539307 52.0
979.676025 228.0
980.149841 152.0
980.380432 196.0
980.554932 176.0
980.623474 156.0
981.265503 112.0
981.327881 176.0
981.415161 176.0
981.733154 164.0
981.826721 84.0
981.951416 160.0
982.749939 180.0
982.912109 264.0
983.042725 176.0
983.118042 224.0
983.517517 60.0
983.586121 176.0
983.804626 244.0
984.197937 184.0
984.622559 36.0
984.803711 132.0
985.35968 116.0
985.459595 152.0
985.803284 52.0
985.872009 168.0
986.290771 176.0
989.011597 152.0
989.261963 164.0
989.800415 188.0
990.063416 156.0
990.169861 108.0
990.42041 172.0
991.040588 152.0
991.170715 140.0
991.266174 160.0
992.262756 196.0
992.369324 140.0
992.463379 180.0
992.95874 180.0
993.153198 180.0
993.689026 200.0
995.023193 148.0
995.293152 28.0
995.952576 116.0
996.103333 236.0
996.832092 204.0
996.94519 172.0
997.27832 252.0
997.768616 176.0
998.039673 172.0
998.101807 132.0
998.535706 192.0
998.604919 124.0
998.938293 168.0
999.082947 56.0
999.49823 208.0
999.580017 144.0
999.655518 176.0
999.812866 108.0
1000.140137 140.0
1000.38562 168.0
1000.442261 60.0
1000.605957 176.0
1001.512756 188.0
1001.638733 164.0
1001.714294 212.0
1002.092285 156.0
1002.243469 124.0
1002.66571 184.0
1002.936707 136.0
1003.157349 76.0
1003.663757 160.0
1003.857178 76.0
1004.216614 172.0
1004.628113 100.0
1004.740173 176.0
1004.910522 152.0
1005.080872 144.0
1005.125061 68.0
1005.686707 160.0
1006.02124 196.0
1006.362183 156.0
1006.589478 36.0
1006.873657 228.0
1007.075745 196.0
1007.315796 144.0
1007.536865 144.0
1007.972839 200.0
1008.023376 148.0
1008.162415 132.0
1008.206604 176.0
1008.630066 136.0
1009.034668 184.0
1009.224304 76.0
1009.787109 156.0
1010.128662 164.0
1010.334106 272.0
1010.419678 184.0
1010.533569 120.0
1010.819275 204.0
1010.865112 160.0
1011.229614 156.0
1011.653748 148.0
1012.502197 180.0
1013.192566 156.0
1013.484009 88.0
1013.986511 244.0
1014.162109 200.0
1014.276184 76.0
1014.390259 184.0
1014.440979 32.0
1014.621155 192.0
1015.455505 172.0
1015.671143 160.0
1015.905823 104.0
1016.007324 120.0
1016.083496 140.0
1016.134216 148.0
1016.305542 172.0
1016.47052 188.0
1017.041687 156.0
1017.200378 136.0
1017.390808 64.0
1017.720947 148.0
1018.15271 160.0
1018.241638 192.0
1018.444885 152.0
1018.571899 148.0
1019.003906 120.0
1019.169067 200.0
1019.239014 232.0
1019.68103 256.0
1019.982544 132.0
1020.31311 168.0
1020.467468 72.0
1020.509277 136.0
1020.656433 184.0
1020.847168 208.0
1020.980713 192.0
1021.311462 168.0
1021.540466 184.0
1021.763123 188.0
1022.170288 240.0
1022.329407 36.0
1022.431213 124.0
1022.494873 56.0
1022.743042 176.0
1022.825806 180.0
1022.940369 68.0
1023.013306 140.0
1024.156616 204.0
1024.602539 116.0
1024.697998 56.0
1024.921021 160.0
1025.411743 144.0
1025.679443 180.0
1026.667603 156.0
1027.165161 120.0
1027.279907 148.0
1027.866943 184.0
1027.937134 148.0
1028.256104 192.0
1028.568848 172.0
1028.958252 172.0
1029.801147 84.0
1029.896973 132.0
1030.670044 172.0
1031.059814 220.0
1031.296265 252.0
1031.80127 104.0
1032.357544 128.0
1032.415039 152.0
1032.536621 156.0
1032.637451 184.0
1033.067505 72.0
1033.387329 232.0
1033.451294 272.0
1033.496094 220.0
1033.77771 160.0
1034.222046 196.0
1034.756958 244.0
1034.88501 176.0
1035.166138 236.0
1035.206909 156.0
1035.642456 164.0
1035.986572 188.0
1036.057007 48.0
1036.479858 152.0
1036.539307 200.0
1036.672119 84.0
1036.806763 300.0
1037.050293 144.0
1037.184814 120.0
1037.332275 208.0
1037.746826 204.0
1037.825928 148.0
1037.979858 160.0
1038.101685 180.0
1038.178589 176.0
1038.403076 156.0
1039.038086 248.0
1039.185669 188.0
1039.66687 136.0
1039.878662 172.0
1040.559082 44.0
1040.681152 208.0
1040.796631 152.0
1040.92981 196.0
1040.989258 180.0
1041.098511 52.0
1041.182007 156.0
1041.33606 120.0
1041.387451 128.0
1042.286865 64.0
1042.56311 180.0
1043.128784 112.0
1043.334473 48.0
1043.578735 160.0
1044.196045 240.0
1044.48291 172.0
1044.897217 164.0
1044.94873 204.0
1045.817383 176.0
1045.92041 196.0
1046.062012 160.0
1046.139282 176.0
1046.22937 180.0
1046.303955 244.0
1046.409668 180.0
1047.452881 128.0
1047.549561 156.0
1048.219604 140.0
1048.754517 220.0
1049.096069 140.0
1049.534546 112.0
1049.618286 168.0
1049.9021 176.0
1050.050415 276.0
1050.185791 168.0
1050.603882 152.0
1050.785767 196.0
1050.856323 144.0
1051.017944 216.0
1051.359985 160.0
1051.637573 212.0
1052.16687 136.0
1052.715698 368.0
1052.870605 124.0
1053.064331 184.0
1053.251709 200.0
1053.917114 180.0
1054.039917 184.0
1054.459961 128.0
1054.531006 228.0
1054.884888 196.0
1054.953735 168.0
1055.280884 208.0
1055.714111 68.0
1056.280396 200.0
1056.464355 148.0
1056.541992 120.0
1056.606689 92.0
1056.813721 48.0
1057.108765 268.0
1057.758545 64.0
1057.952759 236.0
1058.075806 228.0
1058.509521 140.0
1058.91748 120.0
1059.176636 208.0
1059.753052 168.0
1059.94104 160.0
1060.116089 160.0
1060.206787 156.0
1060.441406 160.0
1060.621582 284.0
1060.790039 184.0
1061.691284 140.0
1061.859985 208.0
1061.91626 180.0
1062.306763 176.0
1062.618896 100.0
1063.092529 180.0
1063.400635 208.0
1063.585815 48.0
1063.812988 152.0
1064.071411 204.0
1064.304565 132.0
1064.416748 132.0
1064.786865 192.0
1065.254517 208.0
1065.310181 152.0
1066.345337 212.0
1067.236694 128.0
1067.308228 148.0
1067.405762 100.0
1067.59436 164.0
1067.743896 164.0
1068.062622 32.0
1068.140747 216.0
1068.290283 160.0
1068.407349 164.0
1068.771729 148.0
1068.901855 116.0
1069.110107 176.0
1069.259766 228.0
1069.318359 132.0
1069.442017 152.0
1070.13855 152.0
1070.203613 176.0
1070.262329 160.0
1070.561768 208.0
1071.271729 204.0
1071.428101 192.0
1071.721313 244.0
1071.766846 164.0
1072.020996 120.0
1072.698853 48.0
1073.044312 152.0
1073.298584 148.0
1073.381104 220.0
1073.78772 152.0
1074.231201 180.0
1075.066406 256.0
1075.594971 112.0
1075.660278 172.0
1075.738647 176.0
1076.587402 176.0
1076.966187 192.0
1077.639038 76.0
1077.861206 228.0
1077.952637 188.0
1078.651978 100.0
1078.721069 156.0
1079.050781 188.0
1079.354248 160.0
1079.403809 120.0
1079.763428 84.0
1080.123169 144.0
1080.26062 144.0
1080.424072 176.0
1080.633423 152.0
1080.698853 152.0
1080.810181 104.0
1081.084961 176.0
1081.143799 192.0
1081.752563 116.0
1081.875488 160.0
1082.564453 136.0
1082.701904 172.0
1082.832886 164.0
1083.180054 160.0
1084.018677 176.0
1084.202148 160.0
1084.2677 108.0
1084.647827 156.0
1084.864136 140.0
1085.014893 68.0
1085.067383 164.0
1085.355835 244.0
1085.421387 160.0
1086.254272 224.0
1086.300293 152.0
1086.621704 220.0
1087.638794 192.0
1087.691406 176.0
1087.737305 196.0
1087.796387 148.0
1088.167725 200.0
1088.426636 124.0
1088.479126 204.0
1089.011108 88.0
1089.44458 140.0
1089.562866 180.0
1089.700806 132.0
1089.753418 104.0
1090.35791 80.0
1090.500366 180.0
1090.637329 88.0
1090.736572 276.0
1090.949463 116.0
1091.265015 156.0
1091.457764 172.0
1092.034424 184.0
1092.14624 104.0
1092.264648 124.0
1092.415894 236.0
1092.718506 144.0
1092.935669 172.0
1092.981689 152.0
1094.219116 136.0
1094.693237 104.0
1095.417603 124.0
1095.740479 148.0
1096.14624 204.0
1096.419189 196.0
1096.873901 160.0
1096.946411 164.0
1097.118286 168.0
1097.216675 148.0
1097.506836 64.0
1097.579346 132.0
1097.63208 64.0
1098.271729 160.0
1098.408569 208.0
1098.529053 216.0
1098.661011 152.0
1098.746704 36.0
1099.192993 228.0
1099.604492 164.0
1099.703491 188.0
1100.172241 220.0
1100.218384 112.0
1100.310791 204.0
1100.396606 132.0
1100.574951 164.0
1100.647583 188.0
1100.725342 204.0
1100.905029 160.0
1101.066895 176.0
1101.142822 176.0
1101.232544 204.0
1101.545776 200.0
1101.69104 136.0
1101.829834 156.0
1101.981689 144.0
1102.193115 156.0
1102.556641 168.0
1102.774658 184.0
1102.847412 180.0
1103.192261 172.0
1103.25061 80.0
1103.396118 52.0
1103.697632 232.0
1104.440918 156.0
1104.837769 188.0
1105.386963 88.0
1105.505981 140.0
1105.783936 156.0
1105.883301 144.0
1106.128174 108.0
1106.306885 180.0
1106.618042 200.0
1106.916016 208.0
1107.055054 200.0
1107.624634 164.0
1108.280518 116.0
1108.346802 52.0
1108.70459 164.0
1108.837158 140.0
1109.387329 188.0
1109.493408 76.0
1109.824829 164.0
1109.912964 180.0
1110.567627 220.0
1112.106812 140.0
1112.38562 120.0
1113.341675 44.0
1113.434692 188.0
1113.780029 180.0
1114.044678 228.0
1114.358032 192.0
1115.427979 132.0
1115.537964 152.0
1115.612183 144.0
1115.893311 152.0
1116.478394 192.0
1116.871338 228.0
1117.130249 200.0
1117.383057 204.0
1117.453003 220.0
1117.609253 144.0
1117.715698 156.0
1118.108398 140.0
1118.321289 116.0
1118.474365 168.0
1118.634155 200.0
1119.459717 212.0
1119.626221 100.0
1119.73938 160.0
1120.245605 200.0
1120.571411 172.0
1120.745361 228.0
1120.938599 180.0
1121.051147 188.0
1121.125122 172.0
1121.511719 168.0
1121.991577 172.0
1122.349976 192.0
1122.565063 236.0
1122.798462 60.0
1122.885132 140.0
1123.290161 212.0
1123.418701 192.0
1123.572144 168.0
1123.665527 164.0
1123.979126 164.0
1124.199341 48.0
1124.279419 160.0
1124.57312 136.0
1124.853394 56.0
1124.940186 220.0
1125.36084 124.0
1125.901611 152.0
1126.082031 160.0
1126.202271 212.0
1126.910278 184.0
1127.124146 156.0
1127.551758 148.0
1127.665405 232.0
1127.932739 56.0
1128.337769 68.0
1128.574585 124.0
1128.748413 116.0
1128.859985 112.0
1128.948975 184.0
1129.035889 176.0
1129.116211 164.0
1129.25 112.0
1130.052734 152.0
1130.153076 176.0
1130.260132 136.0
1130.434082 152.0
1130.688354 152.0
1131.063232 64.0
1131.725952 220.0
1131.786133 136.0
1131.973633 224.0
1132.268311 148.0
1132.449219 136.0
1132.723755 60.0
1132.918091 60.0
1133.078857 112.0
1133.167847 176.0
1133.500977 148.0
1133.735474 212.0
1134.58667 172.0
1134.640381 212.0
1134.741577 164.0
1134.807983 120.0
1134.861572 72.0
1134.942017 136.0
1135.076172 80.0
1135.156616 136.0
1135.686401 352.0
1136.081909 80.0
1136.343872 184.0
1136.565186 172.0
1136.763794 184.0
1137.061768 176.0
1137.974731 148.0
1138.021729 180.0
1138.182861 204.0
1138.323853 188.0
1138.590088 188.0
1138.894775 144.0
1139.150024 48.0
1139.223877 156.0
1139.291016 144.0
1139.410645 168.0
1139.499268 236.0
1140.358765 196.0
1140.91272 124.0
1141.018188 176.0
1141.119019 56.0
1141.166138 164.0
1141.213135 64.0
1141.751099 124.0
1142.423706 96.0
1142.497681 204.0
1142.558228 180.0
1142.631592 156.0
1142.800415 144.0
1143.056152 132.0
1143.998413 100.0
1144.907349 196.0
1145.210449 124.0
1145.358643 168.0
1145.533691 144.0
1145.823364 204.0
1146.160278 232.0
1146.254639 120.0
1146.682251 168.0
1146.817749 168.0
1147.016113 148.0
1147.070068 156.0
1147.188232 304.0
1147.353271 112.0
1148.243286 168.0
1148.57373 208.0
1148.728882 232.0
1148.890869 96.0
1148.964966 108.0
1149.086426 72.0
1149.153931 164.0
1149.578979 184.0
1150.321411 168.0
1150.679199 164.0
1151.031738 176.0
1151.523315 184.0
1151.624634 164.0
1152.333862 208.0
1153.259644 176.0
1153.415161 152.0
1153.543579 180.0
1154.179077 160.0
1154.591553 48.0
1154.90271 44.0
1155.497925 180.0
1155.640015 136.0
1155.694214 92.0
1155.836304 132.0
1155.902954 148.0
1155.924438 128.0
1156.479126 96.0
1156.680908 184.0
1156.939453 156.0
1157.575928 180.0
1158.178589 176.0
1158.727295 244.0
1158.808594 132.0
1159.140625 208.0
1159.194824 164.0
1159.330322 144.0
1159.797974 176.0
1160.089844 160.0
1161.045532 132.0
1161.099731 52.0
1161.289673 108.0
1161.384644 208.0
1161.913696 136.0
1162.25293 180.0
1162.456543 148.0
1163.155518 192.0
1163.603638 212.0
1163.786865 88.0
1163.895508 232.0
1164.059082 180.0
1164.112793 152.0
1164.412231 172.0
1164.724121 164.0
1164.975342 156.0
1165.179199 120.0
1165.437378 192.0
1165.532471 156.0
1165.75 148.0
1165.940186 124.0
1166.127563 160.0
1166.334473 108.0
1166.470337 132.0
1166.531494 120.0
1166.680176 176.0
1167.308594 168.0
1167.490234 148.0
1167.612671 224.0
1167.891479 160.0
1168.072632 176.0
1168.211182 140.0
1168.619385 204.0
1168.906494 188.0
1168.972778 168.0
1169.20459 204.0
1169.612915 144.0
1169.858032 112.0
1169.90564 72.0
1169.960083 144.0
1170.00769 148.0
1170.252808 168.0
1170.491089 208.0
1170.671387 200.0
1170.858887 148.0
1170.967896 224.0
1171.015503 152.0
1171.144897 212.0
1171.410522 140.0
1171.805664 196.0
1172.562012 96.0
1172.882446 200.0
1173.427734 156.0
1173.577759 192.0
1174.368774 128.0
1174.764404 128.0
1174.81897 168.0
1175.262451 140.0
1175.453491 200.0
1175.562622 168.0
1175.781006 144.0
1175.828857 180.0
1175.983398 168.0
1176.088135 140.0
1176.292969 176.0
1176.56604 112.0
1176.634277 168.0
1176.79126 212.0
1176.948364 128.0
1177.050781 208.0
1177.241943 348.0
1177.323853 172.0
1177.651733 212.0
1177.774658 96.0
1178.321167 156.0
1178.396362 280.0
1178.656006 164.0
1178.886963 256.0
1179.48291 164.0
1179.605957 212.0
1179.72583 132.0
1179.831543 184.0
1179.981934 180.0
1180.081543 168.0
1180.330566 156.0
1180.453735 172.0
1180.501587 168.0
1180.633911 156.0
1180.761475 176.0
1180.857178 172.0
1180.918701 120.0
1180.994019 164.0
1181.144409 96.0
1181.206055 224.0
1181.513794 76.0
1181.936523 228.0
1182.416992 180.0
1182.772949 196.0
1183.142578 128.0
1183.414917 172.0
1183.717773 176.0
1184.114868 152.0
1184.203979 140.0
1184.258789 152.0
1184.516846 148.0
1184.628662 164.0
1184.991699 212.0
1185.19043 160.0
1185.286377 180.0
1185.711182 144.0
1185.992188 128.0
1186.184082 148.0
1186.252686 196.0
1186.424072 152.0
1186.814819 160.0
1186.891724 152.0
1187.075439 48.0
1187.212524 164.0
1187.864136 148.0
1188.261963 224.0
1188.337524 156.0
1188.639404 196.0
1188.694214 180.0
1189.099121 156.0
1189.181763 136.0
1189.716919 164.0
1190.451538 172.0
1190.595825 92.0
1190.870483 176.0
1191.1521 112.0
1191.42688 204.0
1191.474976 168.0
1191.605469 176.0
1192.05896 208.0
1192.35144 160.0
1192.574463 240.0
1193.00061 228.0
1193.089966 152.0
1193.172485 128.0
1193.40625 168.0
1193.495605 152.0
1193.550659 188.0
1193.715698 116.0
1194.052612 160.0
1194.901978 224.0
1195.442261 140.0
1195.492432 168.0
1195.841431 148.0
1195.937744 188.0
1196.05481 128.0
1196.26123 112.0
1196.426514 92.0
1197.321655 160.0
1197.638428 120.0
1197.831299 120.0
1198.010376 80.0
1198.148193 40.0
1198.203247 164.0
1198.575317 180.0
1198.726929 212.0
1198.947388 64.0
1199.174927 324.0
1199.29895 104.0
1199.464355 244.0
1199.519531 232.0
1199.753906 176.0
1199.829712 176.0
1200.021118 224.0
1200.670898 104.0
1200.82959 200.0
1201.429688 160.0
1201.533081 232.0
1201.598999 228.0
1201.657349 184.0
1201.712524 160.0
1201.912598 208.0
1202.340454 152.0
1202.613892 220.0
1202.892578 116.0
1202.944092 200.0
1203.161865 212.0
1203.493286 108.0
1203.651978 192.0
1203.714233 132.0
1204.156128 240.0
1204.239014 36.0
1204.397949 164.0
1204.542969 88.0
1204.605103 168.0
1204.70874 196.0
1204.985107 132.0
1205.047485 188.0
1205.143921 184.0
1205.648438 204.0
1206.996338 188.0
1207.072388 176.0
1207.127808 160.0
1207.355957 204.0
1207.438965 48.0
1207.750854 132.0
1207.86084 128.0
1208.102905 112.0
1208.192871 140.0
1208.338135 140.0
1208.428101 104.0
1208.739502 220.0
1209.182373 60.0
1209.362305 152.0
1209.459229 160.0
1209.790161 152.0
1210.255371 120.0
1211.093262 80.0
1211.266479 176.0
1211.917603 76.0
1212.111694 164.0
1212.222534 48.0
1212.342773 168.0
1212.43042 56.0
1213.081909 72.0
1213.601929 144.0
1213.830688 204.0
1214.28833 280.0
1214.531128 160.0
1214.815552 196.0
1214.94043 200.0
1215.002808 116.0
1215.065308 240.0
1215.224854 128.0
1215.301147 60.0
1215.668701 128.0
1215.773071 144.0
1216.071411 184.0
1216.168579 96.0
1216.347168 156.0
1216.508789 172.0
1216.682251 184.0
1216.772583 124.0
1216.918335 168.0
1217.078003 120.0
1217.972778 196.0
1218.082153 216.0
1218.140625 212.0
1218.844971 224.0
1219.172729 212.0
1219.252319 128.0
1219.495483 148.0
1219.822266 160.0
1220.550903 176.0
1220.677368 200.0
1221.03894 136.0
1221.338013 164.0
1221.456299 40.0
1221.838867 196.0
1221.983398 412.0
1222.485962 160.0
1222.576416 156.0
1222.792236 160.0
1222.994019 136.0
1223.634399 140.0
1223.912964 212.0
1224.281982 188.0
1224.421265 160.0
1224.685913 108.0
1224.957642 64.0
1225.117798 128.0
1225.584595 100.0
1225.641724 144.0
1225.709961 124.0
1225.807617 136.0
1225.98584 232.0
1226.189941 184.0
1226.436279 188.0
1226.518433 184.0
1226.769409 188.0
1227.585083 124.0
1227.668823 168.0
1227.975708 160.0
1228.12915 88.0
1228.240723 172.0
1228.519775 168.0
1229.113403 136.0
1229.329102 116.0
1229.608154 180.0
1229.901367 176.0
1230.130493 244.0
1230.194458 148.0
1230.536621 176.0
1230.585449 124.0
1230.746094 172.0
1230.808838 136.0
1231.255859 160.0
1231.531738 144.0
1231.595459 192.0
1231.695801 156.0
1231.779663 172.0
1231.828491 184.0
1232.138184 172.0
1232.345459 148.0
1232.708862 164.0
1233.386719 132.0
1233.449707 196.0
1233.638428 140.0
1233.72229 180.0
1233.918091 220.0
1234.043945 264.0
1234.246704 184.0
1234.561279 176.0
1235.001953 112.0
1235.232788 168.0
1235.442627 184.0
1235.757446 48.0
1235.841431 112.0
1236.128906 188.0
1236.387207 112.0
1236.772095 164.0
1236.933105 168.0
1237.423096 208.0
1237.521118 212.0
1237.591187 124.0
1237.745239 88.0
1237.892212 164.0
1238.158325 140.0
1238.529541 152.0
1238.879761 176.0
1238.935913 176.0
1238.998901 168.0
1239.804688 124.0
1239.91687 168.0
1240.106079 160.0
1240.295288 180.0
1240.351318 72.0
1240.59668 220.0
1240.836182 184.0
1241.281372 136.0
1241.494141 260.0
1241.844849 64.0
1241.990723 160.0
1242.132446 196.0
1242.37793 172.0
1242.862061 84.0
1242.932251 144.0
1243.030396 148.0
1243.261963 244.0
1243.353271 152.0
1243.837524 140.0
1244.729126 196.0
1244.939819 112.0
1245.026367 204.0
1245.290894 164.0
1245.344604 292.0
1245.64209 212.0
1245.691284 152.0
1245.775635 164.0
1247.680054 168.0
1247.820679 64.0
1247.99646 128.0
1248.101929 184.0
1248.861328 204.0
1249.135742 128.0
1249.627319 248.0
1249.718628 192.0
1250.205078 168.0
1250.310669 136.0
1250.444458 172.0
1250.578125 152.0
1250.994141 184.0
1251.127197 144.0
1251.230347 232.0
1251.648193 76.0
1252.513794 176.0
1252.620117 172.0
1253.085083 132.0
1253.359863 128.0
1253.578247 156.0
1253.853027 176.0
1254.050903 184.0
1255.030273 160.0
1255.418091 144.0
1255.467529 156.0
1255.813843 180.0
1255.954102 84.0
1256.045776 132.0
1256.637573 132.0
1257.351074 344.0
1257.407593 140.0
1257.471069 88.0
1257.562866 212.0
1257.682739 144.0
1257.93689 160.0
1258.424072 84.0
1258.697998 188.0
1258.791138 188.0
1258.950684 144.0
1259.476196 180.0
1259.638672 220.0
1260.585449 192.0
1260.813477 172.0
1261.270996 164.0
1261.341675 200.0
1261.491333 196.0
1261.829468 156.0
1262.095703 188.0
1262.158081 224.0
1262.47998 152.0
1262.706177 68.0
1262.937622 152.0
1263.066895 228.0
1263.579224 156.0
1263.696533 120.0
1263.852783 148.0
1264.007935 156.0
1264.283813 124.0
1264.489136 148.0
1264.538574 176.0
1264.626221 172.0
1264.694336 216.0
1264.800537 44.0
1265.175171 120.0
1265.572144 172.0
1265.681885 200.0
1265.99707 188.0
1266.152832 180.0
1266.230713 136.0
1266.287354 144.0
1266.453613 156.0
1266.761963 208.0
1266.825684 160.0
1266.967407 88.0
1267.455688 204.0
1267.640503 96.0
1267.775146 176.0
1267.92395 180.0
1268.101074 180.0
1268.490967 48.0
1268.585571 168.0
1268.965942 132.0
1269.033691 204.0
1269.107666 160.0
1269.235352 152.0
1269.299194 100.0
1269.760132 196.0
1269.987061 192.0
1270.582886 84.0
1271.020142 172.0
1271.129272 212.0
1271.356323 176.0
1272.05188 192.0
1272.208008 120.0
1272.348999 156.0
1272.555908 132.0
1272.883667 152.0
1273.393799 136.0
1273.471924 168.0
1273.656616 76.0
1273.749023 168.0
1274.379272 188.0
1274.5802 168.0
1274.644165 144.0
1274.878662 184.0
1275.567993 136.0
1275.617798 172.0
1275.958984 188.0
1276.18042 148.0
1276.432983 184.0
1276.470703 112.0
1276.487915 180.0
1276.556274 196.0
1277.40979 160.0
1277.516479 212.0
1277.815308 128.0
1278.306152 144.0
1278.619263 180.0
1279.217163 204.0
1279.551758 144.0
1279.601562 124.0
1279.779297 152.0
1279.950439 160.0
1280.000366 40.0
1280.071533 136.0
1280.256714 140.0
1280.352417 180.0
1280.527344 172.0
1280.883423 128.0
1280.990356 168.0
1281.061523 108.0
1281.146973 136.0
1281.307739 164.0
1281.74707 204.0
1281.904785 180.0
1282.230103 108.0
1282.346313 128.0
1282.540527 128.0
1282.600708 176.0
1282.757446 184.0
1283.056885 220.0
1283.235107 124.0
1283.884033 156.0
1284.098022 116.0
1284.254883 232.0
1284.361816 232.0
1284.689941 180.0
1285.500244 224.0
1285.817383 224.0
1286.202759 268.0
1286.359863 196.0
1286.595337 136.0
1286.645386 56.0
1286.759521 48.0
1287.030884 172.0
1287.309326 160.0
1287.537842 120.0
1287.627197 212.0
1287.695068 144.0
1287.812378 196.0
1288.123535 140.0
1288.596436 160.0
1288.838013 136.0
1288.937988 156.0
1289.18103 140.0
1289.323853 196.0
1289.54541 208.0
1290.296021 60.0
1290.386353 124.0
1290.523804 172.0
1290.717896 172.0
1290.86084 184.0
1291.418701 164.0
1291.554565 160.0
1291.869263 36.0
1291.96228 40.0
1292.248413 164.0
1292.341431 276.0
1292.498901 132.0
1292.742188 144.0
1292.956909 200.0
1293.192993 144.0
1293.601074 180.0
1294.016235 140.0
1294.071045 200.0
1294.123657 72.0
1294.317017 108.0
1294.431519 236.0
1294.889893 140.0
1294.97583 184.0
1295.047485 148.0
1295.262329 116.0
1295.620483 124.0
1295.706421 240.0
1295.828247 196.0
1295.971558 180.0
1296.073608 168.0
1296.178101 144.0
1296.329834 168.0
1296.404785 148.0
1296.802856 148.0
1297.44519 160.0
1297.54834 148.0
1297.985596 196.0
1298.717163 48.0
1298.932373 176.0
1299.504272 344.0
1299.635376 32.0
1299.984253 204.0
1300.202271 116.0
1300.36792 140.0
1300.568359 104.0
1300.640137 108.0
1300.776489 60.0
1300.903809 200.0
1300.991821 176.0
1301.164062 164.0
1301.39856 140.0
1301.494385 140.0
1301.88208 160.0
1302.607544 128.0
1303.049927 172.0
1303.462524 148.0
1303.614868 172.0
1303.785889 84.0
1303.908081 180.0
1303.965576 156.0
1304.102051 168.0
1304.166748 128.0
1304.253052 56.0
1304.346436 140.0
1304.411133 156.0
1304.461426 212.0
1304.669922 140.0
1304.88562 172.0
1305.076538 208.0
1305.222046 208.0
1305.36145 224.0
1305.525513 152.0
1305.892334 200.0
1306.007446 160.0
1306.259155 88.0
1306.331055 204.0
1306.41748 208.0
1306.48938 168.0
1307.108154 120.0
1307.446289 140.0
1307.561523 128.0
1307.770142 188.0
1307.856567 156.0
1307.919922 156.0
1308.878784 96.0
1308.958008 172.0
1309.125 176.0
1309.29895 172.0
1309.678223 152.0
1309.987915 200.0
1310.074341 160.0
1310.452271 192.0
1311.090332 44.0
1311.306519 172.0
1311.739014 140.0
1311.883179 196.0
1311.969727 180.0
1312.084961 140.0
1312.265259 184.0
1312.510376 280.0
1312.618408 144.0
1312.755615 212.0
1313.152222 132.0
1313.33252 188.0
1313.462402 156.0
1313.556152 184.0
1313.862549 144.0
1313.974487 356.0
1314.183716 208.0
1314.371338 140.0
1314.429077 136.0
1314.494019 152.0
1314.661743 204.0
1314.862061 196.0
1314.941406 132.0
1315.157959 144.0
1315.360107 164.0
1315.713745 204.0
1315.814819 192.0
1316.067505 148.0
1316.94043 152.0
1317.056885 164.0
1317.143555 164.0
1317.611206 180.0
1317.685425 200.0
1317.801025 168.0
1317.858765 180.0
1318.501953 124.0
1319.17041 148.0
1319.289795 160.0
1319.49939 148.0
1319.593384 232.0
1319.730713 168.0
1320.062622 156.0
1320.193604 152.0
1320.287598 148.0
1320.627441 188.0
1320.685303 80.0
1320.923096 160.0
1321.358032 168.0
1321.531738 152.0
1321.5896 160.0
1321.683716 152.0
1321.945557 200.0
1322.262573 144.0
1322.418091 208.0
1322.711304 156.0
1322.80542 44.0
1322.906738 168.0
1322.98645 180.0
1323.353516 192.0
1323.465942 172.0
1323.934937 160.0
1324.565063 196.0
1324.876465 52.0
1325.448853 60.0
1325.543091 160.0
1325.601074 160.0
1325.684814 80.0
1325.760498 140.0
1325.847412 160.0
1325.970581 196.0
1326.43396 176.0
1326.746216 172.0
1327.181152 188.0
1327.563843 244.0
1327.877319 132.0
1328.080444 140.0
1328.218262 60.0
1328.538818 228.0
1328.659424 156.0
1329.313721 152.0
1329.458862 184.0
1329.589478 80.0
1331.06311 152.0
1331.598633 208.0
1331.774902 192.0
1331.847534 112.0
1333.373169 148.0
1333.70752 164.0
1333.823853 140.0
1333.961914 184.0
1334.318115 172.0
1334.667114 152.0
1334.718018 236.0
1334.899902 164.0
1334.950806 96.0
1335.183472 36.0
1335.670776 164.0
1335.772583 168.0
1335.976318 100.0
1336.114502 40.0
1336.245483 116.0
1336.332764 136.0
1336.420044 164.0
1336.470947 144.0
1336.594727 140.0
1336.685913 128.0
1336.803345 180.0
1336.859863 180.0
1336.973145 148.0
1337.307861 80.0
1337.387939 84.0
1337.627563 96.0
1337.645142 144.0
1337.846558 328.0
1337.992065 148.0
1338.050415 176.0
1338.450806 124.0
1338.596436 168.0
1338.865845 48.0
1339.200928 152.0
1339.266479 164.0
1339.652466 200.0
1339.732666 160.0
1340.002197 124.0
1340.249878 172.0
1340.461182 184.0
1340.70166 172.0
1340.789185 152.0
1341.430542 148.0
1341.583618 192.0
1341.846069 252.0
1341.92627 120.0
1342.137695 136.0
1342.20752 252.0
1342.327271 204.0
1342.74292 152.0
1344.253052 188.0
1344.464722 148.0
1345.085083 120.0
1345.435425 140.0
1345.743896 204.0
1345.934204 168.0
1346.216675 148.0
1346.727905 256.0
1346.968994 176.0
1347.195435 188.0
1347.336426 188.0
1347.677979 220.0
1347.787231 164.0
1347.852905 72.0
1348.050293 152.0
1348.276733 108.0
1348.466797 136.0
1348.547241 212.0
1348.802979 116.0
1348.980347 196.0
1349.080811 164.0
1349.187256 144.0
1349.256226 172.0
1349.329346 132.0
1349.402466 132.0
1350.470093 172.0
1350.682251 120.0
1351.11377 160.0
1351.201538 112.0
1351.618652 220.0
1352.043091 188.0
1352.240601 28.0
1352.709106 136.0
1352.821777 144.0
1352.97998 164.0
1353.455811 68.0
1353.609619 180.0
1353.68689 124.0
1353.849487 164.0
1353.917236 404.0
1354.180786 144.0
1354.306152 192.0
1354.70166 152.0
1354.77417 220.0
1354.906006 80.0
1355.184448 220.0
1355.294312 148.0
1355.411499 160.0
1355.477539 60.0
1355.687256 220.0
1355.838257 228.0
1356.400879 144.0
1356.55481 188.0
1356.752808 196.0
1356.818726 48.0
1357.310059 88.0
1357.610596 124.0
1357.823364 196.0
1357.99939 324.0
1358.278076 228.0
1358.476074 160.0
1358.593506 172.0
1358.681519 176.0
1358.872314 212.0
1358.953003 180.0
1359.033691 172.0
1359.261108 180.0
1359.503296 160.0
1359.613403 112.0
1360.157593 132.0
1360.574951 168.0
1360.633667 168.0
1360.839233 184.0
1360.97876 172.0
1361.037476 132.0
1361.088867 204.0
1361.411987 148.0
1361.779175 148.0
1361.962769 156.0
1362.432861 196.0
1362.506348 180.0
1363.255859 144.0
1363.380737 136.0
1363.534302 72.0
1363.65271 228.0
1364.064331 144.0
1364.358276 136.0
1364.451538 344.0
1364.556763 140.0
1365.277466 196.0
1365.674561 68.0
1365.814331 144.0
1366.160034 144.0
1366.491089 44.0
1366.549927 176.0
1366.652954 196.0
1366.939819 188.0
1367.057617 164.0
1367.344727 140.0
1367.484497 76.0
1367.62439 180.0
1367.684937 192.0
1367.778931 88.0
1367.852539 108.0
1368.456177 184.0
1368.817017 156.0
1368.91272 148.0
1369.17041 156.0
1369.280884 120.0
1369.413452 136.0
1369.656494 144.0
1369.737549 168.0
1369.862793 200.0
1370.032227 40.0
1370.231079 204.0
1370.356323 192.0
1370.623779 132.0
1370.721313 128.0
1371.019531 224.0
1371.638672 208.0
1371.712402 164.0
1372.213623 108.0
1372.338989 168.0
1372.455933 168.0
1372.567627 204.0
1373.924683 136.0
1374.204956 204.0
1374.337769 180.0
1374.632935 52.0
1374.728882 148.0
1375.369385 144.0
1375.73999 180.0
1375.806519 76.0
1376.382324 172.0
1376.470947 148.0
1376.965698 132.0
1377.046997 264.0
1377.645264 184.0
1377.77832 176.0
1377.945435 172.0
1378.053101 236.0
1378.466797 160.0
1378.827515 180.0
1379.453369 164.0
1379.596191 172.0
1379.655396 168.0
1380.002808 124.0
1380.135864 196.0
1380.557373 204.0
1380.616577 148.0
1380.942017 176.0
1381.075073 160.0
1381.256836 220.0
1381.296021 144.0
1381.321289 200.0
1381.726074 164.0
1381.816772 136.0
1381.933228 176.0
1382.007202 176.0
1382.384521 136.0
1382.695435 224.0
1382.754639 152.0
1382.863159 148.0
1382.984009 192.0
1383.176514 160.0
1383.709473 260.0
1384.094482 124.0
1384.242554 80.0
1384.331421 40.0
1384.383301 208.0
1385.694336 176.0
1385.886963 352.0
1386.04248 36.0
1386.09436 148.0
1386.160889 116.0
1386.187012 112.0
1386.200684 172.0
1386.316772 148.0
1386.390869 44.0
1386.479736 176.0
1386.991089 212.0
1387.080566 204.0
1387.258057 100.0
1387.613892 216.0
1387.902954 228.0
1388.091553 212.0
1389.260254 228.0
1389.416016 204.0
1389.58667 164.0
1389.697876 148.0
1389.831543 196.0
1390.03186 100.0
1390.08374 212.0
1390.24707 104.0
1390.32019 140.0
1390.7146 84.0
1391.09314 128.0
1391.197021 172.0
1391.367798 124.0
1391.486572 204.0
1391.557007 172.0
1391.625244 232.0
1392.095459 208.0
1392.340454 152.0
1392.429688 312.0
1392.547852 148.0
1392.801025 176.0
1392.949585 180.0
1393.194702 176.0
1393.425049 168.0
1393.499268 140.0
1393.610718 168.0
1393.66272 420.0
1393.937622 172.0
1394.09375 264.0
1394.182861 164.0
1394.599121 140.0
1394.797119 192.0
1395.111938 160.0
1395.439087 160.0
1395.535767 188.0
1395.691895 172.0
1395.907471 188.0
1396.234741 172.0
1396.510742 188.0
1396.76001 244.0
1397.10498 224.0
1397.571533 164.0
1398.035034 212.0
1398.13916 148.0
1398.466675 136.0
1398.593262 168.0
1398.987793 140.0
1399.127441 192.0
1399.494019 108.0
1399.672729 168.0
1400.030151 128.0
1400.201416 184.0
1400.348877 172.0
1401.333618 184.0
1401.490112 28.0
1401.624268 116.0
1401.743408 160.0
1401.959595 88.0
1402.3396 176.0
1402.704834 72.0
1403.935059 172.0
1404.091675 40.0
1404.151367 184.0
1404.501831 124.0
1404.815186 168.0
1404.927124 168.0
1404.994263 180.0
1405.180664 136.0
1405.307495 112.0
1405.389648 184.0
1405.557983 152.0
1405.680664 116.0
1405.785156 280.0
1406.146851 136.0
1406.27771 48.0
1406.591187 220.0
1406.844971 88.0
1406.919556 32.0
1407.120605 164.0
1407.180908 316.0
1407.240601 208.0
1407.561646 144.0
1407.778198 124.0
1408.457886 128.0
1408.71936 188.0
1408.816406 40.0
1408.913574 192.0
1409.279663 204.0
1409.765259 204.0
1409.892334 160.0
1410.281006 172.0
1410.412354 180.0
1410.946289 188.0
1411.177979 44.0
1411.2677 120.0
1411.379883 164.0
1411.536987 168.0
1411.686523 72.0
1411.765747 140.0
1411.940796 116.0
1412.239868 136.0
1412.314697 144.0
1412.554077 172.0
1413.032837 196.0
1413.376953 148.0
1413.616455 188.0
1413.69873 180.0
1413.796753 236.0
1413.885864 36.0
1414.005615 152.0
1414.087891 88.0
1414.185181 184.0
1414.567017 224.0
1414.619385 180.0
1414.843994 216.0
1415.02356 180.0
1415.255737 168.0
1415.311279 172.0
1415.652588 136.0
1415.825439 224.0
1416.484131 168.0
1417.11438 100.0
1417.160278 228.0
1417.235107 284.0
1417.307983 116.0
1417.502808 48.0
1417.697632 124.0
1417.907471 176.0
1418.312256 188.0
1418.431641 136.0
1418.597046 144.0
1419.211792 128.0
1419.811646 168.0
1420.20166 168.0
1420.608276 184.0
1420.786743 144.0
1421.157837 176.0
1421.26001 160.0
1421.604614 196.0
1421.724731 172.0
1421.957397 184.0
1422.032349 188.0
1422.737183 152.0
1422.903198 172.0
1423.075806 140.0
1423.278564 216.0
1424.505493 224.0
1424.667969 164.0
1425.118774 208.0
1425.321655 104.0
1425.689819 64.0
1426.020508 168.0
1426.396362 336.0
1426.802246 192.0
1427.05481 116.0
1427.170654 148.0
1427.524048 144.0
1427.70459 172.0
1427.757202 184.0
1428.349487 224.0
1428.742554 188.0
1429.058472 172.0
1429.276733 132.0
1429.607788 40.0
1429.735718 96.0
1429.88623 172.0
1430.563599 152.0
1430.623901 184.0
1430.955078 164.0
1431.580078 224.0
1431.647827 128.0
1432.031982 180.0
1432.423584 172.0
1432.491455 144.0
1433.207153 160.0
1433.742188 188.0
1433.794922 220.0
1434.28479 172.0
1434.699341 148.0
1434.857666 120.0
1435.068848 232.0
1435.309082 124.0
1435.372437 152.0
1435.689819 232.0
1436.011353 28.0
1436.079224 188.0
1436.154663 196.0
1436.290527 212.0
1436.35083 156.0
1437.059937 220.0
1437.135376 224.0
1437.459839 156.0
1437.761719 168.0
1438.05603 172.0
1438.214478 232.0
1438.272217 152.0
1438.471191 32.0
1438.66748 128.0
1439.05249 132.0
1439.165771 128.0
1439.369629 172.0
1439.742065 168.0
1439.845337 60.0
1440.003784 172.0
1440.223022 36.0
1440.294067 228.0
1441.061523 76.0
1441.160522 176.0
1441.492188 136.0
1441.552612 128.0
1441.666016 60.0
1442.013672 188.0
1442.074219 152.0
1442.157227 200.0
1442.415894 176.0
1442.588013 120.0
1442.671265 204.0
1443.064331 132.0
1443.143677 216.0
1443.321411 144.0
1443.37439 128.0
1443.487793 180.0
1443.667847 168.0
1443.775146 156.0
1444.077637 332.0
1444.255371 152.0
1444.576904 56.0
1444.758423 176.0
1444.962646 220.0
1445.166992 172.0
1445.348511 76.0
1445.681396 208.0
1446.234009 140.0
1446.415649 176.0
1446.945557 136.0
1447.165039 216.0
1447.566406 144.0
1447.786011 108.0
1448.058594 120.0
1448.149536 136.0
1448.248047 132.0
1448.308594 164.0
1448.482788 80.0
1448.768188 208.0
1449.013062 256.0
1449.202515 48.0
1449.278198 180.0
1449.428345 180.0
1449.505615 180.0
1449.67981 196.0
1449.748047 192.0
1449.808716 152.0
1449.960205 172.0
1450.058838 204.0
1450.399902 80.0
1450.528687 160.0
1450.665161 148.0
1450.718262 172.0
1450.928345 264.0
1451.029053 44.0
1451.180664 188.0
1451.484009 200.0
1451.977417 116.0
1452.174072 200.0
1452.249878 164.0
1452.796021 160.0
1453.054932 236.0
1453.14502 156.0
1453.440918 128.0
1453.911377 196.0
1454.036987 212.0
1454.116333 180.0
1454.237793 156.0
1454.541382 152.0
1454.609619 168.0
1454.662842 92.0
1454.761475 204.0
1455.004395 224.0
1455.665039 232.0
1455.71814 180.0
1455.832031 164.0
1456.034424 280.0
1456.41687 84.0
1456.485229 236.0
1456.659912 52.0
1456.887817 232.0
1457.168945 128.0
1457.404419 200.0
1457.503174 244.0
1457.922241 184.0
1457.958984 172.0
1458.057983 144.0
1458.343262 104.0
1458.620361 184.0
1458.681152 124.0
1458.734375 184.0
1458.910034 120.0
1459.509888 180.0
1459.798828 164.0
1460.194214 124.0
1460.361572 28.0
1460.426392 256.0
1460.734253 204.0
1460.863525 204.0
1460.91687 124.0
1461.139038 132.0
1461.236328 232.0
1461.396118 196.0
1461.586548 180.0
1461.989624 176.0
1462.644165 212.0
1462.83667 164.0
1462.950928 136.0
1462.980835 176.0
1463.230347 172.0
1463.786133 152.0
1463.892822 172.0
1464.08313 76.0
1464.136475 168.0
1464.496582 196.0
1464.593384 36.0
1464.717773 188.0
1464.859985 176.0
1464.928589 232.0
1465.02002 120.0
1465.119019 176.0
1465.19519 124.0
1465.294189 36.0
1465.49231 44.0
1465.605103 244.0
1465.69812 144.0
1465.903809 172.0
1466.132446 220.0
1466.391479 200.0
1466.710938 140.0
1466.970825 124.0
1467.222412 168.0
1467.390137 236.0
1467.812378 176.0
1467.931519 160.0
1468.022949 200.0
1468.127075 240.0
1468.244141 156.0
1468.297485 132.0
1468.446777 312.0
1468.625488 68.0
1468.861938 156.0
1468.96875 192.0
1469.434082 144.0
1469.502686 180.0
1470.181885 140.0
1470.250488 232.0
1470.342041 116.0
1470.571045 124.0
1470.922119 136.0
1471.090088 156.0
1471.464233 68.0
1471.655029 160.0
1471.723755 180.0
1471.845947 108.0
1471.9375 176.0
1472.12085 144.0
1472.479736 188.0
1472.678345 96.0
1472.837646 176.0
1472.960938 128.0
1473.153198 216.0
1473.411621 92.0
1473.594971 168.0
1473.75 172.0
1473.80896 148.0
1473.908325 180.0
1474.053467 184.0
1474.432007 212.0
1474.586914 128.0
1474.779663 148.0
1475.016357 172.0
1475.605103 132.0
1475.961426 228.0
1476.071411 184.0
1476.430908 176.0
1477.356323 144.0
1477.577148 152.0
1477.822998 76.0
1477.950806 176.0
1478.149658 340.0
1478.243896 208.0
1478.511719 168.0
1478.955566 176.0
1479.185181 152.0
1479.491455 240.0
1479.794312 188.0
1480.004395 164.0
1480.22644 172.0
1480.571045 140.0
1480.839111 156.0
1481.367554 40.0
1481.582153 204.0
1481.95752 112.0
1482.137939 148.0
1482.256348 136.0
1482.478516 180.0
1482.792725 160.0
1482.961426 152.0
1483.015015 176.0
1483.145386 180.0
1483.332397 184.0
1484.341309 204.0
1484.51001 196.0
1485.077515 204.0
1485.353638 144.0
1485.767822 180.0
1485.867554 164.0
1485.967285 180.0
1486.113159 256.0
1486.297241 76.0
1486.358643 192.0
1486.496704 200.0
1486.74231 60.0
1486.842041 124.0
1487.271851 212.0
1487.878296 48.0
1487.98584 136.0
1488.277588 160.0
1488.492554 140.0
1488.748535 156.0
1488.838135 136.0
1488.968628 184.0
1489.214478 232.0
1489.62915 128.0
1489.838135 184.0
1490.366699 164.0
1490.490845 164.0
1490.735596 248.0
1490.896973 172.0
1491.089111 128.0
1491.400391 152.0
1491.50415 152.0
1491.614746 192.0
1491.745972 192.0
1492.011963 180.0
1492.096069 164.0
1492.395874 204.0
1492.582764 216.0
1492.741821 196.0
1493.310913 100.0
1493.75708 108.0
1493.94165 144.0
1494.034058 140.0
1494.108154 212.0
1494.787964 160.0
1495.215088 208.0
1495.719238 224.0
1495.811646 124.0
1496.0271 144.0
1496.258057 192.0
1496.448853 164.0
1496.547241 128.0
1496.8125 192.0
1496.863525 184.0
1496.926758 236.0
1497.172852 180.0
1497.790527 188.0
1498.05249 60.0
1498.237305 140.0
1498.429932 172.0
1498.984619 176.0
1499.246704 172.0
1499.300659 212.0
1499.439331 60.0
1499.547241 176.0
1499.63208 136.0
1500.136841 168.0
1500.202393 32.0
1500.263794 184.0
1500.387451 160.0
1500.456787 132.0
1500.541626 224.0
1500.707031 176.0
1501.112183 188.0
1501.320435 244.0
1501.621216 140.0
1501.960571 160.0
1502.199707 188.0
1502.305786 200.0
1502.515991 188.0
1502.689453 116.0
1503.147217 204.0
1503.202637 176.0
1503.326172 136.0
1503.640259 220.0
1503.682983 204.0
1503.84314 148.0
1504.236816 156.0
1504.321777 152.0
1504.422119 284.0
1504.792725 208.0
1504.895996 252.0
1505.047485 156.0
