>compound MLS001141221-01!N-[(4-methoxyphenyl)methyl]-2-[(4,8,8-trimethyl-2-oxo-9,10-dihydropyrano[2,3-h]chromen-5-yl)oxy]acetamide
>formula C25H27NO6
>ionization [M+H]+
>parentmass 438.19111403609054
#inchi InChI=1S/C25H27NO6/c1-15-11-22(28)31-24-18-9-10-25(2,3)32-19(18)12-20(23(15)24)30-14-21(27)26-13-16-5-7-17(29-4)8-6-16/h5-8,11-12H,9-10,13-14H2,1-4H3,(H,26,27)
#inchikey USYRMAOMZAWXNE
#Ion_Source LC-ESI
#Instrument qTof
#Compound_Source NIH Natural Product Library
#PI Dorrestein
#Data_Collector VVP/LMS
#Scan -1
#Precursor_MZ 438.192
#ExactMass 437.184
#Charge 1
#CAS_Number N/A
#Pubmed_ID N/A
#Smiles COc1ccc(CNC(=O)COc2cc3OC(C)(C)CCc3c4oc(=O)cc(C)c24)cc1
#INCHI_AUX N/A
#Library_Class 1
#SpectrumID CCMSLIB00000079391
#IonMode Positive
#UpdateWorkflowName UPDATE-SINGLE-ANNOTATED-GOLD
#LibraryQualityString Gold
#TaskID b1d8e8f6646f4e71acdff9ca3d919d08
##Scan# 2356
#SpectrumFile p1-F05_GF5_01_17937.mzXML
#LibraryName NIH_Natural_Products_Library.mgf
#MQScore -1
#Organism NIH_Natural_Products_Library
#TIC_Query 0
#RT_Query -1
#MZErrorPPM -1
#SharedPeaks 0
#MassDiff 0
#LibMZ -1
#SpecMZ 438.192
#SpecCharge 0
#internalFilename spec-00000.mgf

>collision 10
95.037971 144.0
95.206856 144.0
95.288437 144.0
95.438095 128.0
95.463371 156.0
95.613167 156.0
95.708549 40.0
96.039848 172.0
96.104225 168.0
96.117882 136.0
96.262329 84.0
96.297485 76.0
96.414703 88.0
96.555466 164.0
96.737434 112.0
97.213699 144.0
97.355042 200.0
97.42968 188.0
97.447365 56.0
97.46505 128.0
97.537758 136.0
97.937195 208.0
98.043587 188.0
98.134254 64.0
98.185524 176.0
98.282188 144.0
98.319679 156.0
98.477623 212.0
98.513176 216.0
98.683136 228.0
98.817627 112.0
98.875015 172.0
98.952209 144.0
99.241478 172.0
99.31089 156.0
99.523224 132.0
99.547058 200.0
99.709953 104.0
99.733803 156.0
99.934654 176.0
99.970474 228.0
100.024208 252.0
100.165588 52.0
100.245285 196.0
100.365448 196.0
100.434685 188.0
100.770058 184.0
100.847992 236.0
100.88797 124.0
100.913956 120.0
100.97995 196.0
101.039955 176.0
101.368858 164.0
101.500626 248.0
101.590874 152.0
101.737373 168.0
101.785553 156.0
101.964584 168.0
102.044746 160.0
102.074913 236.0
102.241875 140.0
102.402939 236.0
102.610489 216.0
102.739563 160.0
102.757721 216.0
102.781929 64.0
102.814217 196.0
102.854584 164.0
102.91111 188.0
103.054413 160.0
103.070679 132.0
103.208122 152.0
103.465073 132.0
103.647362 112.0
103.661545 140.0
103.770996 224.0
103.833855 52.0
103.902824 64.0
103.996025 172.0
104.073311 204.0
104.201263 152.0
104.522514 68.0
104.557114 156.0
104.571358 144.0
104.595779 180.0
104.612068 180.0
104.77375 132.0
104.821846 160.0
104.882988 148.0
104.917641 152.0
105.03376 356.0
105.072769 160.0
105.254288 156.0
105.372749 76.0
105.476974 204.0
105.523987 148.0
105.542389 200.0
105.658974 200.0
105.820656 212.0
105.931244 152.0
105.978363 168.0
106.040962 532.0
106.191559 212.0
106.353645 216.0
106.511749 96.0
106.544617 200.0
106.632973 160.0
106.661751 160.0
106.778946 280.0
107.046478 692.0
107.225708 48.0
107.262802 188.0
107.45459 188.0
107.487602 152.0
107.764282 168.0
107.917229 104.0
107.987541 152.0
108.014427 212.0
108.049599 52.0
108.064079 160.0
108.155136 132.0
108.366364 192.0
108.714714 132.0
108.7724 212.0
109.030685 188.0
109.062256 760.0
109.248695 100.0
109.519302 208.0
109.542259 204.0
109.582191 212.0
109.610229 180.0
109.831955 168.0
109.865334 48.0
109.900803 176.0
110.00724 140.0
110.042725 124.0
110.067787 132.0
110.161766 224.0
110.222359 56.0
110.241165 124.0
110.360306 156.0
110.374947 40.0
110.616051 164.0
110.642754 96.0
111.078636 48.0
111.189835 188.0
111.238113 160.0
111.357796 104.0
111.404007 188.0
111.422913 44.0
111.603668 148.0
111.645721 108.0
111.66465 88.0
111.81192 132.0
112.063553 152.0
112.083572 192.0
112.201599 172.0
112.218468 104.0
112.260635 136.0
112.288055 44.0
112.446289 200.0
112.543388 160.0
112.560287 148.0
112.680679 232.0
112.763084 60.0
112.879356 124.0
112.925888 196.0
112.99781 148.0
113.36412 60.0
113.499779 172.0
113.552795 228.0
113.631279 140.0
113.705551 116.0
113.773476 72.0
113.847794 152.0
114.134659 72.0
114.194206 140.0
114.289932 120.0
114.491493 192.0
114.767044 216.0
114.916344 164.0
114.94622 228.0
115.029457 132.0
115.052933 124.0
115.112717 200.0
115.559448 144.0
115.786354 132.0
115.809914 228.0
115.865608 196.0
116.030624 108.0
116.238678 128.0
116.454971 176.0
116.485573 176.0
116.674683 172.0
116.700539 156.0
116.866928 192.0
117.016762 44.0
117.098587 184.0
117.339928 40.0
117.398148 140.0
117.49305 132.0
117.575043 152.0
117.678658 72.0
117.69809 160.0
117.745598 152.0
117.870895 180.0
117.905472 156.0
118.064606 320.0
118.212547 64.0
118.235718 164.0
118.353249 136.0
118.39006 168.0
118.465866 152.0
118.530869 136.0
118.589378 156.0
118.773682 168.0
118.864799 136.0
119.047142 180.0
119.071129 176.0
119.105782 188.0
119.214409 128.0
119.273094 88.0
119.375275 228.0
119.394844 160.0
119.456917 220.0
119.521019 192.0
119.581947 172.0
119.623306 152.0
119.721344 140.0
119.756126 208.0
119.841087 208.0
119.91832 136.0
119.99147 68.0
120.059067 228.0
120.087418 168.0
120.117958 96.0
120.200859 156.0
120.216133 148.0
120.451927 188.0
120.507118 184.0
120.543892 132.0
120.581963 156.0
120.62674 64.0
120.655159 160.0
120.755547 172.0
120.785225 176.0
120.809418 216.0
120.844063 204.0
120.872559 172.0
120.89061 308.0
120.914001 204.0
120.962479 572.0
120.976364 388.0
120.984489 208.0
120.99453 292.0
121.01358 424.0
121.035324 664.0
121.03817 540.0
121.065277 124064.0
121.115578 176.0
121.133232 80.0
121.139961 60.0
121.155663 40.0
121.185455 80.0
121.206505 72.0
121.236595 44.0
121.253983 84.0
121.269447 280.0
121.288406 72.0
121.300949 152.0
121.330612 140.0
121.366211 104.0
121.398361 28.0
121.424728 1648.0
121.451752 160.0
121.468529 76.0
121.538612 76.0
121.566818 72.0
121.590637 104.0
121.640953 144.0
121.675049 68.0
121.713402 48.0
121.729652 84.0
121.761055 104.0
121.816628 88.0
121.892952 92.0
121.924286 52.0
121.950813 60.0
121.972641 84.0
122.009163 104.0
122.068314 13100.0
122.130516 80.0
122.20575 40.0
122.240959 100.0
122.269104 172.0
122.29274 68.0
122.307899 48.0
122.362015 60.0
122.396057 52.0
122.436211 100.0
122.46331 56.0
122.491943 144.0
122.521629 84.0
122.591087 56.0
122.631203 116.0
122.63652 104.0
122.669266 200.0
122.689072 164.0
122.705704 36.0
122.736572 168.0
122.769966 112.0
122.807823 104.0
122.838715 180.0
122.863297 140.0
122.88205 120.0
122.921341 164.0
122.92701 132.0
122.946968 96.0
122.97924 116.0
123.0056 160.0
123.04586 128.0
123.071709 1056.0
123.110497 92.0
123.138786 76.0
123.154259 60.0
123.17691 84.0
123.255287 116.0
123.332642 112.0
123.412224 84.0
123.511742 60.0
123.530678 100.0
123.74189 84.0
123.783958 48.0
123.932365 56.0
123.994408 152.0
124.058693 116.0
124.082954 148.0
124.138367 124.0
124.464699 36.0
124.493568 84.0
124.515778 184.0
125.064941 60.0
125.100555 48.0
125.671089 156.0
125.686707 128.0
125.918869 56.0
125.956841 88.0
126.081963 60.0
126.312256 92.0
126.332382 164.0
126.979713 132.0
127.159203 100.0
127.298386 36.0
127.498322 64.0
127.824394 36.0
127.867157 104.0
128.247787 148.0
128.324432 116.0
128.687683 76.0
128.73735 168.0
128.868362 72.0
129.042404 164.0
129.069534 168.0
129.171295 56.0
129.214279 92.0
129.23465 176.0
129.379486 188.0
129.531219 100.0
129.683029 112.0
129.809982 160.0
129.968765 68.0
130.141266 120.0
130.191223 172.0
130.363876 140.0
130.379776 68.0
130.846085 168.0
130.896164 132.0
131.048782 132.0
131.347427 44.0
131.514145 60.0
131.785736 92.0
131.831436 76.0
132.044052 120.0
132.243103 100.0
132.451462 56.0
132.540802 40.0
132.641647 96.0
132.962753 80.0
132.997177 124.0
133.029312 180.0
133.061798 156.0
133.270462 112.0
133.366974 76.0
133.944519 92.0
134.034363 156.0
134.062225 176.0
134.170349 64.0
134.417145 44.0
134.590256 72.0
134.879044 76.0
135.044418 144.0
135.069809 192.0
135.221359 172.0
135.925842 148.0
135.98851 76.0
136.075394 228.0
136.104584 156.0
136.390335 128.0
136.934769 204.0
137.0 152.0
137.059799 2248.0
137.0849 160.0
137.107178 136.0
137.29834 132.0
137.340332 60.0
137.370651 60.0
137.503647 40.0
137.681076 64.0
137.790863 148.0
138.010559 188.0
138.060242 228.0
138.161407 136.0
138.209366 104.0
138.914566 152.0
138.938019 136.0
139.090546 112.0
139.412308 60.0
140.035751 160.0
141.855728 180.0
141.900208 128.0
143.080978 124.0
143.328674 152.0
144.654175 68.0
145.05661 48.0
145.437988 244.0
145.634872 212.0
146.060593 144.0
146.262436 132.0
146.50325 112.0
147.046555 172.0
147.09404 180.0
147.176132 176.0
147.248581 208.0
147.270309 100.0
148.047287 188.0
148.070862 208.0
148.473175 124.0
148.958603 180.0
149.061539 780.0
149.812439 140.0
149.997635 252.0
150.090607 4512.0
150.119537 116.0
150.414749 48.0
150.727356 68.0
150.908234 48.0
151.093262 756.0
151.498047 40.0
151.968765 108.0
152.368958 68.0
153.225113 216.0
153.767593 200.0
154.054016 48.0
154.753906 196.0
155.567078 68.0
156.775864 252.0
157.067581 132.0
159.04483 132.0
159.107056 124.0
159.149734 56.0
159.451187 116.0
159.546707 72.0
160.049896 136.0
160.077606 492.0
160.281631 176.0
160.629532 188.0
160.990463 160.0
161.0578 368.0
161.081375 136.0
161.126419 160.0
162.260666 88.0
162.483841 120.0
162.618332 252.0
162.646255 140.0
163.029129 128.0
163.06279 128.0
163.123795 104.0
163.202606 168.0
164.040207 156.0
164.37941 176.0
165.498978 180.0
166.601807 132.0
168.976212 140.0
171.422134 168.0
172.241348 84.0
173.528885 156.0
174.550262 80.0
174.597595 176.0
175.039703 128.0
175.071304 192.0
175.411179 88.0
175.545639 80.0
175.936127 192.0
175.96254 196.0
176.046417 2348.0
176.21344 76.0
176.779282 220.0
177.054413 1968.0
177.356644 64.0
177.72525 120.0
177.926971 108.0
178.011932 108.0
178.056366 196.0
178.085251 5744.0
178.127899 156.0
178.50087 52.0
178.649811 48.0
179.054398 160.0
179.088577 436.0
179.582108 44.0
179.798203 136.0
179.822235 92.0
180.089157 168.0
180.300293 144.0
180.455322 88.0
180.570312 160.0
181.679245 136.0
184.698975 44.0
185.053482 144.0
185.224091 76.0
186.355347 116.0
186.969894 172.0
187.034149 564.0
187.078766 184.0
187.149551 96.0
187.432831 44.0
188.049149 140.0
189.052094 316.0
189.128769 176.0
189.435455 88.0
190.056396 128.0
190.656418 84.0
190.818588 120.0
191.033493 196.0
191.066116 156.0
191.448715 136.0
191.944733 76.0
192.041962 156.0
192.101929 60.0
192.654037 132.0
193.045181 424.0
193.32869 64.0
193.46431 76.0
193.638748 216.0
194.082138 156.0
195.142776 148.0
195.707581 108.0
197.060303 152.0
197.555145 48.0
197.72023 68.0
198.255127 104.0
198.356018 120.0
199.065842 104.0
199.13324 176.0
200.044266 128.0
200.075226 168.0
201.058228 200.0
201.081528 92.0
201.431641 156.0
202.059219 136.0
202.226181 84.0
202.764297 36.0
203.030792 136.0
203.059143 236.0
203.612579 148.0
203.729034 80.0
203.797211 108.0
204.04187 884.0
204.104187 140.0
204.180969 144.0
204.263458 180.0
204.334564 60.0
204.505798 116.0
204.607788 136.0
205.048462 10396.0
205.106308 40.0
205.251694 60.0
205.372284 56.0
205.427002 112.0
205.588303 76.0
205.642532 96.0
205.850937 28.0
206.01088 112.0
206.052399 1880.0
206.322922 164.0
206.385269 60.0
206.413864 52.0
206.476776 44.0
206.774307 72.0
206.883087 40.0
207.052933 260.0
207.490417 128.0
207.596512 116.0
207.676819 56.0
207.840332 56.0
207.949387 36.0
208.227875 40.0
208.443329 76.0
208.615784 84.0
209.418579 88.0
209.605835 32.0
209.726883 68.0
210.263336 80.0
211.22258 124.0
211.404861 80.0
211.926071 36.0
214.363953 104.0
214.541748 72.0
216.110077 128.0
216.265182 116.0
216.461334 216.0
217.045883 1764.0
217.431656 32.0
218.052429 376.0
218.580673 72.0
218.925095 192.0
219.061951 576.0
219.104767 56.0
220.066498 176.0
220.110519 152.0
223.107483 132.0
223.159454 160.0
223.71579 64.0
223.825958 56.0
224.597824 124.0
226.385056 140.0
227.36235 152.0
227.494415 176.0
228.179382 56.0
228.275589 92.0
228.41394 48.0
229.142456 40.0
230.032089 136.0
230.113602 184.0
230.751083 52.0
231.05957 148.0
231.816528 160.0
232.06041 200.0
233.057587 128.0
233.778259 256.0
234.07048 144.0
235.592407 160.0
238.05188 144.0
238.085663 136.0
239.571274 48.0
243.111526 108.0
245.043549 2680.0
245.076797 436.0
245.15625 92.0
245.372833 172.0
245.47261 60.0
246.046997 264.0
246.069885 152.0
246.112289 192.0
246.615234 48.0
247.050766 128.0
247.078033 136.0
248.058228 168.0
248.193039 56.0
248.563156 64.0
249.835617 104.0
250.040146 176.0
251.253281 48.0
251.392105 148.0
252.184814 128.0
253.685181 68.0
254.221191 128.0
254.481476 44.0
254.624374 136.0
256.151093 156.0
256.342255 120.0
256.756683 116.0
257.047363 160.0
259.058014 104.0
259.09906 132.0
259.253448 36.0
260.100159 188.0
261.111694 5684.0
261.199097 48.0
261.376038 44.0
261.401794 56.0
261.427521 128.0
261.485443 100.0
261.569153 152.0
261.726898 72.0
262.000641 68.0
262.063812 304.0
262.110992 1148.0
262.177856 160.0
262.571167 44.0
262.684082 52.0
262.726013 80.0
263.068085 60.0
263.11557 372.0
263.287628 64.0
263.781982 28.0
264.092377 100.0
264.9664 48.0
265.079803 128.0
265.459076 136.0
265.520691 84.0
265.611511 136.0
265.856201 48.0
266.101532 132.0
267.092682 212.0
267.733856 176.0
267.831573 136.0
272.128662 184.0
272.864594 92.0
272.89621 124.0
273.074493 220.0
273.113708 592.0
274.067963 932.0
274.114136 152.0
274.830872 72.0
275.075073 84.0
275.372253 148.0
279.104889 136.0
282.207916 108.0
282.810089 168.0
283.607239 136.0
284.100159 148.0
290.276184 176.0
290.621765 176.0
291.100372 160.0
292.191437 124.0
295.305847 124.0
298.12738 160.0
301.105042 468.0
302.116669 160.0
303.120728 108.0
304.147278 56.0
305.071289 108.0
307.101501 172.0
307.265289 40.0
314.423584 80.0
316.112793 40.0
316.877625 48.0
318.140137 164.0
321.839264 244.0
324.103394 212.0
325.107452 148.0
325.279724 132.0
330.132172 164.0
331.132812 416.0
335.087524 164.0
336.761871 208.0
337.054138 220.0
337.101654 144.0
338.480682 136.0
350.102142 140.0
351.093445 124.0
351.287384 60.0
351.667999 72.0
352.257965 80.0
353.211151 132.0
360.482361 84.0
363.133881 164.0
363.553528 212.0
365.137726 120.0
369.842072 188.0
370.131073 728.0
371.110077 128.0
371.140625 120.0
371.271149 160.0
371.581848 180.0
375.964539 184.0
377.219788 164.0
377.989441 100.0
378.144226 64.0
379.112427 64.0
381.17688 184.0
381.47226 152.0
381.678314 44.0
381.810516 140.0
382.005005 72.0
382.126678 4228.0
382.204193 188.0
382.246216 104.0
382.401886 108.0
382.865173 48.0
383.12616 1856.0
383.246918 68.0
383.375519 68.0
384.131073 116.0
385.110535 116.0
385.310852 80.0
385.420227 84.0
385.482758 76.0
387.936768 104.0
389.329651 52.0
391.449249 64.0
394.269836 136.0
396.190247 116.0
397.171936 200.0
397.794922 136.0
397.941833 160.0
400.391296 136.0
400.929108 100.0
406.660248 68.0
408.317719 44.0
423.765717 40.0
426.013916 128.0
430.457947 192.0
435.776367 112.0
436.466339 148.0
437.098602 100.0
437.191284 204.0
437.503632 100.0
437.702148 240.0
437.789612 128.0
438.09967 208.0
438.188385 7996.0
438.281128 40.0
438.401978 40.0
438.543671 44.0
438.710419 88.0
438.739594 96.0
438.793793 108.0
439.191528 2520.0
439.356812 76.0
439.383911 56.0
439.46109 124.0
439.500183 76.0
439.532043 68.0
439.56543 60.0
439.744873 76.0
439.895142 96.0
440.197693 720.0
440.517334 48.0
440.563293 92.0
440.617584 52.0
440.967712 56.0
441.190125 40.0
441.244476 92.0
441.315552 52.0
441.365723 136.0
441.428467 132.0
441.93457 68.0
442.009888 68.0
443.463074 64.0
445.972992 56.0
458.010986 52.0
477.379059 84.0
484.813446 40.0
491.197418 88.0
492.724854 80.0
493.595551 108.0
525.494324 108.0
560.439514 80.0
570.591736 48.0
606.780884 100.0
610.301208 64.0
610.47821 68.0
623.176819 48.0
623.718506 180.0
625.14093 132.0
633.293579 44.0
663.302002 64.0
705.847046 96.0
706.275391 204.0
711.611816 32.0
731.424133 60.0
738.957703 188.0
741.356445 252.0
745.730652 72.0
759.14447 200.0
775.319092 92.0
781.249084 52.0
789.906738 172.0
852.624756 140.0
860.400879 140.0
860.926392 152.0
862.720154 188.0
864.57428 84.0
884.722351 172.0
889.250977 172.0
917.43103 172.0
922.97345 152.0
923.027832 124.0
923.904846 148.0
932.411987 128.0
947.097717 132.0
949.132385 192.0
951.844482 40.0
962.435364 176.0
963.262878 136.0
964.096985 144.0
966.997498 72.0
967.313171 152.0
973.662231 196.0
985.279114 132.0
995.136963 108.0
996.98999 152.0
1002.074219 56.0
1006.236755 160.0
1006.716675 96.0
1013.991943 136.0
1021.325195 144.0
1025.380981 200.0
1033.778809 168.0
1039.218994 104.0
1039.8927 192.0
1040.701538 40.0
1043.072144 160.0
1043.23291 88.0
1043.35498 120.0
1043.464355 132.0
1043.96582 136.0
1044.139526 148.0
1046.372314 160.0
1048.259521 164.0
1050.729004 168.0
1057.158081 120.0
1057.501099 48.0
1062.59436 176.0
1065.775757 88.0
1065.821289 124.0
1068.142212 92.0
1068.753784 120.0
1069.098633 144.0
1071.651123 32.0
1072.72644 184.0
1073.149414 152.0
1075.883789 208.0
1076.451904 144.0
1082.657715 48.0
1083.581299 136.0
1084.597046 48.0
1085.816528 124.0
1088.395508 156.0
1091.483765 64.0
1091.648193 176.0
1092.470337 168.0
1093.227051 168.0
1096.467041 156.0
1097.521851 196.0
1097.81189 196.0
1098.880493 176.0
1100.682373 204.0
1104.118652 92.0
1104.211304 92.0
1104.383301 172.0
1106.549194 212.0
1107.52063 152.0
1108.44812 176.0
1108.779419 160.0
1111.39209 200.0
1111.83667 168.0
1112.015869 192.0
1112.533691 132.0
1113.044922 212.0
1116.480469 124.0
1117.391724 120.0
1118.163574 120.0
1122.373779 180.0
1122.740479 188.0
1124.508423 200.0
1125.122559 256.0
1126.251099 96.0
1126.585083 152.0
1127.366821 132.0
1127.988403 152.0
1128.148804 152.0
1130.40271 128.0
1131.446899 128.0
1133.523193 140.0
1134.950928 164.0
1135.681885 108.0
1135.930054 232.0
1136.802368 152.0
1138.708862 144.0
1139.508301 148.0
1139.622437 52.0
1142.506714 92.0
1143.307373 104.0
1146.290649 164.0
1148.778442 240.0
1150.101074 216.0
1150.641113 68.0
1150.931396 184.0
1152.059326 164.0
1155.66272 196.0
1155.723633 168.0
1157.855957 112.0
1158.960083 128.0
1162.47937 184.0
1163.137695 208.0
1163.314209 140.0
1163.38208 156.0
1164.047485 220.0
1164.679077 184.0
1167.533569 164.0
1168.016479 232.0
1168.778442 36.0
1169.969482 152.0
1170.51416 164.0
1173.028076 204.0
1173.21875 236.0
1173.859863 196.0
1174.842041 208.0
1177.17627 120.0
1181.18811 120.0
1181.249756 196.0
1181.865479 184.0
1183.138428 204.0
1185.247925 188.0
1185.419189 176.0
1186.070312 96.0
1186.563843 168.0
1186.810669 132.0
1188.189331 212.0
1189.27356 168.0
1189.980591 168.0
1191.752563 120.0
1193.195923 56.0
1194.275513 176.0
1195.025391 164.0
1195.279907 92.0
1195.424438 40.0
1197.269409 220.0
1197.420898 192.0
1197.661987 220.0
1198.591919 200.0
1198.702271 112.0
1199.894653 64.0
1202.288086 132.0
1202.439941 120.0
1203.468506 56.0
1203.572021 156.0
1204.552734 156.0
1205.596069 96.0
1207.614746 224.0
1207.86377 160.0
1208.147461 192.0
1208.548706 436.0
1208.956909 160.0
1210.140625 100.0
1211.858276 160.0
1213.396851 176.0
1213.563232 164.0
1213.910034 124.0
1215.290283 160.0
1216.039795 96.0
1217.157471 148.0
1217.435181 116.0
1217.699097 152.0
1218.504883 168.0
1218.567383 152.0
1218.824463 156.0
1219.220581 56.0
1223.560913 164.0
1226.849243 124.0
1226.974731 164.0
1227.400024 208.0
1228.711182 156.0
1229.64624 144.0
1230.002197 184.0
1231.803833 60.0
1231.992432 160.0
1232.04126 176.0
1232.935669 152.0
1233.26416 208.0
1233.802368 228.0
1234.347778 164.0
1236.23645 116.0
1237.090332 172.0
1237.209351 180.0
1237.307373 136.0
1238.69397 144.0
1239.296387 76.0
1241.364258 156.0
1242.774048 128.0
1243.047729 244.0
1243.553101 220.0
1243.939087 184.0
1244.086548 196.0
1245.413696 92.0
1245.842163 168.0
1247.381104 140.0
1247.542725 124.0
1248.077148 144.0
1249.026489 164.0
1249.146118 148.0
1250.475952 196.0
1250.778564 32.0
1250.891235 168.0
1252.94751 104.0
1253.412476 112.0
1254.159546 148.0
1255.195923 176.0
1255.668335 188.0
1256.267944 160.0
1257.869751 212.0
1258.265137 116.0
1258.589844 164.0
1260.341553 184.0
1262.334961 140.0
1262.900635 172.0
1263.473633 152.0
1263.968872 172.0
1264.039673 172.0
1268.210938 136.0
1268.409424 188.0
1269.033325 228.0
1269.650146 152.0
1269.721069 48.0
1271.331543 412.0
1272.584229 184.0
1274.761475 204.0
1275.344238 160.0
1275.860352 104.0
1276.581299 136.0
1277.470337 164.0
1277.555664 176.0
1277.705078 136.0
1278.032349 176.0
1278.366821 196.0
1278.943237 244.0
1281.029541 204.0
1281.813354 168.0
1283.54541 116.0
1285.799683 88.0
1286.413452 188.0
1286.620483 204.0
1286.977539 40.0
1287.455933 192.0
1287.877319 196.0
1291.744385 180.0
1291.863281 124.0
1292.245117 160.0
1292.99646 132.0
1293.948486 160.0
1294.292114 152.0
1294.442505 108.0
1295.187378 60.0
1296.247681 224.0
1296.971436 148.0
1297.695557 76.0
1298.19751 36.0
1299.20874 196.0
1300.285034 172.0
1301.017212 76.0
1302.352905 96.0
1303.151367 196.0
1303.286743 148.0
1303.782593 104.0
1304.098755 140.0
1304.839233 156.0
1305.249023 132.0
1305.364136 180.0
1306.263062 108.0
1307.644531 180.0
1308.897217 140.0
1309.682129 160.0
1310.726807 44.0
1311.865479 160.0
1312.745117 172.0
1312.95813 104.0
1314.101196 164.0
1315.219727 276.0
1315.522949 96.0
1317.602783 164.0
1318.144653 136.0
1322.918091 252.0
1323.786987 204.0
1324.829956 120.0
1324.924072 204.0
1325.141479 132.0
1325.851562 228.0
1326.366089 216.0
1326.721313 164.0
1328.411011 168.0
1328.585083 60.0
1330.326782 100.0
1330.522827 120.0
1332.033203 220.0
1332.643433 32.0
1332.810547 144.0
1332.99231 184.0
1333.137573 160.0
1333.748047 216.0
1334.598633 152.0
1335.536743 52.0
1336.526123 176.0
1337.574097 236.0
1337.727051 160.0
1340.297852 92.0
1340.713257 172.0
1342.666992 168.0
1342.980591 212.0
1343.352661 48.0
1343.702881 204.0
1343.812256 124.0
1344.950684 88.0
1345.074707 152.0
1346.345215 148.0
1346.805298 160.0
1348.354248 252.0
1348.946289 196.0
1350.386719 76.0
1353.775146 116.0
1354.258423 188.0
1354.661377 60.0
1356.170776 192.0
1356.588623 124.0
1357.087158 144.0
1357.402466 120.0
1357.549072 164.0
1357.805786 152.0
1358.223877 120.0
1358.892578 124.0
1359.170166 208.0
1359.566406 160.0
1359.823364 240.0
1360.32959 188.0
1361.504517 152.0
1362.657837 164.0
1363.635132 148.0
1363.871704 192.0
1364.590698 248.0
1364.95105 88.0
1366.37793 160.0
1367.932861 164.0
1368.821533 176.0
1370.331421 136.0
1372.71228 208.0
1372.77124 88.0
1373.162109 176.0
1374.394043 112.0
1374.563721 160.0
1377.398804 168.0
1377.516968 164.0
1378.130127 160.0
1378.255737 220.0
1378.337036 200.0
1378.462646 56.0
1379.061279 164.0
1379.526978 88.0
1379.844849 212.0
1380.347656 144.0
1380.769165 124.0
1380.939209 148.0
1381.331299 156.0
1381.7677 208.0
1381.937866 152.0
1382.803711 188.0
1384.52124 96.0
1384.906372 128.0
1385.395264 156.0
1385.721191 164.0
1386.336304 168.0
1386.4104 184.0
1386.580811 88.0
1387.937378 176.0
1388.026367 144.0
1388.14502 132.0
1388.805054 120.0
1390.036621 196.0
1390.763916 140.0
1391.172119 248.0
1391.230713 228.0
1391.617554 128.0
1391.780884 124.0
1392.76123 168.0
1393.615479 208.0
1394.306641 252.0
1396.098267 156.0
1396.202393 172.0
1397.161865 152.0
1397.883545 192.0
1398.456665 128.0
1399.163818 180.0
1400.02002 172.0
1400.594238 184.0
1401.562012 100.0
1402.009155 176.0
1402.858887 156.0
1403.022827 200.0
1404.021973 116.0
1404.171143 60.0
1405.170654 116.0
1405.469116 116.0
1405.931763 120.0
1408.178955 196.0
1408.985718 232.0
1409.478882 204.0
1410.061768 176.0
1411.093262 128.0
1411.556885 152.0
1411.743774 124.0
1411.841064 204.0
1413.853394 160.0
1413.995605 260.0
1414.512085 168.0
1415.275635 164.0
1415.413086 168.0
1416.16687 108.0
1416.79895 276.0
1417.058228 148.0
1418.302246 176.0
1419.141846 112.0
1419.741699 156.0
1419.936768 196.0
1420.604248 164.0
1421.80481 180.0
1422.908203 152.0
1422.957153 120.0
1423.065918 132.0
1423.193481 116.0
1425.161377 140.0
1425.484497 152.0
1425.672363 204.0
1425.77002 116.0
1426.499146 48.0
1426.972778 160.0
1427.081421 176.0
1427.401367 140.0
1427.664551 132.0
1429.010986 180.0
1429.199097 184.0
1430.117188 192.0
1430.312866 132.0
1430.967773 80.0
1431.525024 160.0
1431.96936 156.0
1432.594482 100.0
1432.797852 148.0
1434.282471 200.0
1435.345459 176.0
1435.526367 184.0
1435.677246 104.0
1437.45752 140.0
1437.895264 196.0
1438.144287 128.0
1438.197144 188.0
1439.540894 140.0
1439.933594 200.0
1440.371704 212.0
1440.50769 168.0
1440.892944 188.0
1441.202759 284.0
1441.423584 236.0
1442.011353 180.0
1442.744507 140.0
1443.387207 220.0
1443.992188 80.0
1444.445923 196.0
1445.043579 204.0
1445.595947 168.0
1446.186279 212.0
1446.333984 216.0
1450.177856 204.0
1452.323486 160.0
1453.142822 184.0
1453.681519 144.0
1453.742188 200.0
1454.167236 176.0
1454.850342 152.0
1455.624756 176.0
1457.546631 240.0
1457.652954 116.0
1457.804932 172.0
1458.770264 188.0
1459.460327 212.0
1460.694092 220.0
1460.945068 44.0
1461.9646 192.0
1462.147339 76.0
1462.855103 184.0
1464.164795 48.0
1464.926392 184.0
1465.901611 160.0
1466.991577 188.0
1467.502319 132.0
1470.721558 120.0
1470.820801 216.0
1471.72168 156.0
1472.98938 196.0
1473.310303 156.0
1473.386597 132.0
1474.104858 184.0
1475.08313 168.0
1475.740601 156.0
1476.665527 172.0
1477.055908 188.0
1477.989258 160.0
1478.394897 188.0
1478.961182 220.0
1479.336304 172.0
1480.921265 244.0
1481.112793 180.0
1481.197021 208.0
1481.442139 156.0
1481.779297 192.0
1481.871216 68.0
1482.88269 236.0
1483.005371 220.0
1483.327271 132.0
1484.515625 220.0
1484.922119 80.0
1485.397705 212.0
1486.126465 144.0
1488.083618 192.0
1489.96521 100.0
1490.94104 132.0
1491.479126 92.0
1491.924927 112.0
1492.186279 156.0
1492.255493 148.0
1492.509277 112.0
1492.678467 136.0
1493.216675 180.0
1493.724365 196.0
1494.155151 56.0
1494.362915 176.0
1494.647583 200.0
1495.170898 208.0
1495.915283 140.0
1496.679688 120.0
1496.787476 116.0
1496.841309 136.0
1498.058228 140.0
1498.497314 244.0
1498.721558 196.0
1498.913452 144.0
1499.291016 192.0
1499.414307 176.0
1500.80957 128.0
1501.40332 168.0
1502.097534 116.0
1502.43689 180.0
1503.563477 64.0
1503.710083 120.0
1504.026611 176.0
