>compound MLS002153159-01!CP-5594083002-04-4
>formula C24H40O3
>ionization [M+H]+
>parentmass 377.3050215920905
#inchi InChI=1S/C24H40O3/c1-4-5-6-7-14-24(2,3)19-11-13-21(23(27)16-19)22-17-20(26)12-10-18(22)9-8-15-25/h11,13,16,18,20,22,25-27H,4-10,12,14-15,17H2,1-3H3/t18-,20-,22-/m1/s1
#inchikey YNZFFALZMRAPHQ
#Ion_Source LC-ESI
#Instrument qTof
#Compound_Source NIH Pharmacologically Active Library
#PI Dorrestein
#Data_Collector VP/LMS
#Scan -1
#Precursor_MZ 377.301
#ExactMass 376.298
#Charge 1
#CAS_Number N/A
#Pubmed_ID N/A
#Smiles CCCCCCC(C)(C)c1ccc([C@@H]2C[C@H](O)CC[C@H]2CCCO)c(O)c1
#INCHI_AUX N/A
#Library_Class 1
#SpectrumID CCMSLIB00000085965
#IonMode Positive
#UpdateWorkflowName UPDATE-SINGLE-ANNOTATED-GOLD
#LibraryQualityString Gold
#TaskID d252d724072548979f1f6f1ced849daf
##Scan# 2423
#SpectrumFile p4-H08_GH8_01_18416.mzXML
#LibraryName Pharm_Active_Library.mgf
#MQScore -1
#Organism Pharm_Active_Library
#TIC_Query 0
#RT_Query -1
#MZErrorPPM -1
#SharedPeaks 0
#MassDiff 0
#LibMZ -1
#SpecMZ 377.301
#SpecCharge 0
#internalFilename spec-00000.mgf

>collision 10
45.78101 232.0
45.8969 136.0
46.318569 236.0
46.374123 168.0
46.549137 156.0
46.68911 224.0
47.031094 136.0
47.074783 248.0
47.418175 200.0
48.157032 196.0
48.812561 112.0
49.060402 104.0
49.458527 52.0
49.552353 120.0
50.228565 120.0
50.547867 88.0
50.69656 204.0
51.131142 164.0
51.401913 172.0
51.483284 104.0
52.013042 232.0
52.129379 112.0
52.694225 188.0
53.225807 108.0
53.796543 124.0
54.058174 80.0
54.322517 224.0
54.718708 136.0
54.957481 172.0
55.304775 128.0
55.541855 152.0
56.005623 132.0
56.244198 144.0
56.814354 308.0
57.592621 128.0
58.506588 188.0
58.868408 132.0
59.467026 192.0
59.580658 92.0
59.649815 248.0
59.926834 192.0
60.161263 248.0
60.232296 132.0
61.675873 196.0
62.065701 140.0
62.222603 68.0
62.623604 184.0
63.373993 156.0
63.683342 148.0
63.995037 120.0
64.29792 180.0
64.321861 120.0
65.228531 176.0
66.254898 156.0
67.886826 200.0
68.680923 188.0
68.722168 144.0
69.027756 128.0
69.079025 204.0
69.604416 36.0
69.976875 148.0
70.050156 84.0
70.170143 184.0
70.350327 124.0
70.67289 204.0
70.764954 176.0
71.127068 124.0
71.468231 172.0
71.495155 192.0
71.997551 216.0
72.07019 184.0
73.051842 164.0
73.546013 164.0
73.776619 152.0
73.798851 204.0
73.987053 224.0
74.350441 204.0
75.480545 136.0
75.778259 100.0
77.062325 208.0
77.217903 188.0
77.452446 48.0
77.871658 184.0
78.063225 152.0
78.165253 36.0
79.185661 160.0
79.568687 152.0
80.166351 120.0
80.794868 48.0
81.783638 192.0
82.050247 164.0
82.272156 180.0
83.275345 156.0
83.320755 232.0
83.455254 116.0
83.489807 180.0
83.679047 152.0
83.70636 20.0
83.850281 200.0
83.903145 52.0
83.94873 168.0
84.025337 184.0
84.164055 132.0
84.226967 212.0
84.324821 164.0
84.4711 172.0
84.580894 128.0
85.34449 200.0
85.633011 180.0
86.277016 160.0
86.598999 280.0
87.17041 116.0
87.298683 108.0
87.492195 132.0
87.898521 212.0
87.917183 140.0
88.317009 196.0
88.477943 76.0
88.500412 192.0
88.796501 80.0
89.234039 72.0
89.993347 152.0
90.511444 104.0
90.695213 84.0
91.05246 320.0
91.070908 192.0
91.129799 176.0
91.184906 64.0
91.361748 64.0
91.580666 160.0
91.90284 128.0
92.05555 68.0
92.867027 100.0
93.014771 172.0
93.070358 880.0
93.268333 184.0
93.297165 112.0
93.458725 40.0
94.076187 228.0
94.531616 252.0
95.033485 204.0
95.084579 304.0
95.893028 88.0
96.056824 104.0
96.089989 128.0
96.138771 208.0
96.164139 124.0
96.355515 88.0
96.377007 132.0
96.650749 156.0
96.899414 60.0
97.065178 364.0
97.42717 108.0
97.631599 48.0
97.777184 168.0
98.076561 172.0
98.789421 204.0
99.814835 144.0
99.878479 56.0
99.916275 172.0
100.663734 148.0
100.953499 236.0
101.14357 248.0
101.285744 56.0
101.430016 192.0
101.819267 152.0
101.911674 64.0
102.044327 192.0
102.16098 180.0
103.055618 400.0
103.110703 112.0
103.837547 144.0
104.06076 352.0
104.113564 44.0
104.907104 60.0
105.069565 212.0
106.076424 176.0
106.978249 124.0
107.050346 2068.0
107.085327 208.0
107.126526 36.0
107.151245 52.0
107.206879 88.0
107.272835 80.0
107.429565 200.0
107.518288 148.0
107.536865 72.0
107.838417 196.0
108.057709 432.0
108.076241 176.0
108.148674 176.0
108.291542 44.0
108.779221 148.0
108.947037 28.0
109.100533 144.0
109.49826 156.0
109.977814 68.0
110.011215 116.0
110.362213 196.0
110.650948 100.0
111.26104 76.0
112.264725 160.0
112.543266 160.0
112.667877 104.0
112.934227 204.0
112.972305 104.0
113.907173 132.0
114.002785 200.0
114.07505 156.0
114.506996 112.0
115.055016 184.0
115.959862 108.0
116.060616 188.0
116.530678 108.0
116.605888 132.0
117.070847 420.0
117.107208 180.0
117.346405 184.0
117.618233 124.0
117.67868 184.0
118.154167 252.0
119.051544 172.0
119.082947 400.0
119.175362 140.0
119.370995 184.0
119.730072 204.0
119.971939 204.0
120.054306 160.0
120.085327 160.0
120.935272 140.0
121.031952 148.0
121.065475 3764.0
121.101341 5364.0
121.163017 124.0
121.207695 80.0
121.301079 152.0
121.454575 48.0
121.544525 140.0
121.56208 60.0
121.733307 120.0
121.747948 72.0
121.882683 32.0
121.913445 188.0
122.029945 104.0
122.068008 516.0
122.103081 380.0
122.124512 160.0
122.445854 48.0
122.556 56.0
122.611092 88.0
122.891144 160.0
123.073715 292.0
123.112206 196.0
123.680099 148.0
123.854958 128.0
124.194168 276.0
124.695961 112.0
126.053177 192.0
126.657249 128.0
127.143791 120.0
127.202248 180.0
127.388535 216.0
127.685234 84.0
128.128677 180.0
128.324982 172.0
128.719635 180.0
128.870972 152.0
128.95459 168.0
129.069885 264.0
130.075821 120.0
131.049667 756.0
131.078812 276.0
131.174545 180.0
131.637711 148.0
132.099396 152.0
132.781982 100.0
133.041061 224.0
133.064804 3460.0
133.098663 264.0
133.146896 152.0
133.38356 240.0
134.069107 620.0
134.129364 116.0
134.302307 68.0
134.419968 176.0
134.750153 168.0
135.081299 516.0
135.117767 48.0
136.091217 192.0
136.472275 180.0
137.758774 96.0
137.84523 76.0
138.390244 204.0
138.802643 168.0
139.111343 960.0
139.142868 148.0
139.288467 44.0
139.845734 220.0
139.873978 48.0
140.005829 156.0
140.125961 48.0
141.072342 120.0
141.088898 136.0
142.606003 44.0
143.083191 160.0
143.780182 144.0
144.060989 120.0
144.202927 144.0
144.439636 72.0
145.064529 768.0
145.098953 420.0
145.215714 240.0
145.866425 60.0
145.921722 136.0
146.063614 164.0
146.335556 124.0
147.081131 2164.0
147.155319 152.0
147.261566 100.0
147.5177 152.0
147.597488 204.0
147.800674 188.0
148.046188 284.0
148.087784 3256.0
148.115417 168.0
148.146896 84.0
148.272903 96.0
148.304932 92.0
148.554169 44.0
148.637772 96.0
148.748306 60.0
148.952286 120.0
149.030029 112.0
149.061615 188.0
149.095474 2076.0
149.146683 208.0
149.178284 88.0
149.657562 132.0
149.888977 80.0
150.095016 180.0
150.176651 40.0
151.528503 160.0
152.709259 140.0
153.359283 64.0
155.064728 56.0
155.084549 144.0
155.210983 180.0
156.582764 132.0
157.103729 196.0
158.069931 136.0
158.108215 216.0
158.596603 132.0
158.900055 48.0
159.082413 772.0
160.086472 196.0
161.092361 188.0
161.3759 136.0
161.44165 72.0
162.108902 168.0
162.914307 144.0
163.074387 164.0
163.116074 276.0
163.137939 132.0
163.369354 104.0
164.082443 148.0
164.143646 140.0
165.129425 60.0
167.08667 48.0
167.619659 180.0
168.465927 136.0
170.271347 84.0
171.077744 160.0
171.872345 128.0
172.075943 144.0
172.094208 72.0
172.120331 136.0
172.716202 244.0
173.011902 120.0
173.097092 1136.0
173.134979 180.0
173.182114 60.0
173.396957 72.0
173.937286 172.0
174.098801 680.0
174.168365 76.0
174.47319 76.0
175.114853 224.0
175.792816 64.0
176.112274 180.0
176.194168 168.0
176.307785 192.0
176.519272 160.0
177.260483 128.0
178.298111 152.0
179.021729 52.0
179.922974 176.0
185.096252 152.0
185.800964 164.0
186.087402 232.0
186.098297 124.0
186.106552 300.0
186.610336 152.0
186.797989 88.0
187.110901 444.0
187.822205 84.0
189.129456 144.0
190.106781 136.0
191.144073 320.0
191.178543 116.0
194.373093 160.0
196.376144 68.0
196.948349 56.0
197.187698 136.0
197.356369 144.0
197.692047 264.0
198.285767 160.0
199.112 136.0
199.270721 88.0
203.147034 184.0
204.192322 120.0
204.943863 152.0
205.160477 228.0
208.707886 176.0
209.196991 184.0
209.375504 176.0
213.118805 124.0
214.132706 548.0
215.14386 2308.0
215.213074 196.0
215.397064 180.0
216.148117 184.0
216.218674 48.0
217.517136 100.0
218.157532 208.0
219.167175 176.0
225.586807 80.0
228.721542 164.0
230.14151 176.0
231.123871 176.0
231.511337 92.0
231.729446 184.0
231.890045 96.0
232.785019 104.0
232.860947 152.0
233.058411 40.0
233.097916 140.0
233.19046 8264.0
233.250961 100.0
233.303131 60.0
233.699982 80.0
233.928238 48.0
234.031738 44.0
234.071335 56.0
234.1306 212.0
234.191574 2196.0
234.351562 56.0
234.389954 80.0
234.638062 56.0
234.808823 84.0
234.839325 104.0
235.05899 148.0
235.101715 60.0
235.156647 268.0
235.198029 388.0
235.559708 84.0
235.590256 52.0
235.905014 112.0
235.963104 68.0
236.40358 72.0
237.028275 84.0
243.32373 76.0
247.163757 152.0
247.210648 716.0
249.183014 176.0
253.173325 144.0
255.181961 192.0
256.178101 132.0
257.188934 164.0
258.188293 204.0
259.20578 116.0
260.201324 88.0
261.226501 60.0
261.258698 48.0
264.576324 84.0
271.205566 156.0
272.216064 168.0
272.600403 196.0
273.222809 888.0
274.216309 344.0
284.216644 48.0
285.218842 108.0
286.23349 160.0
294.365356 56.0
297.951569 104.0
298.157745 88.0
299.233551 140.0
299.358368 192.0
300.237152 116.0
300.954926 104.0
311.170898 124.0
341.285828 140.0
342.28186 140.0
344.454193 92.0
359.309326 140.0
361.209534 128.0
362.068726 104.0
362.117981 156.0
368.344666 92.0
378.254395 156.0
398.281799 284.0
417.978973 88.0
434.065704 60.0
437.401917 100.0
515.678406 92.0
640.935608 60.0
683.919556 192.0
825.450378 44.0
836.65625 100.0
840.137146 180.0
840.454468 168.0
843.359314 144.0
855.017395 68.0
893.324768 212.0
901.792114 96.0
906.490173 124.0
911.987671 244.0
950.168335 184.0
953.773132 96.0
954.055908 224.0
962.002991 52.0
963.108276 108.0
992.138855 292.0
1008.505859 176.0
1012.745239 168.0
1016.466736 216.0
1044.084106 124.0
1059.977905 180.0
1060.904785 132.0
1063.940918 152.0
1073.121094 160.0
1078.866455 140.0
1080.030396 128.0
1091.612793 204.0
1096.919556 232.0
1098.119629 120.0
1110.978882 140.0
1115.587769 208.0
1115.886963 128.0
1116.55188 108.0
1121.872192 84.0
1128.668945 144.0
1138.056519 196.0
1141.725586 168.0
1144.006592 204.0
1145.420776 68.0
1151.707397 172.0
1155.689331 72.0
1161.793823 188.0
1163.585571 40.0
1172.019531 132.0
1174.467041 64.0
1177.190186 80.0
1177.688721 176.0
1183.666138 184.0
1188.793701 164.0
1191.66394 224.0
1194.262573 160.0
1194.943604 132.0
1205.258667 184.0
1209.470459 172.0
1210.564331 196.0
1212.296265 96.0
1214.924072 172.0
1216.04126 132.0
1223.165894 120.0
1224.454102 148.0
1227.304321 176.0
1231.673096 220.0
1231.966553 96.0
1241.457764 160.0
1254.479614 180.0
1268.10083 108.0
1269.603882 164.0
1276.023071 168.0
1281.040527 164.0
1283.456543 192.0
1285.418213 196.0
1286.917236 212.0
1295.743164 176.0
1300.935547 168.0
1300.99292 216.0
1307.650391 136.0
1309.132324 156.0
1313.831909 180.0
1316.235474 200.0
1333.339478 172.0
1334.764282 264.0
1343.358643 148.0
1344.766968 188.0
1345.511475 196.0
1348.221436 164.0
1349.793213 140.0
1359.037354 176.0
1359.910645 176.0
1363.119995 160.0
1364.626831 148.0
1365.619629 288.0
1370.913208 128.0
1371.465942 168.0
1381.693726 192.0
1383.203369 184.0
1385.424927 200.0
1388.857178 100.0
1391.46936 104.0
1392.583252 164.0
1403.224854 60.0
1403.739258 232.0
1406.746094 156.0
1406.902954 156.0
1414.827515 52.0
1416.767212 196.0
1419.690552 204.0
1423.773071 232.0
1431.052246 152.0
1431.300781 160.0
1437.949951 148.0
1446.256592 164.0
1448.17981 152.0
1449.983032 116.0
1450.172485 116.0
1451.074585 184.0
1451.643311 168.0
1451.885986 92.0
1460.491333 224.0
1463.718262 152.0
1464.060913 192.0
1464.152344 80.0
1473.832886 188.0
1477.329224 68.0
1477.984985 160.0
1481.223389 108.0
1487.795532 140.0
1488.425049 252.0
1490.760376 184.0
1490.906372 148.0
1491.774902 112.0
1496.468018 248.0
1497.592285 156.0
1498.35498 220.0
1500.035034 60.0
1503.359253 192.0
1504.463013 136.0
