>compound MLS001032231-01!2-[(5-hydroxy-2,2-dimethyl-4-oxo-3H-chromen-7-yl)oxy]-N-[(4-methylphenyl)methyl]acetamide
>formula C21H23NO5
>ionization [M+H]+
>parentmass 370.16489928809057
#inchi InChI=1S/C21H23NO5/c1-13-4-6-14(7-5-13)11-22-19(25)12-26-15-8-16(23)20-17(24)10-21(2,3)27-18(20)9-15/h4-9,23H,10-12H2,1-3H3,(H,22,25)
#inchikey WSXBUOKXKZMYGZ
#Ion_Source LC-ESI
#Instrument qTof
#Compound_Source NIH Natural Product Library
#PI Dorrestein
#Data_Collector VVP/LMS
#Scan -1
#Precursor_MZ 370.165
#ExactMass 369.158
#Charge 1
#CAS_Number N/A
#Pubmed_ID N/A
#Smiles Cc1ccc(CNC(=O)COc2cc(O)c3C(=O)CC(C)(C)Oc3c2)cc1
#INCHI_AUX N/A
#Library_Class 1
#SpectrumID CCMSLIB00000079581
#IonMode Positive
#UpdateWorkflowName UPDATE-SINGLE-ANNOTATED-GOLD
#LibraryQualityString Gold
#TaskID b1d8e8f6646f4e71acdff9ca3d919d08
##Scan# 2093
#SpectrumFile p1-D08_GD8_01_17916.mzXML
#LibraryName NIH_Natural_Products_Library.mgf
#MQScore -1
#Organism NIH_Natural_Products_Library
#TIC_Query 0
#RT_Query -1
#MZErrorPPM -1
#SharedPeaks 0
#MassDiff 0
#LibMZ -1
#SpecMZ 370.165
#SpecCharge 0
#internalFilename spec-00000.mgf

>collision 10
95.314377 96.0
95.411552 188.0
95.508781 136.0
95.526291 172.0
95.567604 192.0
95.596329 204.0
95.64888 100.0
95.71312 208.0
95.956665 96.0
96.071732 192.0
96.140022 212.0
96.284485 168.0
96.427101 140.0
96.509956 124.0
96.526161 148.0
96.591339 124.0
96.616768 184.0
96.843834 136.0
96.877129 132.0
96.945702 112.0
96.965302 28.0
96.994705 92.0
97.029037 296.0
97.285019 180.0
97.444092 56.0
97.49321 240.0
97.508934 180.0
97.589531 76.0
97.74688 168.0
98.034378 120.0
98.095474 228.0
98.213783 108.0
98.316376 136.0
98.338081 136.0
98.363747 236.0
98.397301 120.0
98.466415 148.0
98.565186 148.0
98.654121 188.0
98.929092 196.0
99.158852 208.0
99.186829 144.0
99.311516 104.0
99.47422 224.0
99.500031 184.0
99.513924 144.0
99.527824 60.0
99.750328 160.0
100.008911 224.0
100.042747 204.0
100.066635 220.0
100.219994 216.0
100.602913 36.0
100.698753 160.0
100.894577 188.0
101.050568 140.0
101.240723 184.0
101.451103 200.0
101.539322 216.0
101.623573 60.0
101.832336 52.0
101.852425 228.0
101.896622 140.0
101.97097 196.0
102.041321 144.0
102.147903 156.0
102.184113 156.0
102.20826 144.0
102.393456 132.0
102.433739 224.0
102.509033 140.0
102.623024 108.0
102.744179 164.0
102.881409 128.0
102.964195 64.0
103.054581 5280.0
103.097527 40.0
103.12986 132.0
103.192123 120.0
103.283524 80.0
103.37204 144.0
103.429207 144.0
103.481842 132.0
103.496017 44.0
103.710754 44.0
103.735077 176.0
103.806038 128.0
103.864845 180.0
103.915565 172.0
103.950058 96.0
103.968323 76.0
104.059792 500.0
104.084023 144.0
104.126671 180.0
104.209953 56.0
104.226212 120.0
104.33799 160.0
104.401024 68.0
104.565811 144.0
104.665558 104.0
104.767387 188.0
104.781601 160.0
104.79351 204.0
104.830551 152.0
104.875648 124.0
104.884697 176.0
104.91272 216.0
104.930038 168.0
105.004036 216.0
105.037064 356.0
105.070778 85504.0
105.108849 172.0
105.147705 268.0
105.163406 148.0
105.200935 124.0
105.234627 108.0
105.26004 208.0
105.291588 96.0
105.327797 44.0
105.379761 120.0
105.406425 176.0
105.442772 84.0
105.459824 128.0
105.4907 80.0
105.506134 40.0
105.540886 144.0
105.561653 52.0
105.606468 120.0
105.64724 100.0
105.685768 48.0
105.712708 56.0
105.729889 68.0
105.74955 80.0
105.767967 68.0
105.801445 136.0
105.913345 108.0
105.927452 72.0
105.972755 104.0
106.01783 76.0
106.073555 7460.0
106.121803 72.0
106.206451 96.0
106.239265 64.0
106.253632 36.0
106.294662 44.0
106.366493 48.0
106.444504 104.0
106.467094 52.0
106.531853 68.0
106.568466 160.0
106.59446 72.0
106.638786 84.0
106.661522 120.0
106.713669 184.0
106.752739 108.0
106.795746 124.0
106.809502 120.0
106.8815 228.0
106.903259 116.0
106.919365 156.0
106.953979 132.0
106.972885 104.0
106.989044 108.0
106.997231 92.0
107.000671 184.0
107.050842 420.0
107.076973 296.0
107.138725 112.0
107.170586 176.0
107.310738 92.0
107.428291 48.0
107.463364 192.0
107.481926 52.0
107.628479 72.0
107.642929 48.0
107.696342 88.0
107.768929 212.0
107.791656 140.0
107.815948 164.0
107.878464 112.0
107.892929 84.0
108.10804 252.0
108.16185 96.0
108.197044 72.0
108.221886 72.0
108.306793 156.0
108.352364 76.0
108.385513 244.0
108.524384 92.0
108.704842 128.0
108.819 36.0
108.837685 136.0
108.991386 168.0
109.031746 76.0
109.063828 308.0
109.153519 52.0
109.176392 40.0
109.251266 184.0
109.380287 56.0
109.484383 220.0
109.571869 200.0
109.802254 76.0
109.949272 248.0
110.19149 92.0
110.270897 156.0
110.392143 52.0
110.415146 108.0
110.463257 228.0
110.846382 36.0
111.011009 496.0
111.041344 144.0
111.223877 48.0
111.494812 80.0
111.509521 104.0
111.545258 116.0
111.63356 76.0
111.81237 120.0
111.97448 160.0
112.06295 136.0
112.341232 56.0
112.364433 84.0
112.474167 48.0
112.550171 96.0
112.586067 176.0
112.837509 140.0
113.055374 56.0
113.095581 100.0
113.417526 116.0
113.474762 108.0
113.565948 180.0
113.587158 96.0
113.867325 128.0
113.935295 72.0
114.075546 160.0
114.105309 184.0
114.39463 148.0
114.442543 152.0
114.494698 64.0
114.669395 200.0
114.820763 88.0
114.842094 192.0
114.901817 56.0
114.94236 136.0
114.980766 132.0
115.053337 136.0
115.104584 64.0
115.183601 76.0
115.318207 196.0
115.358818 92.0
115.567184 84.0
115.585518 224.0
115.606918 244.0
115.728928 444.0
115.767471 180.0
115.873726 168.0
115.906708 68.0
116.011719 216.0
116.048164 284.0
116.071754 212.0
116.088905 120.0
116.110352 40.0
116.198296 164.0
116.640671 176.0
116.668617 108.0
116.856422 156.0
116.954704 152.0
117.074722 504.0
117.409294 52.0
117.44812 124.0
117.577568 72.0
117.60778 128.0
118.061478 100.0
118.204247 164.0
118.269173 44.0
118.342773 132.0
118.3601 28.0
118.461891 152.0
118.509552 140.0
118.74366 148.0
118.986107 208.0
119.08773 188.0
119.169121 188.0
119.219101 88.0
119.262566 220.0
119.42128 128.0
119.559822 200.0
119.911148 176.0
120.015785 188.0
120.257927 72.0
120.308128 68.0
120.356163 112.0
120.434776 188.0
120.629242 220.0
120.775749 40.0
120.810745 144.0
120.830437 96.0
120.93985 200.0
121.065056 2972.0
121.185112 56.0
121.224548 152.0
121.259613 88.0
121.277145 104.0
121.310028 32.0
121.553467 144.0
121.577606 148.0
121.639061 288.0
121.685165 140.0
121.757622 112.0
121.773682 64.0
121.792244 84.0
121.891624 148.0
121.935898 188.0
122.070213 408.0
122.111458 40.0
122.159843 104.0
122.190643 216.0
122.342491 128.0
122.487831 128.0
122.602394 72.0
122.675133 68.0
122.9067 92.0
123.013268 388.0
123.044083 800.0
123.07003 132.0
123.312866 56.0
123.603111 180.0
123.824089 52.0
123.959221 204.0
124.014626 156.0
124.039001 176.0
124.258545 124.0
124.298485 156.0
124.440536 160.0
124.533798 48.0
124.551567 192.0
124.664879 60.0
125.068954 220.0
125.232178 152.0
125.283409 144.0
125.620018 48.0
125.711494 164.0
126.055374 148.0
126.086662 168.0
126.442253 180.0
126.723007 188.0
126.988907 200.0
127.047882 164.0
127.134727 52.0
127.157173 132.0
127.948387 200.0
128.290817 164.0
128.581772 132.0
128.654007 212.0
128.911484 188.0
128.929565 244.0
129.069717 160.0
129.318558 44.0
129.540451 164.0
129.556305 80.0
129.755737 212.0
129.816956 116.0
129.860046 236.0
130.155548 220.0
130.21637 40.0
130.261795 132.0
130.379944 32.0
130.955536 172.0
131.046646 136.0
131.062607 144.0
131.263184 140.0
131.505005 92.0
131.891006 96.0
131.906998 80.0
132.062485 80.0
132.364563 180.0
132.60051 128.0
132.880264 152.0
132.907791 220.0
133.061569 160.0
133.479736 112.0
133.592438 136.0
133.682159 60.0
134.338791 140.0
134.756653 104.0
134.927673 168.0
135.008606 204.0
135.044434 200.0
135.081146 472.0
135.10112 68.0
135.263092 156.0
135.36496 192.0
135.949127 128.0
136.153412 156.0
136.229248 160.0
136.585709 176.0
136.788147 168.0
136.818405 112.0
137.019821 228.0
137.091568 228.0
137.695129 156.0
137.886703 184.0
138.181335 36.0
138.420074 84.0
138.565292 60.0
138.940384 120.0
139.04071 504.0
139.165695 156.0
139.212662 204.0
139.235153 124.0
139.269012 200.0
139.367691 100.0
139.633316 208.0
139.840347 32.0
140.11821 184.0
140.148834 176.0
140.174759 172.0
140.493042 160.0
140.559113 208.0
140.625183 132.0
140.693634 68.0
140.7621 148.0
140.837677 204.0
140.953003 108.0
141.000702 216.0
141.021973 120.0
141.078308 144.0
141.156143 164.0
141.416946 240.0
141.543396 212.0
141.625305 172.0
141.973694 152.0
142.011627 176.0
142.056229 80.0
142.381866 140.0
142.693146 232.0
143.016663 160.0
143.033325 148.0
143.085693 60.0
143.114258 184.0
143.135696 144.0
143.169037 212.0
143.361984 188.0
143.803192 128.0
144.056763 208.0
144.075363 148.0
144.206818 152.0
144.225937 172.0
144.304825 152.0
144.321564 112.0
144.67804 176.0
144.927109 148.0
145.064758 212.0
145.344315 76.0
145.435501 236.0
145.476303 132.0
145.536331 104.0
145.654007 220.0
145.942383 160.0
146.065033 124.0
146.163666 236.0
146.205475 140.0
146.233459 164.0
146.38031 92.0
146.594391 156.0
146.630844 56.0
146.855057 220.0
147.086868 156.0
147.18808 128.0
147.221893 212.0
147.241211 208.0
147.275024 116.0
147.606537 132.0
147.639969 156.0
147.88916 108.0
147.915771 76.0
148.052109 268.0
148.286362 132.0
148.322708 120.0
148.800598 40.0
148.914734 200.0
149.022217 216.0
149.058731 276.0
149.130966 128.0
149.235489 128.0
149.42276 152.0
149.892685 220.0
150.0121 208.0
150.032745 144.0
150.054825 160.0
150.160828 156.0
150.559219 268.0
150.639236 252.0
151.037659 1412.0
151.147751 88.0
151.275009 76.0
151.292145 44.0
151.441513 140.0
151.799316 180.0
152.032364 120.0
152.118256 168.0
152.152634 112.0
152.344177 136.0
152.385941 168.0
152.430161 148.0
152.528473 116.0
152.56781 108.0
152.619431 176.0
152.739838 216.0
152.828491 168.0
152.848175 52.0
152.894943 112.0
152.917084 168.0
152.94455 296.0
152.980896 204.0
153.018372 48252.0
153.087463 44.0
153.120529 88.0
153.149048 112.0
153.168228 104.0
153.190399 48.0
153.212433 84.0
153.242126 308.0
153.257828 96.0
153.330841 64.0
153.36055 132.0
153.394165 104.0
153.411942 64.0
153.432297 120.0
153.467651 96.0
153.496002 28.0
153.52211 68.0
153.661255 44.0
153.686127 48.0
153.740219 40.0
153.767365 132.0
153.812363 120.0
153.885849 88.0
153.922882 28.0
153.956512 104.0
153.974747 100.0
153.993515 140.0
154.021179 3076.0
154.052338 144.0
154.071075 80.0
154.142715 48.0
154.195969 80.0
154.239105 68.0
154.465897 72.0
154.496277 72.0
154.592773 52.0
154.644745 60.0
154.667023 36.0
154.726425 32.0
154.753662 68.0
154.810608 220.0
154.875076 124.0
154.894821 64.0
155.022034 856.0
155.056488 188.0
155.087296 88.0
155.122787 76.0
155.153931 128.0
155.197159 112.0
155.216995 92.0
155.254196 76.0
155.271545 84.0
155.341003 48.0
155.363327 44.0
155.399658 168.0
155.539505 128.0
155.566818 56.0
155.654465 128.0
156.011475 100.0
156.051254 60.0
156.38707 204.0
156.419434 92.0
156.471329 132.0
158.066605 60.0
159.455872 52.0
159.682144 52.0
159.757614 176.0
159.820663 184.0
160.571182 100.0
160.674591 100.0
161.070923 84.0
161.146698 156.0
161.28064 148.0
161.498077 136.0
162.089676 1092.0
162.640793 48.0
162.793121 128.0
163.039871 720.0
163.075729 604.0
163.158997 104.0
163.260696 120.0
163.296295 240.0
163.352249 68.0
163.451477 108.0
163.704437 80.0
163.87413 220.0
163.91745 88.0
164.039108 656.0
164.077408 148.0
164.205521 28.0
164.289688 168.0
164.36879 104.0
164.611282 156.0
164.871841 152.0
164.917847 104.0
164.93573 48.0
165.018341 3604.0
165.04425 188.0
165.073792 164.0
165.183762 36.0
165.293777 148.0
165.516464 248.0
165.539505 108.0
165.577927 124.0
165.85463 104.0
165.98024 80.0
166.01976 680.0
166.059738 64.0
166.087952 164.0
166.111038 68.0
166.136002 60.0
166.616745 148.0
166.812057 212.0
167.031067 348.0
167.068146 160.0
167.421829 196.0
168.004333 200.0
168.082535 168.0
169.563492 124.0
170.214615 108.0
171.082993 180.0
171.364258 232.0
171.684875 144.0
172.076263 96.0
172.381851 208.0
172.886551 128.0
172.972931 212.0
173.063324 368.0
173.761703 48.0
173.843048 168.0
174.139709 228.0
174.657486 136.0
174.823227 44.0
175.039078 144.0
175.081223 124.0
175.218185 176.0
175.600388 264.0
175.990936 88.0
176.0466 744.0
176.173172 28.0
176.561707 96.0
177.006287 140.0
177.05069 344.0
178.04982 176.0
178.082962 88.0
178.441696 96.0
178.691696 128.0
179.032349 388.0
179.067139 168.0
179.200211 180.0
179.658752 148.0
179.813522 120.0
180.023773 168.0
180.072479 320.0
180.131241 268.0
180.348099 176.0
180.770233 72.0
181.091476 148.0
181.442505 128.0
181.691177 128.0
183.02536 284.0
183.558502 116.0
183.717621 172.0
184.033386 152.0
184.087387 60.0
184.50618 172.0
184.871323 212.0
185.494247 148.0
186.417587 96.0
186.713333 92.0
187.238571 168.0
188.654663 68.0
189.48114 136.0
189.612656 176.0
189.755188 116.0
190.029449 180.0
190.05394 176.0
190.232529 208.0
190.400024 228.0
190.43573 184.0
191.069626 9044.0
191.155258 212.0
191.202774 68.0
191.271576 84.0
191.414734 140.0
191.714996 112.0
192.004456 64.0
192.037552 188.0
192.073288 1696.0
192.14238 196.0
192.205826 212.0
192.299652 96.0
192.335541 192.0
192.495667 88.0
192.700058 48.0
192.824402 36.0
192.860336 104.0
192.959854 52.0
193.012344 1512.0
193.05304 148.0
193.075119 256.0
193.183853 64.0
193.302811 80.0
193.446732 100.0
193.518707 64.0
193.853867 236.0
194.014618 192.0
194.050659 128.0
194.083939 112.0
194.214279 200.0
194.386276 80.0
194.544479 160.0
195.027802 176.0
195.728851 108.0
195.890381 104.0
196.495316 120.0
196.863754 60.0
197.680008 216.0
198.868256 148.0
199.047913 200.0
199.09285 124.0
199.134979 216.0
200.677032 220.0
201.848801 88.0
202.063751 152.0
202.788666 136.0
202.8255 56.0
203.07785 92.0
203.466599 216.0
203.940979 132.0
204.077423 136.0
204.566757 220.0
204.8629 164.0
205.012634 212.0
205.050964 116.0
205.136459 192.0
205.356018 20.0
205.789764 84.0
205.932541 216.0
206.281128 160.0
206.404068 272.0
206.987793 200.0
207.537918 296.0
207.925171 124.0
207.985443 132.0
208.134735 156.0
208.350128 272.0
208.45932 148.0
208.516785 184.0
208.57428 164.0
208.620575 188.0
208.658356 144.0
208.821548 136.0
208.846069 136.0
208.905212 176.0
208.937881 220.0
209.000626 268.0
209.034424 212.0
209.080536 47056.0
209.169464 152.0
209.21431 88.0
209.247421 76.0
209.315903 56.0
209.376465 88.0
209.40274 132.0
209.469162 52.0
209.495941 120.0
209.529648 56.0
209.580948 144.0
209.608688 92.0
209.633377 40.0
209.667953 44.0
209.733032 104.0
209.816467 84.0
209.868042 68.0
209.912994 68.0
210.036301 480.0
210.082977 4536.0
210.125671 92.0
210.172775 60.0
210.201447 76.0
210.224533 104.0
210.277054 60.0
210.286774 84.0
210.354401 32.0
210.402328 100.0
210.501648 52.0
210.56517 172.0
210.816895 60.0
210.880753 52.0
211.033295 148.0
211.080948 848.0
211.198135 80.0
211.334961 80.0
211.419785 156.0
211.61615 48.0
211.664062 184.0
211.717529 92.0
211.768311 152.0
211.829132 116.0
211.88707 68.0
211.950821 124.0
212.091843 188.0
212.194275 68.0
212.548126 168.0
212.963257 92.0
213.093979 40.0
213.787949 72.0
214.517044 96.0
214.899078 232.0
216.301819 56.0
219.796158 48.0
219.985031 96.0
220.165131 120.0
220.371902 148.0
220.623108 92.0
220.785736 96.0
220.871506 112.0
221.08107 5136.0
221.194031 64.0
221.343231 60.0
221.439774 92.0
221.510864 68.0
221.795319 56.0
221.836823 72.0
221.934647 68.0
221.96727 36.0
222.039551 2216.0
222.084183 864.0
222.112595 160.0
222.39447 72.0
222.42746 104.0
223.006302 76.0
223.041046 440.0
223.082916 196.0
223.160873 56.0
223.56839 136.0
224.032867 112.0
224.211639 84.0
224.533615 72.0
224.760315 96.0
224.981171 112.0
227.693954 104.0
228.496506 60.0
228.905853 100.0
231.063904 84.0
235.663925 88.0
236.079636 204.0
237.059204 100.0
238.473969 148.0
239.070602 112.0
239.686462 84.0
240.044022 168.0
240.948364 60.0
242.827255 44.0
242.982361 144.0
243.537994 72.0
247.630035 96.0
249.077957 1156.0
249.75174 60.0
250.077194 256.0
250.415833 60.0
251.626694 136.0
255.267273 80.0
257.086182 152.0
258.303467 28.0
260.001556 152.0
265.433929 64.0
266.109833 204.0
267.099976 124.0
267.80954 144.0
268.109253 132.0
268.252686 188.0
268.650513 100.0
269.08313 156.0
269.496063 132.0
272.089966 84.0
274.528076 120.0
278.100006 1384.0
278.197327 96.0
279.102356 440.0
279.832947 32.0
280.10788 140.0
280.896027 72.0
280.936066 136.0
282.449249 28.0
283.048309 128.0
290.700226 52.0
290.856354 100.0
292.116974 124.0
292.293884 124.0
296.11731 72.0
297.71344 48.0
310.848236 96.0
312.105743 56.0
313.13681 128.0
314.097626 1680.0
314.183685 200.0
314.600098 140.0
315.101105 136.0
316.10675 152.0
316.760681 116.0
317.37735 112.0
318.04071 140.0
319.006866 56.0
320.056396 44.0
325.139587 176.0
332.614349 104.0
344.28302 56.0
351.197266 96.0
352.141541 104.0
355.492126 80.0
366.777832 60.0
367.155273 44.0
368.273499 136.0
368.689941 72.0
369.772247 72.0
370.162781 788.0
370.239288 172.0
370.304413 108.0
371.157684 112.0
371.164429 108.0
371.54248 60.0
371.722809 36.0
371.968445 52.0
372.1604 64.0
379.917786 52.0
402.020264 124.0
402.910645 72.0
415.564667 44.0
425.781921 64.0
428.266022 68.0
436.539001 60.0
454.471436 88.0
470.884247 104.0
530.420105 76.0
549.683105 112.0
549.995789 96.0
562.863953 84.0
563.350403 144.0
573.075928 92.0
579.621826 72.0
610.029968 184.0
631.775635 120.0
646.680054 64.0
674.960999 48.0
698.934631 56.0
732.869751 68.0
736.068237 80.0
774.478638 20.0
788.53833 124.0
797.826172 192.0
800.808411 64.0
813.24707 92.0
847.727356 132.0
850.06427 192.0
850.342773 80.0
861.539978 164.0
865.727783 188.0
868.048279 140.0
879.107239 160.0
881.398376 52.0
882.24939 208.0
898.127808 168.0
903.785156 152.0
919.631958 120.0
920.57373 168.0
926.713135 136.0
928.768188 120.0
930.697998 92.0
933.043213 100.0
936.158447 148.0
942.581665 144.0
942.765015 160.0
953.292908 168.0
953.723083 124.0
956.374023 172.0
960.021179 212.0
964.262329 136.0
965.387512 212.0
965.430786 116.0
965.641052 44.0
965.925537 164.0
969.442139 132.0
970.867981 128.0
974.884399 64.0
975.039734 200.0
978.473267 176.0
979.102173 144.0
979.936829 152.0
983.13562 44.0
988.103027 144.0
990.124817 204.0
992.123535 204.0
994.996826 148.0
996.717712 152.0
1000.239502 60.0
1003.288391 156.0
1003.43335 184.0
1006.083008 192.0
1009.27356 192.0
1011.867554 36.0
1013.545959 132.0
1019.466309 120.0
1020.909302 132.0
1021.405396 132.0
1022.213379 156.0
1022.989807 180.0
1025.575928 188.0
1027.425171 104.0
1027.533569 152.0
1028.082275 84.0
1028.509888 176.0
1028.822754 204.0
1029.122803 208.0
1034.659424 164.0
1037.830688 168.0
1038.035889 220.0
1039.973389 188.0
1040.25769 228.0
1040.493286 132.0
1041.841919 184.0
1041.893311 184.0
1042.857178 40.0
1044.329468 72.0
1047.882812 216.0
1049.700439 168.0
1050.609863 84.0
1051.151733 148.0
1052.55249 204.0
1052.791382 124.0
1053.812012 92.0
1053.954102 44.0
1055.123901 216.0
1058.261719 148.0
1061.190186 164.0
1062.253784 228.0
1062.487305 172.0
1062.714355 144.0
1063.324341 160.0
1064.466919 80.0
1064.655151 132.0
1065.772461 220.0
1066.578247 180.0
1067.299927 192.0
1068.678833 92.0
1069.186401 204.0
1069.733032 200.0
1073.518433 192.0
1075.13623 176.0
1075.710571 188.0
1077.43457 212.0
1078.009521 180.0
1080.320312 184.0
1081.226929 168.0
1084.154297 48.0
1088.470581 208.0
1088.61499 208.0
1090.487305 156.0
1090.566284 76.0
1091.203857 184.0
1091.473389 84.0
1093.124512 136.0
1093.28894 52.0
1093.552246 156.0
1094.467285 160.0
1094.901855 172.0
1095.007202 52.0
1095.863525 164.0
1098.581299 216.0
1100.09082 168.0
1100.163452 132.0
1100.975586 116.0
1102.898193 164.0
1103.043579 152.0
1103.162598 164.0
1103.367432 212.0
1103.499756 208.0
1103.552612 144.0
1104.498291 180.0
1106.125977 44.0
1106.278198 132.0
1107.900635 132.0
1108.874756 132.0
1109.318848 196.0
1109.716553 80.0
1110.426147 152.0
1111.142456 216.0
1111.414551 96.0
1112.610962 164.0
1116.336548 148.0
1118.458862 196.0
1118.585327 152.0
1121.342773 196.0
1122.762817 212.0
1123.583252 188.0
1124.070312 156.0
1124.210449 68.0
1126.246582 136.0
1126.447021 148.0
1126.894653 148.0
1127.475952 184.0
1128.405029 156.0
1128.806274 128.0
1129.200806 236.0
1129.474976 220.0
1131.636475 156.0
1132.158813 136.0
1132.353027 160.0
1132.871826 188.0
1136.039551 116.0
1136.341431 224.0
1136.421875 176.0
1136.536011 100.0
1136.913086 180.0
1137.294312 52.0
1137.368164 152.0
1139.658081 204.0
1140.383911 160.0
1140.894775 68.0
1141.035889 172.0
1141.419189 200.0
1141.580566 168.0
1141.634277 132.0
1142.946045 112.0
1143.100708 80.0
1143.248779 36.0
1144.480591 200.0
1145.052979 164.0
1145.221436 188.0
1146.487915 184.0
1146.723877 188.0
1147.532715 132.0
1148.814087 100.0
1150.433594 168.0
1150.811646 196.0
1153.203003 200.0
1154.487549 84.0
1155.400635 144.0
1155.793091 200.0
1156.26001 208.0
1156.415649 48.0
1156.740479 100.0
1157.993164 52.0
1161.015747 128.0
1161.253052 156.0
1161.497314 128.0
1161.612549 136.0
1161.985718 132.0
1162.107788 188.0
1162.358887 164.0
1162.555664 236.0
1163.858887 116.0
1163.933594 164.0
1164.673828 108.0
1165.109863 128.0
1165.516235 164.0
1165.590942 204.0
1167.242676 204.0
1168.637085 184.0
1168.916016 216.0
1169.705566 80.0
1172.273071 144.0
1173.002319 208.0
1173.295532 96.0
1174.134155 84.0
1174.270508 72.0
1174.97998 224.0
1176.576904 132.0
1176.740723 36.0
1177.041138 220.0
1177.102661 184.0
1177.39624 56.0
1177.908447 196.0
1178.188599 64.0
1179.13147 124.0
1181.655518 160.0
1181.846313 180.0
1184.851807 232.0
1185.612427 212.0
1185.6604 160.0
1186.688599 236.0
1186.880493 188.0
1187.038208 244.0
1187.922974 236.0
1188.194214 224.0
1193.238281 176.0
1194.255981 44.0
1194.971436 228.0
1195.088379 176.0
1195.391113 220.0
1195.521851 188.0
1197.449463 180.0
1197.580322 144.0
1199.730225 164.0
1200.619629 200.0
1201.247314 272.0
1202.061401 192.0
1203.994263 196.0
1204.836914 156.0
1205.320557 172.0
1205.866455 180.0
1206.094604 188.0
1207.470459 64.0
1209.026978 176.0
1209.62915 200.0
1210.189941 152.0
1211.00708 224.0
1212.016357 304.0
1214.909546 84.0
1217.102661 168.0
1217.519287 252.0
1218.352783 212.0
1219.805176 180.0
1220.069336 116.0
1222.114014 196.0
1222.802856 172.0
1224.376343 200.0
1224.759399 120.0
1225.616211 88.0
1226.955811 224.0
1229.165283 192.0
1229.737549 136.0
1230.700928 180.0
1230.994141 204.0
1231.545898 192.0
1231.664551 156.0
1232.468018 164.0
1233.466431 156.0
1234.110474 100.0
1234.879761 244.0
1235.474243 152.0
1236.152954 188.0
1236.320923 68.0
1237.860962 172.0
1237.937988 72.0
1238.036011 176.0
1238.084961 160.0
1238.904541 76.0
1238.953491 124.0
1239.045288 188.0
1241.680176 172.0
1241.981689 168.0
1242.353516 80.0
1243.988525 204.0
1244.346558 176.0
1244.627441 208.0
1245.477173 252.0
1245.65271 188.0
1246.249878 192.0
1246.629395 128.0
1247.591309 236.0
1248.766113 184.0
1249.505127 176.0
1250.558105 144.0
1251.292725 124.0
1252.278564 156.0
1252.877197 200.0
1253.025146 52.0
1253.454956 212.0
1253.617065 204.0
1253.807251 108.0
1254.053955 168.0
1254.623901 192.0
1254.891724 132.0
1255.217163 172.0
1255.633179 92.0
1255.936523 52.0
1257.72168 144.0
1258.879395 156.0
1259.204346 188.0
1259.642212 200.0
1259.875366 192.0
1260.06604 180.0
1260.553589 168.0
1262.653198 148.0
1264.407593 84.0
1264.683716 176.0
1265.979248 164.0
1266.885864 164.0
1267.19751 228.0
1267.955688 156.0
1268.141846 220.0
1269.855713 164.0
1270.289429 128.0
1270.969482 176.0
1271.210693 176.0
1272.765259 188.0
1272.814941 100.0
1273.596191 108.0
1276.516968 40.0
1278.729492 164.0
1280.594849 112.0
1282.518555 192.0
1282.739502 152.0
1283.060303 172.0
1283.43811 180.0
1283.609253 196.0
1284.058472 136.0
1284.864502 80.0
1285.89917 200.0
1286.620117 152.0
1287.184204 232.0
1289.963379 176.0
1290.520996 200.0
1291.672363 136.0
1292.072876 208.0
1292.731201 188.0
1293.296509 232.0
1294.835815 160.0
1297.343628 172.0
1297.80249 176.0
1298.218384 192.0
1298.483765 224.0
1299.057495 204.0
1299.581177 132.0
1300.456665 68.0
1300.607422 128.0
1302.912476 176.0
1303.257324 244.0
1304.141235 160.0
1304.752197 200.0
1304.946289 208.0
1305.104492 152.0
1305.974609 180.0
1306.363037 168.0
1307.111328 200.0
1307.708618 68.0
1307.766235 152.0
1309.306885 224.0
1309.65979 72.0
1309.897461 240.0
1310.207275 184.0
1312.153076 224.0
1312.390991 156.0
1313.465454 172.0
1314.345581 188.0
1315.550903 124.0
1316.756714 132.0
1317.267456 212.0
1317.905273 220.0
1318.317139 252.0
1318.505005 172.0
1318.953125 156.0
1320.247314 104.0
1320.478638 136.0
1321.513062 120.0
1322.649292 108.0
1322.873657 108.0
1323.597656 188.0
1323.909058 160.0
1324.024902 116.0
1324.104492 124.0
1324.169067 184.0
1324.292847 156.0
1324.799927 188.0
1324.908569 192.0
1325.125854 108.0
1326.546265 68.0
1328.06897 136.0
1328.50415 152.0
1328.990234 120.0
1329.977173 124.0
1330.187744 128.0
1330.608765 160.0
1331.371094 192.0
1331.923096 120.0
1332.446167 192.0
1332.874756 88.0
1333.223633 52.0
1333.456177 224.0
1334.379272 160.0
1335.913818 192.0
1336.444824 132.0
1336.539429 220.0
1338.104248 180.0
1338.366333 56.0
1338.468262 128.0
1339.524292 212.0
1340.179932 176.0
1340.588013 180.0
1341.783447 144.0
1342.206299 164.0
1343.205444 116.0
1343.489868 92.0
1344.526001 176.0
1346.614014 144.0
1346.938232 112.0
1347.066772 64.0
1347.629272 168.0
1347.921631 164.0
1349.21521 48.0
1350.626587 48.0
1351.182495 152.0
1352.726562 124.0
1353.217041 208.0
1356.095947 116.0
1356.293823 204.0
1356.52832 148.0
1356.601685 208.0
1356.704346 192.0
1358.20752 160.0
1359.472656 156.0
1359.645508 148.0
1360.430908 160.0
1361.532227 84.0
1361.737915 184.0
1364.35376 232.0
1364.544922 60.0
1365.412598 144.0
1365.758179 192.0
1365.824463 188.0
1365.934692 184.0
1366.081909 176.0
1367.516724 180.0
1367.980347 128.0
1368.149658 156.0
1368.355835 212.0
1368.966919 160.0
1369.644531 148.0
1371.774048 152.0
1372.157349 132.0
1372.36377 164.0
1372.658813 236.0
1373.152832 140.0
1374.192871 92.0
1374.532715 260.0
1374.871826 224.0
1375.04895 156.0
1375.778931 176.0
1376.407227 116.0
1376.621338 152.0
1376.732056 204.0
1377.020142 100.0
1377.726807 172.0
1377.847412 196.0
1378.239014 152.0
1378.867065 80.0
1382.638794 188.0
1383.460327 172.0
1384.963501 196.0
1385.445068 148.0
1385.830322 120.0
1387.853638 188.0
1388.550781 232.0
1388.721313 200.0
1388.899292 224.0
1388.951294 204.0
1389.670776 140.0
1390.628052 192.0
1391.080811 136.0
1391.207031 208.0
1391.325806 172.0
1391.80835 108.0
1392.454468 128.0
1392.758911 192.0
1393.197266 132.0
1394.207764 132.0
1394.720581 124.0
1395.872803 92.0
1396.393433 120.0
1397.784546 112.0
1397.896118 196.0
1398.059814 168.0
1399.07959 184.0
1399.13916 200.0
1399.541138 120.0
1399.809204 184.0
1400.822144 40.0
1401.03064 176.0
1401.395752 208.0
1401.95459 204.0
1402.640259 124.0
1403.162109 96.0
1403.519897 172.0
1403.751099 152.0
1403.997192 96.0
1404.511841 144.0
1405.34729 204.0
1407.444702 192.0
1407.877686 228.0
1408.818848 128.0
1409.394165 176.0
1409.468872 148.0
1410.731934 208.0
1413.993042 52.0
1414.516968 180.0
1414.838867 192.0
1415.894531 236.0
1415.984497 44.0
1416.186646 168.0
1416.666016 44.0
1416.800903 108.0
1417.250366 140.0
1417.349854 180.0
1418.381958 184.0
1419.371582 120.0
1419.956543 140.0
1420.639038 204.0
1420.804077 160.0
1421.359375 152.0
1422.050781 144.0
1422.312378 124.0
1422.912964 228.0
1423.536133 152.0
1423.761475 192.0
1425.151123 108.0
1426.195679 96.0
1427.0 220.0
1427.300781 152.0
1428.075317 152.0
1429.376709 132.0
1429.97876 168.0
1431.115479 108.0
1432.184814 212.0
1432.379272 180.0
1432.719604 196.0
1433.051147 180.0
1434.241821 228.0
1434.302124 172.0
1435.976318 152.0
1436.27002 156.0
1436.511353 144.0
1436.579346 196.0
1437.167725 136.0
1437.228149 192.0
1437.439453 232.0
1437.643188 264.0
1437.801636 132.0
1438.428101 136.0
1438.775269 176.0
1439.900391 180.0
1440.459229 148.0
1440.723633 144.0
1441.010742 136.0
1441.615234 224.0
1442.484375 208.0
1442.869873 200.0
1443.074097 128.0
1443.633545 212.0
1444.291504 160.0
1444.805908 224.0
1446.099854 132.0
1446.947632 144.0
1447.606323 204.0
1449.469727 228.0
1449.852173 232.0
1450.022949 68.0
1451.675537 200.0
1453.663086 124.0
1453.799683 140.0
1454.346069 128.0
1454.429565 180.0
1454.786255 116.0
1455.457275 140.0
1457.16333 136.0
1457.809204 168.0
1458.029541 192.0
1458.189087 192.0
1458.607178 164.0
1459.108887 144.0
1461.25354 216.0
1461.740479 248.0
1461.850098 168.0
1462.265625 172.0
1462.39502 148.0
1462.760376 192.0
1462.813599 84.0
1463.780518 244.0
1464.892456 172.0
1466.042969 208.0
1467.895264 132.0
1469.307129 180.0
1470.214966 208.0
1470.603516 204.0
1471.389771 172.0
1471.603516 172.0
1472.035034 164.0
1472.550415 192.0
1472.901733 192.0
1473.848022 148.0
1474.552002 128.0
1474.796631 176.0
1475.102417 152.0
1476.585693 104.0
1477.985596 168.0
1479.845459 296.0
1480.105713 172.0
1480.618774 136.0
1480.680054 164.0
1481.606934 164.0
1481.821411 156.0
1481.890381 172.0
1481.967041 172.0
1482.503418 116.0
1482.610596 128.0
1483.323486 200.0
1483.798706 36.0
1484.795532 140.0
1484.964233 148.0
1485.946045 156.0
1486.253052 148.0
1486.523682 240.0
1486.667358 20.0
1487.626709 128.0
1487.772583 212.0
1488.893677 188.0
1488.993408 152.0
1490.652832 144.0
1490.975586 136.0
1491.136963 176.0
1492.712891 164.0
1493.758789 176.0
1493.95874 156.0
1494.481934 60.0
1495.974976 84.0
1496.421509 220.0
1496.575439 104.0
1497.260742 184.0
1497.538086 140.0
1497.688477 204.0
1498.292969 32.0
1498.608765 84.0
1498.685791 180.0
1498.739746 68.0
1499.895752 224.0
1500.019043 64.0
1501.414551 132.0
1501.476318 116.0
1501.607422 236.0
1502.16272 208.0
1503.320068 212.0
1503.94519 184.0
