>compound MLS002153371-01!9-Cyclopentyladenine monomethanesulfonate
>formula C10H13N5
>ionization [M+H]+
>parentmass 204.124741
#inchi InChI=1S/C10H13N5/c11-9-8-10(13-5-12-9)15(6-14-8)7-3-1-2-4-7/h5-7H,1-4H2,(H2,11,12,13)
#inchikey KTJWHJNBTXITCB
#origInchi InChI=1S/C10H13N5.CH4O3S/c11-9-8-10(13-5-12-9)15(6-14-8)7-3-1-2-4-7;1-5(2,3)4/h5-7H,1-4H2,(H2,11,12,13);1H3,(H,2,3,4)
#Ion_Source LC-ESI
#Instrument qTof
#Compound_Source NIH Pharmacologically Active Library
#PI Dorrestein
#Data_Collector VP/LMS
#Scan -1
#Precursor_MZ 204.126
#ExactMass 203.117
#Charge 1
#CAS_Number N/A
#Pubmed_ID N/A
#Smiles Nc1ncnc2n(cnc12)C3CCCC3.CS(=O)(=O)O
#INCHI_AUX N/A
#Library_Class 1
#SpectrumID CCMSLIB00000085400
#IonMode Positive
#UpdateWorkflowName UPDATE-SINGLE-ANNOTATED-GOLD
#LibraryQualityString Gold
#TaskID d252d724072548979f1f6f1ced849daf
##Scan# 1190
#SpectrumFile p4-A04_GA4_01_18328.mzXML
#LibraryName Pharm_Active_Library.mgf
#MQScore -1
#Organism Pharm_Active_Library
#TIC_Query 0
#RT_Query -1
#MZErrorPPM -1
#SharedPeaks 0
#MassDiff 0
#LibMZ -1
#SpecMZ 204.126
#SpecCharge 0
#internalFilename spec-00000.mgf

>collision 10
45.16301 124.0
45.408115 76.0
45.456409 164.0
45.475201 180.0
45.578606 216.0
45.682129 172.0
45.750763 116.0
45.862568 172.0
45.925941 184.0
45.948872 200.0
46.139301 164.0
46.265114 92.0
46.468407 252.0
46.496902 192.0
46.628639 180.0
46.761929 232.0
46.823193 204.0
46.870872 156.0
46.888588 176.0
47.042721 180.0
47.392838 160.0
47.501144 116.0
47.723625 156.0
47.785519 168.0
48.132862 164.0
48.153576 160.0
48.432972 172.0
48.45652 184.0
48.668728 204.0
48.688171 156.0
48.749294 180.0
48.820194 188.0
48.871662 264.0
48.939865 116.0
48.963539 192.0
49.045021 200.0
49.269012 44.0
49.365456 196.0
49.386436 192.0
49.589455 240.0
49.679195 148.0
49.696033 220.0
49.809746 172.0
50.217937 192.0
50.270138 124.0
50.368969 56.0
50.521637 144.0
50.569748 72.0
50.600891 120.0
50.890125 184.0
51.008041 184.0
51.165348 228.0
51.234306 172.0
51.443943 60.0
51.923279 168.0
52.033772 132.0
52.111328 188.0
52.155876 72.0
52.259418 176.0
52.530266 188.0
52.562008 136.0
52.67173 176.0
52.735306 120.0
52.754097 192.0
52.849548 164.0
52.934952 108.0
53.139328 132.0
53.161095 140.0
53.299046 172.0
53.313576 196.0
53.459 124.0
53.594421 212.0
53.702301 104.0
53.718346 148.0
53.802986 148.0
53.944691 152.0
54.155399 152.0
54.441006 136.0
54.576576 232.0
54.657478 156.0
54.692799 256.0
55.040726 164.0
55.093895 180.0
55.105713 192.0
55.21806 112.0
55.314236 188.0
55.443092 192.0
55.723061 208.0
55.775555 192.0
55.842464 248.0
56.077709 220.0
56.48085 204.0
56.494312 136.0
56.510769 208.0
56.59169 188.0
56.733921 204.0
56.913963 136.0
57.34119 152.0
57.430149 160.0
57.529739 164.0
57.559937 124.0
57.75338 168.0
57.966846 108.0
58.11393 204.0
58.22271 236.0
58.554855 212.0
58.749874 60.0
58.810913 220.0
58.871983 200.0
58.940723 212.0
59.111984 64.0
59.170151 176.0
59.191586 84.0
59.455257 184.0
59.69952 148.0
60.112366 172.0
60.342514 184.0
60.370346 156.0
60.556061 128.0
60.726551 164.0
60.832066 152.0
60.898834 236.0
61.044922 80.0
61.114918 100.0
61.142929 96.0
61.265938 132.0
61.432743 176.0
61.510769 128.0
61.549019 264.0
61.706047 36.0
61.82645 152.0
62.100666 240.0
62.143021 120.0
62.540604 132.0
62.57996 172.0
63.083229 124.0
63.140152 60.0
63.192352 124.0
63.585339 168.0
63.785469 160.0
63.849068 144.0
63.885651 36.0
63.922245 200.0
64.15638 112.0
64.373375 36.0
64.432472 304.0
64.456436 76.0
64.483604 120.0
64.529961 212.0
64.933495 212.0
64.978409 224.0
65.110039 168.0
65.172684 208.0
65.21447 164.0
65.253044 172.0
65.336678 144.0
65.626579 132.0
65.842369 160.0
66.174309 196.0
66.360634 140.0
66.425499 140.0
66.526115 172.0
66.656044 208.0
66.712929 168.0
66.781227 100.0
66.83979 156.0
67.01564 176.0
67.28965 172.0
67.493889 116.0
67.528229 100.0
67.590393 200.0
67.686974 116.0
67.814751 88.0
67.847534 188.0
68.059189 200.0
68.182388 116.0
68.218552 160.0
68.453827 148.0
68.468651 168.0
68.658173 36.0
68.928902 180.0
68.960304 100.0
69.003281 196.0
69.06778 180.0
69.147194 196.0
69.296234 96.0
69.621346 144.0
69.74762 152.0
70.00383 228.0
70.06546 84.0
70.108788 112.0
70.437469 228.0
70.47422 192.0
70.659813 236.0
70.790367 116.0
70.890877 224.0
71.265152 160.0
71.370956 188.0
71.404594 176.0
71.42141 204.0
71.682365 156.0
71.764694 176.0
71.813866 64.0
71.854347 128.0
72.180336 128.0
72.257965 160.0
72.363068 136.0
72.444359 108.0
72.725845 180.0
72.878685 132.0
72.890579 188.0
72.961967 180.0
72.98452 224.0
73.099731 160.0
73.193359 124.0
73.467758 180.0
73.638458 72.0
73.7649 160.0
73.956474 192.0
74.100319 204.0
74.146584 84.0
74.524109 212.0
74.556755 236.0
74.835426 108.0
74.976677 252.0
75.033554 152.0
75.314842 316.0
75.402954 160.0
75.442711 156.0
75.707443 200.0
75.832176 192.0
75.866844 152.0
75.969162 152.0
75.995186 196.0
76.23481 184.0
76.408691 124.0
76.553978 144.0
76.629799 120.0
76.666397 92.0
76.837273 216.0
76.948975 116.0
76.973419 176.0
77.44561 168.0
77.526199 196.0
77.647163 84.0
78.024696 120.0
78.038757 144.0
78.065132 200.0
78.447197 184.0
78.496567 100.0
78.5336 140.0
78.759529 112.0
78.784264 156.0
78.844337 196.0
78.984016 52.0
79.026474 152.0
79.178711 172.0
79.230072 76.0
79.242477 148.0
79.277916 124.0
79.338181 116.0
79.39669 104.0
79.430389 156.0
80.698387 144.0
80.773499 188.0
80.83075 128.0
81.398979 36.0
81.415146 212.0
81.478012 232.0
81.580444 192.0
81.722527 152.0
81.769318 140.0
81.790909 164.0
81.943985 108.0
81.994438 176.0
82.167351 148.0
82.239723 96.0
82.277634 164.0
82.552277 200.0
82.725967 160.0
82.847305 188.0
83.295372 172.0
83.449844 144.0
83.557144 204.0
83.710037 52.0
83.843025 180.0
83.872185 156.0
83.935997 140.0
84.302231 236.0
84.533325 128.0
84.648651 228.0
84.68528 100.0
84.892372 172.0
85.123589 160.0
85.610352 172.0
85.741707 108.0
85.8265 128.0
85.841255 108.0
85.854164 112.0
85.907654 180.0
85.977768 72.0
85.992393 212.0
86.038956 184.0
86.212303 56.0
86.243721 56.0
86.260361 104.0
86.343559 56.0
86.363907 204.0
86.700867 80.0
86.867744 164.0
87.005066 148.0
87.090485 92.0
87.335838 68.0
87.382339 144.0
87.628105 144.0
87.896599 88.0
87.946983 192.0
88.059013 120.0
88.120659 168.0
88.141212 144.0
88.296371 148.0
88.818932 188.0
88.935265 116.0
88.978439 144.0
89.519958 120.0
89.584 248.0
89.73288 132.0
89.796997 160.0
90.276688 180.0
90.291817 152.0
90.424248 124.0
90.499969 112.0
90.517014 132.0
90.636345 44.0
90.689407 168.0
90.734909 112.0
90.75576 152.0
90.827827 32.0
90.982391 196.0
91.046097 252.0
91.192383 128.0
91.239906 172.0
91.443443 264.0
91.521492 180.0
91.77491 156.0
91.881714 188.0
91.982857 192.0
92.02372 828.0
92.072594 280.0
92.307648 52.0
92.38224 84.0
92.451118 132.0
92.751816 176.0
92.8918 128.0
92.980057 168.0
93.024612 168.0
93.069534 144.0
93.101006 152.0
93.554779 332.0
93.635651 196.0
93.667542 204.0
93.706924 56.0
93.738289 124.0
93.772438 188.0
93.93248 88.0
94.041084 2084.0
94.125473 172.0
94.492714 116.0
94.581734 196.0
94.767647 188.0
94.81221 104.0
94.909134 192.0
95.045235 664.0
95.167198 168.0
95.231277 120.0
95.316757 208.0
95.351738 200.0
95.538406 212.0
95.71357 84.0
96.226364 248.0
96.281044 192.0
96.345497 132.0
96.507713 144.0
96.650505 192.0
96.961868 172.0
97.20504 172.0
97.269806 156.0
97.356621 128.0
97.627388 176.0
97.863518 56.0
97.94426 108.0
98.178802 212.0
98.224167 164.0
98.474838 208.0
98.66256 160.0
98.876183 200.0
98.93161 120.0
98.965263 104.0
99.080139 192.0
99.149261 208.0
99.32 100.0
99.439049 112.0
99.734993 132.0
100.184708 112.0
100.302277 72.0
100.340157 156.0
100.519669 36.0
100.563576 168.0
100.771255 172.0
100.819214 180.0
100.839195 80.0
100.861183 112.0
100.989151 144.0
101.157234 200.0
101.459724 156.0
101.624184 136.0
101.847015 72.0
101.949486 96.0
102.690361 120.0
102.748856 164.0
103.13456 216.0
103.344879 112.0
103.466309 100.0
103.490608 148.0
103.587814 180.0
103.672913 436.0
103.693306 252.0
103.774261 160.0
103.790489 164.0
103.859436 260.0
104.208397 176.0
104.330551 152.0
104.709015 108.0
104.843475 276.0
104.874054 180.0
104.961716 180.0
105.233086 80.0
105.257591 96.0
105.349495 192.0
105.504807 188.0
105.557968 200.0
105.735947 184.0
105.801453 164.0
105.987831 156.0
106.283096 200.0
106.301559 176.0
106.550003 192.0
106.617813 236.0
106.911896 148.0
107.202263 136.0
107.229057 204.0
107.526039 188.0
107.614807 160.0
107.775909 136.0
107.947479 120.0
108.007454 180.0
108.110901 140.0
108.160576 60.0
108.282738 124.0
108.459763 200.0
108.529808 176.0
108.58947 172.0
108.94442 184.0
108.995285 224.0
109.051155 2212.0
109.395683 124.0
109.44149 140.0
109.526871 116.0
109.897949 80.0
109.935509 172.0
110.052406 208.0
110.198608 224.0
110.313553 136.0
110.464119 164.0
110.568733 272.0
110.807442 156.0
110.933189 160.0
111.241554 152.0
111.270943 164.0
111.569267 132.0
111.760658 192.0
111.874794 140.0
112.045418 144.0
112.321053 128.0
112.451912 180.0
112.730637 104.0
112.911926 212.0
113.092285 172.0
113.149437 156.0
113.308281 180.0
113.327347 44.0
113.435432 148.0
113.554169 84.0
113.619926 136.0
113.878899 232.0
114.01487 256.0
114.114777 240.0
114.157303 144.0
114.531883 148.0
114.587067 208.0
114.785492 168.0
115.297836 72.0
115.753494 132.0
115.789894 180.0
115.952721 32.0
116.040611 116.0
116.119949 196.0
116.220772 168.0
116.276566 172.0
116.323792 56.0
116.547142 172.0
116.619942 160.0
116.897644 180.0
117.104317 164.0
117.265907 272.0
117.315483 220.0
117.802017 216.0
118.023636 148.0
118.114464 76.0
118.179367 192.0
118.456474 176.0
118.556145 152.0
118.614662 116.0
118.666695 40.0
118.694878 200.0
118.770782 92.0
118.816338 68.0
118.918327 96.0
118.943932 176.0
118.990349 136.0
119.03611 47932.0
119.108559 124.0
119.126358 124.0
119.159363 48.0
119.196686 204.0
119.219299 96.0
119.288551 108.0
119.309326 44.0
119.338264 64.0
119.368607 60.0
119.393166 108.0
119.48233 160.0
119.534554 152.0
119.574699 80.0
119.605171 256.0
119.629112 224.0
119.725113 88.0
119.851257 96.0
119.890617 132.0
119.913116 104.0
119.951515 80.0
119.973312 132.0
120.037849 3216.0
120.143417 96.0
120.250336 212.0
120.307091 216.0
120.475243 28.0
120.564827 112.0
120.617279 60.0
120.636955 52.0
120.737534 60.0
120.756584 148.0
120.800964 76.0
120.855659 64.0
120.88192 148.0
120.902473 132.0
120.925682 160.0
120.95195 192.0
120.993546 80.0
121.142464 172.0
121.188469 168.0
121.265167 108.0
121.901604 224.0
122.040085 64.0
122.458199 72.0
122.74469 32.0
123.106583 144.0
123.203766 220.0
123.56192 196.0
123.761169 152.0
124.182159 148.0
124.948532 216.0
125.077599 80.0
125.093178 148.0
125.527641 184.0
125.795372 44.0
125.817696 60.0
125.904778 148.0
125.971786 92.0
126.146088 60.0
126.851219 244.0
127.295456 220.0
127.726097 216.0
128.222305 136.0
128.635071 192.0
128.657654 144.0
128.784103 44.0
129.546402 116.0
129.977173 212.0
130.065674 184.0
130.161026 92.0
130.320023 200.0
130.367737 212.0
130.40184 176.0
130.702011 48.0
130.884109 200.0
131.21904 124.0
131.652588 64.0
132.141739 108.0
132.173782 76.0
132.327133 56.0
132.372925 120.0
132.41185 208.0
133.370911 148.0
133.564056 132.0
133.738937 168.0
133.916214 72.0
134.137421 168.0
134.162781 240.0
134.250397 220.0
134.273453 172.0
134.331116 192.0
134.737427 120.0
134.864517 152.0
135.310974 160.0
135.374695 128.0
135.403595 176.0
135.447617 124.0
135.48349 180.0
135.577362 180.0
135.621399 84.0
135.637619 132.0
135.658478 92.0
135.71489 144.0
135.819748 200.0
135.837036 56.0
135.906998 152.0
135.928513 144.0
135.949463 176.0
135.966843 216.0
135.972565 116.0
135.980927 264.0
136.010147 192.0
136.062973 73000.0
136.102066 376.0
136.122803 32.0
136.133835 32.0
136.138062 60.0
136.199142 144.0
136.217209 96.0
136.242233 72.0
136.261871 112.0
136.28511 76.0
136.315308 64.0
136.347839 80.0
136.375153 152.0
136.404587 184.0
136.422806 84.0
136.445358 300.0
136.515228 80.0
136.543137 32.0
136.603607 56.0
136.619888 60.0
136.647812 72.0
136.668747 148.0
136.736237 52.0
136.780457 72.0
136.799088 52.0
136.85495 92.0
136.880569 124.0
136.90361 76.0
137.006348 68.0
137.063828 3948.0
137.181122 132.0
137.237076 52.0
137.318695 32.0
137.419006 56.0
137.437668 76.0
137.580612 64.0
137.643158 112.0
137.738831 52.0
137.822937 100.0
137.867325 132.0
137.883682 136.0
137.962158 84.0
138.018402 140.0
138.047577 288.0
138.066345 264.0
138.107758 164.0
138.151199 88.0
138.204193 68.0
138.414841 76.0
138.513077 72.0
138.707565 60.0
138.815414 100.0
138.850601 76.0
138.963196 84.0
139.038284 56.0
139.258972 88.0
139.294205 68.0
141.709991 76.0
141.764481 36.0
142.020538 124.0
143.421005 96.0
144.199112 84.0
144.244522 100.0
144.725388 36.0
144.881058 56.0
145.905823 128.0
146.825638 116.0
147.059662 56.0
147.658844 104.0
148.033951 108.0
149.548874 72.0
150.902771 40.0
151.65184 48.0
152.257843 148.0
154.191818 88.0
157.082001 168.0
157.763733 44.0
162.120743 180.0
173.028015 108.0
174.084702 140.0
174.981323 92.0
176.932358 188.0
182.933807 64.0
188.037857 140.0
189.106491 104.0
199.773804 76.0
203.771362 92.0
204.064102 188.0
204.124741 2276.0
204.32576 60.0
204.399734 108.0
204.826782 68.0
205.126358 308.0
205.2229 64.0
209.968811 80.0
220.086716 56.0
230.291641 100.0
232.419846 96.0
238.466553 44.0
239.210922 56.0
242.962555 148.0
292.930481 76.0
297.815063 64.0
304.04007 44.0
311.276855 56.0
319.512421 48.0
328.930328 88.0
343.368958 84.0
355.215942 56.0
356.868378 108.0
377.383148 92.0
396.308868 32.0
396.725006 68.0
425.11203 72.0
508.575867 96.0
529.391113 52.0
596.167542 148.0
632.020508 100.0
640.03656 168.0
676.710693 108.0
702.756165 80.0
715.981934 60.0
726.908875 128.0
751.797119 184.0
764.868896 160.0
769.085571 168.0
782.907471 192.0
803.061584 172.0
805.87854 120.0
827.909851 104.0
831.395386 164.0
837.195984 156.0
862.948669 172.0
863.901978 204.0
866.167358 180.0
866.536438 44.0
873.757812 112.0
887.151917 164.0
890.070984 192.0
890.439209 108.0
891.08075 76.0
897.08551 88.0
914.221741 120.0
914.263855 80.0
915.781067 204.0
936.124207 148.0
942.791931 196.0
942.999695 128.0
943.751648 92.0
947.362549 148.0
947.423828 184.0
947.993652 136.0
949.882019 56.0
950.151917 192.0
951.16449 104.0
952.159119 52.0
958.384521 48.0
960.190674 164.0
960.888062 132.0
961.776367 212.0
964.555969 196.0
966.021484 172.0
966.572144 112.0
967.822449 196.0
968.602783 72.0
969.371033 112.0
970.412354 184.0
970.790649 140.0
971.051086 116.0
971.398438 140.0
971.99176 140.0
978.551514 192.0
982.490295 140.0
982.577637 172.0
986.137024 168.0
991.544556 184.0
998.192627 124.0
1003.733948 144.0
1005.008118 224.0
1012.517944 180.0
1017.254333 104.0
1030.622437 152.0
1038.546387 176.0
1039.099487 204.0
1039.362549 64.0
1050.770264 172.0
1052.519409 88.0
1054.664307 196.0
1056.455444 216.0
1058.170532 220.0
1059.828613 200.0
1060.807251 152.0
1065.349731 148.0
1065.908569 208.0
1067.046021 180.0
1070.956909 56.0
1071.869019 160.0
1071.934204 168.0
1077.970337 148.0
1082.876831 156.0
1085.531006 184.0
1085.845825 216.0
1086.055664 188.0
1088.464233 212.0
1089.029053 188.0
1090.737427 108.0
1098.039307 144.0
1099.576538 172.0
1105.30603 232.0
1106.199585 148.0
1107.007324 220.0
1108.305542 180.0
1108.623657 116.0
1111.514893 188.0
1113.207642 236.0
1115.034546 152.0
1115.537964 152.0
1116.650146 168.0
1118.952515 200.0
1119.232178 156.0
1119.678345 228.0
1120.644165 216.0
1121.283936 184.0
1123.057373 88.0
1127.009521 184.0
1128.439819 136.0
1134.532227 196.0
1135.504517 156.0
1136.792603 164.0
1137.691895 136.0
1139.901733 156.0
1143.728394 176.0
1143.842896 136.0
1144.664185 240.0
1144.886475 88.0
1147.339111 148.0
1148.060547 76.0
1148.917236 140.0
1149.632446 80.0
1149.861938 168.0
1155.281006 156.0
1155.799072 180.0
1156.722412 140.0
1159.397705 180.0
1160.489136 172.0
1160.787476 128.0
1162.890503 156.0
1165.233276 144.0
1166.483765 140.0
1168.102173 164.0
1170.273071 200.0
1173.141357 156.0
1173.761719 140.0
1175.630859 152.0
1179.407715 228.0
1180.781982 88.0
1183.532959 212.0
1186.348755 56.0
1187.075562 176.0
1188.859131 204.0
1189.373901 160.0
1193.557861 120.0
1195.139771 204.0
1196.475098 40.0
1198.03833 224.0
1199.857788 208.0
1201.554321 220.0
1202.520386 116.0
1202.603149 116.0
1203.203735 152.0
1203.949463 52.0
1205.842529 176.0
1207.059204 104.0
1209.321411 196.0
1210.09668 176.0
1211.12854 156.0
1216.953857 200.0
1218.801392 184.0
1219.447754 172.0
1220.170654 144.0
1220.845093 48.0
1221.638062 124.0
1222.05542 304.0
1222.361572 132.0
1224.296875 56.0
1226.840088 132.0
1229.036987 204.0
1230.572632 164.0
1231.194092 184.0
1231.424561 112.0
1231.682983 204.0
1232.52832 172.0
1236.577393 188.0
1238.054565 152.0
1238.60083 56.0
1240.359619 128.0
1240.794312 132.0
1242.414307 208.0
1243.284424 180.0
1246.802856 144.0
1253.509277 168.0
1253.650269 176.0
1253.875732 176.0
1255.680664 180.0
1259.117676 156.0
1259.922974 124.0
1261.293823 148.0
1261.781616 128.0
1265.028809 128.0
1265.432373 176.0
1265.998779 208.0
1267.047119 172.0
1267.989502 172.0
1268.662964 52.0
1269.996094 164.0
1270.17334 144.0
1270.627441 196.0
1272.025391 160.0
1272.295166 188.0
1272.671509 32.0
1272.884521 132.0
1273.800659 164.0
1273.949829 200.0
1274.390381 72.0
1275.890015 212.0
1276.821411 76.0
1277.838623 180.0
1278.913208 184.0
1281.555298 228.0
1283.387085 164.0
1285.070312 208.0
1290.991943 164.0
1291.936035 188.0
1293.345703 144.0
1293.567627 256.0
1294.312256 84.0
1296.561523 84.0
1298.56897 204.0
1299.623535 236.0
1301.274414 140.0
1301.899048 124.0
1302.430542 64.0
1304.162231 176.0
1305.226196 140.0
1306.39856 200.0
1306.448853 68.0
1306.9021 236.0
1307.6073 168.0
1307.700928 172.0
1311.042603 216.0
1315.911621 188.0
1316.200439 156.0
1317.363159 56.0
1317.825562 196.0
1318.418091 168.0
1318.512085 56.0
1320.507446 168.0
1321.245361 172.0
1321.541992 80.0
1321.701172 144.0
1322.417603 128.0
1323.155884 172.0
1326.669556 164.0
1328.489746 132.0
1329.055664 88.0
1333.078491 52.0
1333.441895 108.0
1333.994263 92.0
1334.306885 196.0
1335.397705 148.0
1335.943237 140.0
1340.865479 220.0
1340.938354 128.0
1341.346436 200.0
1341.864136 176.0
1342.002563 136.0
1342.812012 128.0
1342.950684 192.0
1343.680054 212.0
1344.592163 148.0
1344.884155 168.0
1345.460815 152.0
1346.030396 156.0
1346.47583 60.0
1346.665771 156.0
1349.925171 140.0
1350.2323 144.0
1351.424683 216.0
1352.646851 144.0
1352.9104 212.0
1354.133301 184.0
1354.375 136.0
1354.733887 192.0
1356.272705 172.0
1356.558594 144.0
1357.123169 120.0
1357.357788 176.0
1357.995728 168.0
1358.355225 236.0
1360.351196 72.0
1361.724243 52.0
1361.827148 184.0
1363.494873 192.0
1364.906372 156.0
1365.038696 188.0
1365.406372 44.0
1366.053589 176.0
1366.502441 220.0
1366.943848 120.0
1372.53479 120.0
1372.800293 136.0
1373.759033 140.0
1373.862427 172.0
1375.050415 64.0
1375.474731 244.0
1377.051147 152.0
1377.302246 188.0
1377.930176 124.0
1378.477051 196.0
1378.765259 104.0
1381.678589 240.0
1382.699707 200.0
1383.595337 156.0
1383.684204 84.0
1385.113403 112.0
1386.321045 128.0
1387.158569 236.0
1387.492188 160.0
1387.550659 140.0
1387.633057 136.0
1387.862915 224.0
1388.070557 184.0
1388.827026 180.0
1389.976929 240.0
1390.11792 172.0
1391.275757 136.0
1396.447632 216.0
1396.722778 140.0
1398.02478 152.0
1398.821167 108.0
1400.091553 204.0
1400.608276 140.0
1400.980713 156.0
1402.485962 136.0
1403.790649 208.0
1403.954712 276.0
1405.028809 192.0
1405.454102 196.0
1407.16333 192.0
1408.559814 212.0
1409.329346 196.0
1410.435425 152.0
1411.661499 156.0
1412.229858 48.0
1413.950684 148.0
1416.249268 152.0
1417.994995 184.0
1423.840088 180.0
1424.162354 168.0
1425.514771 200.0
1427.446655 124.0
1427.604492 124.0
1428.254883 208.0
1428.860718 168.0
1432.378296 324.0
1432.903564 176.0
1433.830444 128.0
1433.890747 92.0
1434.177124 156.0
1434.712402 204.0
1436.537354 196.0
1437.178589 176.0
1442.586182 220.0
1443.516113 108.0
1444.817017 176.0
1446.00415 172.0
1446.413818 180.0
1446.527344 156.0
1446.671143 172.0
1447.337402 140.0
1447.572144 128.0
1447.791748 244.0
1449.481079 220.0
1450.057007 152.0
1450.223755 184.0
1451.027222 148.0
1452.437744 148.0
1452.946045 232.0
1453.226807 152.0
1453.66687 184.0
1453.803467 172.0
1456.289795 236.0
1456.68103 112.0
1457.00769 196.0
1457.645874 176.0
1458.398315 160.0
1459.660278 104.0
1460.010132 108.0
1460.458862 196.0
1461.478271 244.0
1461.835938 136.0
1462.703491 228.0
1463.769409 112.0
1464.150146 208.0
1465.727051 112.0
1466.87793 152.0
1467.373413 164.0
1468.90625 124.0
1469.036011 116.0
1470.081299 192.0
1472.119507 228.0
1473.142944 172.0
1475.940186 32.0
1476.32251 184.0
1477.408691 200.0
1477.837158 164.0
1478.334473 108.0
1478.939087 220.0
1479.329468 156.0
1479.459595 72.0
1479.903687 176.0
1480.485596 164.0
1481.803101 140.0
1482.623047 168.0
1482.807007 52.0
1483.036865 208.0
1483.113525 200.0
1484.255859 172.0
1484.823364 48.0
1486.035278 48.0
1486.211792 296.0
1486.871704 244.0
1487.286255 144.0
1487.416748 184.0
1487.861938 192.0
1488.29187 40.0
1488.460815 208.0
1489.175049 224.0
1491.293701 60.0
1491.910522 100.0
1492.541016 124.0
1493.14856 76.0
1493.794678 192.0
1494.527588 192.0
1495.156494 172.0
1495.356567 136.0
1495.456665 172.0
1496.049438 180.0
1496.21106 200.0
1496.865479 88.0
1497.096558 188.0
1498.090088 156.0
1498.498413 132.0
1499.438599 176.0
1501.142334 200.0
1501.342773 112.0
1502.785278 152.0
1503.309937 172.0
1503.819336 180.0
1504.568115 156.0
1504.984985 144.0
