>compound Chlorprothixene
>formula C18H18ClNS 
>ionization [M+H]+
>parentmass 316.092712
#inchi InChI=1S/C18H18ClNS/c1-20(2)11-5-7-14-15-6-3-4-8-17(15)21-18-10-9-13(19)12-16(14)18/h3-4,6-10,12H,5,11H2,1-2H3/b14-7+
#inchikey WSPOMRSOLSGNFJ
#Ion_Source LC-ESI
#Instrument qTof
#Compound_Source Isolated
#PI Sirenas
#Data_Collector Ed Esquenazi 
#Scan -1
#Precursor_MZ 316.092
#ExactMass 0.0
#Charge 1
#CAS_Number N/A
#Pubmed_ID N/A
#Smiles N/A
#INCHI_AUX N/A
#Library_Class 3
#SpectrumID CCMSLIB00000006201
#IonMode Positive
#UpdateWorkflowName UPDATE-SINGLE-ANNOTATED-BRONZE
#LibraryQualityString Bronze
#TaskID d19310cd93df49b68e9fcbec27720eb5
##Scan# 2
#SpectrumFile Chlorprothixene.mgf
#LibraryName fda_library.mgf
#MQScore -1
#Organism fda_library
#TIC_Query 0
#RT_Query -1
#MZErrorPPM -1
#SharedPeaks 0
#MassDiff 0
#LibMZ -1
#SpecMZ 316.092
#SpecCharge 0
#internalFilename spec-00000.mgf

>collision 10
101.002869 30.149151
103.052948 117.544403
103.422043 5.602799
104.759888 3.045918
105.068428 37.145409
105.14547 4.741497
105.310837 7.294825
109.010307 83.24778
111.686646 6.752487
114.707321 10.40198
115.053619 137.500793
115.879822 4.022959
121.008087 20.522671
123.023354 5.173633
125.014725 44.483761
125.189796 2.883658
125.534515 4.642857
125.669029 5.624373
125.729401 32.38279
127.115135 4.206429
127.301109 9.071428
128.061417 1347.348022
128.110413 6.45055
128.173431 2.910714
128.193115 3.289835
128.203918 4.906746
128.244324 5.353814
128.3172 8.304919
128.358612 7.253663
129.009781 3.288961
129.16391 4.470938
129.531876 4.291005
130.075958 55.793621
130.380692 6.756358
135.025681 16.400499
137.015579 17.323509
137.424866 6.434783
137.665863 3.306122
139.029953 10.73016
140.675873 4.446429
142.97171 16.223591
144.453781 5.634285
144.983124 16.45219
147.024429 12.93063
147.103363 27.119049
148.338745 4.89505
149.013519 45.90012
149.503113 13.01954
150.988388 8.057143
151.05217 30.28241
151.37262 6.498626
152.063263 102.219398
154.970154 41.284039
156.98732 35.754398
157.52829 21.45738
158.016891 12.16828
158.395554 8.205782
158.906311 9.840136
159.026688 400.537811
159.111786 4.57697
159.160095 3.5875
159.186798 7.589286
160.633362 3.943571
160.938553 12.19246
161.041183 124.500198
161.129898 7.77781
161.20816 5.309211
161.304672 3.457143
162.022446 627.904785
162.207336 6.270408
162.229431 6.574461
162.291473 3.429233
162.313812 5.67
162.387146 11.03673
162.863693 4.148809
163.99054 6.122449
164.062408 16.895769
164.341003 3.907392
164.618256 11.45094
165.068604 101.241501
165.708572 4.531593
166.456757 5.439286
168.437592 8.168832
168.986115 31.027229
169.964935 6.328231
172.915054 3.46367
176.057327 23.425051
178.075195 20.04908
178.262039 5.626374
179.625443 6.154304
179.657639 6.357143
180.93602 18.329639
186.275177 13.12562
187.032455 21.91633
187.405991 6.556122
189.313141 8.41591
191.889786 11.02037
191.962952 4.699248
192.987503 444.922913
193.252151 3.402597
193.275787 6.709587
193.458649 5.051948
195.001831 143.126602
195.024811 21.592649
195.06012 7.017857
196.031036 116.694397
197.042923 49.742939
197.882599 9.581811
199.031342 126.104897
199.127914 3.571429
199.761688 5.571939
202.076157 441.535187
202.125839 8.8743
202.25798 5.433163
202.453064 7.539779
202.49498 4.000435
203.085449 665.564087
203.144028 8.928809
203.245026 5.669643
203.268997 15.61598
203.307678 5.446429
203.486252 2.861111
203.65477 15.63368
203.71463 4.859023
203.814194 5.322337
203.9133 5.429688
204.000992 3.254121
204.73381 4.857143
204.98819 15.07581
207.077179 28.76651
207.130859 15.88571
208.034576 5.204592
208.619827 6.431044
208.94252 7.14317
209.007065 5.067063
209.038742 40.34444
209.279572 6.560065
210.049042 2086.333008
210.112854 5.116666
210.13002 10.69131
210.202225 9.362541
210.230835 13.34885
210.284622 20.74464
210.326691 4.681231
210.370682 10.63577
210.397339 3.872537
210.461807 7.402922
210.52356 6.230769
210.57576 7.320055
210.644669 4.432143
210.72554 9.431045
210.914368 6.763976
211.013412 7.731092
211.190323 4.751488
212.16246 7.897186
212.221512 3.636364
212.282959 3.517857
212.324005 4.008459
212.344589 3.174603
212.496704 3.870536
213.054947 7.301065
214.053604 4.770161
214.224487 4.531593
215.224182 11.62802
216.03447 6.580952
217.598236 5.857522
218.185883 4.127645
219.027206 3.308674
219.715958 10.43239
219.740662 6.986241
219.794678 6.359321
219.835159 7.811508
219.8479 9.646296
219.882751 6.865546
219.899582 13.08592
219.918823 4.728896
219.970428 8.352845
219.991928 6.477787
220.027512 9.026206
220.068573 4.003247
220.094269 4.160014
220.110031 4.395089
220.161377 4.501488
220.280106 2.862327
220.305923 4.349924
220.38855 4.14589
220.626373 4.725275
220.885895 8.531512
220.908356 5.954151
220.998672 5.218487
221.041809 5532.542969
221.106018 42.801361
221.124542 13.48754
221.161911 14.9752
221.179947 9.859542
221.204544 9.473214
221.225967 22.68745
221.238495 8.300058
221.251236 12.01322
221.275421 11.1628
221.297119 14.57191
221.308472 5.510093
221.324371 6.835439
221.33989 3.169643
221.355392 6.478044
221.396622 23.03907
221.452576 3.510204
221.463943 11.86207
221.482788 6.207792
221.498383 4.413265
221.511185 7.550202
221.523239 20.17762
221.562149 21.38604
221.703156 10.51688
221.757477 9.348602
221.787033 15.69625
221.811157 14.86333
221.871918 10.07337
221.95845 12.51101
222.426483 2.960034
222.537048 4.469898
223.477448 8.311224
223.878189 3.920918
224.529266 8.873377
224.995956 4.0
225.047302 10.40292
225.427673 8.162313
226.441971 7.976813
227.174667 4.288461
227.715027 3.451007
228.208771 4.162946
228.345428 6.060345
228.909409 26.395109
228.960907 4.886662
229.308472 3.173029
229.499008 3.778061
229.527344 18.356871
229.546066 9.87576
229.566986 20.72998
229.581482 7.529762
229.609818 41.305851
229.641403 36.004162
229.689056 15.93929
229.708817 17.30311
229.725739 86.795937
229.76329 14.78287
229.787399 16.143431
229.801605 4.770963
229.81459 32.3564
229.832245 26.662901
229.853867 16.69907
229.868912 9.984244
229.895996 17.475771
229.911697 25.1994
229.923767 15.56637
229.951202 8.320055
229.970642 11.83866
229.995392 27.255211
230.02832 18.952841
230.046707 6.146429
230.094925 38.25016
230.224365 7.950974
230.368927 25.23242
230.464157 10.00731
230.516586 4.910714
230.704132 14.27283
230.791092 7.855464
230.895187 8.798872
230.947083 22.5278
230.968079 19.774441
231.003357 37131.480469
231.081955 2.31044
231.156006 3.719828
231.193024 4.000415
231.346008 50.24754
231.400391 35.570641
231.412674 24.561689
231.428864 38.29361
231.458786 72.649933
231.4841 29.99391
231.506302 23.273491
231.534637 19.04995
231.571442 66.811653
231.616074 48.4967
231.637283 6.646104
231.652847 38.890652
231.684021 70.365921
231.751587 18.389191
231.781555 2.955357
231.79715 45.957062
231.816681 12.72619
231.881775 41.87006
231.930725 30.989149
232.062988 16.19249
232.077255 4.872449
232.126694 6.660714
232.181015 5.196429
232.2034 10.17664
232.256683 20.462351
232.268646 15.26355
232.361359 5.440476
232.53598 9.683542
232.591614 6.171218
232.639633 9.292518
232.703003 12.72732
232.734924 3.589286
232.831009 46.557461
232.856155 5.12876
232.97406 4.680272
233.046265 11.01211
233.159409 9.257326
233.175247 5.152256
233.501236 5.635204
233.521744 5.068681
233.588486 4.888976
233.600769 6.603678
233.696579 19.916719
233.739212 8.651786
233.760681 40.314369
233.782471 16.251619
233.804855 5.965909
233.891876 3.196429
233.907379 16.48744
233.930801 8.373377
233.946518 2.727814
233.994431 5.584821
234.049606 1286.868042
234.10112 10.85893
234.148941 4.017857
234.19635 13.44312
234.218475 46.84341
234.27121 3.332373
234.300583 8.234307
234.313461 8.57764
234.39209 32.05883
234.411636 15.57143
234.433762 21.93256
234.484253 4.165714
234.554443 22.41992
234.567459 10.14435
234.593475 13.11403
234.639908 12.29086
234.650894 10.63874
234.673599 13.16582
234.698242 20.88665
234.741302 22.06044
234.788788 12.33596
234.812103 23.810921
234.840866 16.50477
234.858566 16.02302
234.927261 14.73246
234.979126 53.049568
234.995941 5.73545
235.028122 156.636002
235.057358 11217.849609
235.122971 58.324829
235.14592 39.41153
235.18187 11.2878
235.245193 13.9613
235.265366 114.953903
235.318008 100.853302
235.338715 18.521219
235.354599 19.89806
235.371262 6.708148
235.412552 69.315781
235.444366 41.371349
235.488541 48.169392
235.560379 23.784309
235.586182 27.731991
235.638443 37.163872
235.662292 8.121631
235.683624 7.626832
235.698364 11.23082
235.746246 15.29105
235.834167 18.73641
235.867493 34.95591
235.902451 75.923912
235.926804 10.44778
235.959473 13.35274
236.040436 21.17115
236.065643 22494.169922
236.233475 64.640694
236.345047 35.09613
236.381149 30.593269
236.459137 67.702797
236.470825 23.972019
236.567291 52.26852
236.600189 33.732529
236.626724 4.20119
236.64299 35.891609
236.667191 46.33593
236.699326 86.437271
236.741241 18.04015
236.757324 47.70752
236.787903 45.218891
236.832825 11.42857
236.926041 9.790178
236.996735 40.21891
237.044449 49.785709
237.182663 2.099206
237.294724 3.861486
237.43071 14.99918
237.482391 3.721273
237.531754 17.317169
237.609634 13.72132
237.777954 3.333995
237.863129 4.285714
237.916779 4.428571
237.97583 3.977444
238.022858 33.13382
238.115707 30.23572
238.141006 30.75729
238.160797 30.544889
238.194031 32.675591
238.265747 25.1549
238.313522 23.554729
238.340881 3.149286
238.361511 19.187281
238.392471 19.29771
238.41069 4.658928
238.439865 15.8867
238.486145 7.202031
238.521347 24.77565
238.602081 11.12282
238.719757 27.21962
238.854706 12.70251
238.905853 16.62768
238.95018 20.10631
238.990601 29.248131
239.085861 6.714796
239.771667 3.744361
239.825577 12.04435
239.878708 8.460318
240.080841 13.34933
240.100418 6.835439
240.213593 8.603684
243.003052 181.832993
243.047241 5.016917
243.318619 7.063025
243.345627 5.163206
243.393219 3.68515
243.42482 4.845779
243.466629 12.03177
243.533371 16.21994
243.60347 16.76856
243.658966 8.067857
243.687653 3.86088
243.702469 6.714744
243.729675 8.691342
243.750137 7.232143
243.769119 3.866667
243.807144 6.144048
244.068527 3.764286
244.383286 3.531513
244.586197 6.961134
244.638947 3.880791
244.666153 5.819965
244.711945 7.335404
244.789963 6.309331
244.966141 7.897248
245.018051 9248.529297
245.104019 10.62081
245.123474 5.68069
245.137192 7.151478
245.156113 33.918739
245.178329 22.19541
245.190826 18.61038
245.224655 6.931548
245.259125 24.94294
245.292618 19.90798
245.319565 28.363291
245.334717 14.04607
245.353806 23.570709
245.383545 18.973249
245.39978 14.41011
245.42421 29.64702
245.440735 10.56712
245.457275 27.186819
245.475647 14.025
245.5168 56.834591
245.573776 20.619381
245.581512 10.17857
245.624741 4.572205
245.641586 6.361695
245.675339 15.56314
245.70256 8.742857
245.777954 10.37901
245.822327 21.371149
245.86586 18.360359
245.963547 3.779378
245.99501 6.305124
246.727417 7.004762
246.89975 7.098157
246.94603 8.000293
247.181198 3.240207
247.531342 3.720238
247.854355 4.57697
248.523026 3.605042
249.364517 4.635715
249.934769 7.68254
250.078125 6.803571
250.49707 2.885714
253.394821 4.612197
254.434738 11.63497
254.470139 8.236778
254.553558 5.428571
254.880829 7.329811
254.908905 3.791667
255.001114 186.015198
255.176483 15.44793
255.264511 3.857507
255.359039 12.7145
255.420197 3.67437
255.948898 9.150893
256.010498 2118.593018
256.071625 4.784266
256.106232 24.30015
256.149017 3.639098
256.214569 7.053571
256.288239 5.620879
256.30481 26.54328
256.320038 3.829286
256.351135 13.50101
256.405212 4.143221
256.494354 3.621429
256.517853 5.35119
256.55719 9.989286
256.686005 6.603571
256.76825 8.892858
256.83432 5.862637
256.918488 2.744048
256.93515 5.116694
257.49823 5.510568
257.654541 3.017857
257.805359 4.890781
257.951141 4.828571
258.265381 4.680195
258.386597 5.021978
259.034271 157.063599
262.94162 5.87406
265.089905 34.766449
266.917419 4.699248
267.087402 6.906593
267.332397 3.779378
267.417145 6.428896
267.54715 4.88076
267.622192 12.60861
268.128296 14.21024
268.305359 3.863095
268.834106 4.174689
268.942993 18.25
269.017792 751.825806
269.142792 8.59261
269.220795 8.0575
269.257599 17.72143
269.291199 58.079559
269.315918 7.443923
269.348969 78.995308
269.378906 99.4804
269.409973 28.639191
269.426575 25.35866
269.441681 71.430573
269.460266 12.8631
269.484863 105.923302
269.530121 27.54286
269.545654 97.697128
269.575256 155.049896
269.616882 82.918213
269.646149 7.145581
269.667419 15.73724
269.682465 36.843182
269.721161 10.1033
269.737091 121.983902
269.758698 18.744989
269.825958 69.622757
269.912201 65.167419
270.052734 11.28597
270.089508 24.48707
270.137939 6.083049
270.172333 22.7244
270.193146 16.083731
270.217712 8.875
270.235016 7.230327
270.256866 15.18324
270.465546 23.84198
270.496277 7.784266
270.629761 6.060065
270.651825 23.913549
270.766296 11.03571
270.788788 31.48494
270.810211 5.373258
270.860657 22.36874
270.940125 10.5487
270.97998 42.30743
271.034698 84387.882812
271.076202 1.286905
271.312012 10.37795
271.430725 8.744361
271.547546 50.756191
271.583252 69.368622
271.599304 23.18486
271.62738 164.036697
271.658569 31.341221
271.682892 111.5569
271.703125 78.394867
271.753784 100.409599
271.786255 92.112053
271.818115 53.916321
271.838654 127.753799
271.883301 98.47245
271.910217 93.117126
271.9422 42.567619
271.956909 26.89712
271.983429 59.9109
271.998962 15.42227
272.022125 4.572917
272.146851 20.425659
272.203766 16.543751
272.221466 27.09181
272.280975 24.70224
272.302368 27.467211
272.365875 4.444444
272.389465 3.394315
272.407257 14.69249
272.42511 15.55136
272.467072 159.080002
272.52066 21.08477
272.653625 15.23791
273.00647 21.17066
273.049957 16021.400391
273.157135 77.296333
273.193481 42.81411
273.23761 33.741039
273.254028 13.53026
273.26767 61.69836
273.300293 38.294041
273.313751 72.012222
273.351013 23.88306
273.374603 28.419649
273.40744 55.443871
273.435211 19.77124
273.448792 20.243469
273.51239 32.79417
273.539886 20.75392
273.563354 51.27787
273.590515 38.817669
273.606689 55.721561
273.632324 44.365089
273.838348 23.080931
273.856689 28.631149
273.954895 27.340611
274.141571 46.213711
274.214844 18.71269
274.485382 25.37402
274.673676 6.858631
274.742859 3.297619
274.777771 14.36803
274.818054 13.63866
274.996552 10.85929
275.065857 6.433673
275.123505 7.301623
275.156372 20.272961
275.239532 5.01941
275.357727 14.22553
275.729645 9.73718
275.759735 4.079433
275.934357 8.110849
276.036285 9.027875
276.342468 2.869898
276.400299 3.15126
276.439697 10.45742
276.789948 4.989011
277.066284 10.63158
277.185883 7.968915
277.880432 3.700188
278.201965 4.251701
278.532806 6.288636
278.667603 3.667328
278.831238 4.883658
280.113403 46.473209
281.816803 3.64011
282.020203 8.140498
283.884491 3.921296
284.427429 3.540344
285.045715 43.99897
290.139923 4.174689
300.448792 4.650862
300.64679 4.644643
302.272339 5.650974
311.66983 4.165293
311.688721 3.594925
311.995422 4.871118
312.757874 4.75487
313.034729 4.857804
313.274872 3.806391
313.570496 6.490348
313.875122 9.56277
313.90976 7.522059
313.989685 12.29241
314.025421 22.5271
314.052063 48.897949
314.080109 169.410706
314.098999 2.96875
314.119751 21.00017
314.164825 131.516495
314.196381 47.212471
314.217102 79.053429
314.234955 99.905006
314.257874 127.594597
314.28421 70.282013
314.320129 18.293751
314.342255 100.686096
314.366455 10.58793
314.392853 88.172096
314.434052 39.760979
314.470337 30.36447
314.488617 17.72714
314.516571 30.52466
314.534058 77.937859
314.563965 35.047119
314.600494 4.736722
314.628235 31.825569
314.697968 24.25104
314.791412 17.246269
314.82016 19.36937
314.882446 40.56802
314.903412 7.285953
314.921112 18.60948
314.952057 4.149845
314.987335 21.917101
315.111786 28.66197
315.174255 14.77153
315.437561 67.336372
315.482635 29.761221
315.543884 9.150023
315.647949 10.23316
315.769318 23.57399
315.818268 17.908091
315.846741 8.41149
315.917847 21.3734
315.960022 35.542
316.009583 41.327641
316.029816 153.345703
316.092712 93089.84375
316.610779 54.127201
316.64798 109.097397
316.692505 153.590393
316.737274 36.518589
316.75827 34.306229
316.77829 64.119087
316.805481 129.252197
316.837646 94.190483
316.914368 109.323502
316.943024 34.080479
316.979187 38.672729
317.023407 86.805901
317.055481 109.175903
317.213776 41.881199
317.254883 33.50964
317.32309 37.10582
317.369507 12.70514
317.392761 85.771233
317.50351 48.795361
317.588501 27.404819
317.62912 13.81997
317.732025 34.80003
317.861359 10.86243
318.041565 21.27269
318.083801 44.323002
318.117859 21.807011
318.151978 4.863354
318.189545 30.131229
318.276184 3.246921
318.341949 35.28566
318.43576 20.506981
318.478271 15.47886
318.512665 3.285714
318.880524 19.0923
318.921051 18.418301
318.965363 6.003419
319.29483 6.005727
319.323883 6.794643
319.445068 27.83585
319.995758 7.612755
320.06604 3.289452
320.109619 5.595238
320.135529 10.98418
320.171906 3.67437
320.190552 4.00487
320.474945 12.10051
320.576599 6.922469
320.67627 5.142857
320.726105 6.431851
320.807129 5.014831
320.913574 3.46367
321.212769 4.200715
321.277283 3.397487
321.386871 6.71627
321.443359 3.595046
322.017029 4.030172
322.297821 4.03882
322.625641 9.125576
323.842957 6.259259
324.970428 3.146777
330.032684 15.09431
333.936798 3.443966
334.037994 3.719388
344.605591 3.571939
348.420563 9.934262
354.144684 3.4375
361.154327 8.539712
369.036102 3.752232
369.636627 1.440934
377.219727 3.460317
426.96225 4.142857
428.779846 3.531513
436.154938 10.43002
436.34549 7.767857
502.012054 2.611607
563.861267 6.24026
698.490112 4.761905
980.728821 2.845497
990.066772 6.020963
1045.375732 20.571911
1154.075195 8.802592
1258.583984 4.883658
1308.142822 2.888975
1308.934692 9.615448
1437.492065 8.598485
1491.059082 4.912946
