>compound MLS000069725-01!SULFAPYRIDINE
>formula C11H11N3O2S
>ionization [M+H]+
>parentmass 250.06447404409053
#inchi InChI=1S/C11H11N3O2S/c12-9-4-6-10(7-5-9)17(15,16)14-11-3-1-2-8-13-11/h1-8H,12H2,(H,13,14)
#inchikey GECHUMIMRBOMGK
#Ion_Source LC-ESI
#Instrument qTof
#Compound_Source NIH Pharmacologically Active Library
#PI Dorrestein
#Data_Collector VP/LMS
#Scan -1
#Precursor_MZ 250.067
#ExactMass 249.057
#Charge 1
#CAS_Number N/A
#Pubmed_ID N/A
#Smiles Nc1ccc(cc1)S(=O)(=O)Nc2ccccn2
#INCHI_AUX N/A
#Library_Class 1
#SpectrumID CCMSLIB00000084874
#IonMode Positive
#UpdateWorkflowName UPDATE-SINGLE-ANNOTATED-GOLD
#LibraryQualityString Gold
#TaskID d252d724072548979f1f6f1ced849daf
##Scan# 1211
#SpectrumFile p3-B11_GB11_01_18244.mzXML
#LibraryName Pharm_Active_Library.mgf
#MQScore -1
#Organism Pharm_Active_Library
#TIC_Query 0
#RT_Query -1
#MZErrorPPM -1
#SharedPeaks 0
#MassDiff 0
#LibMZ -1
#SpecMZ 250.067
#SpecCharge 0
#internalFilename spec-00000.mgf

>collision 10
45.096817 88.0
45.869991 68.0
46.019741 68.0
46.360622 192.0
46.9002 136.0
46.932919 276.0
50.936378 260.0
50.977581 148.0
51.020222 208.0
52.004456 224.0
52.384071 236.0
54.364464 164.0
55.019474 224.0
56.457844 116.0
57.14336 196.0
58.180145 228.0
58.325977 168.0
58.446125 184.0
58.732536 84.0
58.819515 92.0
59.243103 240.0
60.951107 124.0
61.357342 192.0
62.629814 152.0
62.850529 124.0
63.340626 224.0
64.815941 52.0
64.997131 132.0
66.38929 84.0
66.571045 212.0
67.727386 188.0
67.910965 132.0
68.504364 96.0
69.092072 172.0
69.171501 180.0
70.78315 60.0
70.850143 160.0
71.447807 156.0
72.632004 128.0
72.643883 80.0
74.134079 192.0
74.182068 100.0
74.240364 232.0
74.779823 212.0
74.926193 128.0
75.731171 192.0
75.8386 188.0
76.223869 56.0
77.876572 196.0
77.989021 204.0
78.256416 184.0
78.295158 208.0
78.932213 120.0
78.94989 96.0
79.36071 232.0
79.401497 140.0
79.788597 176.0
80.18911 180.0
80.329971 156.0
80.828438 140.0
82.46859 124.0
83.445679 196.0
83.598473 208.0
86.880196 124.0
87.134537 44.0
87.433914 132.0
89.598534 176.0
90.298843 212.0
90.609283 68.0
91.616173 188.0
91.652374 144.0
91.854462 228.0
91.911697 208.0
92.049316 904.0
92.150368 128.0
92.395081 200.0
93.041008 324.0
93.055008 352.0
93.227249 176.0
94.053429 188.0
94.103683 172.0
94.285255 268.0
94.803902 228.0
94.974518 192.0
94.999733 164.0
95.061005 1572.0
95.970215 196.0
96.067726 188.0
98.010674 148.0
98.073738 196.0
98.750969 212.0
101.948891 152.0
102.090218 156.0
102.542587 244.0
102.909721 184.0
104.285225 204.0
105.136536 160.0
105.91346 64.0
106.18811 220.0
107.106873 168.0
107.965462 140.0
108.010963 120.0
108.044403 6360.0
108.068893 176.0
108.083374 304.0
108.207558 76.0
108.232407 84.0
108.288322 68.0
108.512115 84.0
108.893936 32.0
109.045372 316.0
109.634575 40.0
109.857674 144.0
110.043411 152.0
110.058029 176.0
110.639259 80.0
110.997536 172.0
111.094009 136.0
112.973129 204.0
115.057922 232.0
116.0485 136.0
116.108543 148.0
116.929237 176.0
117.062706 40.0
117.105782 132.0
118.055374 188.0
118.555443 192.0
120.053276 120.0
120.850563 60.0
122.204315 140.0
123.114586 188.0
123.220703 48.0
124.081627 256.0
125.649559 124.0
126.038048 124.0
128.061569 228.0
128.428955 316.0
129.999054 148.0
130.994904 160.0
132.005981 144.0
132.067719 396.0
134.706543 228.0
136.184357 192.0
138.107269 68.0
138.959961 140.0
139.829407 180.0
140.027176 36.0
140.05365 216.0
141.256897 60.0
142.019623 112.0
142.128738 208.0
143.198502 176.0
143.732498 196.0
144.987946 172.0
148.891449 40.0
150.117966 220.0
150.926208 236.0
152.561508 140.0
155.059464 112.0
156.011978 3172.0
156.048218 100.0
156.112076 152.0
156.144394 124.0
156.206589 108.0
156.271271 80.0
156.587402 64.0
156.796677 32.0
156.881424 128.0
157.009018 716.0
157.074615 680.0
157.108353 36.0
157.190689 48.0
157.647675 116.0
158.007935 312.0
158.207932 108.0
159.115463 56.0
159.331451 140.0
160.582489 28.0
162.774063 164.0
166.054642 148.0
167.061066 1364.0
167.637009 84.0
168.013443 156.0
168.068039 440.0
169.066177 176.0
171.058395 176.0
173.83403 144.0
182.072006 164.0
183.080536 1224.0
183.123581 76.0
184.086441 4652.0
184.143066 32.0
184.424057 60.0
184.478119 152.0
185.089401 1056.0
185.447159 56.0
185.715576 32.0
185.88649 84.0
186.027618 48.0
186.138931 44.0
186.4758 52.0
189.129654 36.0
198.679382 40.0
202.105362 156.0
216.936798 204.0
249.097641 44.0
250.060776 140.0
250.129028 52.0
251.058472 164.0
336.123413 96.0
422.852478 40.0
501.813782 52.0
507.967377 80.0
665.573303 52.0
701.026001 76.0
837.193604 164.0
855.565796 140.0
873.449036 104.0
971.003479 168.0
1012.411804 156.0
1018.322571 80.0
1026.181396 88.0
1030.65564 144.0
1036.952637 144.0
1076.070435 188.0
1077.879639 208.0
1081.515747 180.0
1083.02832 100.0
1083.381958 104.0
1096.464233 144.0
1101.267334 216.0
1101.815674 164.0
1108.266357 148.0
1111.429077 180.0
1113.79248 156.0
1140.358765 180.0
1145.142456 160.0
1161.289185 132.0
1169.789551 236.0
1170.490845 60.0
1179.605713 244.0
1190.430786 180.0
1194.004395 204.0
1200.967407 224.0
1217.015625 208.0
1217.758667 236.0
1223.7948 280.0
1233.911255 168.0
1233.974243 100.0
1244.230957 128.0
1247.399292 196.0
1251.690918 132.0
1262.742188 140.0
1265.275391 192.0
1268.697144 200.0
1271.711792 160.0
1279.338867 112.0
1282.572876 204.0
1285.625488 160.0
1301.344482 200.0
1312.057251 236.0
1314.754883 168.0
1318.394653 60.0
1319.710205 68.0
1324.131592 188.0
1324.30542 172.0
1324.45752 200.0
1324.73999 56.0
1336.297729 100.0
1338.699707 108.0
1339.71936 108.0
1356.842285 168.0
1360.642578 228.0
1369.746582 172.0
1370.431763 36.0
1379.767944 140.0
1384.970215 200.0
1393.092651 152.0
1399.65979 212.0
1408.766235 200.0
1419.483887 124.0
1421.61438 96.0
1423.183228 132.0
1423.498535 200.0
1426.075317 220.0
1435.3125 224.0
1436.353149 192.0
1438.005615 124.0
1443.165039 156.0
1443.414673 196.0
1450.74353 152.0
1463.134033 172.0
1464.085815 208.0
1465.769409 160.0
1469.635254 152.0
1477.037964 164.0
1484.60498 160.0
1486.699219 164.0
1488.272827 148.0
1489.56311 188.0
1496.53064 188.0
1505.035156 52.0
