>compound MLS001074303-01!Eterobarb
>formula C16H20N2O5
>ionization [M+H]+
>parentmass 321.1444981920905
#inchi InChI=1S/C16H20N2O5/c1-4-16(12-8-6-5-7-9-12)13(19)17(10-22-2)15(21)18(11-23-3)14(16)20/h5-9H,4,10-11H2,1-3H3
#inchikey DACOQFZGGLCXMA
#Ion_Source LC-ESI
#Instrument qTof
#Compound_Source NIH Pharmacologically Active Library
#PI Dorrestein
#Data_Collector VP/LMS
#Scan -1
#Precursor_MZ 321.15
#ExactMass 320.137
#Charge 1
#CAS_Number N/A
#Pubmed_ID N/A
#Smiles CCC1(C(=O)N(COC)C(=O)N(COC)C1=O)c2ccccc2
#INCHI_AUX N/A
#Library_Class 1
#SpectrumID CCMSLIB00000085585
#IonMode Positive
#UpdateWorkflowName UPDATE-SINGLE-ANNOTATED-GOLD
#LibraryQualityString Gold
#TaskID d252d724072548979f1f6f1ced849daf
##Scan# 2103
#SpectrumFile p4-C11_GC11_01_18359.mzXML
#LibraryName Pharm_Active_Library.mgf
#MQScore -1
#Organism Pharm_Active_Library
#TIC_Query 0
#RT_Query -1
#MZErrorPPM -1
#SharedPeaks 0
#MassDiff 0
#LibMZ -1
#SpecMZ 321.15
#SpecCharge 0
#internalFilename spec-00000.mgf

>collision 10
45.28669 112.0
45.341621 144.0
45.64753 160.0
45.774189 168.0
45.794388 184.0
45.87254 92.0
45.945362 200.0
46.150654 188.0
46.821003 108.0
47.138859 228.0
47.154087 140.0
47.621094 184.0
47.653713 252.0
47.692539 140.0
49.304493 260.0
49.518528 196.0
49.623623 184.0
49.808868 160.0
50.40057 48.0
50.467003 160.0
50.568855 60.0
50.629734 72.0
50.984398 132.0
51.720345 120.0
51.840649 236.0
51.896549 140.0
51.972569 188.0
52.144894 136.0
52.41544 64.0
53.399864 212.0
53.47261 132.0
53.764084 172.0
54.741886 164.0
55.476204 172.0
55.703247 236.0
56.005199 184.0
56.249741 152.0
56.288555 136.0
56.349796 160.0
56.613052 76.0
56.69545 124.0
56.876926 196.0
56.94149 92.0
57.971886 132.0
58.012806 108.0
58.431957 76.0
58.489784 172.0
58.58572 220.0
58.829716 132.0
60.081989 228.0
60.105133 156.0
60.154518 124.0
62.127804 44.0
62.712757 136.0
63.43195 152.0
63.962498 184.0
64.08831 184.0
64.206268 136.0
65.152252 128.0
65.301743 180.0
65.382187 140.0
65.404716 144.0
65.470726 200.0
65.688316 132.0
66.145615 224.0
66.233055 192.0
66.265457 148.0
66.939529 216.0
67.299889 132.0
67.31295 144.0
67.631752 184.0
68.469086 220.0
68.755943 104.0
68.888039 180.0
69.290039 156.0
69.427612 100.0
70.611725 152.0
70.882919 236.0
70.946609 128.0
71.136177 160.0
71.580032 164.0
72.165527 124.0
72.539673 180.0
72.573578 128.0
73.106949 108.0
73.152908 156.0
73.370964 160.0
74.488434 120.0
74.655144 64.0
75.096031 172.0
75.735542 124.0
76.045906 184.0
76.377769 164.0
76.449097 52.0
76.496094 208.0
77.061134 200.0
77.157257 216.0
77.651054 208.0
77.672104 160.0
78.303093 140.0
78.869453 152.0
79.526581 144.0
80.029663 100.0
80.065277 160.0
80.53791 168.0
80.654053 72.0
80.850792 272.0
81.049561 64.0
81.176826 200.0
81.41909 196.0
81.942535 200.0
83.330231 172.0
83.969162 72.0
85.410622 120.0
85.4235 124.0
86.907021 208.0
86.97197 204.0
87.669411 180.0
88.5868 188.0
89.699249 160.0
89.889732 188.0
90.082306 148.0
90.754158 160.0
90.812943 116.0
90.909698 192.0
90.953354 168.0
91.053268 1688.0
91.154663 172.0
91.287727 104.0
91.857201 204.0
92.060265 204.0
92.771263 156.0
93.064796 180.0
93.193481 156.0
93.612808 88.0
93.907669 216.0
94.019569 160.0
94.092918 148.0
94.214584 56.0
95.041298 112.0
95.926186 188.0
96.357475 228.0
96.3731 188.0
97.09935 80.0
97.545052 168.0
97.926773 208.0
99.040749 144.0
99.296425 152.0
99.930099 160.0
100.737511 136.0
101.00737 164.0
101.463951 188.0
101.833168 164.0
102.068291 204.0
102.174889 56.0
102.946869 40.0
103.055138 436.0
103.492828 192.0
103.575859 172.0
103.681213 132.0
104.048691 356.0
104.066628 224.0
104.660332 144.0
105.034836 1108.0
105.072662 1528.0
105.329247 48.0
105.509079 140.0
105.642006 212.0
105.742264 40.0
106.035141 184.0
106.071381 280.0
106.094582 140.0
106.174545 48.0
107.135033 152.0
107.251892 160.0
107.489059 168.0
109.343796 208.0
109.989922 80.0
110.081779 180.0
110.757309 184.0
111.722923 116.0
111.908127 188.0
112.173569 140.0
112.321175 180.0
112.711739 172.0
112.792046 180.0
113.475822 132.0
114.312706 160.0
115.054146 2480.0
116.057045 608.0
116.122185 56.0
116.199409 32.0
116.268074 68.0
116.295975 80.0
116.603104 140.0
116.689087 176.0
116.78801 176.0
116.852539 172.0
116.953682 140.0
117.011803 184.0
117.070007 6208.0
117.319878 32.0
117.60437 180.0
117.697441 36.0
117.747108 112.0
117.9394 180.0
117.995605 172.0
118.072304 1004.0
118.515045 148.0
119.068336 192.0
119.326782 132.0
119.372444 88.0
119.537766 136.0
120.086761 152.0
120.379196 188.0
120.728836 252.0
120.925735 140.0
121.065712 2424.0
121.383598 32.0
121.681999 156.0
121.769836 172.0
122.06884 640.0
122.363548 64.0
123.080116 148.0
124.113441 216.0
124.215454 52.0
124.53064 64.0
125.364922 184.0
126.815361 164.0
126.961082 100.0
127.050804 196.0
128.061905 468.0
128.474838 72.0
129.069687 924.0
129.215851 44.0
129.557693 152.0
129.784332 52.0
130.06488 524.0
130.34726 48.0
130.713364 188.0
131.048431 548.0
131.085602 2572.0
131.221283 88.0
131.33075 52.0
131.919861 160.0
131.979309 132.0
132.044434 5416.0
132.084564 148.0
132.157715 72.0
132.194321 48.0
132.394028 84.0
132.558426 72.0
132.618011 68.0
132.734924 32.0
133.046997 596.0
133.741165 120.0
133.953003 148.0
133.978348 224.0
134.056198 188.0
134.091263 108.0
134.141968 140.0
134.783554 172.0
135.054047 120.0
136.296631 48.0
136.529099 204.0
139.005325 152.0
139.430374 140.0
140.051682 196.0
141.326294 204.0
141.913681 168.0
142.064468 1672.0
142.195969 104.0
143.075256 632.0
144.04364 144.0
144.081146 408.0
144.397385 188.0
145.065201 1772.0
145.089508 188.0
145.13974 56.0
145.708572 112.0
146.067703 512.0
146.096283 1312.0
146.584381 96.0
146.808563 44.0
147.078781 284.0
147.097534 188.0
148.041016 80.0
149.092957 388.0
154.06308 124.0
154.31517 92.0
155.053665 176.0
156.020874 252.0
156.079163 856.0
156.264603 168.0
156.812424 120.0
157.064713 200.0
157.087418 232.0
157.126617 172.0
157.888458 232.0
158.058563 148.0
158.095581 2532.0
158.201233 56.0
158.744919 64.0
158.928024 112.0
159.072128 180.0
159.105286 548.0
159.395065 120.0
160.047638 164.0
160.075302 2380.0
160.104767 152.0
160.321106 88.0
160.606003 96.0
161.072403 164.0
162.074799 236.0
167.117691 132.0
168.861511 168.0
170.058502 176.0
172.044601 100.0
172.075607 536.0
173.072083 88.0
173.127075 48.0
173.302582 124.0
173.635483 92.0
174.089417 852.0
174.307526 44.0
174.851608 176.0
175.087357 144.0
175.318024 60.0
176.061966 144.0
176.080444 56.0
176.408081 108.0
176.960999 152.0
177.117249 196.0
178.904358 72.0
179.960114 124.0
182.462479 60.0
185.098557 176.0
186.089828 484.0
186.550064 144.0
186.653366 64.0
186.987976 48.0
187.052109 176.0
187.105026 152.0
188.071701 488.0
188.097305 112.0
189.076279 204.0
190.118759 244.0
192.863052 136.0
195.125076 144.0
197.397507 132.0
200.071381 124.0
201.007126 52.0
201.102615 504.0
201.258331 36.0
201.76123 52.0
202.109558 176.0
203.637085 100.0
204.100296 280.0
225.053268 72.0
239.018951 116.0
240.911987 68.0
263.053833 152.0
264.052246 152.0
270.046417 64.0
290.711945 92.0
308.741272 120.0
316.907928 68.0
323.317566 48.0
336.033783 156.0
391.156006 56.0
392.369354 96.0
430.414612 84.0
510.413269 100.0
523.153992 112.0
739.144165 36.0
782.654236 160.0
806.395447 116.0
845.801025 132.0
848.593262 220.0
880.651001 60.0
890.126526 116.0
906.680786 152.0
911.04895 88.0
914.181519 120.0
921.713074 140.0
924.234558 112.0
950.932861 72.0
956.932495 140.0
967.464844 128.0
968.684814 160.0
969.006958 164.0
981.013733 176.0
993.106934 208.0
1001.107422 156.0
1002.436584 156.0
1003.690979 124.0
1019.866089 168.0
1028.025269 148.0
1033.54541 180.0
1035.47229 48.0
1041.045288 160.0
1044.252197 236.0
1049.558594 252.0
1059.816284 164.0
1063.642578 84.0
1075.737183 200.0
1090.284302 160.0
1090.928467 152.0
1091.388672 132.0
1097.314331 220.0
1101.967407 152.0
1110.208374 144.0
1123.53125 240.0
1124.378662 212.0
1126.628784 192.0
1135.202759 188.0
1135.283203 124.0
1147.433472 48.0
1148.23584 148.0
1150.975708 108.0
1156.478638 192.0
1157.805542 188.0
1158.577759 160.0
1159.560303 112.0
1174.143311 168.0
1177.542114 188.0
1177.938232 220.0
1188.831299 168.0
1193.949341 176.0
1197.720947 136.0
1205.454834 72.0
1209.549194 168.0
1216.488037 40.0
1217.526001 164.0
1219.419189 132.0
1224.233398 104.0
1237.682617 232.0
1238.712036 184.0
1241.627808 88.0
1244.434692 264.0
1249.347168 176.0
1255.799561 212.0
1257.401123 200.0
1264.822388 200.0
1266.734253 164.0
1267.293945 208.0
1267.605713 204.0
1274.126221 144.0
1274.580933 192.0
1283.022095 88.0
1283.499878 160.0
1288.553101 88.0
1292.456909 120.0
1293.501831 196.0
1296.789551 32.0
1300.892456 188.0
1303.334229 172.0
1305.512329 220.0
1313.651123 160.0
1320.28894 148.0
1320.766235 148.0
1322.046875 160.0
1325.805298 164.0
1343.999268 228.0
1347.693848 104.0
1353.151123 140.0
1356.270752 140.0
1362.23645 216.0
1365.713257 164.0
1368.053223 192.0
1368.237183 176.0
1374.634888 44.0
1376.266235 204.0
1379.997437 164.0
1380.241455 148.0
1380.60376 236.0
1381.247314 196.0
1383.178589 148.0
1384.407593 212.0
1386.252197 168.0
1388.298096 176.0
1390.464355 188.0
1390.768677 28.0
1392.951782 176.0
1393.769043 204.0
1397.509033 164.0
1399.153809 132.0
1399.913208 92.0
1403.937378 184.0
1403.99707 144.0
1406.14563 180.0
1407.929932 108.0
1409.519409 160.0
1417.572754 44.0
1419.214355 152.0
1419.649292 112.0
1429.031006 160.0
1434.913208 180.0
1436.617554 164.0
1440.474976 76.0
1441.086914 140.0
1442.409424 188.0
1447.697998 168.0
1456.473022 124.0
1462.099243 252.0
1462.221069 84.0
1467.442871 176.0
1469.90271 164.0
1473.69751 156.0
1478.446045 196.0
1482.098755 152.0
1484.076294 204.0
1485.303345 136.0
1489.540405 76.0
1489.786255 80.0
1496.407837 184.0
1501.578491 56.0
1502.59668 148.0
