>compound MLS001158456-01!methyl 2-[[(2S)-1-(4,5-dimethoxy-3-oxo-1H-2-benzofuran-1-yl)-5-oxopyrrolidine-2-carbonyl]amino]benzoate
>formula C23H22N2O8
>ionization [M+H]+
>parentmass 455.145
#inchi InChI=1S/C23H22N2O8/c1-30-16-10-8-13-18(19(16)31-2)23(29)33-21(13)25-15(9-11-17(25)26)20(27)24-14-7-5-4-6-12(14)22(28)32-3/h4-8,10,15,21H,9,11H2,1-3H3,(H,24,27)/t15-,21?/m0/s1
#inchikey UZXXJBLDVJGIQA
#Ion_Source LC-ESI
#Instrument qTof
#Compound_Source NIH Natural Product Library
#PI Dorrestein
#Data_Collector VVP/LMS
#Scan -1
#Precursor_MZ 455.145
#ExactMass 454.138
#Charge 1
#CAS_Number N/A
#Pubmed_ID N/A
#Smiles COC(=O)c1ccccc1NC(=O)[C@@H]2CCC(=O)N2C3OC(=O)c4c3ccc(OC)c4OC
#INCHI_AUX N/A
#Library_Class 1
#SpectrumID CCMSLIB00000080583
#IonMode Positive
#UpdateWorkflowName UPDATE-SINGLE-ANNOTATED-GOLD
#LibraryQualityString Gold
#TaskID b1d8e8f6646f4e71acdff9ca3d919d08
##Scan# 1952
#SpectrumFile p2-H10_GH10_01_18070.mzXML
#LibraryName NIH_Natural_Products_Library.mgf
#MQScore -1
#Organism NIH_Natural_Products_Library
#TIC_Query 0
#RT_Query -1
#MZErrorPPM -1
#SharedPeaks 0
#MassDiff 0
#LibMZ -1
#SpecMZ 455.145
#SpecCharge 0
#internalFilename spec-00000.mgf

>collision 10
94.968559 104.0
95.0093 136.0
95.164566 176.0
95.333565 128.0
95.407425 148.0
95.421036 120.0
95.477425 52.0
95.672005 132.0
95.697319 204.0
95.744057 160.0
95.786903 124.0
95.814178 132.0
95.831711 132.0
95.872635 100.0
95.897972 44.0
96.081276 184.0
96.114441 188.0
96.34288 164.0
96.696808 196.0
96.739876 140.0
97.457695 212.0
97.544174 188.0
97.990906 32.0
98.156479 156.0
98.296539 120.0
98.571022 228.0
98.590782 68.0
98.638222 116.0
98.685669 148.0
98.733124 252.0
98.764771 124.0
98.804337 140.0
99.072586 192.0
99.258125 152.0
99.295593 168.0
99.406693 220.0
99.474174 148.0
99.583382 64.0
99.656509 188.0
99.67054 156.0
99.879547 352.0
99.945198 164.0
99.992966 216.0
100.026802 128.0
100.044716 124.0
100.710747 88.0
100.724731 156.0
101.018585 148.0
101.166672 168.0
101.302849 124.0
101.580238 236.0
101.599556 68.0
101.651718 72.0
101.824371 168.0
101.914772 240.0
102.125862 184.0
102.329109 184.0
102.369385 148.0
102.451965 144.0
102.466064 172.0
102.552719 132.0
102.802803 52.0
102.839134 176.0
102.913826 212.0
103.01683 56.0
103.083504 132.0
103.162331 152.0
103.368637 148.0
103.453644 224.0
103.627823 184.0
103.974579 40.0
104.020576 264.0
104.570076 264.0
104.647438 200.0
104.924522 196.0
105.030861 360.0
105.246902 108.0
105.338806 80.0
105.354866 172.0
105.383751 116.0
105.79689 244.0
106.033791 244.0
106.196472 232.0
106.210831 152.0
106.453011 180.0
106.660522 196.0
107.014374 336.0
107.049438 888.0
107.245102 140.0
107.442337 168.0
107.529739 96.0
107.57515 156.0
107.64122 220.0
107.746353 196.0
107.996689 64.0
108.019447 172.0
108.049416 328.0
108.271965 140.0
108.470879 124.0
108.55381 56.0
108.738449 248.0
108.81675 200.0
108.894165 164.0
108.908707 324.0
109.028397 2180.0
109.062141 328.0
109.105133 184.0
109.120674 60.0
109.14315 208.0
109.16642 36.0
109.316978 172.0
109.36615 152.0
109.711952 60.0
109.730713 204.0
109.85376 160.0
110.03476 220.0
110.081261 156.0
110.631371 200.0
110.691879 204.0
110.890907 232.0
110.968468 156.0
111.064941 268.0
111.573135 212.0
111.690895 144.0
112.019279 148.0
112.158356 136.0
112.299629 156.0
112.567657 168.0
112.609894 156.0
112.707077 192.0
112.859268 64.0
113.233833 164.0
113.310097 212.0
113.333397 144.0
113.659943 144.0
114.05072 124.0
114.244225 136.0
114.625351 116.0
114.702072 164.0
115.013504 180.0
115.060471 160.0
115.433586 212.0
115.524223 152.0
115.740395 204.0
115.946045 112.0
116.442665 144.0
116.789848 220.0
116.86084 152.0
116.908981 180.0
117.014793 196.0
117.019203 104.0
117.031967 412.0
117.282936 156.0
117.41877 144.0
117.684196 172.0
118.045059 84.0
118.081825 168.0
118.116432 144.0
118.22245 224.0
118.246254 176.0
118.343674 188.0
118.508286 112.0
118.646996 204.0
118.688194 160.0
118.779282 148.0
119.039726 344.0
119.115746 56.0
119.220039 116.0
119.6297 152.0
119.946999 188.0
120.019928 320.0
120.619331 168.0
120.678352 156.0
120.783325 128.0
121.029366 1788.0
121.226845 64.0
121.306686 216.0
121.361496 176.0
121.398781 284.0
121.416321 64.0
121.534782 188.0
121.554527 164.0
121.684036 216.0
121.723557 60.0
121.969627 168.0
122.035133 2920.0
122.18074 68.0
122.198341 184.0
122.237946 56.0
122.286362 120.0
122.308372 196.0
122.334785 148.0
122.427269 68.0
122.577065 176.0
122.797523 172.0
122.841644 56.0
122.932106 116.0
123.010376 316.0
123.039886 588.0
123.245667 168.0
123.298706 72.0
123.387123 64.0
123.451248 160.0
123.772118 112.0
123.865135 44.0
124.040695 160.0
124.075668 120.0
124.2873 196.0
124.86174 84.0
125.035271 64.0
125.066437 148.0
125.24234 136.0
125.39608 180.0
125.48748 136.0
125.83107 236.0
125.864563 112.0
125.9673 192.0
126.022766 184.0
126.266815 160.0
126.333923 140.0
126.481918 180.0
126.633934 144.0
126.671951 164.0
126.750374 60.0
126.772781 144.0
126.855713 92.0
127.129967 160.0
127.151794 176.0
127.704498 140.0
127.758492 112.0
128.274185 104.0
128.748016 152.0
128.872253 116.0
129.333603 140.0
129.383408 188.0
129.891037 128.0
130.040787 180.0
130.06575 176.0
130.2565 124.0
130.356476 184.0
130.536057 56.0
130.784042 172.0
130.870544 144.0
130.968475 100.0
131.093781 116.0
131.184952 148.0
131.401611 156.0
131.454086 120.0
131.522568 92.0
131.58876 160.0
132.021942 176.0
132.112137 152.0
132.256302 88.0
132.320389 28.0
132.881927 172.0
132.943878 112.0
133.02887 308.0
133.483719 212.0
133.748535 120.0
133.838089 176.0
134.035065 696.0
134.199844 172.0
134.448975 148.0
134.497452 88.0
134.735306 232.0
134.890137 168.0
135.006561 556.0
135.043793 5324.0
135.209335 200.0
135.32045 116.0
135.405472 236.0
135.444427 164.0
135.560791 84.0
135.7659 156.0
136.013977 304.0
136.046844 436.0
136.252808 32.0
136.378296 104.0
136.703568 112.0
136.836578 168.0
137.023926 1532.0
137.058441 356.0
137.216339 44.0
137.360931 76.0
137.631653 64.0
137.690033 52.0
137.853577 248.0
138.027359 200.0
138.06163 152.0
138.092041 144.0
138.120102 240.0
138.246445 84.0
138.349442 128.0
138.407974 176.0
138.426712 184.0
138.548508 84.0
138.580658 168.0
138.623489 40.0
138.684418 144.0
138.961136 60.0
138.991638 140.0
139.043274 176.0
139.181778 132.0
139.282761 160.0
139.334976 232.0
139.543167 184.0
139.548767 148.0
139.75296 220.0
140.104568 220.0
140.221573 100.0
140.282867 104.0
140.400757 168.0
140.452652 128.0
140.835632 272.0
140.994675 156.0
141.106796 96.0
141.3936 200.0
141.419067 128.0
141.512436 236.0
141.678375 180.0
141.712708 204.0
142.429169 132.0
142.726242 148.0
142.797592 176.0
143.054565 112.0
143.153763 164.0
143.202209 224.0
143.404724 140.0
143.674194 208.0
143.700424 100.0
143.745773 200.0
143.891373 196.0
143.920029 148.0
143.979721 220.0
144.025101 144.0
144.24733 92.0
144.369263 240.0
144.469727 100.0
144.541504 160.0
144.575012 172.0
144.725815 48.0
145.03978 164.0
145.169128 36.0
145.291962 208.0
145.391068 196.0
145.436157 212.0
145.81012 116.0
146.035233 172.0
146.103485 192.0
146.218994 84.0
146.741714 172.0
146.859879 176.0
146.961212 156.0
147.040558 368.0
147.162888 244.0
147.43692 168.0
147.625488 176.0
147.642426 172.0
147.91098 120.0
148.012665 200.0
148.097427 192.0
148.223419 132.0
148.385468 140.0
148.599243 112.0
148.783691 156.0
149.023712 3968.0
149.06546 120.0
149.123779 168.0
149.305054 136.0
149.49588 40.0
149.663849 164.0
149.714981 148.0
149.819717 180.0
149.863586 180.0
149.930801 232.0
149.963501 140.0
150.03038 5224.0
150.08783 192.0
150.195129 68.0
150.466019 224.0
150.641846 216.0
150.676056 44.0
150.705368 196.0
150.812897 168.0
151.034805 1328.0
151.194443 60.0
151.211578 212.0
152.037506 156.0
152.086594 104.0
152.29776 260.0
152.450089 172.0
152.558243 72.0
152.627075 136.0
152.799255 224.0
153.01442 152.0
153.124191 64.0
153.358261 136.0
153.395065 188.0
153.535767 76.0
154.023819 512.0
154.063995 148.0
154.118347 56.0
154.214737 216.0
154.491684 188.0
154.541168 112.0
154.630249 148.0
154.709473 136.0
154.744125 200.0
154.870422 80.0
155.02626 232.0
155.309158 108.0
155.534958 172.0
155.827988 52.0
155.903976 132.0
155.942307 140.0
156.345215 104.0
156.462204 136.0
156.561813 140.0
156.594315 148.0
156.658951 184.0
156.835876 148.0
156.890717 204.0
157.060287 212.0
157.19751 180.0
157.389709 104.0
157.454651 120.0
157.567047 184.0
157.867004 64.0
157.918839 176.0
158.057114 172.0
158.204788 140.0
158.387589 120.0
158.487808 144.0
158.743484 200.0
158.806183 144.0
158.996872 48.0
159.144974 176.0
159.828659 100.0
159.889069 108.0
160.017578 212.0
160.123199 140.0
160.448273 140.0
160.657593 144.0
160.675247 84.0
160.854431 140.0
161.032806 400.0
161.266159 208.0
161.369797 188.0
161.478546 128.0
161.792313 56.0
161.98732 232.0
162.033356 160.0
162.628845 132.0
162.666916 156.0
162.854828 160.0
162.936111 120.0
163.005219 344.0
163.038834 14688.0
163.096207 108.0
163.141968 240.0
163.159393 188.0
163.249023 116.0
163.312347 236.0
163.364441 116.0
163.442093 92.0
163.4879 76.0
163.505707 64.0
163.541336 156.0
163.678818 216.0
163.793427 64.0
163.872406 192.0
163.928452 200.0
163.971786 160.0
164.040802 1484.0
164.170639 48.0
164.234406 44.0
164.30838 32.0
164.328796 136.0
164.392578 204.0
164.489578 164.0
164.58403 48.0
165.017532 1388.0
165.052643 988.0
165.084885 48.0
165.116348 176.0
165.138596 200.0
165.241867 108.0
165.317688 176.0
165.418625 76.0
165.471268 112.0
165.501984 124.0
165.5737 168.0
165.701767 120.0
165.932434 72.0
166.022293 180.0
166.064728 136.0
166.196625 76.0
166.324936 176.0
166.4944 100.0
166.538055 44.0
166.661377 40.0
166.71405 96.0
166.987854 248.0
167.134491 192.0
167.260605 124.0
167.832535 52.0
167.882538 124.0
168.475204 200.0
168.619904 204.0
169.005219 188.0
169.137207 100.0
170.166412 168.0
170.514496 132.0
170.680878 176.0
171.091965 192.0
171.321152 216.0
171.511368 196.0
171.858231 212.0
172.244614 144.0
172.636658 224.0
172.814529 104.0
172.866867 172.0
173.199371 180.0
173.36058 144.0
173.66069 168.0
173.799744 152.0
173.986084 148.0
174.377487 180.0
175.036896 284.0
175.169495 144.0
175.364487 116.0
175.491028 208.0
175.585953 188.0
176.045334 120.0
176.208923 136.0
176.544632 204.0
177.020798 308.0
177.187851 208.0
177.426376 132.0
177.490005 80.0
177.64119 236.0
177.88002 144.0
178.026108 3176.0
178.121658 104.0
178.698563 80.0
179.001999 156.0
179.029099 628.0
179.065918 52.0
179.225754 216.0
179.537643 160.0
179.657684 64.0
179.788422 112.0
180.034027 104.0
180.151672 200.0
180.237061 88.0
180.345322 188.0
180.440186 104.0
180.493668 64.0
180.54982 144.0
180.672867 120.0
181.610443 192.0
181.696411 164.0
181.757996 120.0
182.937897 148.0
183.026733 176.0
183.452805 144.0
183.584152 248.0
183.719421 184.0
183.767975 64.0
184.321518 184.0
184.378265 96.0
184.405289 136.0
184.64592 180.0
184.767639 152.0
184.954361 156.0
185.049118 248.0
185.078903 136.0
185.276627 52.0
185.319977 156.0
185.450043 252.0
185.740173 164.0
185.905685 136.0
186.011536 244.0
186.139145 96.0
186.712555 196.0
186.794144 52.0
186.84584 144.0
187.368561 188.0
187.390366 172.0
187.455765 120.0
188.173141 156.0
188.405289 188.0
188.473587 124.0
188.73053 148.0
188.774277 108.0
188.80983 172.0
188.941132 144.0
188.9767 140.0
189.433899 224.0
189.455811 44.0
189.60379 148.0
190.363708 48.0
190.566971 176.0
191.032761 180.0
191.403152 156.0
191.458221 80.0
191.538101 152.0
191.562897 144.0
191.686874 136.0
191.706177 68.0
191.832962 52.0
192.014938 208.0
192.065567 328.0
192.10321 236.0
192.160736 80.0
192.354324 144.0
192.390213 216.0
192.41507 100.0
192.465057 228.0
192.495789 120.0
192.539322 160.0
192.566086 152.0
192.612488 164.0
192.660858 240.0
192.704422 156.0
192.758881 176.0
192.826263 140.0
192.852432 428.0
192.871811 212.0
192.890228 256.0
192.9151 60.0
192.938446 136.0
192.969971 288.0
193.013626 592.0
193.050156 119984.0
193.121231 184.0
193.155228 72.0
193.187729 128.0
193.223358 52.0
193.254547 164.0
193.292572 160.0
193.320343 112.0
193.365646 68.0
193.414032 208.0
193.464661 80.0
193.506241 272.0
193.534653 120.0
193.543152 116.0
193.554672 108.0
193.590805 192.0
193.632599 104.0
193.68277 132.0
193.724945 100.0
193.764343 100.0
193.799133 116.0
193.838135 172.0
193.879868 80.0
193.931 56.0
193.979416 60.0
194.052933 12944.0
194.129868 44.0
194.137558 56.0
194.19873 136.0
194.219559 60.0
194.255432 124.0
194.292648 48.0
194.330338 48.0
194.358551 164.0
194.381348 104.0
194.402695 52.0
194.444107 80.0
194.471863 88.0
194.519058 128.0
194.550461 64.0
194.571808 56.0
194.678711 88.0
194.735641 100.0
194.780075 132.0
194.806396 84.0
194.847961 64.0
194.882874 64.0
194.908081 56.0
194.949768 56.0
194.977356 192.0
194.999588 36.0
195.054062 1336.0
195.082977 180.0
195.106354 76.0
195.149704 60.0
195.203918 164.0
195.266144 64.0
195.281143 76.0
195.320526 124.0
195.349945 124.0
195.385056 84.0
195.438232 108.0
195.477707 152.0
195.503922 200.0
195.531265 148.0
195.555862 180.0
195.601425 88.0
195.64772 52.0
195.681122 132.0
195.761871 56.0
195.825928 96.0
195.937363 52.0
195.973572 56.0
196.015381 52.0
196.052002 192.0
196.090622 52.0
196.157516 52.0
196.302505 56.0
196.422424 72.0
196.464279 56.0
196.517288 124.0
196.536819 92.0
196.556351 92.0
196.676361 164.0
197.355225 36.0
197.453094 52.0
197.856049 40.0
197.875641 124.0
198.047729 80.0
199.48317 48.0
199.890991 40.0
201.093933 176.0
201.133896 76.0
202.542068 84.0
202.615723 40.0
203.412613 136.0
203.662506 144.0
203.818756 48.0
204.000656 128.0
204.208221 44.0
204.270798 120.0
204.296402 36.0
204.899963 132.0
204.951248 136.0
204.988297 92.0
205.099442 40.0
205.975464 96.0
207.360336 176.0
207.913849 68.0
209.037506 184.0
210.331573 104.0
212.069977 92.0
212.89975 68.0
213.140854 72.0
214.036774 180.0
214.12706 68.0
214.342636 84.0
217.460159 84.0
218.047577 128.0
219.723083 52.0
220.080215 192.0
222.071869 144.0
222.953644 164.0
223.059052 144.0
225.008987 148.0
225.989319 60.0
229.090698 144.0
230.076691 152.0
231.083282 136.0
236.074966 88.0
237.667862 112.0
238.079208 88.0
240.067245 224.0
240.317108 72.0
241.073639 80.0
242.88176 160.0
243.518066 36.0
244.410278 100.0
246.068466 132.0
248.538025 88.0
250.049988 188.0
251.016754 168.0
251.057755 148.0
252.071091 104.0
256.450775 44.0
256.817444 56.0
257.088654 84.0
261.930115 76.0
264.06366 188.0
266.300049 144.0
267.100098 148.0
272.099701 160.0
274.092926 112.0
274.429138 28.0
275.059265 160.0
279.067932 48.0
280.076294 100.0
280.102936 124.0
281.801025 64.0
282.07785 96.0
286.0401 168.0
291.013214 180.0
294.081573 264.0
294.701996 100.0
295.091614 140.0
296.060028 212.0
298.104614 144.0
298.455261 148.0
300.773834 96.0
302.342987 36.0
305.277924 172.0
306.151428 88.0
307.570465 136.0
310.425385 96.0
316.047394 104.0
317.301208 64.0
322.055511 148.0
322.505707 40.0
325.978546 84.0
326.102295 968.0
327.114624 308.0
327.349121 44.0
327.44635 80.0
327.493195 184.0
328.105804 144.0
329.264099 128.0
334.110504 184.0
343.883698 72.0
345.809357 124.0
350.663757 76.0
356.257904 180.0
356.355591 60.0
358.082245 36.0
362.547882 40.0
368.18222 164.0
378.569794 52.0
380.893005 92.0
385.88913 100.0
391.405914 84.0
396.854797 64.0
397.05307 112.0
399.09024 196.0
400.272034 100.0
405.826172 68.0
416.074341 308.0
421.511902 92.0
424.311584 44.0
435.0672 56.0
437.547089 20.0
438.11972 148.0
441.187103 112.0
452.305573 44.0
456.165741 116.0
461.071716 152.0
474.346191 104.0
477.794281 120.0
505.797333 128.0
506.710907 76.0
507.123169 52.0
514.112305 120.0
520.699524 60.0
560.240845 76.0
573.990784 84.0
589.766846 84.0
593.576965 32.0
596.256714 40.0
605.394348 56.0
617.132874 20.0
637.04126 48.0
680.664368 76.0
698.512817 164.0
720.807495 44.0
775.344543 52.0
828.973755 140.0
888.140869 256.0
904.365723 32.0
904.976318 76.0
908.992371 200.0
909.1604 36.0
927.768555 136.0
939.578979 92.0
961.793762 152.0
996.815002 136.0
997.317749 96.0
999.279785 104.0
999.512573 52.0
1003.518555 212.0
1013.974121 172.0
1021.720886 44.0
1031.528931 160.0
1036.867065 64.0
1042.116211 152.0
1045.38916 108.0
1052.918945 136.0
1054.424194 160.0
1060.261841 176.0
1069.120117 100.0
1069.582153 228.0
1079.041382 132.0
1083.321411 88.0
1092.453857 132.0
1092.696289 196.0
1097.293335 144.0
1101.146973 144.0
1103.202026 84.0
1103.671387 252.0
1108.722168 208.0
1111.679932 120.0
1116.808838 152.0
1117.919189 188.0
1121.14978 236.0
1122.336304 64.0
1138.358521 204.0
1138.691528 140.0
1141.547729 80.0
1147.122559 232.0
1149.591064 80.0
1152.264893 108.0
1154.150635 120.0
1159.356201 140.0
1164.091309 116.0
1171.763794 104.0
1172.642822 264.0
1173.590332 128.0
1175.043091 96.0
1181.451416 124.0
1183.176025 144.0
1186.793579 220.0
1187.561646 224.0
1189.517212 64.0
1189.668213 140.0
1191.027832 148.0
1210.414307 148.0
1211.023682 180.0
1212.504517 76.0
1212.970825 168.0
1214.836182 160.0
1216.411377 168.0
1219.731689 136.0
1222.200684 204.0
1226.490601 208.0
1229.992188 164.0
1231.067383 116.0
1232.219849 44.0
1248.777466 152.0
1248.82666 144.0
1249.832642 204.0
1250.480103 164.0
1252.261353 84.0
1253.628052 136.0
1255.594971 60.0
1255.644409 140.0
1263.166626 188.0
1266.139404 148.0
1269.682983 232.0
1272.904785 136.0
1273.302368 100.0
1274.154785 168.0
1276.265747 132.0
1280.706421 124.0
1284.362915 124.0
1286.004028 136.0
1286.118286 148.0
1289.639526 192.0
1292.335571 148.0
1293.616577 192.0
1298.976685 156.0
1299.184814 208.0
1299.421509 44.0
1302.228271 112.0
1302.328857 64.0
1307.116821 196.0
1307.505493 144.0
1307.57019 180.0
1313.081665 132.0
1313.348633 184.0
1318.807251 172.0
1318.922852 88.0
1320.368896 188.0
1322.459839 108.0
1323.502197 64.0
1326.371094 220.0
1328.669922 164.0
1335.534546 112.0
1335.658203 116.0
1336.174805 88.0
1337.717529 124.0
1337.848633 100.0
1338.394653 180.0
1338.642212 244.0
1342.657593 36.0
1345.736938 108.0
1349.338989 236.0
1349.50708 200.0
1351.474609 48.0
1352.067383 180.0
1352.682129 220.0
1355.494507 176.0
1359.124146 116.0
1359.505737 192.0
1361.282227 120.0
1363.229004 64.0
1364.287354 76.0
1365.50061 172.0
1366.670288 176.0
1368.554565 148.0
1370.668457 152.0
1370.720093 184.0
1372.164795 160.0
1373.669189 96.0
1381.21106 44.0
1381.410767 152.0
1383.112671 156.0
1386.089966 156.0
1386.275146 140.0
1386.623535 184.0
1387.572266 208.0
1387.89856 240.0
1388.6698 136.0
1389.300293 104.0
1389.352173 100.0
1390.821533 188.0
1391.459961 184.0
1392.997192 156.0
1393.286865 128.0
1393.799561 144.0
1394.438599 232.0
1394.676514 60.0
1398.879272 240.0
1401.716797 112.0
1408.625488 216.0
1409.103638 108.0
1409.791016 180.0
1412.736938 168.0
1414.255981 252.0
1414.323364 184.0
1414.974609 180.0
1419.53772 128.0
1420.047729 196.0
1420.407715 144.0
1422.891724 176.0
1425.625732 112.0
1428.513306 184.0
1429.980225 168.0
1433.097778 108.0
1434.401611 116.0
1435.547607 136.0
1435.984985 148.0
1437.702026 252.0
1438.150391 156.0
1443.832031 160.0
1444.94397 116.0
1445.920044 116.0
1447.873291 140.0
1448.736816 348.0
1451.806519 132.0
1452.618042 204.0
1457.279419 124.0
1457.773315 204.0
1460.373413 80.0
1461.23291 200.0
1464.544312 216.0
1465.009033 164.0
1465.344238 120.0
1465.847168 228.0
1471.903809 216.0
1472.743774 236.0
1475.662964 216.0
1476.511841 224.0
1477.865723 160.0
1478.103027 112.0
1479.61084 144.0
1479.802246 200.0
1480.644531 160.0
1481.425781 124.0
1485.843628 164.0
1486.432373 76.0
1487.606567 92.0
1488.673828 124.0
1494.292603 164.0
1494.638916 200.0
1496.901978 192.0
1498.373047 220.0
1499.675415 152.0
1500.592773 232.0
1503.068604 184.0
1503.956177 136.0
1504.342041 152.0
