>compound 1-[4-[4-[[(2R,4S)-2-(2,4-dichlorophenyl)-2-(imidazol-1-ylmethyl)-1,3-dioxolan-4-yl]methoxy]phenyl]piperazin-1-yl]ethanone
>formula C26H28Cl2N4O4
>ionization [M+H]+
>parentmass 531.157471
#inchi InChI=1S/C26H28Cl2N4O4/c1-19(33)31-10-12-32(13-11-31)21-3-5-22(6-4-21)34-15-23-16-35-26(36-23,17-30-9-8-29-18-30)24-7-2-20(27)14-25(24)28/h2-9,14,18,23H,10-13,15-17H2,1H3/t23-,26-/m0/s1
#inchikey XMAYWYJOQHXEEK
#Ion_Source LC-ESI
#Instrument qTof
#Compound_Source Commercial
#PI Dorrestein
#Data_Collector Garg_Neha
#Scan -1
#Precursor_MZ 531.156
#ExactMass 530.149
#Charge 1
#CAS_Number N/A
#Pubmed_ID N/A
#Smiles CC(=O)N1CCN(CC1)c2ccc(OC[C@H]3CO[C@@](Cn4ccnc4)(O3)c5ccc(Cl)cc5Cl)cc2
#INCHI_AUX N/A
#Library_Class 1
#SpectrumID CCMSLIB00000079205
#IonMode Positive
#UpdateWorkflowName UPDATE-SINGLE-ANNOTATED-GOLD
#LibraryQualityString Gold
#TaskID 278b19f5865741e282cec7349aa7e7a1
##Scan# 1179
#SpectrumFile NCP003592_G2_H11_BE3_01_15737.mzXML
#LibraryName NIHcollectionI_05062014.mgf
#MQScore -1
#Organism NIHcollectionI_05062014
#TIC_Query 0
#RT_Query -1
#MZErrorPPM -1
#SharedPeaks 0
#MassDiff 0
#LibMZ -1
#SpecMZ 531.156
#SpecCharge 0
#internalFilename spec-00000.mgf

>collision 10
45.409023 188.0
45.851349 228.0
49.50494 164.0
50.025841 180.0
50.689663 204.0
56.399605 184.0
56.441463 160.0
57.15395 184.0
59.396427 176.0
61.02417 192.0
61.871601 144.0
65.099831 156.0
66.279015 196.0
72.448814 172.0
72.54541 172.0
73.897652 180.0
74.056854 152.0
80.135468 200.0
83.214737 188.0
86.311371 176.0
87.46904 140.0
91.976318 164.0
92.80468 204.0
95.360611 176.0
96.800369 220.0
97.53019 160.0
97.963089 184.0
99.688393 164.0
100.03904 188.0
100.145966 180.0
100.938255 192.0
101.154327 144.0
102.111412 148.0
102.385117 152.0
104.720299 180.0
105.089272 140.0
105.745232 152.0
107.048859 148.0
108.083023 176.0
109.036942 188.0
109.255264 148.0
110.103615 208.0
110.997169 144.0
111.056976 188.0
111.961723 236.0
112.075439 2248.0
113.072205 572.0
113.271423 204.0
114.090355 160.0
114.290276 200.0
114.724747 180.0
115.057251 172.0
116.541779 152.0
117.076797 244.0
118.085258 152.0
118.212898 144.0
120.046074 212.0
120.079048 176.0
121.07782 148.0
121.391197 156.0
121.509636 140.0
121.957611 168.0
122.059944 284.0
122.21051 272.0
122.36898 184.0
127.052063 164.0
128.737732 148.0
130.067398 188.0
131.046753 156.0
131.069656 176.0
131.085602 144.0
131.382004 148.0
132.078903 540.0
133.060745 176.0
134.059723 372.0
134.958023 140.0
135.067169 2184.0
135.703552 176.0
136.073959 772.0
136.107285 156.0
137.084259 192.0
137.987564 148.0
140.022018 180.0
141.261185 168.0
142.341919 176.0
144.080032 632.0
145.06311 412.0
145.089127 424.0
146.059982 520.0
146.097275 1204.0
146.128067 156.0
147.063889 128.0
147.096848 176.0
147.974396 140.0
148.075073 3004.0
149.027008 256.0
149.076096 816.0
149.381958 152.0
150.02121 172.0
151.028458 144.0
151.05925 224.0
152.209702 148.0
152.288284 148.0
152.866013 168.0
153.65448 168.0
154.561249 212.0
156.080765 272.0
156.305618 152.0
157.090424 240.0
158.094864 560.0
158.976852 692.0
159.019608 184.0
159.071716 156.0
159.106613 196.0
160.075897 636.0
160.098129 180.0
160.971863 344.0
161.083359 204.0
161.974701 168.0
162.090408 388.0
162.119125 296.0
162.804062 176.0
163.123062 752.0
164.035507 152.0
165.008133 152.0
165.988785 192.0
167.022903 308.0
167.081665 1940.0
168.08165 308.0
168.162613 160.0
169.209534 160.0
169.500381 136.0
169.969482 472.0
170.979507 396.0
171.899734 148.0
171.963989 280.0
172.075333 512.0
172.113251 120.0
172.819489 152.0
172.95578 980.0
173.081543 148.0
173.634171 148.0
173.956894 180.0
174.091171 4376.0
174.954575 472.0
175.0952 164.0
175.121994 204.0
176.09169 256.0
176.953918 160.0
177.101959 6288.0
178.014984 144.0
178.107941 2408.0
179.026871 124.0
179.110733 164.0
181.038132 200.0
184.08046 144.0
184.607407 148.0
184.992645 972.0
185.964691 1856.0
186.08992 312.0
186.526947 224.0
186.986832 608.0
187.049225 164.0
187.122726 264.0
187.959412 1000.0
188.107239 612.0
188.127014 164.0
188.965836 336.0
189.138367 580.0
189.959412 180.0
190.091064 160.0
190.143707 412.0
191.095978 372.0
191.119324 368.0
191.165558 160.0
192.09903 648.0
192.698639 168.0
193.103424 128.0
197.351364 148.0
197.992172 176.0
198.091446 176.0
198.418076 200.0
200.107803 468.0
200.99231 160.0
201.10965 260.0
201.994583 244.0
202.975571 152.0
203.033646 880.0
203.122375 176.0
203.992661 324.0
204.042023 148.0
204.100067 152.0
204.967041 184.0
205.026886 200.0
205.049683 344.0
205.095703 300.0
205.1315 564.0
206.480011 208.0
207.12114 144.0
207.34462 172.0
207.470734 168.0
209.035431 1092.0
210.041687 148.0
211.030136 284.0
211.437057 152.0
211.720779 152.0
212.007584 228.0
212.120605 184.0
212.982407 160.0
213.993011 280.0
215.113007 360.0
215.989929 144.0
216.102707 1580.0
217.000824 156.0
217.1082 384.0
217.132904 5308.0
218.1353 472.0
219.112762 9200.0
219.771439 196.0
220.120239 5080.0
220.489014 156.0
221.123184 636.0
221.376511 220.0
222.132187 132.0
224.00798 140.0
224.993484 204.0
225.947052 120.0
227.005722 184.0
227.993362 280.0
228.989182 164.0
230.137207 228.0
230.425034 180.0
231.148163 144.0
232.12001 156.0
232.153366 140.0
233.048523 200.0
233.102692 148.0
233.128906 448.0
233.952087 152.0
234.04216 192.0
234.113052 936.0
235.045273 208.0
235.142868 2416.0
236.115433 164.0
236.144714 492.0
238.004471 1956.0
239.007248 348.0
240.00386 1120.0
241.005951 136.0
241.132919 144.0
241.265839 192.0
242.003098 280.0
243.164627 160.0
243.902283 112.0
244.005432 4520.0
244.616165 148.0
245.010864 732.0
246.000854 2908.0
246.050171 152.0
246.131516 152.0
246.162567 156.0
247.004623 112.0
247.064362 756.0
247.141876 252.0
247.998734 272.0
248.143188 144.0
249.059143 176.0
249.395721 188.0
255.008423 4404.0
255.85524 144.0
256.013977 504.0
256.677246 144.0
256.855865 176.0
257.005829 3076.0
257.130249 144.0
258.00827 396.0
258.370026 144.0
259.004608 312.0
259.143677 1272.0
259.692963 188.0
260.145721 228.0
260.726776 188.0
262.131714 164.0
265.102783 172.0
266.507812 192.0
267.007996 1764.0
267.242615 144.0
268.015869 500.0
269.006104 1328.0
270.008667 224.0
271.00174 324.0
272.995941 120.0
273.045715 164.0
273.160858 208.0
276.13446 164.0
277.076263 140.0
277.153351 284.0
279.067413 144.0
281.023468 672.0
282.027618 1244.0
282.124603 188.0
283.026703 300.0
283.983002 168.0
284.030365 408.0
286.019165 144.0
286.807343 160.0
292.979004 104.0
295.039856 136.0
297.028503 244.0
298.017517 112.0
299.007996 292.0
299.359131 216.0
300.006165 128.0
301.504883 188.0
302.002747 128.0
302.040771 148.0
302.289886 164.0
310.143433 188.0
311.038269 528.0
313.036285 496.0
314.024902 152.0
319.754059 144.0
320.024597 196.0
320.060211 172.0
321.678772 180.0
322.106293 172.0
323.021271 220.0
323.709534 156.0
327.011688 128.0
339.46286 172.0
343.139771 144.0
344.054718 168.0
346.280731 176.0
350.033936 152.0
352.033966 148.0
353.050415 168.0
353.671478 164.0
353.809967 172.0
355.02771 180.0
368.014801 148.0
368.606842 164.0
373.629578 144.0
377.053619 160.0
377.080688 152.0
378.064941 544.0
379.072815 172.0
379.829712 172.0
380.062714 528.0
381.069641 172.0
381.654999 148.0
382.049957 144.0
387.525269 156.0
388.081818 172.0
390.976837 144.0
393.081177 148.0
397.072784 176.0
404.078217 240.0
406.965271 200.0
407.22229 140.0
407.885254 140.0
410.760315 172.0
419.109772 204.0
420.084076 484.0
420.971924 144.0
421.106384 1336.0
422.076996 380.0
423.104065 984.0
424.082458 200.0
424.116608 292.0
432.090485 116.0
432.818909 140.0
438.985443 348.0
442.248291 144.0
443.500641 156.0
444.08606 112.0
446.099976 708.0
446.142883 148.0
447.111053 120.0
448.099823 248.0
448.266449 216.0
449.103302 144.0
450.095734 144.0
451.288666 148.0
451.821564 184.0
453.15094 148.0
458.479431 176.0
459.780151 148.0
460.074677 168.0
461.094086 152.0
463.113434 208.0
464.127716 208.0
464.937073 164.0
465.108124 108.0
466.122284 220.0
471.111481 160.0
472.121857 108.0
476.574677 148.0
476.972687 204.0
478.318573 144.0
483.315552 188.0
483.687561 212.0
487.106018 196.0
489.144928 7248.0
489.25119 204.0
489.453857 136.0
489.557587 152.0
490.061951 128.0
490.14682 2060.0
491.062012 120.0
491.143768 5340.0
491.4133 180.0
492.146545 1248.0
493.144592 928.0
493.204681 104.0
493.274719 108.0
494.158081 156.0
496.039124 144.0
499.471558 140.0
501.372101 188.0
503.545349 152.0
504.801117 248.0
509.673584 176.0
510.959473 208.0
513.116699 220.0
514.148254 140.0
514.3302 196.0
515.150024 116.0
516.924316 168.0
516.955994 152.0
521.45874 152.0
522.218628 156.0
522.491577 152.0
524.281006 156.0
524.463318 252.0
524.945068 112.0
525.288635 160.0
527.31134 156.0
528.059998 216.0
528.329285 148.0
528.683167 112.0
528.765686 180.0
528.921326 328.0
529.155884 288.0
529.31897 144.0
529.566772 132.0
529.883728 200.0
529.956299 176.0
530.114807 128.0
530.188171 132.0
530.219788 224.0
530.274353 224.0
530.43689 444.0
530.509033 192.0
530.566406 236.0
530.654541 160.0
530.734985 108.0
530.780823 200.0
530.833557 144.0
530.975464 180.0
531.027893 228.0
531.157471 120576.0
531.376831 160.0
531.474304 168.0
531.520996 248.0
531.586548 136.0
531.66095 192.0
531.782593 300.0
531.855408 192.0
531.916199 264.0
532.008057 252.0
532.159607 36240.0
532.28833 116.0
532.403442 208.0
532.472656 208.0
532.571289 268.0
532.643005 140.0
532.728027 152.0
532.765015 156.0
532.943054 108.0
533.016418 212.0
533.154419 77880.0
533.272278 196.0
533.40155 144.0
533.479004 296.0
533.56012 300.0
533.712158 108.0
533.772583 196.0
533.892212 188.0
533.953369 232.0
534.072021 180.0
534.156311 16852.0
534.271912 224.0
534.356445 132.0
534.431763 148.0
534.574158 116.0
534.707214 132.0
534.753784 148.0
534.87738 220.0
534.963379 148.0
535.066772 124.0
535.15094 8432.0
535.688354 200.0
535.838806 116.0
535.943909 184.0
536.153687 448.0
536.331482 300.0
536.380981 152.0
536.967957 204.0
537.100952 156.0
537.200195 108.0
537.303528 140.0
538.207886 192.0
538.620483 100.0
538.93042 148.0
539.057678 104.0
539.712891 172.0
546.006897 160.0
546.220459 96.0
579.530579 140.0
701.427185 172.0
729.422119 144.0
743.375916 120.0
889.22583 156.0
1115.228638 152.0
1179.107544 232.0
1361.678589 148.0
1412.609009 184.0
1431.123535 168.0
1561.228516 156.0
1585.963989 160.0
1593.280273 156.0
1595.464966 112.0
1644.933838 144.0
1706.089722 188.0
1739.463501 220.0
1767.390991 232.0
1802.547485 140.0
1817.00061 156.0
1823.360596 164.0
1856.844849 156.0
1864.949707 176.0
1871.522217 176.0
1878.873901 144.0
1886.309204 140.0
1898.872681 188.0
1900.998169 184.0
1923.417725 140.0
1960.306152 156.0
1967.980103 204.0
