>compound MLS001148158-01!HALOPERIDOL METABOLITE II
>formula C21H25ClFNO2
>ionization [M+H]+
>parentmass 378.16272
#inchi InChI=1S/C21H25ClFNO2/c22-18-7-5-17(6-8-18)21(26)11-14-24(15-12-21)13-1-2-20(25)16-3-9-19(23)10-4-16/h3-10,20,25-26H,1-2,11-15H2
#inchikey WNZBBTJFOIOEMP
#Ion_Source LC-ESI
#Instrument qTof
#Compound_Source NIH Pharmacologically Active Library
#PI Dorrestein
#Data_Collector VP/LMS
#Scan -1
#Precursor_MZ 378.166
#ExactMass 377.156
#Charge 1
#CAS_Number N/A
#Pubmed_ID N/A
#Smiles OC(CCCN1CCC(O)(CC1)c2ccc(Cl)cc2)c3ccc(F)cc3
#INCHI_AUX N/A
#Library_Class 1
#SpectrumID CCMSLIB00000086003
#IonMode Positive
#UpdateWorkflowName UPDATE-SINGLE-ANNOTATED-GOLD
#LibraryQualityString Gold
#TaskID d252d724072548979f1f6f1ced849daf
##Scan# 1048
#SpectrumFile p5-A04_GA4_01_18427.mzXML
#LibraryName Pharm_Active_Library.mgf
#MQScore -1
#Organism Pharm_Active_Library
#TIC_Query 0
#RT_Query -1
#MZErrorPPM -1
#SharedPeaks 0
#MassDiff 0
#LibMZ -1
#SpecMZ 378.166
#SpecCharge 0
#internalFilename spec-00000.mgf

>collision 10
44.88802 144.0
44.900021 368.0
44.918694 264.0
44.946712 200.0
44.961658 144.0
45.000103 112.0
45.01479 200.0
45.039257 200.0
45.080246 220.0
45.116333 156.0
45.128517 144.0
45.1618 72.0
45.17873 152.0
45.200825 188.0
45.228703 228.0
45.243427 136.0
45.254135 144.0
45.266186 216.0
45.282955 184.0
45.303688 168.0
45.339867 200.0
45.369354 80.0
45.380081 180.0
45.400196 148.0
45.421654 148.0
45.446903 156.0
45.486877 160.0
45.50486 196.0
45.545147 72.0
45.563953 120.0
45.582764 52.0
45.776318 176.0
45.807743 236.0
45.850563 140.0
45.881565 160.0
45.8937 112.0
45.906662 228.0
45.970589 48.0
46.011082 136.0
46.028633 188.0
46.069149 160.0
46.113571 140.0
46.140568 172.0
46.174583 56.0
46.193401 188.0
46.215805 144.0
46.255939 156.0
46.289612 164.0
46.306255 248.0
46.34404 176.0
46.366829 148.0
46.387161 148.0
46.404785 176.0
46.453281 232.0
46.517387 212.0
46.56163 356.0
46.584003 180.0
46.600227 92.0
46.619251 192.0
46.628765 184.0
46.646435 220.0
46.672268 196.0
46.743 152.0
46.762051 180.0
46.783829 368.0
46.805614 164.0
46.820595 196.0
46.841022 188.0
46.850559 172.0
46.887672 152.0
46.922569 320.0
46.956882 176.0
47.030525 168.0
47.035851 164.0
47.03894 312.0
47.075611 160.0
47.107189 168.0
47.124786 200.0
47.173985 176.0
47.286148 128.0
47.297096 184.0
47.316883 176.0
47.359406 200.0
47.37104 148.0
47.403923 220.0
47.417629 184.0
47.460125 144.0
47.499897 76.0
47.523079 352.0
47.542328 164.0
47.569878 140.0
47.611916 240.0
47.634418 168.0
47.667393 192.0
47.677013 112.0
47.711376 68.0
47.755379 208.0
47.776012 180.0
47.788395 148.0
47.81041 212.0
47.827568 192.0
47.852104 148.0
47.86272 52.0
47.87611 188.0
47.886879 152.0
47.987576 228.0
48.013962 128.0
48.03199 156.0
48.045963 80.0
48.068108 192.0
48.114971 168.0
48.12011 160.0
48.137775 128.0
48.148174 112.0
48.159031 236.0
48.188232 156.0
48.198864 104.0
48.255959 152.0
48.300209 140.0
48.337566 104.0
48.347252 256.0
48.361092 136.0
48.456642 200.0
48.481583 168.0
48.495209 164.0
48.512077 148.0
48.530102 152.0
48.544994 200.0
48.552876 132.0
48.588352 152.0
48.600838 184.0
48.614716 152.0
48.631371 160.0
48.657745 208.0
48.699402 192.0
48.713295 128.0
48.746639 152.0
48.792507 140.0
48.813362 140.0
48.848133 184.0
48.868332 160.0
48.887089 212.0
48.905182 156.0
48.917709 168.0
48.942772 204.0
49.026211 160.0
49.030609 144.0
49.07235 304.0
49.089081 96.0
49.119766 116.0
49.130924 160.0
49.146568 152.0
49.152466 164.0
49.182945 188.0
49.197289 212.0
49.238407 160.0
49.259357 188.0
49.291492 144.0
49.306862 248.0
49.319443 248.0
49.413136 188.0
49.439323 168.0
49.457054 200.0
49.467716 168.0
49.492916 148.0
49.502304 172.0
49.513477 164.0
49.56015 196.0
49.6092 128.0
49.652962 172.0
49.700363 140.0
49.758442 260.0
49.798729 232.0
49.803833 188.0
49.808079 176.0
49.880127 208.0
49.919426 168.0
49.937519 152.0
49.987015 168.0
49.996826 144.0
50.032055 196.0
50.055992 120.0
50.078526 208.0
50.165268 216.0
50.205368 68.0
50.216042 232.0
50.229343 196.0
50.264614 172.0
50.288605 220.0
50.311192 140.0
50.329544 140.0
50.379158 156.0
50.424786 172.0
50.456127 108.0
50.482155 116.0
50.511856 144.0
50.549553 180.0
50.623669 200.0
50.650578 136.0
50.667496 140.0
50.695995 140.0
50.737022 148.0
50.761124 164.0
50.781666 132.0
50.802254 76.0
50.815025 148.0
50.824955 144.0
50.889755 276.0
50.904446 56.0
50.999634 60.0
51.016689 176.0
51.05508 212.0
51.065037 204.0
51.097755 352.0
51.1376 200.0
51.190273 132.0
51.209599 180.0
51.234428 108.0
51.2444 200.0
51.258648 192.0
51.318516 108.0
51.382698 248.0
51.399677 164.0
51.446918 148.0
51.505466 184.0
51.615509 176.0
51.655144 208.0
51.678444 176.0
51.701046 176.0
51.748577 156.0
51.767147 124.0
51.776241 176.0
51.85046 160.0
51.863182 176.0
51.881817 168.0
51.917664 160.0
51.957645 160.0
52.000874 116.0
52.02079 196.0
52.027729 164.0
52.032223 148.0
52.0583 148.0
52.076969 124.0
52.104107 148.0
52.117195 148.0
52.132927 160.0
52.151684 220.0
52.177559 128.0
52.216385 48.0
52.246445 156.0
52.2644 148.0
52.281124 172.0
52.387672 112.0
52.420811 124.0
52.462608 188.0
52.550583 132.0
52.575115 376.0
52.615974 220.0
52.653072 76.0
52.67173 192.0
52.722317 224.0
52.759998 156.0
52.774456 200.0
52.797592 92.0
52.812057 156.0
52.826523 176.0
52.859798 176.0
52.875935 188.0
52.889717 196.0
52.962589 216.0
53.000183 164.0
53.043736 172.0
53.075115 328.0
53.151592 152.0
53.175728 164.0
53.187336 136.0
53.217823 188.0
53.241058 216.0
53.257034 188.0
53.271561 132.0
53.312496 228.0
53.338402 180.0
53.349602 104.0
53.414017 188.0
53.43293 368.0
53.482407 168.0
53.517345 196.0
53.578514 44.0
53.609112 216.0
53.67617 220.0
53.686378 136.0
53.699501 144.0
53.712631 176.0
53.762592 180.0
53.78463 128.0
53.830849 192.0
53.889275 92.0
53.905067 208.0
53.909069 168.0
53.940357 176.0
53.9799 124.0
54.002323 216.0
54.034019 180.0
54.07938 112.0
54.096947 164.0
54.118908 180.0
54.137943 180.0
54.149658 132.0
54.171631 124.0
54.185776 232.0
54.219982 92.0
54.252232 228.0
54.271523 172.0
54.284031 116.0
54.289062 100.0
54.292141 128.0
54.321152 128.0
54.337955 220.0
54.381672 164.0
54.411228 116.0
54.438568 228.0
54.472351 84.0
54.492916 108.0
54.533775 184.0
54.545822 164.0
54.585518 156.0
54.595814 84.0
54.625278 236.0
54.639942 120.0
54.653183 200.0
54.670841 144.0
54.687744 132.0
54.706165 44.0
54.743851 228.0
54.790058 120.0
54.86969 144.0
54.918354 156.0
54.931629 252.0
54.992126 68.0
55.00581 208.0
55.024601 156.0
55.045273 164.0
55.064693 212.0
55.080921 232.0
55.122147 336.0
55.143494 132.0
55.156078 132.0
55.17234 132.0
55.206348 148.0
55.232967 152.0
55.259598 120.0
55.313576 228.0
55.327679 160.0
55.338039 188.0
55.361103 160.0
55.383392 192.0
55.435108 188.0
55.468288 148.0
55.538101 188.0
55.552933 144.0
55.578156 144.0
55.600685 176.0
55.619709 164.0
55.659039 212.0
55.689495 168.0
55.716232 128.0
55.729603 120.0
55.766014 156.0
55.78793 164.0
55.830685 152.0
55.863575 180.0
55.900604 100.0
55.92144 168.0
55.949722 148.0
55.983967 124.0
56.000351 156.0
56.022736 148.0
56.077827 92.0
56.100185 244.0
56.120644 172.0
56.149391 136.0
56.162815 124.0
56.176239 168.0
56.201603 160.0
56.234432 84.0
56.246372 140.0
56.259808 168.0
56.295643 120.0
56.32402 168.0
56.395077 180.0
56.418163 124.0
56.428631 256.0
56.462379 244.0
56.485458 148.0
56.507896 140.0
56.552792 140.0
56.566261 144.0
56.586857 148.0
56.600697 152.0
56.611179 220.0
56.654613 156.0
56.669598 156.0
56.735542 164.0
56.753532 160.0
56.79068 192.0
56.806416 136.0
56.841042 164.0
56.874119 252.0
56.902069 96.0
56.92181 108.0
56.94215 292.0
56.963825 132.0
57.001202 148.0
57.080578 144.0
57.0914 164.0
57.135017 112.0
57.153072 172.0
57.195213 184.0
57.217793 96.0
57.241882 184.0
57.279537 180.0
57.318707 188.0
57.333775 84.0
57.350353 92.0
57.374474 196.0
57.39558 128.0
57.454861 132.0
57.475525 224.0
57.514763 156.0
57.567608 216.0
57.606876 168.0
57.633858 228.0
57.691502 176.0
57.709644 140.0
57.773167 176.0
57.830666 128.0
57.844288 128.0
57.877594 132.0
57.916443 184.0
57.93483 152.0
57.974545 164.0
58.000309 196.0
58.062553 148.0
58.077641 140.0
58.120117 112.0
58.165646 164.0
58.251942 140.0
58.270432 136.0
58.349461 104.0
58.363178 196.0
58.389343 176.0
58.413334 196.0
58.442238 156.0
58.470818 164.0
58.507683 124.0
58.53624 212.0
58.608276 176.0
58.624966 200.0
58.666119 156.0
58.71949 100.0
58.752205 152.0
58.772881 88.0
58.826324 124.0
58.839783 168.0
58.858112 148.0
58.90723 192.0
58.924038 84.0
58.954597 172.0
59.047852 116.0
59.119759 344.0
59.135063 164.0
59.15649 40.0
59.170269 144.0
59.205486 128.0
59.268291 256.0
59.278507 120.0
59.294346 116.0
59.30814 116.0
59.401676 244.0
59.429527 208.0
59.447704 60.0
59.509102 172.0
59.541348 160.0
59.585896 176.0
59.616985 352.0
59.665813 220.0
59.68187 180.0
59.719635 180.0
59.782711 132.0
59.798271 168.0
59.872002 76.0
59.894051 224.0
59.908966 164.0
59.950569 208.0
59.97831 136.0
59.994656 192.0
60.001221 116.0
60.007286 176.0
60.035355 160.0
60.087799 156.0
60.110947 212.0
60.138725 156.0
60.158791 140.0
60.205112 72.0
60.268444 56.0
60.294716 120.0
60.317574 176.0
60.345726 232.0
60.367374 124.0
60.380836 216.0
60.392467 196.0
60.460194 48.0
60.501987 124.0
60.653797 44.0
60.705299 228.0
60.736713 220.0
60.762352 192.0
60.786659 156.0
60.801144 156.0
60.82132 60.0
60.907017 232.0
60.913815 148.0
60.945385 176.0
60.971977 128.0
61.006172 80.0
61.040379 120.0
61.051262 128.0
61.113483 220.0
61.132156 172.0
61.16169 156.0
61.248726 156.0
61.26606 128.0
61.278522 44.0
61.306572 48.0
61.331509 152.0
61.348656 136.0
61.426624 156.0
61.443748 164.0
61.462509 116.0
61.515572 244.0
61.538483 148.0
61.541241 100.0
61.547546 192.0
61.582718 120.0
61.621769 216.0
61.653023 192.0
61.676464 128.0
61.72892 196.0
61.745258 148.0
61.757771 132.0
61.771851 212.0
61.797436 180.0
61.826611 80.0
61.848522 188.0
61.889473 204.0
61.925243 196.0
61.998878 104.0
62.011417 160.0
62.031796 152.0
62.042767 184.0
62.070992 168.0
62.10305 176.0
62.154125 120.0
62.188652 120.0
62.227894 112.0
62.24247 184.0
62.278149 164.0
62.314323 136.0
62.373997 224.0
62.389717 52.0
62.447269 180.0
62.471493 108.0
62.512669 140.0
62.541569 180.0
62.571583 220.0
62.58638 144.0
62.598873 352.0
62.650955 184.0
62.670387 168.0
62.68877 348.0
62.710835 188.0
62.784035 56.0
62.807014 132.0
62.840145 196.0
62.860657 160.0
62.887486 180.0
62.917477 160.0
62.931824 140.0
62.968006 164.0
62.984684 136.0
63.005917 340.0
63.054901 56.0
63.07703 140.0
63.100742 192.0
63.160076 324.0
63.187412 220.0
63.211464 188.0
63.253311 212.0
63.353424 212.0
63.385647 176.0
63.407066 124.0
63.51931 104.0
63.541031 228.0
63.581062 176.0
63.639435 136.0
63.660076 68.0
63.672783 136.0
63.690254 168.0
63.706139 216.0
63.725204 228.0
63.750626 160.0
63.774467 172.0
63.814209 144.0
63.879452 180.0
63.923134 268.0
63.948685 148.0
63.960567 40.0
63.987686 216.0
64.001961 308.0
64.040176 344.0
64.054512 160.0
64.07402 180.0
64.085785 188.0
64.105499 208.0
64.201729 176.0
64.225075 128.0
64.28846 164.0
64.31971 492.0
64.344757 104.0
64.394257 168.0
64.451767 100.0
64.469345 164.0
64.570061 176.0
64.584457 160.0
64.603653 268.0
64.690071 120.0
64.706078 192.0
64.723686 200.0
64.736504 176.0
64.752518 200.0
64.765327 180.0
64.776543 152.0
64.803772 172.0
64.819801 136.0
64.845436 204.0
64.920792 180.0
65.049149 100.0
65.061989 124.0
65.081253 136.0
65.097313 108.0
65.169594 84.0
65.190483 104.0
65.239891 168.0
65.274078 204.0
65.330368 176.0
65.348068 140.0
65.430145 108.0
65.517113 172.0
65.59285 104.0
65.626709 156.0
65.647064 160.0
65.665405 208.0
65.678314 192.0
65.710205 176.0
65.72187 168.0
65.736389 188.0
65.763794 188.0
65.818718 148.0
65.842941 188.0
65.86232 72.0
65.88707 100.0
65.917252 164.0
65.957458 228.0
66.046684 140.0
66.057915 180.0
66.085411 160.0
66.111862 196.0
66.146088 184.0
66.180672 136.0
66.206818 168.0
66.234352 200.0
66.282959 172.0
66.376968 120.0
66.390846 144.0
66.488907 180.0
66.522995 112.0
66.576569 260.0
66.61068 128.0
66.630173 220.0
66.653587 204.0
66.676041 228.0
66.716385 84.0
66.73304 232.0
66.751923 164.0
66.805748 184.0
66.84317 148.0
66.856194 220.0
66.872467 344.0
66.885483 228.0
66.903893 352.0
66.920738 128.0
66.935959 216.0
66.970673 164.0
67.025963 172.0
67.064659 132.0
67.096092 184.0
67.136391 76.0
67.178802 136.0
67.213066 168.0
67.22612 164.0
67.239174 92.0
67.268555 112.0
67.293045 176.0
67.317535 96.0
67.338768 88.0
67.376335 140.0
67.423012 120.0
67.455681 184.0
67.46949 156.0
67.518539 104.0
67.549622 172.0
67.577431 236.0
67.588882 164.0
67.601974 228.0
67.624886 208.0
67.644531 124.0
67.678986 172.0
67.714935 96.0
67.746361 328.0
67.770638 88.0
67.782104 200.0
67.823578 220.0
67.849304 284.0
67.883575 120.0
67.903419 200.0
67.921127 180.0
67.947708 124.0
67.985443 232.0
68.005798 208.0
68.018272 156.0
68.042892 156.0
68.06588 124.0
68.087227 108.0
68.116798 156.0
68.144722 204.0
68.167725 168.0
68.2006 156.0
68.214737 212.0
68.246628 84.0
68.259781 172.0
68.299255 180.0
68.312408 196.0
68.327217 172.0
68.340378 40.0
68.355484 92.0
68.414909 212.0
68.432549 188.0
68.458328 268.0
68.486893 244.0
68.502686 244.0
68.51474 208.0
68.53714 104.0
68.578041 100.0
68.600311 164.0
68.646759 204.0
68.686974 148.0
68.773079 184.0
68.798553 180.0
68.838181 184.0
68.884422 520.0
68.922424 100.0
68.943909 164.0
68.965393 148.0
69.01664 172.0
69.031525 144.0
69.0522 204.0
69.096031 356.0
69.125816 160.0
69.137062 80.0
69.168785 216.0
69.215202 140.0
69.228447 152.0
69.27317 144.0
69.28476 152.0
69.311897 184.0
69.329147 204.0
69.356018 160.0
69.370941 68.0
69.410728 148.0
69.45385 140.0
69.470436 132.0
69.482048 220.0
69.515236 260.0
69.535149 120.0
69.555069 184.0
69.697296 180.0
69.81675 172.0
69.854172 160.0
69.876801 212.0
69.900688 204.0
69.957191 132.0
70.007294 144.0
70.070305 164.0
70.103912 220.0
70.122246 172.0
70.168922 136.0
70.192871 132.0
70.209518 116.0
70.220619 156.0
70.272903 196.0
70.285675 136.0
70.305702 128.0
70.324059 84.0
70.354103 192.0
70.414215 52.0
70.428154 152.0
70.45932 172.0
70.474358 108.0
70.492737 148.0
70.598053 160.0
70.617867 156.0
70.63987 192.0
70.675713 244.0
70.713486 116.0
70.731712 140.0
70.755341 124.0
70.796616 256.0
70.845772 64.0
70.891006 204.0
70.929558 136.0
71.008362 200.0
71.063011 208.0
71.095688 152.0
71.149239 176.0
71.218163 132.0
71.243362 112.0
71.287674 192.0
71.303848 176.0
71.328354 180.0
71.361275 176.0
71.377815 176.0
71.548195 172.0
71.567955 120.0
71.616791 176.0
71.628586 180.0
71.679131 140.0
71.694298 152.0
71.732788 212.0
71.748192 172.0
71.766777 160.0
71.790382 128.0
71.834236 48.0
71.869667 188.0
71.932327 284.0
71.955399 176.0
72.011467 248.0
72.030441 208.0
72.043564 156.0
72.055389 96.0
72.104568 228.0
72.116501 220.0
72.139893 116.0
72.192787 168.0
72.239662 40.0
72.25827 72.0
72.299805 188.0
72.329346 152.0
72.383522 128.0
72.426712 168.0
72.471603 80.0
72.488548 144.0
72.530914 140.0
72.556343 144.0
72.574997 128.0
72.598267 204.0
72.641998 152.0
72.659744 124.0
72.689735 168.0
72.702576 152.0
72.726021 180.0
72.782005 156.0
72.885612 232.0
72.904762 196.0
72.962517 196.0
73.063744 188.0
73.081825 192.0
73.157738 120.0
73.177559 212.0
73.268433 152.0
73.305916 180.0
73.31955 204.0
73.346825 152.0
73.394432 272.0
73.403992 536.0
73.440605 124.0
73.462776 136.0
73.482048 136.0
73.50663 160.0
73.556633 156.0
73.57029 72.0
73.672752 140.0
73.69838 144.0
73.746231 56.0
73.799225 204.0
73.811195 208.0
73.878166 180.0
73.903328 148.0
73.923279 176.0
73.933327 152.0
73.963203 168.0
74.009682 184.0
74.030937 224.0
74.064484 180.0
74.097031 120.0
74.109024 136.0
74.136444 160.0
74.16655 176.0
74.181297 188.0
74.2005 140.0
74.248177 180.0
74.282181 176.0
74.295906 216.0
74.311646 248.0
74.350807 220.0
74.379234 172.0
74.429115 156.0
74.445229 168.0
74.458809 172.0
74.503876 140.0
74.537567 324.0
74.589035 120.0
74.593643 84.0
74.600632 152.0
74.644569 376.0
74.665207 180.0
74.68412 164.0
74.697884 188.0
74.711647 120.0
74.726807 128.0
74.751801 276.0
74.780426 144.0
74.807137 240.0
74.845894 192.0
74.866554 136.0
74.889679 196.0
74.945793 108.0
74.968193 204.0
74.991684 216.0
75.026154 260.0
75.16819 220.0
75.193733 180.0
75.222328 164.0
75.249359 164.0
75.307495 192.0
75.356438 156.0
75.390999 168.0
75.410294 220.0
75.425568 188.0
75.471581 52.0
75.520668 308.0
75.541161 188.0
75.567902 184.0
75.581215 168.0
75.601982 148.0
75.648712 120.0
75.671219 196.0
75.685066 152.0
75.714508 200.0
75.746223 168.0
75.778603 164.0
75.837517 168.0
75.909714 272.0
75.962364 152.0
76.055573 112.0
76.130722 112.0
76.204338 272.0
76.221054 132.0
76.243645 112.0
76.267975 104.0
76.288933 208.0
76.301292 120.0
76.328827 72.0
76.358391 212.0
76.374039 248.0
76.410576 188.0
76.450592 184.0
76.471764 172.0
76.513992 236.0
76.533409 208.0
76.558525 164.0
76.574783 132.0
76.651871 212.0
76.68222 156.0
76.7258 172.0
76.743233 168.0
76.778984 216.0
76.800781 104.0
76.819969 148.0
76.833923 308.0
76.853119 68.0
76.877548 176.0
76.912857 104.0
76.929909 172.0
76.947365 220.0
76.959587 172.0
76.980545 168.0
77.020714 164.0
77.050491 176.0
77.152504 156.0
77.206062 240.0
77.261948 200.0
77.300446 100.0
77.326691 160.0
77.346626 300.0
77.415977 112.0
77.447502 120.0
77.459763 88.0
77.484291 168.0
77.529846 136.0
77.542114 132.0
77.630188 68.0
77.723503 172.0
77.763878 164.0
77.815765 148.0
77.863182 168.0
77.875122 40.0
77.929932 192.0
78.014519 184.0
78.063522 64.0
78.096939 44.0
78.125084 172.0
78.144432 148.0
78.177864 184.0
78.232361 172.0
78.267639 204.0
78.292297 176.0
78.325195 112.0
78.348656 164.0
78.383896 196.0
78.397995 228.0
78.429718 152.0
78.454399 192.0
78.519638 148.0
78.583145 336.0
78.622421 200.0
78.667854 80.0
78.699631 104.0
78.715523 136.0
78.731422 164.0
78.743782 196.0
78.789711 116.0
78.803841 160.0
78.843185 228.0
78.885139 124.0
78.905563 148.0
78.934998 160.0
78.948792 172.0
78.964706 160.0
78.985931 128.0
79.009911 72.0
79.028389 132.0
79.072807 160.0
79.110397 224.0
79.128387 104.0
79.149582 136.0
79.168983 124.0
79.182396 68.0
79.200111 132.0
79.232613 160.0
79.25148 128.0
79.264694 172.0
79.309967 84.0
79.32592 96.0
79.352509 184.0
79.380882 120.0
79.432312 112.0
79.48909 140.0
79.560081 152.0
79.580482 172.0
79.600922 164.0
79.648788 168.0
79.684402 96.0
79.723289 172.0
79.75193 164.0
79.765213 160.0
79.801704 192.0
79.83371 72.0
79.847939 164.0
79.878174 156.0
79.958244 176.0
79.980003 196.0
80.000961 196.0
80.018158 188.0
80.073158 44.0
80.096428 220.0
80.113159 208.0
80.168388 176.0
80.26506 156.0
80.277977 180.0
80.328857 88.0
80.366318 228.0
80.410027 156.0
80.427902 156.0
80.469841 128.0
80.512695 132.0
80.526985 196.0
80.541275 152.0
80.594872 324.0
80.618324 128.0
80.699867 220.0
80.777634 208.0
80.836266 84.0
80.849457 172.0
80.91407 216.0
80.936508 144.0
80.979485 140.0
81.004562 232.0
81.020683 120.0
81.078026 176.0
81.140762 52.0
81.180206 132.0
81.225861 160.0
81.280663 140.0
81.311203 224.0
81.356041 76.0
81.398941 172.0
81.415298 116.0
81.458405 48.0
81.499725 104.0
81.523087 136.0
81.550606 244.0
81.589592 232.0
81.612961 112.0
81.652664 152.0
81.712982 184.0
81.854416 156.0
81.88559 96.0
81.986435 196.0
82.001801 152.0
82.063095 220.0
82.097351 184.0
82.115387 32.0
82.165756 208.0
82.198372 180.0
82.249947 188.0
82.253334 168.0
82.274178 84.0
82.28862 164.0
82.342796 204.0
82.386147 124.0
82.429512 92.0
82.443962 188.0
82.481918 292.0
82.513245 220.0
82.527115 176.0
82.56823 196.0
82.590408 48.0
82.606689 172.0
82.646492 184.0
82.670013 188.0
82.703659 184.0
82.735176 136.0
82.773201 212.0
82.822098 188.0
82.84021 88.0
82.875687 152.0
82.921753 148.0
82.962616 220.0
82.979759 184.0
83.025543 144.0
83.04953 172.0
83.091721 196.0
83.099106 144.0
83.105171 192.0
83.124863 128.0
83.162971 96.0
83.213806 136.0
83.288261 160.0
83.312187 208.0
83.338295 152.0
83.401909 180.0
83.503914 80.0
83.533653 100.0
83.55883 148.0
83.580956 124.0
83.650925 252.0
83.66468 176.0
83.69381 96.0
83.717484 216.0
83.763176 192.0
83.868698 172.0
83.885315 140.0
83.910629 228.0
84.016403 144.0
84.072968 112.0
84.096977 164.0
84.135567 176.0
84.151459 60.0
84.222679 108.0
84.242142 116.0
84.346931 308.0
84.438354 112.0
84.476768 140.0
84.527992 44.0
84.544464 156.0
84.635994 168.0
84.657967 160.0
84.687271 196.0
84.723907 188.0
84.744057 208.0
84.777039 116.0
84.792229 156.0
84.848526 216.0
84.881531 148.0
84.923706 148.0
84.936546 108.0
84.954895 148.0
84.984245 208.0
85.002594 172.0
85.02095 220.0
85.068672 128.0
85.092758 200.0
85.137131 180.0
85.171501 124.0
85.194992 188.0
85.2211 168.0
85.254181 156.0
85.305244 148.0
85.312744 116.0
85.326981 224.0
85.378952 156.0
85.469322 236.0
85.493248 148.0
85.519012 48.0
85.561356 156.0
85.581604 164.0
85.605545 92.0
85.63501 196.0
85.653427 168.0
85.673134 184.0
85.762924 132.0
85.795319 120.0
85.812225 136.0
85.83107 216.0
85.931801 128.0
85.959663 132.0
85.991287 168.0
86.096085 232.0
86.109009 152.0
86.131172 108.0
86.14595 188.0
86.208771 168.0
86.253128 160.0
86.301193 112.0
86.31414 184.0
86.362129 164.0
86.379982 160.0
86.416847 200.0
86.489342 176.0
86.496887 180.0
86.579498 244.0
86.629059 180.0
86.709953 148.0
86.725685 172.0
86.746574 124.0
86.812263 156.0
86.827103 36.0
86.841942 144.0
86.854919 248.0
86.914291 184.0
86.968109 216.0
87.001518 184.0
87.024178 176.0
87.040512 180.0
87.053505 176.0
87.072449 140.0
87.125946 132.0
87.138954 164.0
87.196892 132.0
87.220718 120.0
87.243027 136.0
87.275368 152.0
87.287651 172.0
87.315918 180.0
87.319565 172.0
87.45488 216.0
87.498314 236.0
87.520241 136.0
87.555626 120.0
87.596603 224.0
87.613365 136.0
87.648766 152.0
87.704674 108.0
87.721451 48.0
87.749413 204.0
87.78196 176.0
87.840797 168.0
87.900497 220.0
87.95462 184.0
88.046104 168.0
88.079727 140.0
88.096184 148.0
88.156326 96.0
88.17128 112.0
88.186234 148.0
88.199318 208.0
88.235802 200.0
88.263474 200.0
88.300278 124.0
88.324593 144.0
88.391945 260.0
88.420158 160.0
88.465385 168.0
88.489281 40.0
88.526726 184.0
88.547325 176.0
88.57917 176.0
88.594154 132.0
88.633499 96.0
88.68972 224.0
88.710342 72.0
88.727211 112.0
88.77195 140.0
88.828484 244.0
88.885567 124.0
88.926048 156.0
88.952332 80.0
88.97673 180.0
89.014786 376.0
89.034744 228.0
89.045563 116.0
89.052399 164.0
89.07251 160.0
89.200417 172.0
89.215607 160.0
89.236008 176.0
89.258568 168.0
89.27549 152.0
89.311226 180.0
89.328156 192.0
89.353813 220.0
89.383293 144.0
89.424118 204.0
89.463646 120.0
89.499207 180.0
89.520134 116.0
89.558098 168.0
89.61808 184.0
89.640694 192.0
89.663307 100.0
89.691582 120.0
89.706245 200.0
89.731171 180.0
89.748138 92.0
89.789619 96.0
89.811806 152.0
89.829231 160.0
89.923576 144.0
89.953773 196.0
89.992317 184.0
90.057632 156.0
90.074631 160.0
90.087852 172.0
90.104858 144.0
90.189896 340.0
90.206223 200.0
90.250389 120.0
90.309013 116.0
90.356308 196.0
90.411179 100.0
90.447136 140.0
90.47245 140.0
90.486572 304.0
90.524765 176.0
90.543701 172.0
90.564537 140.0
90.579689 160.0
90.611153 188.0
90.65168 104.0
90.665184 204.0
90.723709 340.0
90.740768 148.0
90.769005 216.0
90.878227 176.0
90.928566 168.0
90.972221 128.0
90.991203 144.0
91.044373 168.0
91.07856 140.0
91.203964 164.0
91.222977 148.0
91.285278 208.0
91.354187 140.0
91.373215 52.0
91.452499 156.0
91.510246 116.0
91.582611 172.0
91.601654 180.0
91.677094 216.0
91.708366 188.0
91.74472 168.0
91.808289 116.0
91.820549 176.0
91.849731 172.0
91.866631 76.0
91.897156 172.0
91.921959 140.0
91.988762 148.0
92.0467 220.0
92.067039 128.0
92.082321 176.0
92.14727 192.0
92.229439 188.0
92.275322 320.0
92.319298 92.0
92.354637 252.0
92.367592 160.0
92.382095 212.0
92.388115 176.0
92.394188 208.0
92.411118 144.0
92.426422 184.0
92.462784 140.0
92.491959 164.0
92.51564 136.0
92.575737 200.0
92.592972 60.0
92.652351 176.0
92.673424 180.0
92.709831 396.0
92.752632 208.0
92.780754 124.0
92.806412 292.0
92.83252 184.0
92.868958 156.0
92.888145 120.0
92.932266 188.0
92.955292 200.0
92.989838 156.0
93.009033 140.0
93.053185 168.0
93.149208 160.0
93.185707 228.0
93.208763 192.0
93.243164 164.0
93.255386 176.0
93.29525 100.0
93.335625 188.0
93.352936 92.0
93.41481 164.0
93.454994 160.0
93.470276 88.0
93.502991 140.0
93.529129 248.0
93.554962 156.0
93.612724 216.0
93.649635 168.0
93.714905 168.0
93.759056 200.0
93.795753 160.0
93.80925 156.0
93.843735 152.0
93.861305 180.0
93.89241 152.0
93.909515 36.0
93.924942 100.0
93.991829 228.0
94.021416 132.0
94.066238 2424.0
94.091705 168.0
94.114494 184.0
94.139236 124.0
94.175873 72.0
94.206779 276.0
94.235756 320.0
94.322723 84.0
94.357521 164.0
94.376129 192.0
94.417458 168.0
94.434868 152.0
94.475227 208.0
94.496773 36.0
94.521927 188.0
94.547081 52.0
94.618958 120.0
94.639999 140.0
94.667107 124.0
94.72715 184.0
94.744583 140.0
94.831779 84.0
94.873337 168.0
94.889938 72.0
94.919022 204.0
94.953163 204.0
94.988838 152.0
95.029755 692.0
95.072121 352.0
95.107231 260.0
95.136917 268.0
95.177094 28.0
95.197929 192.0
95.291557 172.0
95.350143 200.0
95.365532 152.0
95.404411 136.0
95.419411 240.0
95.453018 100.0
95.486115 204.0
95.507469 160.0
95.52887 208.0
95.595024 80.0
95.624214 196.0
95.647614 192.0
95.680664 36.0
95.69429 156.0
95.735931 188.0
95.831856 196.0
95.894936 172.0
96.011917 220.0
96.03727 232.0
96.056458 196.0
96.084045 200.0
96.137276 380.0
96.216583 184.0
96.251945 240.0
96.306625 56.0
96.333969 76.0
96.351555 48.0
96.419945 268.0
96.477119 144.0
96.539192 188.0
96.56823 156.0
96.574768 128.0
96.580833 180.0
96.609612 156.0
96.646782 168.0
96.688713 192.0
96.73877 140.0
96.752472 64.0
96.787712 140.0
96.820999 120.0
96.85038 252.0
96.899635 172.0
96.915031 140.0
96.950302 148.0
96.989311 248.0
97.026749 172.0
97.045288 596.0
97.083611 52.0
97.101257 144.0
97.169914 180.0
97.22213 212.0
97.256264 204.0
97.319077 164.0
97.367332 156.0
97.517487 68.0
97.596123 72.0
97.61972 204.0
97.635452 100.0
97.66143 192.0
97.686592 396.0
97.724594 200.0
97.763329 108.0
97.783691 196.0
97.8395 160.0
97.88279 148.0
97.912949 76.0
97.999619 136.0
98.046913 176.0
98.086334 20.0
98.117874 80.0
98.206612 176.0
98.253952 148.0
98.271713 288.0
98.305252 124.0
98.324432 156.0
98.374336 148.0
98.426109 180.0
98.447388 180.0
98.473061 188.0
98.504669 60.0
98.567886 80.0
98.659447 316.0
98.766808 324.0
98.813065 108.0
98.860558 216.0
98.904099 156.0
98.955566 160.0
98.996269 180.0
99.024872 72.0
99.070435 132.0
99.088264 164.0
99.123924 152.0
99.154556 144.0
99.198868 148.0
99.252342 148.0
99.286484 152.0
99.312225 184.0
99.339981 144.0
99.367813 96.0
99.403526 32.0
99.445206 192.0
99.476959 176.0
99.506256 148.0
99.598091 116.0
99.627884 188.0
99.646652 208.0
99.662018 180.0
99.709618 180.0
99.739166 112.0
99.806763 160.0
99.834602 116.0
99.854385 152.0
99.902229 184.0
99.93972 156.0
99.9702 180.0
100.001717 208.0
100.070152 312.0
100.117188 164.0
100.165092 172.0
100.19487 116.0
100.246681 152.0
100.266609 112.0
100.316437 108.0
100.436409 192.0
100.469994 212.0
100.503906 124.0
100.521866 112.0
100.535835 184.0
100.607689 184.0
100.64962 144.0
100.737495 108.0
100.77346 164.0
100.959358 160.0
101.040657 760.0
101.100822 204.0
101.135422 136.0
101.159439 184.0
101.235519 64.0
101.309631 216.0
101.328918 228.0
101.368156 132.0
101.410553 132.0
101.423851 212.0
101.455925 132.0
101.473618 204.0
101.504044 128.0
101.580597 188.0
101.778519 168.0
101.811073 128.0
101.847229 196.0
101.889412 260.0
101.922997 320.0
101.947685 96.0
101.966629 140.0
101.980293 124.0
102.018028 180.0
102.047066 688.0
102.061485 324.0
102.094437 164.0
102.136673 80.0
102.180931 176.0
102.221169 136.0
102.257393 196.0
102.283562 164.0
102.322876 196.0
102.404373 184.0
102.472862 60.0
102.493393 212.0
102.517189 128.0
102.575104 256.0
102.649231 192.0
102.678474 120.0
102.740929 108.0
102.759155 144.0
102.795479 248.0
102.811623 132.0
102.829788 60.0
102.854004 92.0
102.882271 180.0
102.902458 144.0
102.946877 220.0
103.011513 152.0
103.02565 140.0
103.053833 2872.0
103.119209 200.0
103.144875 100.0
103.205528 64.0
103.269661 168.0
103.282104 360.0
103.29528 116.0
103.322617 184.0
103.355209 160.0
103.379486 212.0
103.411415 212.0
103.473473 120.0
103.496895 96.0
103.547523 228.0
103.588028 164.0
103.673126 144.0
103.729881 60.0
103.746849 172.0
103.772453 128.0
103.798813 80.0
103.879936 156.0
103.925415 140.0
103.940804 168.0
103.965157 168.0
104.056381 344.0
104.170227 64.0
104.184441 136.0
104.314499 136.0
104.395828 100.0
104.448936 164.0
104.552071 140.0
104.589111 136.0
104.613533 236.0
104.699051 84.0
104.722397 252.0
104.753296 108.0
104.772385 192.0
104.800903 220.0
104.819244 156.0
104.855927 108.0
104.89669 80.0
104.910957 124.0
104.976204 332.0
105.007561 160.0
105.032745 112.0
105.063232 248.0
105.088394 152.0
105.157776 212.0
105.172066 220.0
105.187386 164.0
105.210846 120.0
105.233688 192.0
105.283707 128.0
105.301796 184.0
105.351761 120.0
105.374229 192.0
105.436935 152.0
105.500938 144.0
105.532997 200.0
105.541771 136.0
105.545082 332.0
105.558189 392.0
105.576599 200.0
105.629776 116.0
105.670692 192.0
105.694756 220.0
105.73513 156.0
105.760727 172.0
105.777107 188.0
105.807816 132.0
105.824646 144.0
105.900269 160.0
105.957321 236.0
106.035187 136.0
106.067299 240.0
106.143837 80.0
106.230705 192.0
106.369514 176.0
106.426994 200.0
106.486549 172.0
106.517365 224.0
106.538124 224.0
106.587212 188.0
106.601601 112.0
106.628311 164.0
106.661201 120.0
106.696144 164.0
106.710419 140.0
106.752251 196.0
106.77372 232.0
106.86068 168.0
106.942993 308.0
106.961517 156.0
107.030907 176.0
107.074844 196.0
107.104843 152.0
107.126259 132.0
107.169518 128.0
107.194244 132.0
107.216911 116.0
107.239586 156.0
107.342667 128.0
107.439606 124.0
107.468208 296.0
107.535683 184.0
107.557228 184.0
107.586128 232.0
107.622604 160.0
107.658394 116.0
107.674919 96.0
107.74102 136.0
107.781853 220.0
107.890755 176.0
107.926331 236.0
107.959175 132.0
107.963303 220.0
107.972107 256.0
107.97966 292.0
107.999413 176.0
108.015823 188.0
108.049057 28.0
108.079865 368.0
108.148384 144.0
108.183578 148.0
108.210487 164.0
108.242332 144.0
108.295395 184.0
108.314034 40.0
108.40934 160.0
108.44207 192.0
108.459877 192.0
108.473587 196.0
108.488098 208.0
108.515053 168.0
108.535294 220.0
108.550667 204.0
108.579437 208.0
108.665337 164.0
108.697044 124.0
108.718529 296.0
108.759842 188.0
108.790077 240.0
108.809525 176.0
108.84037 360.0
108.871246 188.0
108.889908 152.0
108.914322 160.0
108.920227 348.0
108.927254 244.0
108.967789 184.0
108.994141 96.0
109.01487 612.0
109.046394 130940.0
109.092545 52.0
109.115639 132.0
109.136002 60.0
109.15802 140.0
109.197792 140.0
109.225449 92.0
109.242569 104.0
109.267487 84.0
109.281456 52.0
109.289314 72.0
109.305161 112.0
109.365173 148.0
109.387436 1328.0
109.420097 156.0
109.447968 68.0
109.469658 144.0
109.492081 88.0
109.510811 204.0
109.530128 160.0
109.574677 160.0
109.582382 172.0
109.616318 192.0
109.673126 52.0
109.69381 52.0
109.724533 200.0
109.74897 96.0
109.777931 128.0
109.80246 72.0
109.819458 136.0
109.837685 60.0
109.878128 268.0
109.921455 184.0
109.973312 224.0
109.988533 60.0
110.005615 84.0
110.048874 9948.0
110.101227 196.0
110.141525 100.0
110.169846 68.0
110.21434 220.0
110.228714 148.0
110.247429 96.0
110.277092 160.0
110.294975 104.0
110.329544 112.0
110.402794 120.0
110.424614 60.0
110.446106 116.0
110.464355 196.0
110.48468 184.0
110.523537 148.0
110.57106 160.0
110.592964 164.0
110.630585 128.0
110.666595 188.0
110.704895 104.0
110.733459 148.0
110.749031 188.0
110.763695 36.0
110.778931 116.0
110.802826 60.0
110.837616 152.0
110.860954 104.0
110.87867 140.0
110.903404 112.0
110.909378 152.0
110.915352 116.0
110.92588 80.0
110.936012 148.0
110.953766 172.0
110.968109 132.0
111.003822 180.0
111.020401 200.0
111.052498 476.0
111.083298 204.0
111.106964 80.0
111.130562 168.0
111.193306 160.0
111.227104 144.0
111.245995 40.0
111.283783 128.0
111.300583 180.0
111.319481 288.0
111.371986 76.0
111.405594 60.0
111.464424 132.0
111.491295 132.0
111.521164 92.0
111.535881 196.0
111.563202 156.0
111.598946 60.0
111.659927 132.0
111.687271 140.0
111.737762 56.0
111.758034 168.0
111.794571 116.0
111.819824 40.0
111.838768 168.0
111.87455 68.0
111.897713 92.0
111.937714 200.0
111.96299 212.0
112.055672 120.0
112.075058 576.0
112.090698 264.0
112.139961 132.0
112.158928 96.0
112.200676 224.0
112.249588 88.0
112.270676 104.0
112.321297 64.0
112.344498 92.0
112.403976 168.0
112.428894 192.0
112.454224 176.0
112.534668 184.0
112.578781 112.0
112.604126 148.0
112.623138 172.0
112.663269 140.0
112.758354 44.0
112.781776 200.0
112.81543 40.0
112.885201 124.0
112.975494 156.0
113.047371 248.0
113.074219 300.0
113.128517 28.0
113.176155 228.0
113.234848 184.0
113.282799 112.0
113.304291 204.0
113.321236 160.0
113.386932 192.0
113.468407 128.0
113.49292 144.0
113.552299 92.0
113.609566 172.0
113.664734 68.0
113.72628 76.0
113.775101 120.0
113.792084 208.0
113.998123 220.0
114.015121 156.0
114.036377 112.0
114.057632 192.0
114.10865 324.0
114.13842 92.0
114.277206 160.0
114.289879 136.0
114.398651 172.0
114.478889 120.0
114.517227 172.0
114.596046 180.0
114.625877 96.0
114.655708 104.0
114.695282 148.0
114.711128 120.0
114.749496 252.0
114.821999 72.0
114.889763 224.0
114.994812 248.0
115.020432 204.0
115.05584 1204.0
115.136642 176.0
115.152809 92.0
115.191254 172.0
115.233986 104.0
115.25071 124.0
115.274582 152.0
115.295952 328.0
115.315186 96.0
115.394279 172.0
115.410118 152.0
115.522598 132.0
115.582504 52.0
115.646706 156.0
115.681023 124.0
115.726425 184.0
115.773018 184.0
115.78801 52.0
115.826569 136.0
115.882263 176.0
115.910118 164.0
115.95298 48.0
115.972267 136.0
115.995209 216.0
116.030144 104.0
116.063316 944.0
116.104317 224.0
116.15667 132.0
116.210503 220.0
116.295464 228.0
116.356247 60.0
116.440727 224.0
116.453621 116.0
116.545258 152.0
116.635269 140.0
116.681656 148.0
116.700012 200.0
116.747269 192.0
116.798935 164.0
116.816147 56.0
116.844109 156.0
116.863472 104.0
116.878532 164.0
116.910812 92.0
116.930183 164.0
116.945251 40.0
116.964767 176.0
117.042122 304.0
117.072273 160.0
117.115349 188.0
117.139038 120.0
117.158432 100.0
117.191902 164.0
117.240303 104.0
117.276947 136.0
117.404144 108.0
117.44297 264.0
117.479637 76.0
117.553001 96.0
117.568108 156.0
117.583214 124.0
117.604797 48.0
117.637169 152.0
117.666664 376.0
117.693306 128.0
117.712738 156.0
117.777527 196.0
117.795998 68.0
117.858055 220.0
117.911484 192.0
117.989655 124.0
118.067322 180.0
118.086052 124.0
118.167496 112.0
118.172745 44.0
118.181152 148.0
118.207764 188.0
118.225075 224.0
118.240219 136.0
118.328011 400.0
118.349937 176.0
118.413422 164.0
118.467415 160.0
118.478752 176.0
118.536903 160.0
118.588921 176.0
118.614929 156.0
118.682137 152.0
118.716835 248.0
118.771049 116.0
118.82663 200.0
118.855659 96.0
118.907745 148.0
118.944641 140.0
119.00885 236.0
119.100983 128.0
119.161804 96.0
119.187881 200.0
119.203094 80.0
119.224823 112.0
119.255249 144.0
119.331337 216.0
119.390045 124.0
119.405266 64.0
119.450943 124.0
119.47052 200.0
119.529266 88.0
119.598907 148.0
119.615852 184.0
119.822479 112.0
119.858521 272.0
119.893867 140.0
119.949158 136.0
119.981285 164.0
120.058617 136.0
120.084076 184.0
120.126236 200.0
120.150612 208.0
120.191689 180.0
120.254974 196.0
120.323471 148.0
120.381142 172.0
120.42746 236.0
120.49057 220.0
120.510468 172.0
120.532318 188.0
120.655464 176.0
120.680954 204.0
120.707191 28.0
120.755302 172.0
120.790298 180.0
120.862495 196.0
120.910645 168.0
120.93956 168.0
120.989441 112.0
121.004768 136.0
121.045143 6268.0
121.072647 184.0
121.101067 112.0
121.118637 260.0
121.133972 60.0
121.206276 156.0
121.228722 148.0
121.295319 216.0
121.336525 140.0
121.37944 180.0
121.400238 116.0
121.438652 276.0
121.50238 152.0
121.6493 72.0
121.697601 136.0
121.730209 188.0
121.781052 100.0
121.855736 100.0
121.965614 212.0
121.981003 64.0
121.996391 76.0
122.04998 504.0
122.077744 100.0
122.097534 200.0
122.165718 160.0
122.190384 172.0
122.234428 88.0
122.360313 180.0
122.383606 140.0
122.399017 124.0
122.44323 156.0
122.511345 112.0
122.539986 216.0
122.588463 132.0
122.606087 156.0
122.647964 156.0
122.68544 268.0
122.811134 120.0
122.835396 212.0
122.902496 192.0
122.932472 208.0
122.947922 164.0
123.02433 9500.0
123.060783 3524.0
123.096313 36.0
123.116539 84.0
123.144409 160.0
123.164787 160.0
123.199638 168.0
123.217308 208.0
123.261497 68.0
123.31675 164.0
123.360954 236.0
123.420647 56.0
123.436127 136.0
123.455269 144.0
123.53344 200.0
123.564415 132.0
123.606453 104.0
123.635941 256.0
123.655144 164.0
123.685158 192.0
123.74147 68.0
123.763611 180.0
123.83226 180.0
123.858841 164.0
123.8965 116.0
124.02803 800.0
124.063576 600.0
124.084877 104.0
124.109245 352.0
124.147072 168.0
124.286713 212.0
124.339973 204.0
124.386581 112.0
124.404343 164.0
124.439865 144.0
124.510925 200.0
124.554321 200.0
124.623772 140.0
124.659767 172.0
124.697548 224.0
124.777763 188.0
124.875893 304.0
124.932312 132.0
124.957718 56.0
125.015556 3204.0
125.039192 760.0
125.180305 280.0
125.211479 128.0
125.269722 272.0
125.342918 48.0
125.389717 188.0
125.407547 88.0
125.423149 192.0
125.50563 180.0
125.543541 68.0
125.559151 112.0
125.60376 104.0
125.650604 140.0
125.697906 100.0
125.723907 160.0
125.751022 136.0
125.776352 184.0
125.838203 152.0
125.880508 132.0
125.954208 188.0
125.983246 168.0
126.019661 520.0
126.048439 340.0
126.091621 176.0
126.166504 52.0
126.215691 164.0
126.26265 172.0
126.298439 200.0
126.336464 168.0
126.394531 300.0
126.414772 144.0
126.432678 180.0
126.553558 112.0
126.598343 140.0
126.640892 104.0
126.685692 140.0
126.714813 180.0
126.750664 180.0
126.782036 168.0
126.838074 124.0
126.905327 144.0
126.960297 140.0
127.013626 1740.0
127.031258 224.0
127.056526 1600.0
127.087006 132.0
127.151016 220.0
127.23513 140.0
127.25309 44.0
127.284531 44.0
127.351898 184.0
127.414795 148.0
127.473221 352.0
127.50412 128.0
127.516663 144.0
127.556519 172.0
127.576607 200.0
127.677788 172.0
127.700279 152.0
127.727272 136.0
127.774513 196.0
127.837517 156.0
127.935379 104.0
128.008591 140.0
128.037872 60.0
128.062714 9044.0
128.145996 56.0
128.218109 292.0
128.256424 180.0
128.299255 64.0
128.35788 152.0
128.383759 260.0
128.398926 156.0
128.434555 76.0
128.518616 168.0
128.569931 136.0
128.602509 340.0
128.642151 108.0
128.669235 156.0
128.698593 100.0
128.723129 180.0
128.779282 132.0
128.837845 152.0
128.904144 108.0
128.953857 60.0
128.978729 128.0
129.004166 172.0
129.026199 104.0
129.046478 132.0
129.070663 34560.0
129.13327 92.0
129.156525 108.0
129.189026 96.0
129.211655 244.0
129.226273 156.0
129.273666 128.0
129.317322 132.0
129.351959 116.0
129.443893 200.0
129.459381 72.0
129.52562 156.0
129.542175 56.0
129.576157 40.0
129.610794 56.0
129.653198 172.0
129.675858 120.0
129.743866 120.0
129.761993 52.0
129.807648 60.0
129.836823 68.0
129.873123 64.0
129.902603 40.0
129.918488 104.0
129.953506 156.0
129.972931 152.0
129.993362 132.0
130.024048 160.0
130.043213 120.0
130.05159 116.0
130.077957 7092.0
130.128799 48.0
130.218109 120.0
130.290802 32.0
130.356689 200.0
130.372604 52.0
130.461243 44.0
130.479431 136.0
130.49762 60.0
130.536133 64.0
130.579483 188.0
130.601135 200.0
130.688675 128.0
130.706879 44.0
130.746658 192.0
130.809296 68.0
130.829788 132.0
130.853256 140.0
130.888977 104.0
130.963516 104.0
131.010803 148.0
131.030807 132.0
131.048737 172.0
131.07782 304.0
131.109665 160.0
131.13501 136.0
131.165421 152.0
131.212189 112.0
131.221161 96.0
131.227386 92.0
131.26268 176.0
131.310577 120.0
131.34935 124.0
131.40686 212.0
131.504501 204.0
131.520477 148.0
131.577545 144.0
131.600388 232.0
131.664276 176.0
131.667343 172.0
131.712433 180.0
131.994537 312.0
132.041412 180.0
132.064285 224.0
132.080292 40.0
132.102707 100.0
132.126053 204.0
132.215286 260.0
132.442169 164.0
132.471725 128.0
132.508392 184.0
132.526718 164.0
132.545914 148.0
132.569016 128.0
132.588593 240.0
132.694031 148.0
132.73027 164.0
132.782578 108.0
132.895554 188.0
132.935318 184.0
132.960114 60.0
132.976181 136.0
133.04538 9044.0
133.086365 36.0
133.128586 96.0
133.154541 64.0
133.196228 216.0
133.22876 96.0
133.277008 224.0
133.325272 80.0
133.385025 48.0
133.433304 88.0
133.456299 120.0
133.575882 168.0
133.608093 68.0
133.638 180.0
133.681717 88.0
133.741562 192.0
133.826736 140.0
133.863693 160.0
133.909637 132.0
133.97171 160.0
133.987579 196.0
134.053177 32400.0
134.107788 184.0
134.129807 76.0
134.150299 144.0
134.18988 52.0
134.215836 152.0
134.224091 88.0
134.264557 44.0
134.341492 56.0
134.426865 56.0
134.449738 224.0
134.488358 92.0
134.52037 132.0
134.645355 116.0
134.693863 160.0
134.721573 64.0
134.774719 112.0
134.813995 180.0
134.837112 156.0
134.855606 56.0
134.872574 152.0
134.908768 44.0
134.938828 132.0
134.956451 96.0
135.057281 3372.0
135.204834 44.0
135.237869 160.0
135.297424 120.0
135.346039 204.0
135.380554 208.0
135.408569 136.0
135.431732 124.0
135.482681 96.0
135.500549 164.0
135.577682 84.0
135.649536 156.0
135.685059 124.0
135.73996 160.0
135.758514 232.0
135.807816 124.0
135.89537 144.0
135.943008 128.0
135.959366 152.0
135.998245 216.0
136.014771 116.0
136.034027 204.0
136.058456 376.0
136.101944 120.0
136.171616 64.0
136.201813 216.0
136.383041 132.0
136.499283 136.0
136.515564 148.0
136.620224 112.0
136.650864 108.0
136.741226 132.0
136.762177 80.0
136.806854 188.0
136.932144 136.0
136.963135 276.0
137.015854 4984.0
137.086212 60.0
137.11853 60.0
137.16748 208.0
137.190781 160.0
137.239746 232.0
137.302704 188.0
137.382889 192.0
137.410004 92.0
137.517349 52.0
137.55545 136.0
137.577087 108.0
137.648087 36.0
137.704132 228.0
137.759232 216.0
137.778885 184.0
137.80925 44.0
137.855988 116.0
137.919083 196.0
137.963501 124.0
137.984543 120.0
138.018646 492.0
138.072586 308.0
138.296341 208.0
138.347168 180.0
138.480637 164.0
138.596725 168.0
138.7173 276.0
138.747772 160.0
138.766525 140.0
138.893158 152.0
138.993729 840.0
139.012802 1428.0
139.032928 916.0
139.07843 200.0
139.106689 52.0
139.12796 132.0
139.186523 176.0
139.23349 176.0
139.292206 204.0
139.357986 144.0
139.46608 240.0
139.503693 244.0
139.572922 144.0
139.644775 112.0
139.696533 188.0
139.724762 188.0
139.77887 104.0
139.823593 92.0
139.869858 140.0
139.983673 156.0
140.000153 164.0
140.020096 332.0
140.147293 152.0
140.169769 240.0
140.205109 172.0
140.235748 180.0
140.31282 208.0
140.346542 132.0
140.419647 180.0
140.457382 136.0
140.504562 156.0
140.639084 136.0
140.721695 240.0
140.74295 220.0
140.783096 64.0
140.801987 28.0
140.818512 176.0
140.848267 152.0
140.870483 136.0
140.894104 152.0
140.988541 496.0
141.028 804.0
141.072006 488.0
141.201401 192.0
141.253433 112.0
141.281815 124.0
141.333878 172.0
141.393173 192.0
141.416412 200.0
141.438004 96.0
141.506332 148.0
141.54454 168.0
141.578247 188.0
141.593033 84.0
141.722183 124.0
141.74588 136.0
141.815536 164.0
141.835938 132.0
141.873871 196.0
141.97583 104.0
141.994797 104.0
142.028 140.0
142.076752 856.0
142.238327 144.0
142.253433 184.0
142.327026 60.0
142.384018 128.0
142.412521 228.0
142.583588 204.0
142.606094 192.0
142.664398 160.0
142.687866 156.0
142.790421 108.0
142.876053 80.0
142.954575 104.0
143.000824 120.0
143.054535 160.0
143.085403 812.0
143.130722 60.0
143.152161 120.0
143.2117 88.0
143.248886 176.0
143.392776 140.0
143.612122 204.0
143.633591 180.0
143.70993 132.0
143.740952 136.0
143.936691 208.0
143.987122 204.0
144.052185 188.0
144.095398 724.0
144.139725 120.0
144.261612 56.0
144.290314 156.0
144.35965 36.0
144.40509 116.0
144.462494 236.0
144.524704 116.0
144.625214 164.0
144.665909 128.0
144.725754 132.0
144.771255 176.0
144.859879 148.0
144.970093 156.0
145.040741 144.0
145.065567 1236.0
145.118698 380.0
145.153244 216.0
145.171448 180.0
145.199814 68.0
145.209122 68.0
145.213058 116.0
145.28418 64.0
145.319901 140.0
145.357071 168.0
145.399353 188.0
145.45697 120.0
145.605835 96.0
145.63945 148.0
145.661072 232.0
145.700226 164.0
145.72113 144.0
145.823532 176.0
145.872849 152.0
145.923019 176.0
145.973511 148.0
146.052353 3228.0
146.090195 140.0
146.100052 144.0
146.134674 124.0
146.153915 76.0
146.173172 112.0
146.197235 64.0
146.227386 220.0
146.387405 116.0
146.418716 260.0
146.518707 252.0
146.54277 40.0
146.589767 172.0
146.621094 144.0
146.657242 196.0
146.674393 172.0
146.694809 48.0
146.742752 108.0
146.767395 144.0
146.811539 168.0
146.830841 180.0
146.912216 184.0
146.959991 212.0
146.990051 160.0
147.013184 204.0
147.061356 30336.0
147.11525 32.0
147.161148 68.0
147.183167 76.0
147.209717 60.0
147.239471 68.0
147.262848 40.0
147.294876 136.0
147.342026 200.0
147.388626 64.0
147.455551 164.0
147.517776 80.0
147.552826 144.0
147.637451 164.0
147.673737 236.0
147.688736 180.0
147.722107 136.0
147.743134 180.0
147.761932 112.0
147.791 160.0
147.817398 156.0
147.866776 152.0
147.917496 184.0
147.942322 196.0
148.064011 2856.0
148.103638 76.0
148.112274 152.0
148.174194 116.0
148.195786 208.0
148.221329 116.0
148.269318 92.0
148.302322 168.0
148.359238 148.0
148.39743 204.0
148.42009 184.0
148.447754 172.0
148.486649 224.0
148.515976 212.0
148.56514 216.0
148.595825 120.0
148.624664 268.0
148.644867 176.0
148.670242 152.0
148.677673 188.0
148.68811 212.0
148.694458 272.0
148.716644 156.0
148.730957 204.0
148.756516 116.0
148.765015 132.0
148.76973 104.0
148.7939 276.0
148.830612 508.0
148.863571 240.0
148.892487 204.0
148.907196 184.0
148.931686 536.0
148.977539 392.0
149.006744 556.0
149.030289 524.0
149.077484 240920.0
149.133957 460.0
149.178497 192.0
149.217499 368.0
149.235519 208.0
149.269226 112.0
149.275284 128.0
149.308624 136.0
149.348969 120.0
149.378937 308.0
149.386871 200.0
149.41713 56.0
149.422119 112.0
149.449203 128.0
149.476837 2068.0
149.515366 284.0
149.551514 108.0
149.576553 132.0
149.619995 68.0
149.642578 108.0
149.669769 64.0
149.703156 96.0
149.751831 204.0
149.783493 104.0
149.793793 104.0
149.820267 152.0
149.849197 60.0
149.879822 60.0
149.907272 84.0
149.937576 276.0
149.971497 80.0
149.988052 108.0
150.02327 172.0
150.080322 26676.0
150.112854 96.0
150.151062 48.0
150.177536 56.0
150.255356 164.0
150.308441 176.0
150.335526 52.0
150.356552 116.0
150.388947 56.0
150.441833 48.0
150.469711 68.0
150.492508 100.0
150.531448 84.0
150.560257 48.0
150.591415 84.0
150.6138 88.0
150.6353 224.0
150.658768 48.0
150.683395 48.0
150.710068 156.0
150.741165 96.0
150.761124 72.0
150.810272 72.0
150.876801 56.0
150.913528 192.0
150.931244 60.0
150.968979 96.0
151.031326 596.0
151.06076 72.0
151.08313 1340.0
151.16748 324.0
151.198334 204.0
151.220566 248.0
151.225174 88.0
151.252701 208.0
151.274948 136.0
151.299789 276.0
151.34346 88.0
151.361526 112.0
151.407242 104.0
151.448883 44.0
151.512192 52.0
151.539078 44.0
151.581085 116.0
151.627731 68.0
151.715973 36.0
151.779724 140.0
151.81282 88.0
151.870468 92.0
151.9048 76.0
151.941605 76.0
151.958771 64.0
152.005402 96.0
152.038528 152.0
152.05278 312.0
152.076569 212.0
152.092606 128.0
152.115845 188.0
152.135483 32.0
152.204224 108.0
152.223862 132.0
152.276459 120.0
152.329483 72.0
152.491653 80.0
152.562927 44.0
152.62709 172.0
152.6539 100.0
152.813782 28.0
152.929306 72.0
152.971298 120.0
153.026749 396.0
153.065186 328.0
153.136261 40.0
153.207703 208.0
153.224945 196.0
153.44429 76.0
153.481277 44.0
153.626785 100.0
153.883453 60.0
153.905685 128.0
153.969879 72.0
154.031006 144.0
154.077805 316.0
154.142807 36.0
154.184814 48.0
154.226837 68.0
154.367752 76.0
154.493896 96.0
154.622559 92.0
154.644836 180.0
154.875107 176.0
154.965576 100.0
154.984116 80.0
155.060471 1864.0
155.100586 100.0
155.145203 100.0
155.174957 136.0
155.20224 36.0
155.460205 68.0
155.522263 152.0
155.723999 112.0
155.949463 60.0
156.029022 92.0
156.067093 320.0
156.186386 128.0
156.2827 52.0
156.409622 48.0
156.631241 52.0
156.688538 128.0
156.888367 132.0
156.912842 140.0
156.977661 156.0
157.022552 128.0
157.069946 136.0
157.09201 236.0
157.334457 176.0
157.436844 88.0
157.456818 224.0
157.794159 144.0
158.00174 40.0
158.169403 152.0
158.299591 80.0
158.540085 96.0
158.65538 60.0
158.778244 108.0
159.014084 100.0
159.057999 128.0
159.222458 68.0
159.255112 180.0
159.275208 52.0
159.302841 92.0
159.335495 76.0
159.378204 88.0
159.403336 92.0
159.453598 28.0
159.585983 96.0
159.609451 92.0
159.704269 80.0
159.828293 180.0
159.855972 192.0
159.944061 88.0
160.037827 172.0
160.070923 268.0
160.199432 28.0
160.266418 244.0
160.417633 52.0
160.449265 112.0
160.495789 40.0
160.783356 168.0
160.886841 100.0
160.924713 68.0
161.028259 100.0
161.075516 976.0
161.135742 80.0
161.346634 180.0
161.483185 204.0
161.624863 128.0
161.660278 36.0
161.693176 128.0
161.741272 60.0
161.832413 120.0
161.888123 88.0
162.022354 160.0
162.079559 340.0
162.19722 212.0
162.240311 120.0
162.263123 76.0
162.557358 84.0
162.587799 88.0
162.90773 148.0
163.03006 356.0
163.052567 152.0
163.090469 300.0
163.161865 76.0
163.189835 56.0
163.255936 140.0
163.481186 192.0
163.507797 76.0
163.660538 72.0
163.716553 156.0
164.004456 48.0
164.028473 160.0
164.055435 116.0
164.091766 176.0
164.172729 36.0
164.351288 100.0
164.540161 124.0
164.591217 176.0
164.62442 152.0
164.678055 120.0
164.718918 128.0
165.047394 2716.0
165.071259 6396.0
165.137436 76.0
165.158569 80.0
165.176056 48.0
165.217407 56.0
165.25322 72.0
165.450287 92.0
165.550156 96.0
165.673096 148.0
165.774963 124.0
165.801208 276.0
165.821716 140.0
166.019119 100.0
166.049988 1024.0
166.074799 1340.0
166.342407 60.0
166.465637 252.0
166.607742 136.0
166.640305 72.0
166.86647 64.0
166.884476 176.0
167.045853 1540.0
167.093369 180.0
167.11853 52.0
167.190582 68.0
167.27037 36.0
167.316711 72.0
167.337311 72.0
167.357895 96.0
167.471207 72.0
167.514999 132.0
167.561371 100.0
167.65155 164.0
167.742889 92.0
168.039734 192.0
168.064133 168.0
168.092529 124.0
168.11058 180.0
168.301605 52.0
168.735672 132.0
168.831345 56.0
168.908936 52.0
169.022766 132.0
169.060165 176.0
169.09639 328.0
169.447403 40.0
169.597702 172.0
169.888123 112.0
169.96907 200.0
170.093643 308.0
170.300842 40.0
170.387268 196.0
170.409958 128.0
170.984634 52.0
171.110092 164.0
171.143433 148.0
171.328339 28.0
171.41954 64.0
171.445602 136.0
171.474258 144.0
171.695862 72.0
171.755859 96.0
171.826294 180.0
172.069016 160.0
172.38562 224.0
172.93689 180.0
173.036362 136.0
173.055496 180.0
173.078751 508.0
173.104431 140.0
173.321854 148.0
173.507935 80.0
173.565628 128.0
173.717743 132.0
173.859421 152.0
173.893768 136.0
174.030045 84.0
174.069427 148.0
174.095688 64.0
174.213882 52.0
174.913376 188.0
175.093506 488.0
175.282089 96.0
175.300537 212.0
175.838531 96.0
175.994278 52.0
176.088638 396.0
176.372055 160.0
176.97522 80.0
176.996414 180.0
177.045395 828.0
177.094971 144.0
177.225906 144.0
177.348953 156.0
177.582077 148.0
177.613907 204.0
177.717377 80.0
177.903152 176.0
178.053879 300.0
178.10202 2956.0
178.285629 168.0
178.474365 108.0
178.639252 148.0
178.764313 56.0
178.900055 144.0
178.977264 92.0
179.017197 132.0
179.046356 444.0
179.054749 300.0
179.100281 312.0
179.190338 96.0
179.221695 52.0
179.278275 152.0
179.411545 32.0
179.438202 72.0
179.507523 116.0
179.819656 180.0
180.051926 280.0
180.121368 160.0
180.153427 84.0
180.615875 148.0
180.931656 132.0
180.995911 68.0
181.057922 128.0
181.08696 132.0
181.24234 188.0
181.322723 36.0
181.400452 124.0
181.733017 112.0
181.87793 28.0
182.275406 52.0
182.520004 120.0
182.592865 196.0
182.662552 64.0
182.88858 116.0
183.101273 128.0
183.491989 124.0
183.586365 120.0
184.037003 184.0
184.108917 144.0
184.261169 56.0
184.355743 56.0
185.245911 188.0
185.310928 176.0
185.481659 168.0
185.625351 72.0
185.942749 144.0
185.961746 136.0
186.026596 160.0
186.073959 168.0
186.32019 120.0
186.657227 184.0
187.021774 124.0
187.081665 340.0
187.133392 116.0
187.533829 208.0
187.615616 92.0
187.811951 228.0
187.877411 92.0
188.087418 464.0
188.602493 152.0
189.044113 132.0
189.097427 268.0
189.320602 276.0
189.471252 144.0
189.613739 96.0
189.748062 244.0
189.893387 156.0
190.005859 204.0
190.056656 136.0
190.103134 496.0
190.21167 116.0
190.272064 68.0
190.37915 212.0
190.593414 148.0
190.785812 88.0
190.893036 160.0
191.062042 172.0
191.09108 140.0
191.154373 152.0
191.179138 56.0
191.258957 108.0
191.308502 104.0
191.63623 72.0
191.685837 208.0
192.033188 148.0
192.055283 204.0
192.383636 96.0
192.720566 168.0
192.979599 28.0
193.03569 164.0
193.059708 336.0
193.11525 156.0
193.450699 180.0
194.073044 7128.0
194.130524 132.0
194.157242 100.0
194.246002 44.0
194.348648 96.0
194.414032 128.0
194.467987 64.0
194.495743 168.0
194.517944 104.0
194.542923 44.0
194.622055 136.0
194.647217 156.0
194.753967 148.0
194.892868 40.0
195.077332 1336.0
195.145798 116.0
195.1875 60.0
195.234772 140.0
195.332123 60.0
195.384979 28.0
195.415588 56.0
195.496277 188.0
195.55751 168.0
195.610397 228.0
195.746811 176.0
195.925079 44.0
196.071732 2132.0
196.142441 132.0
196.161942 128.0
196.223282 36.0
196.279037 60.0
196.401749 68.0
196.441452 184.0
196.544037 144.0
196.728241 32.0
196.828751 84.0
196.892975 60.0
196.915314 60.0
197.074448 480.0
197.200302 76.0
197.728897 144.0
197.759689 100.0
197.804474 44.0
198.084457 292.0
198.140518 136.0
198.249802 84.0
198.31987 64.0
198.3591 152.0
198.387131 200.0
198.47966 120.0
199.077362 280.0
199.097015 72.0
199.864441 200.0
200.013596 76.0
200.123383 68.0
200.162811 88.0
200.763031 76.0
200.867401 108.0
200.963318 168.0
201.034637 116.0
201.090302 152.0
201.135468 92.0
201.214508 116.0
201.293564 64.0
201.49411 204.0
201.533661 52.0
201.581696 44.0
202.10257 960.0
202.351059 52.0
202.424667 160.0
202.855331 136.0
202.929031 156.0
203.076492 104.0
203.107376 348.0
203.167267 92.0
203.320496 136.0
203.692429 40.0
203.973999 228.0
204.04129 100.0
204.055374 112.0
204.060104 180.0
204.081787 156.0
204.119446 6044.0
204.189835 68.0
204.356491 144.0
204.44873 168.0
204.62236 68.0
204.710632 52.0
204.744812 128.0
204.813156 160.0
205.006897 204.0
205.061493 152.0
205.120483 436.0
205.303375 52.0
205.360413 156.0
205.388947 112.0
205.509781 112.0
205.540146 80.0
205.5858 132.0
205.634323 96.0
205.66571 68.0
205.685699 196.0
205.805603 160.0
205.894119 136.0
205.959549 84.0
206.073242 6340.0
206.134445 6556.0
206.188202 60.0
206.22554 136.0
206.259842 152.0
206.312286 92.0
206.345612 40.0
206.437103 52.0
206.457123 40.0
206.524872 128.0
206.711716 40.0
206.997971 52.0
207.07579 1340.0
207.140152 512.0
207.16983 40.0
207.247177 92.0
207.29303 148.0
207.384735 132.0
207.812027 224.0
208.070679 1940.0
208.113068 1916.0
208.148544 164.0
208.170822 52.0
208.201431 124.0
208.384995 92.0
208.480194 136.0
208.555801 104.0
208.794434 212.0
208.857712 48.0
209.04184 180.0
209.066681 184.0
209.121964 500.0
209.182861 188.0
209.724396 64.0
209.903137 80.0
210.084045 172.0
210.128113 156.0
210.154083 148.0
210.191589 36.0
210.500458 44.0
210.587097 144.0
210.633316 100.0
210.688202 120.0
210.841339 136.0
210.904922 44.0
210.945404 128.0
211.061035 124.0
211.087067 144.0
211.127548 212.0
211.159363 168.0
211.19696 208.0
211.292419 68.0
211.909103 76.0
212.082977 68.0
212.346817 168.0
212.663071 152.0
212.758865 60.0
213.851837 148.0
214.612167 92.0
215.201553 108.0
215.657272 172.0
215.908707 112.0
216.063736 104.0
216.360687 256.0
217.053177 152.0
217.134262 164.0
217.171021 36.0
217.209152 204.0
217.593582 84.0
217.86084 164.0
218.071548 456.0
218.192917 128.0
218.287018 84.0
218.319351 52.0
218.442001 128.0
219.323318 76.0
219.588684 108.0
219.830597 132.0
219.933899 168.0
220.067047 508.0
220.091873 312.0
220.400497 144.0
220.45665 76.0
220.548264 88.0
220.675385 72.0
221.077667 208.0
221.107071 120.0
221.444778 116.0
221.557343 112.0
221.829498 104.0
222.07518 144.0
222.105743 164.0
222.631073 160.0
222.797409 116.0
223.27597 128.0
223.433624 52.0
223.454437 156.0
223.698471 172.0
223.977371 152.0
224.019302 152.0
224.083694 10928.0
224.198669 60.0
224.273376 56.0
224.297211 48.0
224.374725 68.0
224.398575 40.0
224.431366 120.0
224.491013 40.0
224.529785 100.0
224.696823 84.0
224.798264 44.0
224.992279 148.0
225.086853 2048.0
225.117691 216.0
225.275986 32.0
225.29689 40.0
225.362625 48.0
225.425369 84.0
225.44928 208.0
225.577606 60.0
225.646561 180.0
225.676453 180.0
225.729446 216.0
226.044373 184.0
226.080215 2672.0
226.214966 52.0
226.433548 120.0
226.46051 68.0
226.484467 160.0
226.511429 120.0
226.544373 136.0
226.594315 60.0
226.679199 80.0
226.889008 76.0
226.921997 80.0
227.082382 388.0
227.143906 168.0
227.221909 72.0
227.251907 196.0
227.305923 84.0
227.555054 60.0
227.732224 52.0
228.032669 176.0
228.092789 96.0
228.775635 56.0
228.796722 80.0
228.875 128.0
229.088837 36.0
229.170181 144.0
229.24852 160.0
229.438416 116.0
229.531876 176.0
229.724899 164.0
230.073898 220.0
230.899872 168.0
231.157013 112.0
231.226624 156.0
231.580856 200.0
231.668701 132.0
231.817169 120.0
232.038437 148.0
232.086761 500.0
232.138489 120.0
232.229477 56.0
232.393295 40.0
232.858948 156.0
233.094528 540.0
233.267929 60.0
233.763687 172.0
233.866104 172.0
234.001114 52.0
234.083908 104.0
234.238647 136.0
234.387924 64.0
234.409256 96.0
234.723236 136.0
235.367065 52.0
235.751968 96.0
235.794754 44.0
236.014847 252.0
236.53801 204.0
236.960617 80.0
237.224182 228.0
237.362137 104.0
237.432678 140.0
238.099426 740.0
238.141647 124.0
238.427368 160.0
238.556458 148.0
238.621017 92.0
238.808609 160.0
239.0578 80.0
239.165527 72.0
239.806168 100.0
240.052811 112.0
240.097519 92.0
240.25946 44.0
240.580414 28.0
240.793472 116.0
240.975723 48.0
241.114777 120.0
241.287872 128.0
241.433212 188.0
242.120239 208.0
242.386658 72.0
242.662262 100.0
243.233322 28.0
243.435135 108.0
243.596634 124.0
243.671204 48.0
243.76442 204.0
243.814133 60.0
243.888733 156.0
244.794067 96.0
245.118027 88.0
245.177246 112.0
245.205292 156.0
245.648056 140.0
246.222366 68.0
246.412903 112.0
246.631653 148.0
246.947449 144.0
247.088226 112.0
247.160187 100.0
247.213379 44.0
248.157898 104.0
248.924957 208.0
248.981491 56.0
249.135406 116.0
249.383636 168.0
249.518814 84.0
249.63829 132.0
249.93399 176.0
250.538483 192.0
250.626694 108.0
250.667664 68.0
250.92807 136.0
251.080627 152.0
252.467041 80.0
252.52713 88.0
252.764389 152.0
252.878326 80.0
253.169586 176.0
253.66069 164.0
254.085632 188.0
255.057358 100.0
255.207779 140.0
255.788971 192.0
256.11377 148.0
256.406891 160.0
256.776703 48.0
257.440521 220.0
258.220306 48.0
258.549835 116.0
258.581848 76.0
258.770691 200.0
258.908386 76.0
259.082123 168.0
260.319427 136.0
260.640656 56.0
260.743469 200.0
260.881683 104.0
261.164673 152.0
261.502502 132.0
261.814789 76.0
261.895325 128.0
261.953278 116.0
262.004822 60.0
262.117615 100.0
262.418396 164.0
262.536682 72.0
263.059357 152.0
263.104553 88.0
263.278931 180.0
263.304749 92.0
263.327362 76.0
263.583832 184.0
263.931671 152.0
264.073975 180.0
264.238953 96.0
264.517242 124.0
265.914246 72.0
266.112274 148.0
267.090454 48.0
267.148987 132.0
267.210815 248.0
267.718597 132.0
267.845612 116.0
268.543152 168.0
269.061981 120.0
269.104523 116.0
269.13382 76.0
269.189331 116.0
269.215454 160.0
269.349365 172.0
269.55191 200.0
270.271271 124.0
270.477478 156.0
271.098328 120.0
272.514008 88.0
272.606018 52.0
273.750793 108.0
274.779175 112.0
274.822083 104.0
275.059692 140.0
275.175232 92.0
275.214844 168.0
276.064087 80.0
277.289001 36.0
277.524353 176.0
277.716614 164.0
277.839447 176.0
278.108215 152.0
278.28418 84.0
279.284454 116.0
279.533966 164.0
279.573914 252.0
279.610504 96.0
279.843536 136.0
280.561798 188.0
280.67984 148.0
280.846588 144.0
281.18692 116.0
282.486694 148.0
283.420776 80.0
284.12149 128.0
284.839874 92.0
285.202789 128.0
285.771118 128.0
286.006683 40.0
286.13797 48.0
286.481476 164.0
286.720703 152.0
286.936432 76.0
287.489624 168.0
287.58075 40.0
287.766418 56.0
288.006165 136.0
288.30011 252.0
288.972992 216.0
289.044067 240.0
289.199738 132.0
289.785583 144.0
289.958405 108.0
290.107544 188.0
290.572174 92.0
291.047333 124.0
291.213745 128.0
291.295258 72.0
291.461731 148.0
291.811829 92.0
292.155304 132.0
292.243774 164.0
292.267578 56.0
293.071167 80.0
293.105225 100.0
293.25177 156.0
293.626801 88.0
293.88266 156.0
294.039612 92.0
294.954987 144.0
295.0849 132.0
295.131165 144.0
295.659546 168.0
298.166534 188.0
298.238708 116.0
298.579102 192.0
299.336182 96.0
299.566956 176.0
299.763336 156.0
300.011505 104.0
300.070099 296.0
300.891205 40.0
301.101837 104.0
301.177826 128.0
301.447327 248.0
302.169983 156.0
302.273773 32.0
302.858856 156.0
303.423706 68.0
303.794769 132.0
304.176483 228.0
304.346619 108.0
304.381317 168.0
305.643127 96.0
305.750977 92.0
306.165283 100.0
306.332458 104.0
306.3638 116.0
306.600739 176.0
306.973755 124.0
307.170654 132.0
309.136108 140.0
309.405609 148.0
309.724731 156.0
310.330566 196.0
310.846161 184.0
310.884766 160.0
311.857605 88.0
312.086121 168.0
312.370972 120.0
312.406158 136.0
312.518738 108.0
312.824921 100.0
313.099548 136.0
313.20874 132.0
313.377838 76.0
313.406036 100.0
314.01236 96.0
314.044098 144.0
314.181671 48.0
314.753448 92.0
314.806427 196.0
315.138458 184.0
315.470673 48.0
315.68988 124.0
316.1427 144.0
316.627686 100.0
316.730408 116.0
316.794159 116.0
317.042206 148.0
317.152069 80.0
317.244232 196.0
317.758453 192.0
317.89328 172.0
318.08139 92.0
318.3974 76.0
319.378357 88.0
319.467285 104.0
319.581116 180.0
320.332306 128.0
321.562469 160.0
322.44104 148.0
322.648376 196.0
322.777069 92.0
322.852173 132.0
323.718201 52.0
324.836426 140.0
324.969177 112.0
325.116302 120.0
325.403442 52.0
325.927856 144.0
326.276489 68.0
326.46344 32.0
326.560547 192.0
326.690063 144.0
326.790771 176.0
326.92392 148.0
327.107483 176.0
327.388306 144.0
327.651276 80.0
328.328918 116.0
328.70047 108.0
328.924255 100.0
329.245575 60.0
329.906799 64.0
330.000793 108.0
330.333527 116.0
330.409485 80.0
330.883606 112.0
331.064636 76.0
331.173279 188.0
331.238495 176.0
331.637054 160.0
332.028625 84.0
333.960815 48.0
334.135437 152.0
334.274841 64.0
334.666809 92.0
334.929016 152.0
335.136688 96.0
335.579956 116.0
336.270782 204.0
337.136353 124.0
337.245972 144.0
337.341034 88.0
337.465332 64.0
337.567719 68.0
338.797516 108.0
338.933075 124.0
339.017365 116.0
339.160278 88.0
339.226257 168.0
339.354584 88.0
339.402252 100.0
339.471924 168.0
339.835052 180.0
340.086639 188.0
340.119812 168.0
340.297516 216.0
340.744263 188.0
340.818481 148.0
341.027039 224.0
341.371765 56.0
341.52124 112.0
341.61319 180.0
341.646301 208.0
341.672058 44.0
341.697815 120.0
341.863403 188.0
342.020691 136.0
342.07312 200.0
342.142273 29792.0
342.204346 140.0
342.286713 48.0
342.3125 48.0
342.378784 132.0
342.477234 192.0
342.562958 144.0
342.588745 64.0
342.617279 96.0
342.706635 68.0
342.743469 188.0
342.806122 44.0
342.868774 80.0
342.946167 52.0
342.996033 76.0
343.084717 144.0
343.144379 3420.0
343.204956 164.0
343.266907 36.0
343.31485 40.0
343.372559 68.0
343.400146 124.0
343.429596 72.0
343.443939 68.0
343.507599 232.0
343.554596 124.0
343.609924 56.0
343.64682 96.0
343.712006 60.0
343.812866 52.0
343.868225 104.0
343.919922 120.0
343.992706 304.0
344.088715 148.0
344.13974 6492.0
344.2229 60.0
344.329742 72.0
344.366669 76.0
344.495941 60.0
344.566132 80.0
344.677002 40.0
344.791534 96.0
344.824799 84.0
344.850677 68.0
344.891327 52.0
344.937927 120.0
344.985168 76.0
345.0466 48.0
345.144775 780.0
345.240051 112.0
345.298035 48.0
345.421326 120.0
345.475586 80.0
345.582886 64.0
345.708679 172.0
345.779022 44.0
345.81601 44.0
345.875244 56.0
345.978882 116.0
346.078857 132.0
346.352905 144.0
346.534424 56.0
346.652985 160.0
346.704865 92.0
346.793823 44.0
346.953217 104.0
346.98288 128.0
347.068146 136.0
347.179413 80.0
347.242462 48.0
347.375977 100.0
347.439056 128.0
347.513245 100.0
347.561493 132.0
347.587463 48.0
347.659515 76.0
347.77301 36.0
347.888092 72.0
347.947479 136.0
348.118713 140.0
348.151703 36.0
348.355988 196.0
348.645813 228.0
348.924591 156.0
348.988861 56.0
349.132812 160.0
349.218353 196.0
349.437836 152.0
349.742981 96.0
349.940277 192.0
350.424469 72.0
351.065582 44.0
351.289368 104.0
351.961151 204.0
352.865356 124.0
352.955078 152.0
353.108429 176.0
353.205658 76.0
353.538635 176.0
354.617249 140.0
355.13092 148.0
355.828888 80.0
355.941528 76.0
356.403534 56.0
356.636536 76.0
356.79068 112.0
356.884674 216.0
357.001221 92.0
357.0802 172.0
357.170471 52.0
357.335999 160.0
357.381134 76.0
357.836578 112.0
357.963409 64.0
357.987183 100.0
358.043671 32.0
358.205627 108.0
358.2659 140.0
358.483643 140.0
358.559814 252.0
358.642731 104.0
359.046143 96.0
359.095673 184.0
359.163055 68.0
359.19696 180.0
359.244568 92.0
359.31192 104.0
359.3479 112.0
359.378113 84.0
359.419617 124.0
359.487518 44.0
359.544128 116.0
359.721527 132.0
359.75174 120.0
359.800293 144.0
359.813324 88.0
359.829071 172.0
359.880096 144.0
359.932953 372.0
359.957581 236.0
360.041016 184.0
360.098816 148.0
360.153473 59336.0
360.292633 152.0
360.424316 156.0
360.458771 156.0
360.519775 184.0
360.58139 80.0
360.626984 84.0
360.661774 48.0
360.688416 112.0
360.706299 104.0
360.712921 80.0
360.794464 132.0
360.879547 172.0
360.943115 228.0
360.987213 28.0
361.032227 156.0
361.041412 196.0
361.081757 68.0
361.155762 8264.0
361.238159 172.0
361.283112 132.0
361.320068 68.0
361.346558 64.0
361.406067 44.0
361.467651 92.0
361.503448 60.0
361.550903 92.0
361.575043 84.0
361.640656 132.0
361.690918 116.0
361.770416 40.0
361.798309 132.0
361.848907 44.0
361.863953 68.0
361.876587 92.0
361.912781 120.0
361.982147 176.0
362.038483 80.0
362.06665 172.0
362.095337 192.0
362.151062 13448.0
362.227448 128.0
362.251373 156.0
362.281677 40.0
362.323334 84.0
362.357422 28.0
362.40506 56.0
362.512787 68.0
362.573181 104.0
362.634064 100.0
362.675751 244.0
362.721252 84.0
362.781891 52.0
362.819794 76.0
362.850128 56.0
362.876678 40.0
363.008942 68.0
363.030548 76.0
363.082886 68.0
363.151184 1800.0
363.224976 76.0
363.32309 124.0
363.377319 120.0
363.413513 80.0
363.44812 120.0
363.478241 148.0
363.497742 108.0
363.527649 92.0
363.561646 104.0
363.601196 116.0
363.639587 228.0
363.701324 188.0
363.741638 80.0
363.773865 228.0
363.931458 68.0
363.971588 80.0
364.064362 40.0
364.090942 48.0
364.161652 116.0
364.30365 120.0
364.615204 116.0
364.778168 64.0
364.915497 76.0
364.991547 40.0
365.056183 52.0
365.090424 92.0
365.15509 112.0
365.413757 120.0
365.493652 104.0
365.575714 120.0
365.638245 104.0
365.707611 136.0
365.874237 56.0
365.950409 76.0
366.194122 76.0
367.768799 84.0
367.852753 88.0
368.154388 88.0
370.782623 92.0
370.993439 140.0
372.570709 60.0
373.051086 56.0
373.9935 168.0
374.44397 68.0
375.983276 60.0
376.267883 116.0
376.986328 44.0
377.218231 108.0
377.941437 108.0
378.16272 2988.0
378.216217 136.0
378.735046 76.0
379.162781 960.0
379.510132 72.0
379.804871 116.0
379.991058 48.0
380.160431 1416.0
380.313141 40.0
380.503082 52.0
380.767426 124.0
381.035431 128.0
381.097595 68.0
381.154236 268.0
381.24527 52.0
381.447388 120.0
381.556213 92.0
381.80896 60.0
382.618317 104.0
383.405151 84.0
384.278595 76.0
385.180389 100.0
385.672729 88.0
386.619232 60.0
386.787506 112.0
386.959778 92.0
387.139893 64.0
388.13913 116.0
390.003906 96.0
391.321777 136.0
392.145081 52.0
394.556915 112.0
394.687408 132.0
396.417236 132.0
396.532166 96.0
400.979523 76.0
402.156097 72.0
403.946198 120.0
404.318298 60.0
407.606628 44.0
407.831696 92.0
411.025299 92.0
414.697327 60.0
415.853271 88.0
418.353119 40.0
420.293121 48.0
420.476746 40.0
422.17218 104.0
426.374268 64.0
427.863281 52.0
430.588898 80.0
433.592499 64.0
434.056793 44.0
434.795227 64.0
435.62149 112.0
436.739655 104.0
442.289185 104.0
449.273254 80.0
450.087799 64.0
453.807037 64.0
458.943268 52.0
460.603394 44.0
461.449554 128.0
462.994293 48.0
467.751556 108.0
467.979736 52.0
474.256683 64.0
476.339447 100.0
484.374481 80.0
486.900879 96.0
487.366516 112.0
489.517487 68.0
491.929199 64.0
495.019684 56.0
495.896881 52.0
502.348785 76.0
502.897614 68.0
505.413635 56.0
510.815247 88.0
512.21521 92.0
516.236572 132.0
516.471741 88.0
517.23645 48.0
521.477417 68.0
522.759888 68.0
526.83606 72.0
529.232605 140.0
536.344177 176.0
539.899231 80.0
540.042603 112.0
542.645142 96.0
545.667603 36.0
553.361145 112.0
559.67627 84.0
567.628784 108.0
570.63916 140.0
571.614197 80.0
572.733032 108.0
579.214905 44.0
582.865845 88.0
583.173401 52.0
588.636597 108.0
590.376221 64.0
606.452637 52.0
609.873657 60.0
614.246155 68.0
620.234253 88.0
623.336121 116.0
623.818237 60.0
629.288391 68.0
634.717224 64.0
636.538696 60.0
637.829895 96.0
638.699768 156.0
639.736389 64.0
643.280273 96.0
648.829834 40.0
651.082764 244.0
653.894165 52.0
654.683289 84.0
656.966736 84.0
657.109619 84.0
666.972717 96.0
676.391602 76.0
689.315857 108.0
691.779236 92.0
694.278564 92.0
694.540771 76.0
697.544312 104.0
699.359009 88.0
701.381653 48.0
706.572632 168.0
712.271423 48.0
719.27356 148.0
719.535095 84.0
729.440491 40.0
738.093567 92.0
739.142944 92.0
739.202454 44.0
742.507019 240.0
748.789673 48.0
749.078369 204.0
751.749939 60.0
752.43219 144.0
759.047241 108.0
759.672485 120.0
760.270508 76.0
761.203735 60.0
763.423828 172.0
763.803345 180.0
764.733215 244.0
781.178406 128.0
782.959534 120.0
786.248779 168.0
787.404419 188.0
789.080811 76.0
791.313171 148.0
794.305725 152.0
796.994873 136.0
799.322754 172.0
799.8349 72.0
802.770264 216.0
807.005188 208.0
808.074158 148.0
812.06781 128.0
812.663452 60.0
815.548279 152.0
817.208801 220.0
819.036194 196.0
819.338135 88.0
819.816772 132.0
819.993408 244.0
820.552063 124.0
823.896423 240.0
826.617981 208.0
834.085205 156.0
834.315186 224.0
835.166199 120.0
835.419312 160.0
837.01355 116.0
838.194397 32.0
838.540161 164.0
839.08783 188.0
840.685547 148.0
842.764343 52.0
843.549683 180.0
844.244141 168.0
848.088379 40.0
850.025452 44.0
850.629028 176.0
850.675476 64.0
852.760742 260.0
854.737976 148.0
857.620728 240.0
858.343628 188.0
859.224365 156.0
859.942078 264.0
863.172729 100.0
863.470947 248.0
865.618713 60.0
866.198486 68.0
868.273376 148.0
870.432922 288.0
870.861633 48.0
872.354126 132.0
873.900879 192.0
878.513855 40.0
884.630188 124.0
887.977966 128.0
888.351624 156.0
890.36377 40.0
892.057129 160.0
894.871155 136.0
895.806152 164.0
896.080139 184.0
896.264893 44.0
896.771423 92.0
897.391357 228.0
898.566345 272.0
899.753967 240.0
901.246643 240.0
903.38147 164.0
905.159058 128.0
909.769653 132.0
910.111877 124.0
910.568298 180.0
911.463379 28.0
911.805908 148.0
912.202576 136.0
912.425049 112.0
913.573669 44.0
915.475647 60.0
917.925049 200.0
919.249329 172.0
920.366028 116.0
922.462463 52.0
922.655884 172.0
924.252625 216.0
924.803345 160.0
925.354187 208.0
926.716919 44.0
927.931702 264.0
928.214111 68.0
928.286865 132.0
929.37262 160.0
929.773804 188.0
930.070557 64.0
931.880249 144.0
933.351135 160.0
934.360779 236.0
934.561523 172.0
935.937134 44.0
936.37561 216.0
936.777588 148.0
936.972534 140.0
937.033508 172.0
937.880554 196.0
938.00116 172.0
939.221985 148.0
939.886963 332.0
941.144348 128.0
941.638977 112.0
943.080872 104.0
945.937439 184.0
947.376526 148.0
948.173035 140.0
949.405273 76.0
951.264404 168.0
952.033569 176.0
952.719788 208.0
953.457153 188.0
954.256226 180.0
954.711243 40.0
956.027771 160.0
957.141968 128.0
958.983948 144.0
959.070251 200.0
959.699036 188.0
960.254028 144.0
961.086853 216.0
961.426208 200.0
962.173096 108.0
962.61145 140.0
963.198181 212.0
963.519409 232.0
963.66156 100.0
965.076904 120.0
965.571655 252.0
965.682983 184.0
966.697571 160.0
966.87085 132.0
967.211243 92.0
967.737427 172.0
969.192993 136.0
970.265259 120.0
970.854309 208.0
972.548035 100.0
972.821167 72.0
973.833313 184.0
973.889221 76.0
974.684387 184.0
975.281006 76.0
976.294373 200.0
978.192078 140.0
978.478455 220.0
980.054199 252.0
981.020203 160.0
981.600037 176.0
981.737244 140.0
981.974243 188.0
982.186279 128.0
982.410828 228.0
983.103455 136.0
983.22821 132.0
983.415466 68.0
983.889893 176.0
984.014771 56.0
985.107666 176.0
985.548401 248.0
986.182373 80.0
986.269897 200.0
986.594971 124.0
986.719971 240.0
988.31488 160.0
988.771667 76.0
989.259888 164.0
989.385132 172.0
990.293091 104.0
990.587463 220.0
990.776001 168.0
993.358215 168.0
993.665588 212.0
993.778503 52.0
993.916565 212.0
994.22406 120.0
994.418579 176.0
994.550415 68.0
995.058899 148.0
996.346375 156.0
996.57251 124.0
996.771057 176.0
998.081055 184.0
998.603027 124.0
998.823181 112.0
999.326416 88.0
999.515198 60.0
999.578125 96.0
1000.024963 68.0
1000.736267 212.0
1000.925171 132.0
1001.18335 176.0
1002.430664 164.0
1002.970093 176.0
1003.262634 184.0
1003.344604 128.0
1005.659668 156.0
1005.934387 176.0
1006.114136 196.0
1008.780029 72.0
1008.887512 240.0
1009.254211 188.0
1009.633606 124.0
1009.81073 88.0
1010.500244 152.0
1010.79126 160.0
1011.297546 192.0
1011.652039 152.0
1011.949585 80.0
1012.418152 124.0
1013.970276 72.0
1014.458374 40.0
1014.624878 208.0
1014.80072 140.0
1016.0755 148.0
1017.014709 188.0
1017.351135 176.0
1017.935242 176.0
1019.701294 184.0
1019.764893 108.0
1021.112732 40.0
1021.647034 180.0
1021.837891 160.0
1022.003357 68.0
1022.429688 116.0
1023.333557 144.0
1023.394592 180.0
1024.454468 148.0
1024.970581 108.0
1025.238159 160.0
1025.703491 48.0
1026.200684 148.0
1026.321899 128.0
1026.468506 104.0
1026.800049 160.0
1027.157349 96.0
1027.954834 208.0
1029.052612 216.0
1029.10376 176.0
1030.157471 152.0
1030.374756 188.0
1031.467529 232.0
1031.691162 204.0
1032.86145 128.0
1033.174927 92.0
1033.456421 88.0
1034.473999 152.0
1035.152588 44.0
1035.447266 160.0
1036.625977 144.0
1036.683594 168.0
1037.087402 164.0
1037.657959 188.0
1038.292725 152.0
1038.651978 112.0
1038.863647 164.0
1038.953491 176.0
1039.184448 64.0
1039.60791 148.0
1039.870972 164.0
1040.493652 180.0
1040.744019 92.0
1040.891724 132.0
1041.206421 240.0
1041.617432 196.0
1041.906616 172.0
1042.439819 144.0
1043.230469 204.0
1043.68042 116.0
1043.821899 152.0
1043.879761 148.0
1043.989136 112.0
1044.117676 108.0
1044.542236 180.0
1045.552368 176.0
1046.093018 216.0
1046.466431 144.0
1047.058838 184.0
1047.419556 164.0
1048.025146 172.0
1048.44397 164.0
1048.579346 28.0
1048.946777 164.0
1049.024048 52.0
1049.507568 120.0
1049.681763 240.0
1049.810669 64.0
1049.875122 84.0
1050.275024 180.0
1052.85022 252.0
1053.12793 148.0
1053.25061 112.0
1053.513428 204.0
1053.702881 144.0
1054.465332 220.0
1055.422119 252.0
1055.700195 124.0
1056.4375 164.0
1056.767456 136.0
1056.838623 64.0
1056.896851 208.0
1057.226929 164.0
1058.573364 88.0
1058.77417 132.0
1059.195068 36.0
1059.699341 228.0
1059.972534 108.0
1060.38562 168.0
1061.184692 188.0
1061.59314 180.0
1061.93689 176.0
1062.001709 72.0
1062.27417 64.0
1062.663452 156.0
1063.091675 168.0
1063.325317 176.0
1063.539429 204.0
1063.617432 160.0
1063.812134 152.0
1063.967896 216.0
1064.727661 212.0
1065.14978 132.0
1065.903442 124.0
1067.4375 132.0
1067.762695 172.0
1068.562744 228.0
1068.777466 152.0
1069.311035 104.0
1070.33313 112.0
1070.506104 184.0
1071.792236 48.0
1071.84436 144.0
1072.314331 176.0
1072.743774 152.0
1073.128418 160.0
1073.91748 68.0
1074.387085 180.0
1074.465332 156.0
1074.602417 224.0
1075.196167 132.0
1075.255005 36.0
1075.509521 160.0
1075.561768 232.0
1076.090454 204.0
1076.717407 96.0
1077.168091 188.0
1077.684082 248.0
1078.200317 64.0
1078.490845 184.0
1078.559814 248.0
1078.671021 104.0
1078.834351 152.0
1079.926392 112.0
1080.227295 224.0
1080.724487 172.0
1081.27417 248.0
1082.387085 108.0
1082.612183 144.0
1083.44812 100.0
1083.618408 156.0
1083.793701 116.0
1084.03125 188.0
1084.513184 164.0
1085.086548 192.0
1085.401245 88.0
1085.683228 56.0
1086.378418 160.0
1086.444092 204.0
1086.85083 204.0
1087.461182 160.0
1087.631836 188.0
1087.848389 60.0
1089.33252 100.0
1090.022339 92.0
1090.705811 204.0
1091.724976 160.0
1092.020874 132.0
1092.704956 116.0
1092.869507 200.0
1093.106323 196.0
1093.244629 252.0
1093.705322 204.0
1093.929077 124.0
1094.962891 148.0
1095.206543 116.0
1095.498169 192.0
1095.568848 28.0
1096.06958 136.0
1096.115723 116.0
1096.669312 92.0
1096.741821 68.0
1096.807617 144.0
1097.447144 188.0
1097.585571 220.0
1098.54187 164.0
1098.904785 88.0
1099.016968 208.0
1099.06311 80.0
1099.254517 180.0
1099.723022 176.0
1100.363403 48.0
1100.719971 184.0
1100.924683 152.0
1101.493164 164.0
1101.902222 112.0
1102.120239 200.0
1102.298706 88.0
1103.012451 68.0
1103.085205 84.0
1103.190918 168.0
1103.772705 104.0
1104.017456 88.0
1104.15625 180.0
1104.370605 188.0
1104.877319 88.0
1104.969604 160.0
1105.439697 120.0
1105.896362 80.0
1105.969116 52.0
1106.055176 188.0
1106.227295 132.0
1106.790039 136.0
1106.836426 184.0
1107.823242 168.0
1108.532104 124.0
1108.916504 156.0
1108.969604 164.0
1109.692139 188.0
1110.36853 192.0
1110.454712 120.0
1111.310425 128.0
1111.549316 180.0
1112.213013 124.0
1112.259399 220.0
1112.312622 240.0
1112.684326 196.0
1114.065674 156.0
1114.358032 204.0
1114.670288 188.0
1114.942749 152.0
1115.088989 224.0
1115.866699 176.0
1116.531616 132.0
1116.844238 196.0
1117.123657 116.0
1117.170166 160.0
1117.422974 164.0
1117.988525 152.0
1118.341309 148.0
1118.840576 40.0
1119.126831 156.0
1119.273315 108.0
1119.473145 160.0
1119.612915 68.0
1119.899292 136.0
1120.019165 176.0
1120.07251 56.0
1120.6521 196.0
1122.318359 116.0
1122.605103 192.0
1122.831909 60.0
1123.398804 124.0
1123.598999 48.0
1124.564087 172.0
1124.873535 196.0
1125.020508 176.0
1125.133911 180.0
1125.588013 180.0
1126.943848 216.0
1127.886108 204.0
1128.16687 164.0
1128.326416 140.0
1129.14978 188.0
1129.224854 168.0
1131.023193 124.0
1131.438232 156.0
1132.48291 60.0
1132.831177 196.0
1133.092529 256.0
1133.400635 148.0
1133.776001 136.0
1134.03064 76.0
1135.820923 116.0
1135.934937 172.0
1136.612549 128.0
1136.914551 132.0
1137.377563 112.0
1137.552124 124.0
1138.163086 192.0
1138.263794 32.0
1138.324219 84.0
1138.633545 144.0
1138.794312 124.0
1139.009277 224.0
1139.452637 172.0
1139.976807 164.0
1140.050659 196.0
1140.29834 204.0
1141.119385 156.0
1141.596802 200.0
1142.403931 52.0
1143.20459 60.0
1143.400513 172.0
1143.668945 376.0
1143.803589 172.0
1144.099854 88.0
1144.254639 72.0
1144.598022 52.0
1145.237793 164.0
1145.487061 96.0
1145.601562 160.0
1145.682373 148.0
1146.302246 44.0
1146.437012 168.0
1146.713745 180.0
1146.969482 244.0
1147.306519 96.0
1147.468384 164.0
1147.562744 124.0
1147.980835 144.0
1148.135864 164.0
1148.227783 144.0
1148.506836 184.0
1149.363647 156.0
1149.488037 164.0
1149.559326 168.0
1149.739014 148.0
1149.835938 104.0
1150.117188 176.0
1150.207275 156.0
1150.421875 180.0
1150.571777 200.0
1150.720337 180.0
1151.02417 176.0
1151.118652 104.0
1152.253418 132.0
1152.351562 216.0
1152.793945 240.0
1153.010254 232.0
1153.199463 124.0
1153.510376 124.0
1153.706421 184.0
1153.807861 156.0
1154.247314 84.0
1154.55835 56.0
1154.653076 132.0
1154.768066 132.0
1154.910034 56.0
1154.977661 176.0
1155.106201 104.0
1155.532349 52.0
1155.627075 200.0
1155.782715 176.0
1156.006104 72.0
1156.283569 156.0
1156.418823 160.0
1156.533936 96.0
1156.828247 156.0
1157.143188 80.0
1157.265015 160.0
1157.454712 80.0
1157.569824 208.0
1157.775635 180.0
1158.118286 156.0
1158.416382 64.0
1158.52478 176.0
1158.666992 184.0
1159.127808 232.0
1159.192261 216.0
1159.500488 80.0
1159.859741 220.0
1159.926636 184.0
1160.462158 188.0
1160.505005 204.0
1160.883423 152.0
1161.520996 136.0
1161.643066 48.0
1161.993652 168.0
1162.891602 116.0
1162.959473 184.0
1163.251343 200.0
1164.174683 172.0
1164.283325 156.0
1164.344482 212.0
1164.398804 124.0
1164.458862 192.0
1164.684082 148.0
1164.909546 152.0
1166.274048 72.0
1166.714722 156.0
1166.858643 220.0
1166.933472 52.0
1167.076294 176.0
1167.157837 188.0
1167.695068 168.0
1168.307251 168.0
1168.395752 184.0
1168.701904 200.0
1168.851562 116.0
1169.498047 224.0
1170.451172 40.0
1171.050415 172.0
1172.113159 168.0
1172.290405 288.0
1172.358521 52.0
1172.549316 228.0
1172.971924 164.0
1173.046875 184.0
1173.121948 144.0
1173.31958 228.0
1174.054199 176.0
1174.080811 108.0
1174.098145 156.0
1174.315186 132.0
1174.444702 124.0
1175.113281 120.0
1175.283813 72.0
1175.700073 192.0
1175.85022 136.0
1175.945801 168.0
1176.730835 124.0
1177.256592 76.0
1177.693726 160.0
1177.792725 336.0
1178.158203 216.0
1179.652344 88.0
1179.839355 152.0
1180.612061 376.0
1180.782959 168.0
1180.953979 156.0
1181.3302 124.0
1181.713257 100.0
1182.110107 148.0
1182.657715 160.0
1182.835571 60.0
1183.390137 212.0
1183.588745 152.0
1184.088867 224.0
1184.16394 96.0
1184.232422 120.0
1184.43103 152.0
1184.869507 56.0
1185.164062 156.0
1185.287476 196.0
1185.619751 208.0
1185.979614 184.0
1186.151733 180.0
1186.456055 160.0
1186.765137 332.0
1186.987427 160.0
1187.343994 200.0
1188.414062 72.0
1189.031738 148.0
1189.162109 52.0
1190.119751 256.0
1190.384888 140.0
1190.86792 132.0
1191.057129 244.0
1191.201416 120.0
1191.572388 140.0
1191.716675 176.0
1191.799072 236.0
1191.867798 200.0
1192.032715 132.0
1192.170166 124.0
1192.280151 140.0
1192.5 112.0
1192.747559 176.0
1192.909912 180.0
1193.27002 184.0
1193.455566 144.0
1194.102051 156.0
1194.18457 180.0
1194.287964 184.0
1194.397827 112.0
1194.542236 140.0
1194.678955 124.0
1195.340332 196.0
1195.553589 140.0
1195.904663 164.0
1196.062988 240.0
1196.152466 152.0
1197.006104 104.0
1197.157593 168.0
1197.240234 112.0
1197.860107 212.0
1198.452637 176.0
1198.631836 208.0
1198.804077 176.0
1199.1073 68.0
1199.17627 180.0
1199.830078 108.0
1200.11377 196.0
1200.352173 172.0
1200.527466 244.0
1200.679199 180.0
1201.713867 172.0
1202.045044 180.0
1202.141724 116.0
1202.424683 160.0
1202.762817 180.0
1202.874023 192.0
1203.03894 132.0
1203.177002 40.0
1203.425537 128.0
1203.618896 188.0
1204.40625 196.0
1204.537476 168.0
1204.813843 176.0
1204.910522 56.0
1205.262817 120.0
1205.808838 140.0
1205.910034 168.0
1206.195923 104.0
1206.354858 172.0
1206.52771 124.0
1206.818115 100.0
1207.557983 64.0
1207.800049 176.0
1208.270508 224.0
1208.699463 132.0
1209.246094 112.0
1209.647583 196.0
1209.737549 116.0
1209.854126 184.0
1210.589233 184.0
1210.977051 232.0
1211.07312 192.0
1211.25415 232.0
1211.323364 160.0
1211.816895 192.0
1212.078491 124.0
1212.293335 260.0
1212.471191 192.0
1212.764648 180.0
1213.076538 156.0
1213.457886 92.0
1213.638062 188.0
1213.962891 120.0
1214.077393 364.0
1214.331543 96.0
1214.518555 164.0
1214.967163 184.0
1215.122437 160.0
1215.351318 192.0
1215.809326 84.0
1216.017578 248.0
1216.475708 124.0
1216.83667 244.0
1217.61438 176.0
1217.781006 172.0
1218.34375 152.0
1218.968994 204.0
1219.093018 132.0
1219.490234 152.0
1220.004639 172.0
1220.193726 332.0
1220.414795 164.0
1220.470459 132.0
1220.887695 212.0
1221.318848 172.0
1221.55542 216.0
1221.729004 252.0
1221.898804 120.0
1222.132812 164.0
1222.292847 148.0
1223.20459 140.0
1223.27417 196.0
1223.754517 76.0
1225.029053 176.0
1225.393066 176.0
1225.467896 44.0
1225.635132 100.0
1225.913818 228.0
1226.143799 192.0
1226.415649 260.0
1226.673584 164.0
1226.900146 128.0
1227.182495 68.0
1227.307983 224.0
1228.158813 80.0
1228.528564 260.0
1228.634399 172.0
1228.863403 104.0
1229.519287 144.0
1229.958984 148.0
1230.021851 80.0
1230.803711 212.0
1231.397339 160.0
1231.485718 136.0
1231.785889 192.0
1231.851318 176.0
1231.977051 200.0
1232.074951 180.0
1232.137817 236.0
1232.242554 128.0
1232.578003 176.0
1232.724731 172.0
1233.244507 224.0
1233.297729 176.0
1233.633301 76.0
1233.731201 196.0
1234.046875 176.0
1234.124146 100.0
1234.612183 156.0
1234.668091 132.0
1234.947876 100.0
1235.157715 196.0
1235.255615 220.0
1235.446655 232.0
1235.697876 136.0
1235.836304 108.0
1236.221191 168.0
1236.403076 100.0
1236.452148 144.0
1236.662109 164.0
1236.795044 128.0
1236.998047 56.0
1237.20105 140.0
1237.803223 168.0
1237.988037 216.0
1238.405518 156.0
1238.884033 164.0
1239.161987 172.0
1239.38623 164.0
1239.655762 140.0
1239.820679 216.0
1239.946899 192.0
1240.136108 252.0
1240.206177 160.0
1240.4375 168.0
1240.556641 148.0
1241.299805 212.0
1241.60144 168.0
1241.82959 188.0
1241.918823 184.0
1241.981201 204.0
1242.106445 120.0
1242.211548 160.0
1242.492188 148.0
1242.639526 108.0
1242.96936 124.0
1243.206909 212.0
1243.299194 212.0
1243.600952 156.0
1243.727295 160.0
1243.881714 144.0
1243.930786 164.0
1244.352051 164.0
1244.759277 120.0
1244.998047 64.0
1245.679321 172.0
1245.876099 32.0
1245.995483 184.0
1246.121948 136.0
1246.185181 140.0
1246.550537 168.0
1247.056519 116.0
1247.50647 264.0
1247.6604 220.0
1247.787598 64.0
1248.058716 172.0
1248.668091 204.0
1248.905762 128.0
1249.141602 208.0
1249.503662 128.0
1249.602173 164.0
1249.911743 176.0
1250.074951 240.0
1250.179199 96.0
1250.404297 136.0
1250.643677 172.0
1251.030762 124.0
1251.199707 164.0
1251.626465 264.0
1251.805542 208.0
1251.880737 372.0
1251.995483 44.0
1252.49292 172.0
1252.608154 84.0
1252.657471 108.0
1252.81958 128.0
1253.3479 40.0
1253.40271 180.0
1253.591675 180.0
1254.038574 188.0
1254.25708 180.0
1254.355713 136.0
1254.475586 156.0
1255.018433 140.0
1255.201782 216.0
1255.300537 212.0
1256.069214 200.0
1256.393677 168.0
1256.795898 152.0
1256.873535 260.0
1257.148682 140.0
1257.219238 176.0
1257.459229 236.0
1258.262085 188.0
1258.758179 264.0
1258.807617 172.0
1258.941772 152.0
1259.068848 124.0
1259.18396 168.0
1259.478516 164.0
1259.930664 184.0
1259.987183 72.0
1260.206177 152.0
1260.347534 196.0
1260.432251 180.0
1260.835083 144.0
1260.9552 180.0
1261.859985 44.0
1262.5177 176.0
1262.729858 132.0
1263.182495 148.0
1263.387695 132.0
1263.515503 180.0
1263.661865 184.0
1263.741333 80.0
1263.833374 156.0
1263.918335 132.0
1264.470215 140.0
1265.277222 120.0
1265.669678 244.0
1266.495239 108.0
1266.622681 172.0
1266.941528 56.0
1267.017822 192.0
1267.345337 132.0
1267.491455 228.0
1267.719727 240.0
1267.926392 172.0
1268.167358 160.0
1268.415405 144.0
1268.505249 156.0
1268.601318 148.0
1268.805298 92.0
1268.954224 212.0
1269.443481 140.0
1269.556885 140.0
1269.720093 192.0
1270.294556 160.0
1270.457764 156.0
1270.769897 152.0
1271.245239 144.0
1271.841431 36.0
1272.203491 96.0
1272.352539 140.0
1272.52124 136.0
1272.799805 140.0
1273.609497 208.0
1274.11377 112.0
1274.363525 184.0
1274.660889 132.0
1274.717773 172.0
1274.817261 128.0
1275.065918 200.0
1275.186768 188.0
1275.499512 196.0
1276.138184 116.0
1276.345581 124.0
1276.58728 152.0
1277.390991 160.0
1277.526123 188.0
1277.661377 224.0
1277.749268 188.0
1277.810791 192.0
1277.953003 208.0
1278.230591 104.0
1278.287476 136.0
1278.394165 108.0
1278.572144 168.0
1278.899536 144.0
1278.992065 208.0
1279.113037 132.0
1279.170044 260.0
1279.571533 204.0
1279.661255 48.0
1279.803589 208.0
1279.99585 144.0
1280.18811 160.0
1280.266479 144.0
1280.380371 188.0
1280.495972 164.0
1280.579834 232.0
1280.727295 208.0
1280.835693 160.0
1281.085571 152.0
1281.262451 160.0
1281.612793 116.0
1281.67688 192.0
1282.075928 152.0
1282.180176 180.0
1282.311157 184.0
1282.368164 104.0
1282.605835 204.0
1282.90271 68.0
1283.005371 216.0
1283.273193 184.0
1283.394653 176.0
1283.580078 88.0
1283.644287 156.0
1283.701294 180.0
1283.772583 128.0
1284.225098 220.0
1284.514404 160.0
1284.678467 68.0
1284.756958 104.0
1284.868286 196.0
1285.006592 208.0
1285.189453 168.0
1285.441895 172.0
1285.591675 128.0
1285.641724 180.0
1285.69165 144.0
1285.827271 180.0
1285.955688 108.0
1286.098389 164.0
1286.212646 140.0
1286.357422 200.0
1286.605713 196.0
1286.683838 220.0
1286.84082 68.0
1287.740601 148.0
1287.819214 140.0
1287.888062 176.0
1288.054932 132.0
1288.226318 36.0
1288.47644 132.0
1288.819336 108.0
1288.926514 172.0
1289.012207 128.0
1289.069458 196.0
1289.2771 120.0
1289.351929 172.0
1289.598267 156.0
1290.212524 156.0
1290.270264 108.0
1290.506104 240.0
1291.571655 76.0
1291.621826 200.0
1291.800659 124.0
1292.444458 240.0
1292.637695 156.0
1293.12439 196.0
1293.274658 76.0
1293.782837 172.0
1293.918945 76.0
1294.205322 144.0
1294.29834 192.0
1294.420044 156.0
1294.806763 140.0
1294.993042 68.0
1295.107666 176.0
1295.172119 116.0
1295.533813 128.0
1295.924316 164.0
1296.132568 184.0
1296.196533 152.0
1296.683838 156.0
1297.020752 196.0
1297.400635 180.0
1297.46521 104.0
1297.565552 72.0
1298.031616 184.0
1298.590088 204.0
1298.748779 172.0
1298.930298 92.0
1299.179199 180.0
1299.674194 96.0
1299.815186 264.0
1300.060059 84.0
1300.190918 180.0
1300.248291 160.0
1300.801025 148.0
1300.880005 124.0
1301.227295 276.0
1301.461426 96.0
1301.576416 68.0
1301.648193 168.0
1301.708618 200.0
1302.165283 224.0
1302.215454 104.0
1302.272949 160.0
1302.353882 208.0
1302.732666 132.0
1302.867065 136.0
1303.02002 100.0
1303.149414 184.0
1303.350586 140.0
1303.487061 100.0
1303.78894 124.0
1303.903931 188.0
1304.062012 176.0
1304.133911 172.0
1304.320801 156.0
1304.665771 48.0
1304.867065 144.0
1305.636475 128.0
1305.902588 188.0
1306.039307 220.0
1306.516724 212.0
1306.665161 116.0
1306.996094 176.0
1307.053589 120.0
1308.118774 172.0
1308.171875 168.0
1308.222778 116.0
1308.831543 120.0
1308.968384 172.0
1309.062012 172.0
1309.198853 212.0
1309.609253 180.0
1309.799194 188.0
1310.149536 312.0
1310.308105 152.0
1310.502563 100.0
1310.711548 156.0
1310.848511 80.0
1311.309692 176.0
1311.374512 196.0
1312.052124 140.0
1312.138672 56.0
1312.578491 156.0
1312.628906 204.0
1313.191406 148.0
1313.875854 160.0
1313.99939 208.0
1314.330933 168.0
1314.591064 156.0
1314.648804 68.0
1314.872437 124.0
1315.500488 96.0
1315.601562 144.0
1315.818115 180.0
1315.947998 112.0
1316.042603 200.0
1316.296387 180.0
1316.359619 64.0
1316.764038 100.0
1316.850708 252.0
1317.103516 140.0
1317.186523 180.0
1317.681396 136.0
1317.862061 124.0
1317.941528 176.0
1318.259521 120.0
1318.54126 96.0
1318.967773 164.0
1319.177368 172.0
1319.632812 236.0
1320.11731 168.0
1320.355957 212.0
1320.5802 136.0
1320.710327 348.0
1320.970703 104.0
1321.079224 168.0
1321.180542 148.0
1321.33252 176.0
1321.495117 92.0
1321.759399 224.0
1321.817261 152.0
1322.040527 168.0
1322.613281 164.0
1322.822754 160.0
1322.989746 48.0
1323.184937 116.0
1323.243164 128.0
1323.293823 132.0
1323.554443 144.0
1323.782959 188.0
1323.923828 240.0
1323.996216 84.0
1324.16272 204.0
1324.285889 120.0
1324.372803 220.0
1324.532104 280.0
1324.916138 188.0
1325.068237 112.0
1325.329102 92.0
1325.50293 140.0
1325.575439 216.0
1325.67688 116.0
1325.771118 132.0
1325.887085 132.0
1325.945068 124.0
1326.003052 200.0
1326.067505 172.0
1326.161011 224.0
1326.263916 216.0
1326.401611 124.0
1326.510376 84.0
1326.749634 120.0
1326.901855 200.0
1326.988892 220.0
1327.177368 152.0
1327.641479 188.0
1327.801025 188.0
1329.186646 116.0
1329.324463 184.0
1329.607544 40.0
1329.941284 112.0
1330.006714 208.0
1330.255493 296.0
1330.340698 200.0
1330.405884 112.0
1330.536621 180.0
1331.313477 196.0
1331.52417 128.0
1331.704956 196.0
1331.909058 128.0
1332.032593 372.0
1332.330444 120.0
1332.432129 160.0
1332.780884 56.0
1333.058838 124.0
1333.209595 128.0
1333.275024 100.0
1333.725586 228.0
1333.958862 168.0
1334.074463 136.0
1334.328979 168.0
1334.48645 240.0
1334.568848 400.0
1334.760376 224.0
1334.925171 196.0
1334.97583 176.0
1335.092407 176.0
1335.448853 120.0
1335.506958 192.0
1336.707397 132.0
1336.88208 152.0
1337.085815 184.0
1337.762695 160.0
1338.097656 124.0
1338.64978 208.0
1338.854858 212.0
1338.971436 344.0
1339.089355 148.0
1339.153564 160.0
1339.219116 188.0
1339.379272 92.0
1339.74353 184.0
1339.794556 160.0
1339.896484 120.0
1340.103638 140.0
1340.217041 168.0
1340.528198 316.0
1340.61792 188.0
1340.676147 168.0
1340.792725 340.0
1340.860107 180.0
1340.967651 72.0
1341.055176 152.0
1341.200928 192.0
1341.760864 252.0
1342.053833 100.0
1342.207031 160.0
1342.265381 240.0
1342.338257 152.0
1342.456665 188.0
1342.615356 128.0
1342.758789 168.0
1343.067505 160.0
1343.133179 196.0
1343.235352 136.0
1343.293701 152.0
1343.417725 216.0
1343.494385 144.0
1343.614624 164.0
1344.701904 188.0
1344.845337 196.0
1345.081421 72.0
1345.242065 164.0
1345.760376 132.0
1346.665894 236.0
1346.833862 116.0
1347.118774 92.0
1347.440186 172.0
1347.608276 172.0
1347.703247 236.0
1347.776367 128.0
1348.127075 180.0
1348.295166 72.0
1348.529053 68.0
1349.121094 136.0
1349.355103 240.0
1349.40625 212.0
1349.601196 180.0
1350.327637 228.0
1350.546997 88.0
1350.605591 236.0
1351.059082 120.0
1351.117554 88.0
1351.727173 208.0
1352.039551 172.0
1352.281006 144.0
1352.354248 164.0
1352.690918 140.0
1353.267578 200.0
1353.664673 152.0
1354.331177 168.0
1354.397095 152.0
1354.623169 200.0
1354.77063 60.0
1354.839478 52.0
1355.0271 216.0
1355.158936 224.0
1355.517944 80.0
1356.206909 144.0
1356.272827 92.0
1356.426758 168.0
1356.573364 252.0
1356.712646 144.0
1356.787842 160.0
1356.866699 124.0
1356.953491 184.0
1357.262573 156.0
1358.311279 164.0
1359.492554 96.0
1359.697998 180.0
1360.167725 136.0
1360.410034 184.0
1360.744263 152.0
1360.967285 116.0
1360.984741 160.0
1361.210327 172.0
1361.63623 48.0
1361.824097 180.0
1361.878662 108.0
1362.206299 228.0
1362.576416 260.0
1363.083984 152.0
1363.348022 180.0
1363.700806 156.0
1363.825684 52.0
1363.932251 196.0
1364.02417 172.0
1364.193237 108.0
1364.421143 104.0
1364.825562 196.0
1364.935791 164.0
1365.016724 148.0
1365.149048 140.0
1365.391724 148.0
1365.546143 152.0
1365.641846 144.0
1365.737427 160.0
1366.016968 96.0
1366.149414 152.0
1366.215576 176.0
1366.401367 224.0
1366.89978 152.0
1366.980469 164.0
1367.245728 164.0
1367.443604 264.0
1367.716675 144.0
1368.040649 132.0
1368.364502 176.0
1369.084106 224.0
1369.196655 240.0
1369.329224 212.0
1370.065796 128.0
1370.233643 196.0
1370.381348 124.0
1370.470947 176.0
1370.583496 272.0
1370.773071 240.0
1371.126831 220.0
1371.355347 132.0
1371.443726 208.0
1371.849121 40.0
1372.055542 208.0
1372.166138 60.0
1372.542236 96.0
1372.741333 172.0
1372.888794 60.0
1373.012939 200.0
1373.052979 104.0
1373.169067 68.0
1373.884521 192.0
1373.936157 272.0
1374.496948 196.0
1374.637085 132.0
1374.750244 204.0
1374.969238 308.0
1375.124146 172.0
1375.367554 248.0
1375.544922 136.0
1375.788574 56.0
1376.011475 188.0
1376.238892 196.0
1376.337891 72.0
1376.755737 156.0
1377.413086 80.0
1377.64209 156.0
1377.713013 168.0
1377.86377 188.0
1378.070679 96.0
1378.270142 216.0
1378.395752 184.0
1378.757812 176.0
1378.876099 64.0
1379.171753 180.0
1379.349121 180.0
1379.496948 260.0
1379.777832 176.0
1379.837036 196.0
1380.036621 72.0
1380.221558 160.0
1380.354614 156.0
1380.465576 180.0
1380.546875 124.0
1380.875122 52.0
1380.931396 120.0
1381.412231 84.0
1381.648926 180.0
1381.856079 136.0
1382.033691 116.0
1382.344482 104.0
1382.522095 176.0
1382.591309 148.0
1382.818115 104.0
1382.973511 140.0
1383.358398 128.0
1383.579956 168.0
1383.601929 156.0
1383.626953 152.0
1383.65625 196.0
1383.913696 72.0
1384.083984 180.0
1384.765259 144.0
1384.920776 336.0
1385.202271 212.0
1385.365234 220.0
1385.457397 180.0
1385.654175 156.0
1385.943115 96.0
1386.042847 200.0
1386.380371 200.0
1386.580444 168.0
1386.669434 152.0
1386.750977 224.0
1386.839844 128.0
1386.980713 216.0
1387.380981 48.0
1387.551514 80.0
1387.781372 180.0
1388.003784 168.0
1388.06311 84.0
1388.411621 156.0
1388.804688 184.0
1389.042114 96.0
1389.257202 180.0
1389.761719 56.0
1389.95459 148.0
1390.006592 236.0
1390.258667 144.0
1390.336304 176.0
1390.481567 136.0
1390.867432 164.0
1390.919434 176.0
1390.97876 104.0
1391.149536 156.0
1391.253418 204.0
1391.434326 132.0
1391.513306 188.0
1391.587524 120.0
1391.654419 156.0
1391.862305 116.0
1391.981079 236.0
1392.129639 112.0
1392.274658 248.0
1392.478638 40.0
1392.814209 108.0
1392.991211 92.0
1393.243774 124.0
1393.51123 164.0
1393.634644 200.0
1393.744385 220.0
1394.276611 200.0
1394.328613 204.0
1394.55896 76.0
1394.715088 40.0
1394.86377 180.0
1395.35437 140.0
1395.443604 144.0
1395.584839 112.0
1395.748413 204.0
1396.001221 156.0
1396.053345 236.0
1396.246704 208.0
1396.387939 164.0
1396.436768 144.0
1396.685547 172.0
1396.744995 164.0
1396.804565 128.0
1396.923584 128.0
1397.139282 56.0
1397.28064 152.0
1397.898193 156.0
1398.456299 180.0
1398.530762 64.0
1398.612671 196.0
1398.811646 184.0
1399.022095 184.0
1399.263184 200.0
1400.057007 160.0
1400.262329 144.0
1400.340088 148.0
1400.816772 132.0
1401.196655 120.0
1401.695923 196.0
1401.818848 152.0
1401.956665 220.0
1402.408936 184.0
1402.69458 124.0
1402.776611 168.0
1402.965698 164.0
1403.270142 192.0
1403.387939 96.0
1403.454956 152.0
1403.582275 160.0
1403.85022 108.0
1403.947144 164.0
1404.156006 216.0
1404.438477 204.0
1404.730347 100.0
1404.849609 216.0
1404.984009 212.0
1405.054321 148.0
1405.379395 132.0
1405.976318 80.0
1406.110718 360.0
1406.334595 120.0
1406.431641 148.0
1406.610718 100.0
1406.879517 108.0
1407.073608 136.0
1407.297607 200.0
1407.494629 220.0
1407.920776 124.0
1408.447632 100.0
1408.851074 176.0
1408.90332 140.0
1409.000488 248.0
1409.052734 128.0
1409.202148 64.0
1409.500977 200.0
1409.667969 184.0
1409.882202 192.0
1410.031616 112.0
1410.11377 164.0
1410.427246 116.0
1410.756592 76.0
1411.145386 136.0
1411.384644 152.0
1411.593994 172.0
1412.521484 168.0
1412.858032 132.0
1413.164795 116.0
1413.232178 192.0
1413.419189 160.0
1413.516479 136.0
1413.664307 128.0
1414.032837 112.0
1414.175049 160.0
1414.2948 76.0
1414.48938 80.0
1414.661621 124.0
1414.95459 168.0
1415.095825 148.0
1415.312988 104.0
1415.642456 188.0
1415.804688 116.0
1416.129272 176.0
1416.30896 64.0
1416.661011 168.0
1417.03418 140.0
1417.192993 172.0
1417.702515 60.0
1418.107178 176.0
1418.264648 132.0
1418.804321 160.0
1419.074219 340.0
1419.164185 156.0
1419.346924 152.0
1419.47168 140.0
1419.599121 220.0
1419.876587 140.0
1420.094116 216.0
1420.446655 136.0
1420.724243 144.0
1420.931274 232.0
1421.211914 172.0
1422.052979 180.0
1422.149902 144.0
1422.330078 196.0
1422.412598 40.0
1422.472656 232.0
1422.945679 160.0
1423.185913 140.0
1423.801636 176.0
1424.005737 160.0
1424.177124 156.0
1424.237305 156.0
1424.470093 120.0
1424.766235 240.0
1424.950928 120.0
1425.243896 180.0
1425.341675 124.0
1425.416748 240.0
1425.529541 160.0
1425.609741 176.0
1425.800049 152.0
1426.108154 188.0
1426.205933 140.0
1426.484009 128.0
1426.536621 136.0
1426.660522 224.0
1426.777222 48.0
1426.935059 204.0
1427.017822 168.0
1427.175659 72.0
1427.363647 132.0
1427.44751 192.0
1427.749023 192.0
1428.017944 152.0
1428.320923 216.0
1428.755127 72.0
1429.198975 112.0
1429.394653 120.0
1429.453857 128.0
1429.612793 168.0
1429.703125 136.0
1429.823608 88.0
1429.928955 100.0
1430.628906 120.0
1430.94519 172.0
1431.231201 128.0
1431.449585 92.0
1431.728882 248.0
1431.969238 148.0
1432.035156 176.0
1432.157593 280.0
1432.436279 124.0
1432.971069 176.0
1433.189575 160.0
1433.265015 264.0
1433.438232 116.0
1433.528687 256.0
1433.732178 160.0
1434.113647 148.0
1434.493408 60.0
1434.681885 136.0
1434.734619 144.0
1435.028687 188.0
1435.164429 148.0
1435.466064 188.0
1435.616821 148.0
1435.938599 140.0
1436.348389 180.0
1436.604858 156.0
1436.748291 128.0
1437.291504 144.0
1437.397095 144.0
1437.487671 140.0
1437.691406 160.0
1437.812134 84.0
1437.985718 124.0
1438.333008 184.0
1438.657593 156.0
1438.81604 104.0
1439.120361 212.0
1439.374634 164.0
1439.480469 92.0
1439.616455 140.0
1440.061279 172.0
1440.521606 324.0
1440.696533 144.0
1440.922241 136.0
1441.336914 188.0
1441.520142 148.0
1442.086914 96.0
1442.298584 116.0
1442.64624 176.0
1442.714233 212.0
1443.024292 224.0
1443.130127 168.0
1443.32666 208.0
1443.447632 156.0
1443.856079 172.0
1444.582153 188.0
1444.6427 100.0
1444.801514 132.0
1444.983154 220.0
1445.247925 152.0
1445.542969 140.0
1445.671631 148.0
1445.739746 108.0
1446.239258 112.0
1446.723755 264.0
1446.79187 156.0
1447.041748 176.0
1447.526245 216.0
1448.016846 288.0
1448.094238 156.0
1448.190674 144.0
1448.266968 144.0
1448.355103 208.0
1448.548706 144.0
1448.699219 148.0
1448.866943 176.0
1449.033569 120.0
1449.154785 196.0
1449.313965 100.0
1449.510986 180.0
1449.769409 104.0
1450.230957 164.0
1450.658936 208.0
1450.723633 132.0
1450.83728 208.0
1451.307373 168.0
1451.481934 320.0
1451.610718 360.0
1451.951904 156.0
1452.427979 168.0
1452.536011 164.0
1452.725586 216.0
1452.801514 196.0
1453.273438 176.0
1453.592529 164.0
1453.809326 176.0
1453.909302 92.0
1454.425415 192.0
1455.327881 144.0
1455.344604 128.0
1455.368042 156.0
1455.564087 244.0
1455.883057 196.0
1455.981812 200.0
1456.498291 180.0
1456.612183 212.0
1456.718506 148.0
1456.86084 180.0
1457.637817 184.0
1458.017822 156.0
1458.1698 176.0
1458.356567 204.0
1458.500488 172.0
1458.739868 148.0
1459.287231 140.0
1459.827148 192.0
1459.97168 160.0
1460.108521 192.0
1460.161743 176.0
1460.298706 160.0
1460.453125 212.0
1460.541992 176.0
1460.686523 168.0
1461.220093 156.0
1461.432129 136.0
1461.485352 100.0
1461.538696 80.0
1461.744141 64.0
1461.804932 224.0
1461.957153 140.0
1462.033325 164.0
1462.320801 188.0
1462.345337 148.0
1462.369751 188.0
1462.672607 180.0
1462.824829 132.0
1462.92981 196.0
1463.258789 196.0
1463.372925 52.0
1463.494751 156.0
1463.631836 212.0
1463.692749 144.0
1463.822266 164.0
1463.898315 208.0
1464.096313 68.0
1464.203003 156.0
1464.317261 152.0
1464.378174 152.0
1464.598999 176.0
1464.720947 52.0
1464.873291 212.0
1464.97229 220.0
1465.6427 160.0
1465.741821 168.0
1465.94751 260.0
1466.016113 80.0
1466.168579 184.0
1466.496216 204.0
1466.57251 176.0
1466.625854 180.0
1466.900269 68.0
1467.144165 180.0
1467.593994 144.0
1467.686279 200.0
1467.74646 132.0
1467.845581 172.0
1468.470947 128.0
1468.608276 140.0
1468.829468 128.0
1469.203247 156.0
1469.271973 180.0
1469.630493 192.0
1469.752563 96.0
1469.973877 88.0
1470.042603 176.0
1470.187866 160.0
1470.294434 160.0
1470.642212 176.0
1470.740601 248.0
1470.805786 212.0
1470.88208 76.0
1470.950806 208.0
1471.416504 128.0
1471.592041 48.0
1471.76001 192.0
1472.363281 160.0
1472.508423 108.0
1472.836792 212.0
1472.936157 192.0
1473.147949 192.0
1473.348633 208.0
1473.417358 156.0
1474.387817 144.0
1474.441284 212.0
1474.835571 184.0
1474.9021 264.0
1475.068115 156.0
1475.220947 120.0
1475.297363 168.0
1475.687256 140.0
1475.748413 144.0
1475.817261 236.0
1475.901367 176.0
1475.993164 148.0
1476.375488 164.0
1476.474854 136.0
1476.949097 152.0
1477.125 160.0
1477.209229 188.0
1477.285645 112.0
1477.594849 156.0
1477.660522 148.0
1477.859497 156.0
1477.995605 132.0
1478.142578 48.0
1478.44104 132.0
1478.807373 148.0
1479.26001 112.0
1479.397827 152.0
1479.573853 160.0
1479.658081 96.0
1479.811157 156.0
1480.163452 140.0
1480.316528 148.0
1480.385498 72.0
1480.662231 148.0
1480.768433 156.0
1481.296875 168.0
1481.388794 144.0
1481.894409 168.0
1482.109009 152.0
1482.214111 144.0
1482.240479 100.0
1482.265137 160.0
1482.438477 96.0
1482.492065 164.0
1482.599365 168.0
1482.706665 148.0
1482.829346 188.0
1482.921265 356.0
1483.051636 52.0
1483.112915 136.0
1483.319824 328.0
1483.588135 128.0
1483.710815 132.0
1483.862427 156.0
1484.224487 148.0
1484.723022 204.0
1485.175537 160.0
1485.298218 160.0
1485.597412 128.0
1485.812134 124.0
1485.881226 264.0
1485.942627 112.0
1486.280151 180.0
1486.472046 128.0
1486.579468 176.0
1486.824951 152.0
1486.982056 144.0
1487.13208 176.0
1487.239502 156.0
1487.293213 144.0
1487.362305 260.0
1487.477417 260.0
1487.60791 132.0
1487.715454 152.0
1488.030151 72.0
1488.222168 176.0
1488.483521 192.0
1488.751953 116.0
1488.95166 104.0
1489.065918 176.0
1489.093384 156.0
1489.512329 224.0
1489.637329 184.0
1489.662354 52.0
1489.694214 160.0
1489.904053 152.0
1490.090576 132.0
1490.249878 160.0
1490.610962 140.0
1490.703125 148.0
1490.987549 120.0
1491.171997 184.0
1491.225708 128.0
1491.317993 192.0
1491.619141 200.0
1491.840698 188.0
1492.048218 184.0
1492.125122 84.0
1492.378906 156.0
1492.717163 152.0
1492.994019 188.0
1493.055542 188.0
1493.132446 164.0
1493.240112 328.0
1493.532349 176.0
1493.673706 268.0
1493.798584 232.0
1493.842041 188.0
1494.533325 116.0
1494.824951 128.0
1494.971069 124.0
1495.048096 156.0
1495.208618 140.0
1495.40979 200.0
1495.86438 176.0
1496.179565 172.0
1496.287354 176.0
1496.626099 184.0
1496.887939 208.0
1497.064941 144.0
1497.226685 152.0
1497.488525 68.0
1497.573242 188.0
1497.681152 140.0
1497.858276 112.0
1498.346436 184.0
1498.605591 140.0
1498.751953 212.0
1499.181885 204.0
1499.276001 112.0
1499.58374 176.0
1499.854004 140.0
1500.077515 172.0
1500.177734 132.0
1500.470703 140.0
1500.653076 192.0
1501.056641 60.0
1501.511719 172.0
1501.573364 208.0
1501.727661 156.0
1502.204712 220.0
1502.37561 56.0
1502.499023 208.0
1502.591309 176.0
1502.676514 180.0
1502.915649 200.0
1503.077637 144.0
1503.185669 228.0
1503.571533 156.0
1503.640991 152.0
1503.695068 148.0
1503.77417 256.0
1503.988403 148.0
1504.057861 116.0
1504.189087 164.0
1504.3125 140.0
1504.621338 252.0
1504.744019 176.0
1504.845215 192.0
1504.895142 188.0
1505.007446 152.0
1505.076904 128.0
