>compound MLS001140791-01!(2S)-1-[(2S)-2-[(5-methoxy-1-methylindole-2-carbonyl)amino]-4-methylsulfanylbutanoyl]pyrrolidine-2-carboxylic acid
>formula C21H27N3O5S
>ionization [M+H]+
>parentmass 434.175
#inchi InChI=1S/C21H27N3O5S/c1-23-16-7-6-14(29-2)11-13(16)12-18(23)19(25)22-15(8-10-30-3)20(26)24-9-4-5-17(24)21(27)28/h6-7,11-12,15,17H,4-5,8-10H2,1-3H3,(H,22,25)(H,27,28)/t15-,17-/m0/s1
#inchikey ZRLMZETXWKZLOA
#Ion_Source LC-ESI
#Instrument qTof
#Compound_Source NIH Natural Product Library
#PI Dorrestein
#Data_Collector VVP/LMS
#Scan -1
#Precursor_MZ 434.175
#ExactMass 433.167
#Charge 1
#CAS_Number N/A
#Pubmed_ID N/A
#Smiles COc1ccc2n(C)c(cc2c1)C(=O)N[C@@H](CCSC)C(=O)N3CCC[C@H]3C(=O)O
#INCHI_AUX N/A
#Library_Class 1
#SpectrumID CCMSLIB00000080080
#IonMode Positive
#UpdateWorkflowName UPDATE-SINGLE-ANNOTATED-GOLD
#LibraryQualityString Gold
#TaskID b1d8e8f6646f4e71acdff9ca3d919d08
##Scan# 1974
#SpectrumFile p2-H03_GH3_01_18063.mzXML
#LibraryName NIH_Natural_Products_Library.mgf
#MQScore -1
#Organism NIH_Natural_Products_Library
#TIC_Query 0
#RT_Query -1
#MZErrorPPM -1
#SharedPeaks 0
#MassDiff 0
#LibMZ -1
#SpecMZ 434.175
#SpecCharge 0
#internalFilename spec-00000.mgf

>collision 10
95.048874 172.0
95.607384 184.0
95.784737 184.0
96.227257 108.0
96.403061 216.0
96.561417 204.0
96.704247 148.0
96.780594 36.0
97.023544 148.0
97.041191 140.0
97.24128 128.0
97.317841 268.0
97.345329 176.0
97.439613 52.0
97.494637 76.0
97.512321 120.0
97.620453 180.0
97.990509 132.0
98.00824 196.0
98.061447 72.0
98.191574 164.0
98.252724 172.0
98.438263 184.0
98.849442 128.0
98.977905 232.0
99.176224 192.0
99.221817 204.0
99.291222 232.0
99.346764 160.0
100.052269 108.0
100.289322 196.0
100.772263 100.0
100.812233 148.0
100.944168 140.0
101.056183 228.0
101.35453 184.0
101.466766 184.0
101.74765 192.0
101.904305 148.0
102.063095 196.0
102.244148 44.0
102.316612 164.0
102.479752 48.0
103.093185 144.0
103.574722 100.0
103.615242 164.0
103.682106 184.0
103.773331 164.0
103.795631 160.0
103.852417 164.0
103.917336 164.0
104.026924 156.0
104.046898 172.0
104.10408 28.0
104.319458 80.0
104.57576 132.0
104.814034 140.0
104.934288 144.0
105.058533 352.0
105.193382 132.0
105.209717 168.0
105.256676 120.0
105.432365 124.0
105.497772 132.0
105.790314 220.0
106.01767 264.0
106.721764 192.0
106.73616 184.0
106.814308 232.0
106.923363 184.0
106.985115 208.0
107.04982 316.0
107.081894 136.0
107.263214 200.0
107.992111 192.0
108.055542 712.0
108.248741 132.0
108.60936 60.0
108.690277 52.0
108.881264 224.0
109.062874 332.0
109.334488 156.0
109.355301 116.0
109.390686 116.0
109.623955 188.0
109.84288 148.0
110.051582 104.0
110.084991 148.0
110.166451 96.0
110.840157 216.0
111.072876 236.0
111.156799 140.0
111.331032 108.0
111.48439 196.0
111.507515 144.0
111.631546 132.0
111.755653 100.0
112.048317 172.0
112.248558 140.0
112.326591 156.0
112.364563 188.0
112.837662 180.0
112.892639 152.0
113.108444 56.0
113.16349 124.0
113.184662 152.0
113.400749 156.0
113.494026 248.0
113.619164 100.0
113.689186 168.0
113.910004 96.0
114.19696 140.0
114.339363 176.0
114.938339 116.0
115.026306 184.0
115.290688 188.0
115.391159 160.0
115.408264 172.0
115.46814 124.0
115.67569 176.0
116.046326 180.0
116.070663 3480.0
116.108513 164.0
116.140686 188.0
116.157845 124.0
116.228645 212.0
116.295174 132.0
116.393929 164.0
116.516037 228.0
116.595863 52.0
116.772163 48.0
116.94429 124.0
117.05722 4008.0
117.133774 72.0
117.176857 100.0
117.224266 172.0
117.321259 204.0
117.679398 152.0
117.981873 168.0
118.060211 648.0
118.594482 64.0
118.770119 152.0
118.956734 76.0
119.049347 4912.0
119.113083 180.0
119.291275 100.0
119.406517 84.0
119.445671 36.0
119.49353 184.0
119.543579 140.0
119.702492 116.0
119.752579 88.0
119.865868 120.0
119.992287 68.0
120.051956 788.0
120.29335 72.0
120.309265 152.0
120.487717 148.0
120.828773 60.0
121.063484 540.0
121.165932 168.0
121.512344 176.0
121.549774 132.0
122.059265 176.0
122.076057 220.0
122.22644 96.0
122.246246 120.0
122.26165 136.0
122.310074 144.0
122.358505 208.0
122.484032 68.0
122.552322 180.0
122.761734 176.0
122.801437 120.0
122.966911 96.0
123.169655 156.0
123.300407 132.0
123.399887 88.0
123.771606 112.0
124.436798 132.0
124.556717 168.0
125.288193 108.0
125.35099 56.0
125.426773 104.0
125.7435 204.0
125.868515 196.0
125.989128 216.0
126.053925 196.0
126.143326 156.0
126.353539 228.0
126.70504 172.0
126.922455 68.0
127.014404 40.0
127.04805 132.0
127.113121 136.0
127.524101 168.0
127.587044 128.0
127.913239 148.0
128.016815 56.0
128.04834 136.0
128.095642 144.0
128.22908 200.0
128.296204 136.0
128.445038 176.0
128.465347 172.0
128.571396 172.0
128.641373 124.0
128.812988 148.0
128.880997 200.0
128.925964 124.0
128.975693 100.0
129.002808 116.0
129.267181 172.0
129.412308 112.0
130.031174 136.0
130.06575 208.0
130.088058 196.0
130.133331 188.0
130.27681 160.0
130.462769 128.0
130.590103 220.0
130.667709 168.0
130.824478 164.0
131.002106 120.0
131.075165 236.0
131.245972 248.0
131.700119 216.0
131.800644 204.0
131.905777 132.0
132.048798 168.0
132.091003 168.0
132.109299 116.0
132.20311 96.0
132.319855 152.0
132.349625 188.0
132.503082 180.0
132.931854 252.0
132.961685 120.0
133.025803 280.0
133.054138 328.0
133.082474 180.0
133.167435 236.0
133.329147 116.0
133.345245 100.0
133.404999 48.0
134.058853 204.0
134.169724 116.0
134.427032 164.0
134.623886 128.0
134.769409 64.0
134.854919 144.0
134.938141 156.0
134.995941 160.0
135.046829 160.0
135.329147 216.0
135.685959 192.0
135.959671 116.0
136.075424 2192.0
136.161652 204.0
136.342865 96.0
136.370758 152.0
136.468399 140.0
136.61026 176.0
136.721954 152.0
136.866287 180.0
137.065155 180.0
137.082565 452.0
137.479355 160.0
137.885727 76.0
137.923126 204.0
138.061066 160.0
138.264603 172.0
138.53154 80.0
138.672134 176.0
138.81279 176.0
139.136765 168.0
139.354553 204.0
139.402008 172.0
139.420822 164.0
140.253998 168.0
140.393112 220.0
140.555878 96.0
140.650284 128.0
140.850998 228.0
140.886429 220.0
141.006943 100.0
141.693176 204.0
141.875671 236.0
141.92308 220.0
141.963196 144.0
142.069031 208.0
142.119949 152.0
142.35733 132.0
142.46933 80.0
142.701874 204.0
142.854095 100.0
142.932602 116.0
143.170654 252.0
143.192093 208.0
143.290329 84.0
143.511414 100.0
143.604416 168.0
143.843033 44.0
143.887695 204.0
144.081848 132.0
144.215668 32.0
144.368683 64.0
144.423691 116.0
144.447601 168.0
144.50621 152.0
144.528946 184.0
144.76593 172.0
145.051437 2780.0
145.094208 128.0
145.120575 132.0
145.209305 52.0
145.230896 92.0
145.329254 96.0
145.506866 32.0
145.749451 216.0
145.927322 156.0
145.942856 124.0
146.059082 536.0
146.465988 220.0
146.550705 80.0
146.618179 204.0
146.984726 168.0
147.030579 140.0
147.066788 80.0
147.115067 180.0
147.28894 148.0
147.327591 176.0
147.368652 184.0
148.033859 92.0
148.07988 136.0
148.576797 204.0
148.688416 200.0
148.804947 184.0
149.049591 636.0
149.368759 200.0
149.468506 132.0
149.663239 188.0
149.889771 204.0
150.018951 200.0
150.045761 128.0
150.272583 140.0
150.450745 96.0
150.519119 132.0
150.998108 100.0
151.042526 176.0
151.108185 68.0
151.130203 80.0
151.3358 140.0
151.808731 144.0
151.874954 148.0
152.012115 168.0
152.041794 100.0
152.235733 224.0
152.26767 156.0
152.663345 164.0
153.047226 128.0
153.298477 76.0
153.62529 248.0
154.055954 176.0
154.290741 256.0
154.488586 236.0
154.934204 132.0
155.006058 132.0
155.068008 184.0
155.318436 48.0
155.444962 184.0
155.499573 164.0
155.54921 184.0
155.767731 164.0
156.081512 176.0
156.461563 108.0
156.745514 176.0
156.882599 112.0
157.08577 392.0
157.124496 232.0
157.521439 176.0
157.553909 180.0
157.63887 180.0
157.743835 144.0
157.788849 92.0
157.95639 100.0
158.021439 188.0
158.062393 176.0
158.094009 272.0
158.472122 132.0
158.55481 208.0
159.078171 304.0
159.109177 136.0
159.189514 148.0
160.075165 3348.0
160.112473 132.0
160.147736 208.0
160.182373 192.0
160.233383 172.0
160.437531 108.0
160.954758 124.0
161.05072 172.0
161.080246 1296.0
161.227585 124.0
161.283188 200.0
161.323639 180.0
161.490524 132.0
161.88028 136.0
161.905594 144.0
162.014511 128.0
162.054245 192.0
162.093063 376.0
162.752579 64.0
162.846542 48.0
162.927826 212.0
163.016754 168.0
163.151474 180.0
163.314209 156.0
163.375275 180.0
163.403259 152.0
163.505035 92.0
163.629776 136.0
163.718887 152.0
164.07106 424.0
164.124069 184.0
164.425079 96.0
164.537399 108.0
164.769806 112.0
164.88736 68.0
164.97937 124.0
165.073975 232.0
165.227448 152.0
165.849731 124.0
165.995865 112.0
166.54509 128.0
167.146683 120.0
167.450211 256.0
167.54834 120.0
167.886002 88.0
168.081375 596.0
168.118195 52.0
168.185287 52.0
168.26532 264.0
168.438339 56.0
168.570114 164.0
168.619156 164.0
168.662262 128.0
168.774323 184.0
169.087967 2368.0
169.569077 84.0
169.83873 144.0
170.093369 648.0
170.150131 220.0
170.251404 116.0
170.308533 40.0
170.349014 100.0
171.092407 156.0
171.166779 200.0
171.190216 184.0
171.544556 148.0
171.620163 88.0
171.753174 184.0
171.88623 156.0
172.011505 196.0
172.078583 420.0
172.108093 204.0
172.170593 136.0
172.389114 180.0
172.421585 132.0
172.690872 64.0
172.999649 148.0
173.049637 552.0
173.075577 320.0
173.125336 212.0
173.230103 256.0
173.465942 192.0
173.544601 228.0
173.696701 228.0
173.796402 192.0
173.972244 108.0
174.022125 160.0
174.047928 92.0
174.091736 764.0
174.182327 124.0
174.395172 120.0
174.487167 168.0
174.692307 100.0
174.797943 80.0
175.092834 284.0
175.217163 208.0
175.540405 144.0
176.004837 184.0
176.070419 988.0
176.09259 188.0
176.488373 60.0
176.898453 80.0
177.001709 92.0
177.089111 180.0
177.974869 64.0
178.160782 164.0
178.208603 160.0
179.066391 168.0
179.163742 152.0
179.185059 156.0
179.667618 176.0
179.79837 128.0
179.937164 72.0
179.99324 172.0
180.100067 56.0
180.428757 172.0
181.170074 136.0
182.040359 200.0
182.073669 152.0
182.103561 128.0
182.576584 148.0
182.678802 240.0
182.824097 176.0
182.988297 224.0
183.748337 244.0
184.078278 260.0
184.342377 180.0
184.766891 168.0
184.961731 172.0
185.080643 292.0
185.43573 224.0
185.668259 204.0
186.090363 296.0
186.426331 52.0
186.477966 136.0
186.578552 172.0
186.768906 160.0
186.978409 228.0
187.097626 1620.0
187.335114 92.0
187.421524 184.0
187.498596 144.0
187.544281 100.0
187.61853 84.0
187.662384 188.0
187.716324 148.0
187.783783 140.0
187.839417 164.0
187.915207 164.0
187.982605 340.0
188.01091 296.0
188.029129 160.0
188.037476 116.0
188.071182 81412.0
188.161865 52.0
188.214233 220.0
188.259109 120.0
188.287537 200.0
188.348343 124.0
188.388901 120.0
188.438293 132.0
188.449432 136.0
188.491608 44.0
188.520599 580.0
188.561584 124.0
188.582581 48.0
188.633057 124.0
188.666214 56.0
188.705139 64.0
188.743423 72.0
188.789917 56.0
188.832306 52.0
188.851791 64.0
188.938797 240.0
189.022446 64.0
189.074402 10604.0
189.130539 100.0
189.159286 104.0
189.205826 64.0
189.246887 40.0
189.289413 76.0
189.357117 64.0
189.389847 60.0
189.456024 56.0
189.483978 36.0
189.518051 52.0
189.560257 72.0
189.582382 120.0
189.624939 44.0
189.668793 68.0
189.723618 28.0
189.742798 128.0
189.794647 128.0
189.827805 56.0
189.851166 52.0
189.899109 68.0
189.936829 80.0
189.984146 48.0
190.074295 1048.0
190.146042 132.0
190.167999 116.0
190.232697 112.0
190.266449 120.0
190.299759 96.0
190.328033 112.0
190.368408 140.0
190.398621 136.0
190.436737 96.0
190.454865 104.0
190.52066 112.0
190.546951 168.0
190.569946 108.0
190.624496 184.0
190.658295 148.0
190.680527 164.0
190.819046 44.0
190.973053 52.0
191.055237 264.0
191.081436 308.0
191.135361 68.0
191.182144 72.0
191.250946 48.0
191.369324 60.0
191.438171 52.0
191.509781 92.0
192.182434 48.0
192.256943 36.0
192.544052 100.0
193.177032 128.0
193.401169 108.0
193.534058 56.0
193.672516 72.0
193.935745 48.0
194.07991 28.0
194.876511 44.0
196.379791 108.0
197.086075 132.0
197.813232 36.0
198.0914 144.0
198.1353 156.0
198.199738 40.0
198.62027 60.0
198.732483 100.0
199.098618 348.0
199.279999 84.0
199.493591 184.0
199.65387 268.0
199.691238 28.0
199.91832 208.0
199.954895 192.0
199.992081 148.0
200.062042 196.0
200.10704 9868.0
200.247711 72.0
200.267426 44.0
200.351929 60.0
200.422363 32.0
200.51889 228.0
200.856537 64.0
200.98349 40.0
201.108383 908.0
201.195175 256.0
201.373077 44.0
201.471939 84.0
201.771515 108.0
202.115402 192.0
202.192993 112.0
202.348679 36.0
202.385483 72.0
202.527084 116.0
202.556488 116.0
202.646072 132.0
202.665894 132.0
202.952545 132.0
203.176239 60.0
203.346497 60.0
203.604858 136.0
203.931595 68.0
204.904816 148.0
205.181274 84.0
206.208908 36.0
206.466232 52.0
206.998505 132.0
207.436874 60.0
207.583099 120.0
207.628983 48.0
208.019211 100.0
209.601059 108.0
210.613693 64.0
210.737915 56.0
211.085892 220.0
213.311462 176.0
214.08876 284.0
215.074295 320.0
215.120987 160.0
215.994217 184.0
216.120026 112.0
218.061371 144.0
218.155441 76.0
218.270096 124.0
219.014679 140.0
221.460373 84.0
223.69931 44.0
225.084122 328.0
225.584641 48.0
226.078156 176.0
227.113312 224.0
228.108734 144.0
229.02951 84.0
230.266144 136.0
232.618851 216.0
232.864807 160.0
233.417908 120.0
233.609528 68.0
234.078247 148.0
236.490082 40.0
240.124863 112.0
240.606247 180.0
241.094284 44.0
241.632324 176.0
242.986237 96.0
243.042084 96.0
243.082275 320.0
243.114655 556.0
243.905457 28.0
244.071793 172.0
244.108475 176.0
244.253723 76.0
244.396835 88.0
246.498505 140.0
247.17395 92.0
248.109711 5240.0
248.154343 168.0
248.778671 80.0
248.803787 56.0
249.116562 1352.0
250.112991 128.0
250.146149 108.0
250.178604 116.0
250.599655 112.0
250.97789 184.0
251.100876 112.0
255.090546 44.0
256.080139 148.0
256.618683 180.0
257.023773 112.0
260.096161 168.0
263.335358 120.0
264.039948 52.0
270.017792 104.0
270.53479 92.0
271.10083 320.0
272.013245 64.0
272.105438 164.0
272.193817 68.0
273.396973 36.0
276.112152 180.0
286.011993 96.0
291.118439 304.0
292.115173 260.0
295.196411 156.0
295.220367 28.0
301.104065 48.0
301.259491 116.0
305.078491 108.0
308.145416 132.0
310.290863 92.0
311.062653 108.0
312.222137 36.0
318.673431 120.0
319.111267 184.0
320.103363 92.0
322.454376 132.0
343.081818 64.0
343.424774 52.0
365.321991 92.0
374.732544 44.0
380.087799 132.0
388.782318 52.0
396.734253 68.0
397.095093 76.0
402.30777 56.0
403.478333 32.0
407.590637 160.0
407.944305 128.0
408.004608 104.0
411.691467 72.0
421.698181 36.0
431.250305 108.0
432.189056 116.0
437.222687 188.0
449.569183 96.0
477.931549 104.0
480.175049 68.0
501.226471 124.0
523.298462 68.0
531.058044 88.0
539.281372 76.0
546.264587 40.0
560.422302 48.0
596.871643 152.0
605.548584 140.0
642.82373 148.0
690.542419 104.0
693.196716 116.0
785.382568 60.0
857.42157 52.0
864.511353 48.0
878.241638 60.0
940.917786 60.0
949.128784 40.0
949.325012 48.0
954.13269 68.0
957.812683 216.0
964.188599 52.0
978.776794 40.0
979.85437 20.0
1001.869507 92.0
1028.828857 140.0
1032.726807 136.0
1034.096069 68.0
1038.375854 76.0
1039.318848 144.0
1052.314087 200.0
1058.320679 160.0
1083.539673 164.0
1095.865234 148.0
1101.043457 172.0
1102.291992 20.0
1104.189331 156.0
1108.790527 184.0
1111.118042 88.0
1114.30481 56.0
1125.247437 144.0
1135.237427 232.0
1140.064087 136.0
1142.693237 200.0
1145.426392 200.0
1146.369629 44.0
1147.036865 176.0
1147.19873 144.0
1152.037231 40.0
1154.598999 156.0
1155.952026 188.0
1162.111328 204.0
1169.722778 124.0
1174.806396 68.0
1177.618652 72.0
1182.555054 104.0
1188.222168 188.0
1193.82019 132.0
1199.617554 188.0
1199.810547 216.0
1209.765503 68.0
1213.978027 48.0
1220.317627 176.0
1223.371826 136.0
1225.588379 148.0
1225.879272 132.0
1226.666748 136.0
1232.661987 164.0
1241.075684 168.0
1244.394409 136.0
1252.235107 148.0
1272.12561 188.0
1275.165771 164.0
1280.530273 184.0
1286.005981 156.0
1287.690918 212.0
1289.741455 88.0
1293.231934 172.0
1306.694214 96.0
1314.38208 68.0
1316.569336 348.0
1322.468872 192.0
1324.974365 188.0
1329.789185 148.0
1330.897217 236.0
1332.24353 164.0
1339.21936 120.0
1347.696289 52.0
1349.019043 180.0
1353.555176 80.0
1354.441284 76.0
1357.064941 240.0
1358.509644 96.0
1363.407104 176.0
1367.510986 40.0
1372.026367 72.0
1374.209473 172.0
1380.140503 168.0
1382.255981 60.0
1384.461914 156.0
1385.269287 152.0
1391.179565 160.0
1393.362915 200.0
1394.507202 176.0
1395.800781 160.0
1395.860229 264.0
1400.682983 212.0
1401.174683 240.0
1402.553223 164.0
1404.290527 136.0
1404.372559 180.0
1406.581177 48.0
1407.126099 148.0
1408.343384 104.0
1409.299561 140.0
1410.457886 56.0
1411.766357 144.0
1411.841064 212.0
1412.379883 184.0
1414.212769 92.0
1417.103394 136.0
1417.640137 56.0
1418.249878 140.0
1419.239502 156.0
1420.814453 144.0
1421.804932 156.0
1424.613159 172.0
1428.146118 184.0
1434.599243 148.0
1437.4729 180.0
1439.488403 128.0
1445.694702 64.0
1448.367188 124.0
1448.677856 160.0
1450.670776 188.0
1454.941772 144.0
1455.199951 160.0
1455.845337 140.0
1458.572998 152.0
1459.652466 172.0
1459.743774 196.0
1459.804565 168.0
1460.930298 176.0
1465.460083 172.0
1465.543945 88.0
1465.642944 164.0
1465.955444 96.0
1466.321167 160.0
1467.068237 152.0
1467.884033 160.0
1468.402588 144.0
1469.325562 116.0
1470.38623 176.0
1476.192261 148.0
1480.883545 192.0
1480.944824 164.0
1483.09021 128.0
1483.50415 196.0
1484.247803 152.0
1490.556763 196.0
1492.725098 140.0
1496.249023 144.0
1499.191406 136.0
1499.900513 188.0
1500.247314 132.0
1500.517212 132.0
1503.324829 176.0
1503.641235 180.0
