>compound MLS000738127-01!
>formula C15H10O5
>ionization [M+H]+
>parentmass 271.059418
#inchi InChI=1S/C15H10O5/c16-9-3-1-8(2-4-9)11-7-20-13-6-10(17)5-12(18)14(13)15(11)19/h1-7,16-18H
#inchikey TZBJGXHYKVUXJN
#Ion_Source LC-ESI
#Instrument qTof
#Compound_Source NIH Natural Product Library
#PI Dorrestein
#Data_Collector VVP/LMS
#Scan -1
#Precursor_MZ 271.061
#ExactMass 270.053
#Charge 1
#CAS_Number N/A
#Pubmed_ID N/A
#Smiles Oc1ccc(cc1)c2coc3cc(O)cc(O)c3c2=O
#INCHI_AUX N/A
#Library_Class 1
#SpectrumID CCMSLIB00000079793
#IonMode Positive
#UpdateWorkflowName UPDATE-SINGLE-ANNOTATED-GOLD
#LibraryQualityString Gold
#TaskID b1d8e8f6646f4e71acdff9ca3d919d08
##Scan# 1908
#SpectrumFile p1-B11_GB11_01_17895.mzXML
#LibraryName NIH_Natural_Products_Library.mgf
#MQScore -1
#Organism NIH_Natural_Products_Library
#TIC_Query 0
#RT_Query -1
#MZErrorPPM -1
#SharedPeaks 0
#MassDiff 0
#LibMZ -1
#SpecMZ 271.061
#SpecCharge 0
#internalFilename spec-00000.mgf

>collision 10
95.008415 180.0
95.105545 252.0
95.776199 232.0
95.838539 140.0
96.94059 124.0
97.026733 156.0
97.043343 152.0
97.207275 156.0
97.928764 232.0
97.981949 148.0
98.175117 224.0
98.218506 228.0
98.354652 176.0
98.609436 236.0
98.686531 192.0
98.801239 164.0
98.896225 216.0
99.129913 208.0
99.304367 92.0
99.721306 148.0
99.932091 56.0
100.180939 144.0
100.615685 140.0
100.683571 152.0
100.781448 80.0
101.083382 172.0
101.564194 56.0
101.614342 32.0
101.995888 128.0
102.048157 128.0
102.724815 204.0
102.815613 140.0
102.908463 164.0
103.057564 156.0
103.098343 64.0
103.367661 108.0
103.458366 60.0
103.571762 164.0
104.939407 132.0
105.034691 304.0
105.071976 196.0
105.241371 108.0
106.035065 148.0
106.13961 212.0
107.049736 616.0
107.365196 160.0
108.053024 192.0
109.036102 236.0
109.096169 92.0
109.868767 60.0
110.031548 160.0
110.240417 212.0
110.2864 160.0
110.610603 52.0
110.767647 176.0
111.007965 492.0
112.673553 184.0
113.524429 168.0
113.978691 204.0
114.404045 72.0
114.836601 176.0
115.022232 172.0
115.052856 1064.0
115.131119 52.0
115.46022 100.0
115.764099 160.0
116.058517 204.0
116.11985 140.0
116.265732 180.0
116.716835 152.0
117.035278 172.0
117.067085 480.0
117.654045 152.0
118.039696 460.0
118.480156 156.0
118.974602 184.0
119.048676 904.0
119.491837 200.0
120.060341 176.0
120.11705 144.0
120.424805 164.0
120.967072 184.0
121.029503 876.0
121.102821 140.0
121.131302 132.0
121.146629 124.0
121.409653 172.0
121.844254 76.0
122.0392 188.0
122.850311 136.0
123.004776 196.0
123.0383 192.0
123.104126 88.0
124.015602 132.0
124.841476 228.0
125.01722 104.0
125.27549 88.0
125.772743 180.0
126.980942 252.0
127.052483 156.0
127.6614 96.0
127.769363 204.0
127.929138 124.0
128.061752 316.0
129.048126 188.0
129.069107 200.0
129.174774 132.0
129.795303 176.0
130.353699 188.0
130.687958 132.0
131.050415 640.0
131.087082 308.0
131.157074 144.0
131.522018 196.0
132.057434 348.0
132.670334 188.0
132.834045 172.0
133.024521 168.0
133.041962 156.0
133.070969 236.0
133.457794 72.0
133.581985 108.0
134.067795 112.0
134.143845 44.0
134.473679 52.0
134.639908 124.0
135.04454 600.0
135.787811 120.0
135.850433 184.0
136.044373 152.0
137.02121 384.0
138.554672 132.0
138.589813 136.0
139.055008 268.0
139.425186 148.0
140.060425 184.0
140.432831 224.0
140.706558 216.0
140.753769 104.0
140.810455 216.0
140.852966 120.0
140.949829 208.0
141.008896 204.0
141.034897 112.0
141.070389 2420.0
141.095901 164.0
141.581421 160.0
141.605103 144.0
142.073059 388.0
142.226303 148.0
142.972565 116.0
143.048737 160.0
143.07254 164.0
143.120163 64.0
143.186829 76.0
143.203506 164.0
143.308319 136.0
143.334534 52.0
144.057938 448.0
144.569077 148.0
144.715088 216.0
145.029724 1056.0
145.06427 284.0
146.030365 512.0
146.069855 312.0
146.24057 228.0
146.48262 160.0
147.045654 424.0
147.080383 264.0
147.232712 244.0
147.288269 192.0
148.677979 204.0
148.755646 172.0
149.022156 2112.0
149.222092 144.0
149.37529 132.0
149.52858 152.0
150.032455 212.0
150.3694 176.0
151.051727 280.0
151.200333 112.0
152.01506 196.0
152.063644 140.0
152.419083 72.0
152.871536 84.0
153.017838 8788.0
153.067642 372.0
153.109146 92.0
153.119354 48.0
153.126007 76.0
153.239059 76.0
153.314804 104.0
153.424286 124.0
153.583527 56.0
153.620529 56.0
153.647659 64.0
153.729095 128.0
153.891998 224.0
153.978424 124.0
154.020905 688.0
154.052521 120.0
154.094528 56.0
154.186218 36.0
154.467804 88.0
154.584091 96.0
155.024216 228.0
155.047226 424.0
155.084351 100.0
155.140045 136.0
155.173584 132.0
155.265335 56.0
155.429062 204.0
155.682251 212.0
156.196716 52.0
157.023499 156.0
157.230698 48.0
157.99028 192.0
158.470963 72.0
158.977478 192.0
159.044693 1292.0
159.079941 160.0
159.158203 76.0
160.045776 340.0
160.849991 92.0
161.069656 168.0
163.0327 200.0
163.049179 180.0
164.084427 124.0
164.824585 60.0
164.891037 176.0
165.015671 420.0
165.154373 40.0
166.02002 168.0
166.474228 96.0
166.707993 128.0
167.011368 88.0
167.861221 152.0
168.056717 684.0
168.077896 236.0
168.168228 36.0
168.20694 88.0
168.232758 84.0
168.674469 72.0
169.065277 2352.0
169.129715 164.0
169.298004 132.0
169.564835 136.0
169.586517 120.0
169.665924 164.0
169.772232 44.0
169.946396 140.0
170.065353 196.0
170.174423 200.0
170.221161 132.0
170.553696 100.0
171.056931 248.0
171.077423 176.0
171.172867 44.0
172.052734 168.0
172.349258 132.0
173.051987 360.0
173.634552 204.0
174.067551 148.0
174.109558 156.0
175.073135 208.0
175.151077 40.0
175.430389 44.0
176.079468 168.0
176.422974 72.0
177.031509 188.0
177.052704 124.0
177.898499 116.0
178.029907 332.0
178.342087 180.0
179.041809 156.0
179.063171 156.0
179.857635 148.0
180.051132 160.0
180.322372 136.0
180.969727 132.0
181.063293 168.0
181.350113 120.0
181.647751 80.0
182.044952 136.0
182.077179 212.0
183.018356 132.0
183.041595 812.0
183.101822 40.0
183.169159 64.0
183.673218 188.0
183.959244 212.0
184.047729 384.0
184.226578 192.0
184.291428 100.0
185.059921 512.0
186.024673 168.0
186.067047 200.0
186.502731 108.0
187.040939 120.0
187.075653 900.0
187.212814 40.0
188.033401 92.0
188.086151 196.0
188.183533 148.0
189.018372 184.0
191.035278 628.0
192.397781 180.0
192.812103 196.0
193.28775 108.0
196.047943 160.0
196.665283 116.0
196.708954 64.0
197.05835 2188.0
197.153046 44.0
197.953094 184.0
198.072083 400.0
198.112732 88.0
198.906311 76.0
199.057526 156.0
199.150589 48.0
199.192719 60.0
199.574921 96.0
200.047089 660.0
200.168625 156.0
200.66452 76.0
201.055389 684.0
201.771225 20.0
201.909775 188.0
201.957855 56.0
202.051208 164.0
202.254944 148.0
202.759079 148.0
202.963181 160.0
203.028915 244.0
203.069229 276.0
203.35466 132.0
204.033554 104.0
205.040146 232.0
205.047653 148.0
207.049561 204.0
208.050079 140.0
210.045761 172.0
210.621719 40.0
211.025467 196.0
212.039429 164.0
213.055695 468.0
213.822617 172.0
214.05809 144.0
214.661606 44.0
214.711182 160.0
214.938721 100.0
215.034958 272.0
215.070099 3472.0
215.148849 60.0
215.429871 52.0
215.981659 140.0
216.037735 292.0
216.073715 828.0
216.209869 100.0
216.441116 40.0
217.074051 124.0
218.410309 96.0
218.781082 32.0
218.848801 128.0
219.063782 116.0
220.072388 188.0
221.163223 144.0
221.574829 144.0
221.782257 84.0
223.284561 148.0
224.046555 116.0
225.057831 408.0
225.67308 124.0
226.05661 144.0
227.04451 232.0
227.072998 152.0
227.683731 120.0
228.037109 440.0
228.077316 136.0
228.19455 72.0
228.66983 220.0
229.056061 144.0
229.40477 172.0
230.050842 116.0
232.456467 124.0
235.049011 168.0
235.98671 96.0
236.0448 172.0
237.545502 36.0
238.943253 128.0
239.035568 172.0
240.598206 160.0
241.052795 304.0
242.054031 292.0
242.671036 72.0
242.944092 160.0
243.064468 3612.0
243.111496 116.0
243.515076 72.0
243.760498 36.0
243.996719 40.0
244.07019 568.0
244.441483 44.0
244.488159 76.0
245.064224 244.0
245.375885 88.0
245.497482 56.0
252.560898 64.0
252.820328 112.0
253.050568 1620.0
253.102051 220.0
253.155884 56.0
253.589905 104.0
253.786453 112.0
253.824493 128.0
254.052856 692.0
255.05484 168.0
256.045776 52.0
256.568329 200.0
257.059509 52.0
257.107361 140.0
261.025146 100.0
262.193695 72.0
266.698883 132.0
269.39856 112.0
269.815216 240.0
270.047394 144.0
270.931183 144.0
270.983582 88.0
271.011444 184.0
271.059418 11076.0
271.157257 68.0
271.183472 56.0
271.252319 168.0
271.31131 60.0
271.553955 76.0
271.588745 48.0
271.65564 60.0
271.701569 56.0
271.862335 80.0
271.993622 48.0
272.062073 1568.0
272.1315 148.0
272.170898 56.0
272.473053 80.0
272.676788 48.0
273.069336 544.0
273.104218 92.0
273.311462 44.0
273.704742 132.0
273.738708 100.0
273.992981 48.0
274.57312 80.0
274.846893 72.0
275.583191 56.0
276.254303 80.0
279.191589 48.0
282.227417 92.0
284.029114 196.0
285.026215 152.0
288.707245 44.0
288.916962 124.0
290.393799 68.0
328.979034 104.0
346.501373 148.0
413.663239 40.0
445.520325 100.0
467.095032 52.0
472.894043 72.0
540.662903 76.0
556.230225 20.0
583.836304 212.0
597.972778 44.0
602.49292 76.0
655.802002 84.0
699.150635 120.0
705.316101 96.0
782.124878 192.0
793.659729 84.0
898.224365 164.0
929.782715 60.0
934.33374 232.0
965.7229 96.0
992.833618 140.0
1000.977722 184.0
1023.596375 200.0
1024.373413 132.0
1043.668945 228.0
1045.656616 108.0
1047.64624 192.0
1058.062866 160.0
1097.276001 164.0
1104.467285 160.0
1118.867065 244.0
1124.940063 172.0
1133.929688 184.0
1144.893677 176.0
1167.190796 128.0
1178.42334 140.0
1182.786255 260.0
1191.00061 152.0
1193.570923 192.0
1244.208984 84.0
1255.494995 168.0
1285.645264 156.0
1292.140381 128.0
1293.041992 156.0
1320.286621 132.0
1327.861938 196.0
1331.083984 148.0
1334.862427 88.0
1336.27356 84.0
1374.734985 160.0
1378.368042 156.0
1384.826294 80.0
1390.861694 256.0
1394.872803 216.0
1399.529907 180.0
1403.016602 192.0
1407.149658 184.0
1407.642456 132.0
1409.659302 60.0
1411.199097 196.0
1412.088867 144.0
1416.362671 116.0
1420.927856 132.0
1425.988892 144.0
1432.911743 192.0
1440.931519 116.0
1457.866211 144.0
1473.547363 132.0
1500.138794 80.0
1502.699219 180.0
