>compound MLS002153489-01!Quinidine sulfate salt dihydrate6591-63-5
>formula C20H24N2O2
>ionization [M+H]+
>parentmass 325.19043
#inchi InChI=1S/C20H24N2O2/c1-3-13-12-22-9-7-14(13)10-19(22)20(23)16-6-8-21-18-5-4-15(24-2)11-17(16)18/h3-6,8,11,13-14,19-20,23H,1,7,9-10,12H2,2H3/t13-,14?,19-,20+/m1/s1
#inchikey LOUPRKONTZGTKE
#origInchi InChI=1S/C20H24N2O2.H2O4S.H2O/c1-3-13-12-22-9-7-14(13)10-19(22)20(23)16-6-8-21-18-5-4-15(24-2)11-17(16)18;1-5(2,3)4;/h3-6,8,11,13-14,19-20,23H,1,7,9-10,12H2,2H3;(H2,1,2,3,4);1H2/t13-,14?,19-,20+;;/m1../s1
#Ion_Source LC-ESI
#Instrument qTof
#Compound_Source NIH Pharmacologically Active Library
#PI Dorrestein
#Data_Collector VP/LMS
#Scan -1
#Precursor_MZ 325.196
#ExactMass 324.184
#Charge 1
#CAS_Number N/A
#Pubmed_ID N/A
#Smiles COc1ccc2nccc([C@H](O)[C@H]3CC4CCN3C[C@H]4C=C)c2c1.OS(=O)(=O)O.O
#INCHI_AUX N/A
#Library_Class 1
#SpectrumID CCMSLIB00000085665
#IonMode Positive
#UpdateWorkflowName UPDATE-SINGLE-ANNOTATED-GOLD
#LibraryQualityString Gold
#TaskID d252d724072548979f1f6f1ced849daf
##Scan# 1234
#SpectrumFile p4-D11_GD11_01_18371.mzXML
#LibraryName Pharm_Active_Library.mgf
#MQScore -1
#Organism Pharm_Active_Library
#TIC_Query 0
#RT_Query -1
#MZErrorPPM -1
#SharedPeaks 0
#MassDiff 0
#LibMZ -1
#SpecMZ 325.196
#SpecCharge 0
#internalFilename spec-00000.mgf

>collision 10
45.067631 168.0
45.10104 200.0
45.185287 168.0
45.226772 104.0
45.316498 144.0
45.340618 156.0
45.933575 200.0
45.991596 208.0
46.04155 188.0
46.211876 152.0
46.387932 100.0
46.4883 200.0
46.813206 196.0
47.375942 176.0
47.389645 128.0
47.466404 148.0
47.566559 168.0
47.639339 156.0
47.976501 172.0
48.194569 172.0
48.254002 180.0
48.715504 32.0
49.016029 236.0
49.140125 164.0
49.369953 188.0
49.492352 212.0
49.607235 144.0
49.638081 168.0
49.788239 120.0
49.944248 152.0
49.980827 200.0
50.056839 132.0
50.073738 176.0
50.128681 112.0
50.169556 144.0
50.224552 88.0
50.375591 144.0
50.399612 244.0
50.593376 236.0
50.651436 152.0
50.891109 132.0
51.182598 124.0
51.298004 212.0
51.336498 224.0
51.376438 260.0
51.413536 156.0
51.476349 108.0
51.649281 160.0
51.733711 164.0
51.765209 172.0
51.935757 156.0
51.961582 220.0
52.074986 176.0
52.561581 228.0
52.943218 156.0
53.208572 104.0
53.483322 160.0
54.030556 144.0
54.113979 92.0
54.172558 148.0
54.223843 172.0
54.430695 160.0
54.599689 80.0
54.64529 200.0
54.757168 152.0
54.849995 144.0
54.944374 184.0
54.963554 116.0
55.034405 148.0
55.220608 208.0
55.361202 232.0
55.626602 144.0
55.720161 164.0
55.935799 48.0
56.044518 132.0
56.105625 76.0
56.336941 176.0
56.350388 140.0
56.793503 172.0
56.988663 160.0
57.060806 220.0
57.288055 168.0
57.709129 156.0
57.861942 144.0
57.996765 132.0
58.105949 56.0
58.324627 96.0
58.47673 168.0
58.548286 56.0
58.720505 144.0
58.751011 184.0
59.51474 132.0
59.757587 48.0
59.880737 100.0
60.0256 200.0
60.122791 204.0
60.206154 208.0
60.249405 156.0
60.294216 52.0
60.455051 116.0
60.57737 88.0
60.720627 236.0
60.778919 36.0
61.018116 168.0
61.028999 208.0
61.073318 96.0
61.29673 112.0
61.385582 200.0
62.746605 136.0
62.820728 244.0
62.939098 148.0
63.12714 92.0
63.220474 136.0
63.653248 180.0
63.985558 32.0
64.168777 92.0
64.213432 136.0
64.326721 152.0
64.339493 212.0
64.523216 216.0
64.564789 184.0
64.601578 64.0
64.619179 164.0
64.687996 256.0
64.833748 228.0
65.339554 164.0
65.471542 172.0
65.489258 160.0
66.353806 40.0
66.602097 180.0
66.683334 140.0
66.969696 144.0
67.31218 188.0
67.37751 112.0
67.500099 188.0
67.858688 140.0
68.093346 212.0
68.140984 156.0
68.154129 216.0
68.177132 152.0
68.270844 112.0
68.379425 116.0
68.619926 196.0
68.740334 164.0
69.082344 236.0
69.105507 112.0
69.516449 152.0
69.617714 116.0
69.655914 220.0
69.68914 184.0
69.700768 36.0
70.175148 172.0
70.255203 36.0
70.331963 172.0
70.360344 220.0
70.646118 220.0
70.984451 152.0
71.075027 204.0
71.710716 132.0
71.729256 164.0
71.828743 108.0
71.86586 140.0
72.166512 180.0
72.391563 100.0
72.411888 116.0
72.505066 88.0
72.695007 160.0
72.937874 176.0
73.169235 196.0
73.36515 216.0
73.385612 108.0
73.469711 180.0
73.622803 112.0
73.696251 156.0
73.943344 204.0
74.016113 128.0
74.04351 228.0
74.175446 180.0
74.383003 60.0
74.468857 140.0
74.966064 188.0
74.983292 172.0
75.171272 56.0
75.217873 208.0
75.281754 180.0
75.544472 128.0
75.703712 196.0
75.812851 92.0
75.902992 204.0
76.41713 80.0
76.495445 196.0
76.746323 148.0
76.763756 164.0
76.840508 180.0
76.983635 140.0
77.130394 116.0
77.462868 144.0
77.494408 192.0
78.04554 152.0
78.105339 132.0
78.26725 188.0
78.642754 128.0
78.868843 124.0
78.951935 200.0
79.063393 184.0
79.194405 160.0
79.345032 136.0
79.660927 156.0
79.794212 172.0
80.030846 168.0
80.06646 224.0
80.228615 252.0
80.542046 180.0
80.964783 136.0
81.122459 132.0
81.353874 152.0
81.625175 140.0
81.668343 168.0
81.87352 104.0
82.032074 208.0
82.109276 196.0
82.582809 204.0
82.600899 196.0
82.714897 156.0
82.756935 200.0
82.968513 184.0
83.189842 144.0
83.217072 36.0
83.713478 180.0
84.047066 160.0
84.120071 136.0
84.213196 164.0
84.566071 188.0
84.707062 116.0
84.906853 260.0
85.011421 212.0
85.408264 176.0
85.579414 116.0
85.999733 208.0
86.016098 128.0
86.424774 120.0
86.580276 164.0
86.921371 116.0
86.949211 56.0
87.014175 204.0
87.304047 204.0
87.337524 188.0
87.564598 156.0
87.702477 212.0
87.775185 180.0
88.109283 112.0
88.266289 160.0
88.434662 132.0
88.557144 240.0
88.597572 136.0
88.672523 68.0
88.743759 92.0
89.027107 236.0
89.085327 156.0
89.152969 168.0
89.309021 112.0
89.568779 84.0
89.72142 68.0
89.862869 216.0
90.212257 144.0
90.257629 108.0
90.46386 204.0
90.684578 136.0
91.05278 296.0
91.066849 248.0
91.139038 160.0
91.662315 144.0
92.106842 124.0
92.232956 88.0
92.385941 128.0
92.523727 60.0
92.565857 132.0
92.795784 148.0
92.962662 164.0
93.061378 184.0
93.154663 128.0
93.29303 144.0
93.350708 124.0
93.416107 144.0
93.506538 160.0
93.637459 212.0
93.986382 164.0
94.063889 340.0
94.084816 212.0
94.100266 224.0
94.639702 204.0
94.846992 220.0
95.074989 160.0
95.08326 132.0
95.561653 156.0
95.612251 188.0
95.649231 144.0
95.976532 148.0
96.079735 184.0
96.122826 184.0
96.275093 168.0
96.491035 160.0
97.020584 172.0
97.432716 148.0
97.548668 216.0
97.863441 60.0
97.902824 252.0
97.977676 148.0
98.030876 212.0
98.068321 196.0
98.084091 172.0
98.10183 76.0
98.318802 120.0
98.3563 180.0
98.387886 200.0
98.403679 36.0
98.509987 232.0
98.767296 180.0
98.785103 176.0
98.816757 128.0
98.872162 168.0
98.905807 240.0
99.375488 140.0
100.186646 188.0
100.487694 68.0
100.847145 140.0
101.007103 132.0
101.2593 192.0
101.335426 196.0
101.505798 120.0
101.519836 96.0
101.630165 156.0
101.752594 148.0
101.828903 144.0
101.873093 132.0
102.14045 144.0
102.514297 204.0
102.567337 120.0
102.863861 160.0
102.89212 156.0
103.055717 164.0
103.207314 152.0
103.571587 92.0
103.715454 108.0
104.050171 136.0
104.150917 216.0
104.845505 248.0
104.861809 180.0
105.047203 204.0
105.070328 424.0
105.392395 184.0
105.560013 100.0
105.744133 108.0
105.85878 60.0
105.987831 224.0
106.064369 452.0
106.474007 132.0
106.638374 160.0
106.69593 180.0
107.07637 340.0
107.163124 184.0
107.191971 176.0
107.305336 160.0
107.796593 76.0
107.829659 108.0
107.885468 236.0
107.972313 208.0
107.988861 160.0
108.080139 876.0
108.104713 188.0
108.479607 188.0
108.74926 212.0
109.025482 160.0
109.065948 300.0
109.095634 176.0
109.206367 196.0
109.862526 116.0
109.885475 196.0
110.004425 124.0
110.094925 664.0
110.361687 108.0
110.912277 212.0
111.098907 220.0
111.731262 196.0
111.901741 112.0
112.221992 116.0
112.397064 108.0
112.701118 168.0
112.789879 212.0
112.920975 160.0
113.024635 36.0
113.268105 164.0
113.412186 144.0
113.511833 200.0
113.647583 168.0
113.813148 104.0
114.698174 148.0
114.725883 136.0
114.907158 176.0
114.924232 124.0
114.994652 136.0
115.053505 532.0
115.084312 88.0
115.229546 204.0
115.268013 212.0
115.33329 164.0
115.631561 136.0
115.783569 184.0
115.972115 140.0
116.062149 176.0
116.150078 120.0
116.364685 176.0
116.446281 144.0
116.680511 184.0
116.762169 180.0
117.057091 1136.0
117.460075 212.0
117.686684 68.0
117.783867 76.0
117.859482 108.0
118.038887 128.0
118.061165 528.0
118.593117 120.0
118.744888 180.0
118.990089 52.0
119.068268 128.0
119.083466 164.0
119.129082 112.0
119.183395 204.0
119.489967 152.0
119.622719 108.0
120.027962 148.0
120.080193 404.0
120.185211 220.0
120.254845 44.0
120.709251 208.0
121.084785 140.0
121.138229 220.0
121.306969 64.0
121.453888 180.0
121.559196 60.0
121.776535 164.0
121.932526 128.0
122.013863 196.0
122.09536 428.0
122.284424 232.0
122.440742 148.0
122.729424 152.0
123.078049 88.0
123.710373 60.0
124.075905 296.0
124.111984 212.0
124.264427 72.0
124.383469 56.0
124.741905 120.0
124.957619 108.0
125.467636 140.0
125.639359 68.0
126.493019 204.0
126.846954 164.0
126.867126 48.0
127.051018 120.0
127.10936 180.0
128.037796 236.0
128.181976 204.0
128.248306 120.0
128.353287 236.0
128.802399 200.0
129.05397 216.0
129.060699 192.0
129.478683 208.0
129.72113 128.0
130.027786 160.0
130.065918 376.0
130.520294 168.0
130.552139 132.0
130.748764 176.0
130.952682 64.0
130.968628 140.0
131.002792 144.0
131.070953 736.0
131.26947 172.0
131.289993 260.0
131.454239 204.0
131.783051 152.0
131.936172 56.0
132.036789 132.0
132.077072 196.0
132.467102 68.0
132.496887 60.0
132.542709 104.0
132.593124 116.0
132.799469 76.0
133.040405 184.0
133.056473 160.0
133.079437 72.0
133.605743 128.0
133.647156 112.0
134.09581 508.0
134.402939 176.0
134.636078 164.0
134.839386 120.0
135.101624 168.0
135.295074 60.0
136.048523 160.0
136.074387 172.0
136.111496 1172.0
136.178558 176.0
136.194809 68.0
136.480667 96.0
136.501587 48.0
136.541122 184.0
136.690018 124.0
136.722595 116.0
136.869247 88.0
137.118103 180.0
137.312027 188.0
137.372665 48.0
138.094437 160.0
138.126587 800.0
138.560272 164.0
138.893158 116.0
139.132523 280.0
139.23114 172.0
139.65889 76.0
139.795349 152.0
139.863602 104.0
140.049622 140.0
140.455032 124.0
140.672134 156.0
140.771301 44.0
140.868134 88.0
141.055344 664.0
141.232162 188.0
141.734055 224.0
141.997192 252.0
142.044418 184.0
142.062729 356.0
142.669174 32.0
142.74527 208.0
142.840393 128.0
143.025208 156.0
143.071426 1016.0
143.564453 164.0
143.911972 176.0
144.020309 220.0
144.041809 144.0
144.077179 832.0
144.515167 140.0
144.637207 80.0
144.713821 172.0
144.828766 172.0
144.924759 172.0
144.95575 120.0
145.001282 136.0
145.051453 1788.0
145.101959 188.0
145.14032 124.0
145.212265 180.0
145.279434 116.0
145.325012 192.0
145.344208 328.0
145.555435 84.0
145.581848 132.0
145.644302 192.0
145.706757 144.0
146.058289 560.0
146.089005 200.0
146.360977 64.0
146.606674 108.0
146.77301 40.0
146.951492 152.0
147.026306 64.0
147.062775 352.0
147.103546 140.0
147.192871 224.0
147.424774 136.0
147.639938 148.0
147.76088 140.0
147.835892 188.0
148.035004 460.0
148.075943 156.0
148.109406 132.0
148.177307 92.0
148.400284 140.0
148.458481 160.0
148.703506 76.0
148.851608 68.0
148.885605 184.0
148.905029 120.0
149.065369 132.0
149.556641 124.0
150.177963 48.0
150.65152 96.0
151.395081 148.0
151.422012 88.0
151.716064 128.0
151.796967 180.0
152.111237 176.0
152.344299 228.0
152.489273 176.0
152.816345 148.0
152.850784 132.0
153.067413 40.0
153.138824 248.0
153.234894 96.0
153.546738 208.0
153.641388 232.0
153.666367 132.0
153.728897 152.0
153.97493 124.0
154.06424 1520.0
154.739014 128.0
154.914856 200.0
155.071609 1200.0
155.098557 276.0
155.467773 132.0
155.50499 176.0
155.559601 52.0
155.770676 36.0
155.79303 68.0
155.82782 144.0
155.924728 164.0
156.070908 360.0
156.282822 196.0
156.389832 252.0
156.484421 52.0
156.601471 104.0
156.863098 144.0
157.052704 420.0
157.087555 228.0
157.107483 164.0
157.319611 100.0
157.916824 208.0
157.969345 212.0
158.059372 2340.0
158.107895 204.0
158.159515 140.0
158.262161 84.0
158.392395 56.0
158.542725 124.0
158.693115 120.0
158.923874 176.0
158.9841 200.0
159.066925 1128.0
159.181885 120.0
159.318054 68.0
159.441177 60.0
159.488922 164.0
159.569366 108.0
159.654861 140.0
159.724274 156.0
159.783142 136.0
159.825912 160.0
159.959564 120.0
160.009659 164.0
160.075317 13288.0
160.1129 128.0
160.193497 60.0
160.238846 52.0
160.259003 36.0
160.324524 96.0
160.528717 288.0
160.689087 144.0
161.050781 144.0
161.078003 1088.0
161.329102 36.0
161.361969 48.0
161.445404 72.0
161.637665 80.0
161.662964 188.0
161.751556 104.0
161.883209 48.0
162.08725 560.0
162.23793 128.0
162.516922 148.0
162.539749 80.0
162.819 100.0
163.093399 100.0
163.162033 92.0
163.266281 128.0
163.576691 176.0
163.808426 128.0
163.9664 136.0
164.009735 100.0
164.106857 164.0
164.537781 324.0
164.6297 48.0
165.284103 200.0
165.842407 168.0
166.003922 96.0
166.063766 228.0
166.122681 2668.0
166.237366 44.0
166.429886 164.0
166.478668 176.0
166.689316 132.0
166.768982 124.0
166.871811 224.0
166.979813 204.0
167.072037 1096.0
167.131927 232.0
167.569305 164.0
167.618256 56.0
167.651764 76.0
167.770325 72.0
168.071075 276.0
168.206284 76.0
168.529114 184.0
169.052185 1316.0
169.09285 360.0
169.204163 140.0
169.522751 64.0
169.566803 124.0
169.805328 172.0
169.922073 128.0
170.057602 884.0
170.161743 80.0
170.311462 116.0
170.55571 136.0
170.83226 96.0
170.917206 48.0
171.063583 560.0
171.117615 132.0
171.646545 216.0
171.756088 68.0
171.831741 124.0
171.860443 164.0
171.90332 184.0
172.019638 104.0
172.037918 320.0
172.075211 9652.0
172.186752 40.0
172.230972 120.0
172.292801 72.0
172.348709 80.0
172.387909 100.0
172.416656 48.0
172.471542 76.0
172.510757 60.0
172.549973 60.0
172.591797 48.0
172.631027 68.0
172.926651 132.0
172.965912 92.0
173.049683 492.0
173.080841 2540.0
173.164917 44.0
173.183243 60.0
173.390228 152.0
173.474106 144.0
173.613068 72.0
173.776794 164.0
173.883286 84.0
173.933167 52.0
173.951538 208.0
173.99617 176.0
174.054474 1056.0
174.090057 1732.0
174.253906 88.0
174.385651 132.0
174.42276 92.0
175.060165 316.0
175.091537 224.0
175.258636 52.0
175.693665 36.0
175.875732 116.0
175.973419 68.0
175.997177 144.0
176.033585 132.0
176.069214 156.0
176.422546 212.0
177.10791 76.0
177.539917 180.0
177.635406 144.0
177.752136 180.0
177.823792 176.0
177.956528 128.0
178.057434 160.0
178.277939 44.0
178.684769 112.0
178.942932 136.0
179.070618 156.0
179.134674 216.0
179.54248 232.0
180.078415 604.0
180.386215 100.0
180.717834 144.0
181.049759 112.0
181.086761 396.0
181.183777 120.0
181.274796 88.0
181.891663 148.0
181.934601 176.0
182.009781 112.0
182.058746 2176.0
182.083435 324.0
182.093796 188.0
182.133316 172.0
182.313339 76.0
182.337524 56.0
182.689758 160.0
182.816223 200.0
182.96965 92.0
183.066254 2724.0
183.100067 204.0
183.131226 44.0
183.236282 44.0
183.318466 104.0
183.413239 72.0
183.729645 184.0
183.910446 192.0
183.969833 184.0
184.031921 128.0
184.075424 4196.0
184.118454 228.0
184.142639 32.0
184.161545 120.0
184.180466 32.0
184.323654 92.0
184.385803 136.0
184.47229 140.0
184.51825 224.0
184.547989 48.0
184.591263 108.0
184.611816 80.0
185.013351 76.0
185.04451 156.0
185.07988 1044.0
185.106934 160.0
185.289581 72.0
185.351898 228.0
185.422363 192.0
185.454895 144.0
186.054611 920.0
186.090668 4884.0
186.192871 44.0
186.228165 168.0
186.325958 128.0
186.377594 84.0
186.940475 84.0
187.060638 404.0
187.092422 1132.0
187.535034 216.0
187.7332 100.0
187.817749 68.0
187.9487 136.0
188.070114 1160.0
188.11792 204.0
188.154877 52.0
188.197098 144.0
188.572342 168.0
188.628738 56.0
188.667023 64.0
188.713501 176.0
189.076813 2372.0
189.806 160.0
190.082413 340.0
190.327347 44.0
190.563568 196.0
190.810928 40.0
190.959412 140.0
191.011673 160.0
191.052322 364.0
191.077698 196.0
191.262085 60.0
191.308884 120.0
192.000488 188.0
192.078506 220.0
192.676758 56.0
193.086075 544.0
193.234161 104.0
193.309937 100.0
193.572922 212.0
193.952484 236.0
194.070496 160.0
194.099411 92.0
194.171509 164.0
194.480408 156.0
194.940506 100.0
195.029449 140.0
195.067444 532.0
195.102524 276.0
195.307495 120.0
196.034149 236.0
196.073944 776.0
196.113174 320.0
196.714691 36.0
196.82637 136.0
196.865463 184.0
197.080704 1356.0
197.4104 108.0
197.536255 96.0
197.65657 140.0
198.088593 2288.0
198.485703 68.0
198.54393 84.0
198.850403 56.0
198.955292 120.0
199.091278 736.0
199.230835 216.0
199.631104 36.0
200.070465 876.0
200.103333 392.0
200.431686 176.0
200.800156 152.0
200.865036 120.0
201.069931 376.0
201.101654 404.0
201.963821 180.0
202.087418 1624.0
202.140381 148.0
202.294907 60.0
203.072174 336.0
203.096588 236.0
203.227325 116.0
203.795181 32.0
204.074692 164.0
204.094299 336.0
204.392807 160.0
204.899109 184.0
205.092896 192.0
205.466461 164.0
205.606277 224.0
206.091675 492.0
206.795212 144.0
207.061432 220.0
207.097488 476.0
208.075531 340.0
208.103577 348.0
208.28334 100.0
208.7892 124.0
209.082092 408.0
209.117188 184.0
209.25824 128.0
209.546249 72.0
209.76239 184.0
209.828705 116.0
209.89502 56.0
210.050751 152.0
210.090317 1880.0
210.117981 260.0
210.231522 80.0
210.301788 124.0
210.365295 196.0
210.616516 196.0
210.912262 68.0
211.035553 40.0
211.087448 1508.0
211.24379 64.0
211.787979 128.0
211.900955 104.0
212.09906 836.0
212.328629 56.0
212.433929 128.0
212.620087 80.0
212.692657 140.0
212.919113 84.0
213.038208 104.0
213.101837 612.0
213.1922 184.0
213.404404 76.0
213.54689 104.0
213.875687 52.0
214.08345 1036.0
214.143555 184.0
215.096024 128.0
216.099243 216.0
216.775818 124.0
217.016174 224.0
217.087173 192.0
217.852615 160.0
218.093063 368.0
218.646515 188.0
218.752472 84.0
219.095978 164.0
219.356354 88.0
219.745636 112.0
219.937454 60.0
220.077118 680.0
220.107178 312.0
220.498642 188.0
221.112503 268.0
221.386169 72.0
221.646851 104.0
221.69426 88.0
221.931396 76.0
222.089722 400.0
222.186478 84.0
222.735657 128.0
222.913925 112.0
223.093933 688.0
223.424286 160.0
224.105881 1184.0
224.259109 44.0
224.39624 148.0
224.789963 204.0
224.876511 60.0
224.960098 152.0
225.021683 184.0
225.105637 860.0
225.674118 84.0
226.117767 1028.0
226.242569 60.0
227.116089 992.0
227.579742 152.0
227.856064 104.0
228.09462 184.0
228.119354 204.0
228.340027 68.0
228.722137 88.0
229.306473 72.0
229.574783 228.0
230.090759 168.0
231.094177 332.0
232.114944 244.0
232.269623 64.0
233.016418 108.0
233.083679 176.0
233.819199 108.0
234.091431 560.0
234.128738 136.0
234.133865 212.0
234.24852 96.0
234.446564 48.0
234.763611 112.0
235.088303 520.0
235.136932 196.0
235.407501 84.0
235.972794 40.0
236.1082 876.0
236.667328 172.0
236.691833 112.0
237.106537 912.0
237.142166 180.0
237.47023 84.0
237.546921 100.0
237.89061 196.0
238.113419 384.0
238.603348 72.0
239.030884 68.0
239.120621 368.0
239.829483 128.0
240.140427 384.0
241.112473 132.0
241.424713 132.0
241.46492 160.0
242.113373 152.0
242.158203 148.0
242.325485 64.0
242.774948 108.0
243.088257 52.0
243.656479 100.0
244.131393 296.0
244.907013 132.0
245.104965 96.0
245.113342 52.0
245.126236 108.0
246.086304 176.0
246.121704 184.0
246.444992 76.0
246.619995 128.0
247.103897 328.0
247.129776 296.0
247.92511 244.0
248.106018 672.0
249.107651 224.0
249.142548 160.0
250.106552 532.0
250.125183 412.0
250.495255 144.0
251.116653 2128.0
251.166672 164.0
251.210831 148.0
251.72377 156.0
252.125214 1420.0
252.158752 232.0
252.591278 216.0
252.974182 116.0
253.132095 2548.0
253.227493 68.0
253.480927 92.0
253.595016 92.0
253.680603 116.0
254.14122 708.0
254.232498 40.0
254.858063 144.0
254.975632 140.0
255.150467 192.0
255.535294 176.0
257.115814 160.0
257.84079 176.0
258.938171 96.0
259.095123 128.0
260.11026 484.0
260.419952 56.0
261.117004 136.0
261.403717 156.0
261.426239 76.0
261.603241 156.0
262.123138 464.0
262.170135 192.0
263.118073 452.0
263.61911 64.0
264.138123 2024.0
264.22699 32.0
264.770813 96.0
264.910065 56.0
265.134521 1028.0
265.172913 188.0
265.373535 68.0
265.912018 100.0
266.14621 656.0
266.535522 76.0
267.157043 176.0
267.524261 52.0
267.752197 84.0
268.131805 100.0
268.164429 244.0
268.909607 88.0
269.177307 172.0
269.588898 192.0
269.935425 92.0
270.135345 160.0
270.324677 60.0
273.926422 164.0
274.129486 344.0
275.137756 164.0
276.101562 160.0
276.134644 364.0
276.160004 148.0
276.551514 116.0
277.051544 116.0
277.13797 356.0
277.535431 52.0
278.046295 192.0
278.152161 896.0
278.355011 40.0
279.147491 772.0
279.634949 68.0
279.801361 144.0
280.149384 204.0
280.360962 140.0
280.510956 64.0
281.124664 108.0
281.151276 152.0
281.170654 112.0
281.572021 200.0
281.632141 180.0
281.886047 80.0
282.066498 184.0
282.146759 508.0
282.270447 144.0
283.154816 344.0
283.559326 48.0
283.901306 48.0
284.159576 116.0
284.763824 44.0
287.183807 116.0
288.879486 88.0
289.127747 196.0
290.146057 120.0
290.960297 172.0
291.161774 152.0
292.167755 164.0
292.956573 88.0
293.169434 164.0
293.945343 64.0
294.054535 76.0
294.177429 180.0
294.78537 56.0
294.901581 96.0
295.174561 216.0
295.811432 136.0
295.951813 164.0
296.051117 124.0
296.163788 412.0
297.154846 144.0
297.19101 304.0
297.316132 108.0
298.200409 156.0
298.446289 152.0
299.21698 116.0
299.919739 256.0
303.48053 164.0
303.605377 208.0
303.938385 216.0
305.163666 136.0
305.43576 224.0
306.093536 96.0
306.361725 92.0
306.45578 156.0
306.915863 88.0
306.96817 104.0
307.034424 76.0
307.104187 160.0
307.179993 8272.0
307.278625 80.0
307.439117 52.0
307.568268 116.0
307.634583 140.0
308.184082 1556.0
308.511444 76.0
308.93808 32.0
309.088531 64.0
309.187561 172.0
309.340515 44.0
309.617126 112.0
310.135651 52.0
310.204102 152.0
310.405609 44.0
310.433655 56.0
310.640594 68.0
310.949371 120.0
311.170532 152.0
311.258301 108.0
311.440918 80.0
312.724304 168.0
313.086914 156.0
314.694885 148.0
316.402557 52.0
322.739288 144.0
322.839417 168.0
323.187592 132.0
323.615906 124.0
323.963318 88.0
324.271454 112.0
324.459198 96.0
324.576202 152.0
324.855927 76.0
324.884644 152.0
324.907196 112.0
324.942047 140.0
324.992279 100.0
325.107147 224.0
325.135803 112.0
325.19043 8988.0
325.249573 132.0
325.308105 296.0
325.420197 176.0
325.462463 52.0
325.553406 96.0
325.634857 144.0
325.680145 92.0
325.818054 44.0
325.907867 108.0
325.943787 112.0
325.987671 116.0
326.03006 88.0
326.083954 52.0
326.193787 2488.0
326.248535 104.0
326.303223 56.0
326.432678 100.0
326.755249 88.0
326.878723 36.0
326.925507 60.0
327.20108 544.0
327.937531 124.0
328.130402 112.0
328.193481 112.0
328.501892 132.0
329.160522 76.0
329.308594 104.0
329.366394 108.0
330.078369 36.0
330.602905 44.0
331.051788 28.0
331.678589 64.0
336.856689 76.0
337.576721 92.0
338.905457 96.0
343.493652 72.0
346.710388 96.0
349.488007 40.0
354.506683 36.0
363.69046 80.0
370.685028 128.0
382.14566 112.0
390.045471 188.0
396.71286 100.0
403.208893 104.0
412.138184 72.0
414.902527 72.0
424.414703 56.0
436.854736 36.0
441.246185 68.0
444.853241 64.0
449.335236 68.0
473.025421 116.0
489.754333 72.0
492.758484 84.0
493.341858 116.0
503.821106 92.0
506.227478 116.0
529.689941 120.0
531.211792 40.0
551.325928 52.0
552.064575 104.0
560.867798 116.0
565.316772 76.0
591.31958 108.0
594.523071 84.0
600.438904 60.0
626.346375 88.0
643.785583 60.0
712.315125 128.0
805.662476 80.0
806.007141 132.0
832.38739 124.0
869.22699 168.0
874.981262 72.0
894.874756 120.0
907.073975 172.0
939.604431 40.0
941.31958 168.0
943.953308 200.0
961.566589 40.0
982.465637 64.0
993.858887 192.0
994.442505 64.0
1027.201172 220.0
1027.788086 240.0
1029.141235 200.0
1037.471313 144.0
1061.631714 144.0
1083.74939 208.0
1099.248047 56.0
1107.472412 152.0
1117.443359 220.0
1123.559448 200.0
1124.820679 52.0
1133.877197 104.0
1134.889404 40.0
1140.952148 216.0
1153.747925 56.0
1171.617065 156.0
1175.005371 84.0
1185.741089 176.0
1193.732178 128.0
1194.01416 140.0
1198.950439 212.0
1202.3573 156.0
1205.575562 152.0
1205.796631 168.0
1211.332031 208.0
1222.795898 144.0
1232.99939 120.0
1240.635986 124.0
1248.760376 72.0
1249.871948 104.0
1258.329956 140.0
1264.543579 192.0
1269.105835 200.0
1278.75293 108.0
1290.830933 176.0
1294.079468 200.0
1299.325806 128.0
1299.533936 168.0
1304.855957 136.0
1306.992188 180.0
1313.27417 124.0
1314.673828 112.0
1324.4198 152.0
1325.151489 148.0
1328.0802 152.0
1335.016235 92.0
1335.161621 60.0
1339.936768 88.0
1348.437988 232.0
1356.41626 48.0
1359.841675 156.0
1359.900391 152.0
1360.524292 192.0
1360.729858 144.0
1362.786377 156.0
1366.63916 96.0
1382.867065 156.0
1383.259399 128.0
1384.895752 180.0
1387.341187 68.0
1388.334717 276.0
1391.941284 164.0
1392.060059 204.0
1394.571167 72.0
1396.273804 140.0
1404.794922 184.0
1406.735107 120.0
1410.649536 164.0
1413.940674 184.0
1414.217529 144.0
1416.628784 184.0
1418.239746 128.0
1419.386841 152.0
1422.49292 160.0
1426.196167 232.0
1430.423584 72.0
1431.259277 144.0
1432.614868 192.0
1432.840942 124.0
1433.556763 208.0
1436.406738 88.0
1439.244385 140.0
1439.65979 212.0
1440.543457 184.0
1440.64917 148.0
1441.336792 200.0
1444.413818 180.0
1447.342651 144.0
1451.517822 124.0
1455.008057 200.0
1455.395386 244.0
1456.185059 200.0
1456.496582 128.0
1459.59729 180.0
1459.817871 164.0
1460.996826 204.0
1462.465454 132.0
1463.059204 180.0
1465.008789 148.0
1465.51355 172.0
1467.638184 176.0
1469.255127 64.0
1472.117432 68.0
1473.973633 168.0
1475.915161 184.0
1480.506592 244.0
1481.755127 108.0
1481.962036 116.0
1482.168945 200.0
1482.919922 160.0
1484.016235 180.0
1491.193848 104.0
1491.524292 212.0
1491.854858 140.0
1499.020508 260.0
1501.271606 92.0
