>compound MLS001401433-01!ITOPRIDE HCl
>formula C20H26N2O4
>ionization [M+H]+
>parentmass 359.19653376409053
#inchi InChI=1S/C20H26N2O4/c1-22(2)11-12-26-17-8-5-15(6-9-17)14-21-20(23)16-7-10-18(24-3)19(13-16)25-4/h5-10,13H,11-12,14H2,1-4H3,(H,21,23)
#inchikey QQQIECGTIMUVDS
#origInchi InChI=1S/C20H26N2O4.ClH/c1-22(2)11-12-26-17-8-5-15(6-9-17)14-21-20(23)16-7-10-18(24-3)19(13-16)25-4;/h5-10,13H,11-12,14H2,1-4H3,(H,21,23);1H
#Ion_Source LC-ESI
#Instrument qTof
#Compound_Source NIH Pharmacologically Active Library
#PI Dorrestein
#Data_Collector VP/LMS
#Scan -1
#Precursor_MZ 359.197
#ExactMass 358.189
#Charge 1
#CAS_Number N/A
#Pubmed_ID N/A
#Smiles COc1ccc(cc1OC)C(=O)NCc2ccc(OCCN(C)C)cc2.Cl
#INCHI_AUX N/A
#Library_Class 1
#SpectrumID CCMSLIB00000085004
#IonMode Positive
#UpdateWorkflowName UPDATE-SINGLE-ANNOTATED-GOLD
#LibraryQualityString Gold
#TaskID d252d724072548979f1f6f1ced849daf
##Scan# 1366
#SpectrumFile p3-D08_GD8_01_18265.mzXML
#LibraryName Pharm_Active_Library.mgf
#MQScore -1
#Organism Pharm_Active_Library
#TIC_Query 0
#RT_Query -1
#MZErrorPPM -1
#SharedPeaks 0
#MassDiff 0
#LibMZ -1
#SpecMZ 359.197
#SpecCharge 0
#internalFilename spec-00000.mgf

>collision 10
45.238686 164.0
45.655994 164.0
46.110355 132.0
46.255085 212.0
47.176083 116.0
47.199326 152.0
47.353973 92.0
48.65995 216.0
48.709946 108.0
49.296535 176.0
50.114643 52.0
50.179478 152.0
50.801777 132.0
50.888351 164.0
51.241089 200.0
51.355137 156.0
51.606483 124.0
52.264877 164.0
52.765385 172.0
53.276993 184.0
53.482037 208.0
54.708794 124.0
54.825157 140.0
55.008057 88.0
55.034634 124.0
55.362923 188.0
56.533092 152.0
56.849304 120.0
57.695843 116.0
57.872864 152.0
58.232281 160.0
58.978905 192.0
58.992664 120.0
59.390808 64.0
59.415356 96.0
59.995163 228.0
61.077644 176.0
61.426579 236.0
61.635792 144.0
61.688934 164.0
62.394424 60.0
62.587955 220.0
63.342899 192.0
63.477619 124.0
63.561695 68.0
64.64373 68.0
65.467293 148.0
65.623596 160.0
66.359283 144.0
66.51178 168.0
68.153152 108.0
68.264931 116.0
68.683273 164.0
71.06572 136.0
71.458885 228.0
71.723289 196.0
71.831215 156.0
72.179138 176.0
72.397438 216.0
73.209221 124.0
74.474869 196.0
74.78093 204.0
76.597366 164.0
77.210022 164.0
77.238007 236.0
77.937531 192.0
77.969162 136.0
78.136215 232.0
79.018379 212.0
79.163528 180.0
79.24501 176.0
79.418747 180.0
79.766785 136.0
81.024948 184.0
81.270584 204.0
81.359291 180.0
82.242409 128.0
82.480843 172.0
83.649071 168.0
83.714615 168.0
83.83667 132.0
84.099304 124.0
86.99498 180.0
89.686905 152.0
90.147415 196.0
90.866966 152.0
91.051094 160.0
91.070091 100.0
91.558891 136.0
91.598892 200.0
91.785667 168.0
92.024185 140.0
92.060913 168.0
92.925682 180.0
93.077316 160.0
93.32135 188.0
93.423279 236.0
94.182793 184.0
94.236885 36.0
95.044411 176.0
95.605927 196.0
96.013107 156.0
96.589302 88.0
97.35173 72.0
97.449951 152.0
97.599335 212.0
97.66227 284.0
97.916168 76.0
98.034378 204.0
98.320335 220.0
98.434837 140.0
98.557304 224.0
99.039154 136.0
99.129189 136.0
99.375069 224.0
99.41674 128.0
100.52121 176.0
100.720863 112.0
101.902855 144.0
102.696014 176.0
102.903877 152.0
103.055359 436.0
103.354614 180.0
104.045769 176.0
104.059982 120.0
104.442039 204.0
104.779968 180.0
104.798309 172.0
105.069328 460.0
105.110283 196.0
105.138855 136.0
105.543335 188.0
106.034653 212.0
106.069496 200.0
106.531219 196.0
107.044899 408.0
107.074257 208.0
107.335976 152.0
107.655838 88.0
108.056847 72.0
108.108582 72.0
108.218292 60.0
109.062904 392.0
109.749649 196.0
111.006386 140.0
111.046234 160.0
111.251877 204.0
111.333771 212.0
111.897308 96.0
112.19648 152.0
112.346214 152.0
113.670738 192.0
113.938278 280.0
114.027519 144.0
114.061531 220.0
114.487068 200.0
114.553093 208.0
115.049988 196.0
115.101227 216.0
116.006256 100.0
116.536362 140.0
117.229248 152.0
117.276665 212.0
117.313309 184.0
117.434067 200.0
118.566994 60.0
119.509453 72.0
119.777237 60.0
119.977722 136.0
120.881989 84.0
121.026047 272.0
121.059311 164.0
121.074638 192.0
121.414337 188.0
122.034676 816.0
122.070969 240.0
122.638985 88.0
122.811905 180.0
122.963211 32.0
123.00074 216.0
123.047096 192.0
123.502335 172.0
123.604103 136.0
124.047058 104.0
124.672981 76.0
125.084457 144.0
126.029579 520.0
126.220078 140.0
126.255859 168.0
126.730423 152.0
127.338364 180.0
127.641808 168.0
129.333832 188.0
129.598801 200.0
131.000595 156.0
131.417816 184.0
131.678055 80.0
132.034592 148.0
132.38475 180.0
133.064941 3036.0
133.242615 104.0
133.343719 96.0
133.626572 152.0
133.79689 156.0
133.90741 184.0
134.047943 144.0
134.068512 304.0
134.089432 144.0
134.10556 36.0
134.830276 72.0
135.320679 172.0
135.633438 172.0
135.937256 192.0
135.995285 224.0
136.262344 204.0
136.355286 216.0
137.059174 988.0
137.088379 76.0
138.036163 180.0
138.061478 164.0
138.092285 80.0
138.286484 140.0
138.675293 116.0
138.776093 144.0
139.075089 212.0
139.198456 136.0
140.07338 120.0
140.353836 200.0
141.050308 172.0
142.296432 84.0
142.514938 256.0
142.743134 80.0
143.719772 164.0
144.011017 132.0
144.381485 104.0
144.817078 172.0
145.048386 188.0
146.231277 108.0
146.79985 156.0
147.933029 200.0
148.041992 148.0
148.936951 100.0
149.037903 388.0
149.058426 204.0
149.116745 180.0
149.464508 200.0
149.543549 200.0
150.00032 68.0
150.290543 48.0
151.038116 152.0
151.118851 196.0
151.98378 212.0
152.4823 176.0
154.03215 344.0
154.600815 204.0
154.853348 140.0
155.068985 208.0
156.945831 148.0
157.21524 132.0
157.733963 176.0
157.89978 60.0
159.223083 232.0
160.196518 220.0
160.751205 164.0
161.167862 148.0
161.615417 188.0
162.7789 140.0
162.834778 40.0
162.89827 204.0
163.391464 232.0
163.414368 164.0
163.493256 188.0
164.072815 204.0
164.614944 212.0
164.640472 128.0
164.745682 108.0
164.835373 220.0
164.901077 208.0
164.934311 152.0
164.988937 356.0
165.054337 22784.0
165.094955 368.0
165.147995 80.0
165.176285 184.0
165.218155 36.0
165.256531 76.0
165.300034 96.0
165.33075 64.0
165.416748 80.0
165.445923 80.0
165.508377 156.0
165.566269 92.0
165.599564 52.0
165.696915 72.0
165.736694 172.0
165.935272 92.0
165.983978 56.0
166.019882 80.0
166.056717 1968.0
166.121841 4868.0
166.189194 56.0
166.219986 88.0
166.305069 52.0
166.340607 96.0
166.399658 112.0
166.651367 180.0
166.73616 56.0
166.831268 136.0
166.923828 32.0
167.006134 60.0
167.060181 152.0
167.093597 48.0
167.124969 592.0
167.258301 92.0
167.317871 168.0
167.417038 232.0
167.526108 92.0
167.703903 64.0
167.778656 96.0
168.093338 52.0
168.209473 52.0
168.658936 56.0
169.285049 60.0
173.84462 84.0
175.383209 56.0
175.51239 100.0
176.677155 156.0
177.973206 96.0
178.119278 200.0
178.188339 76.0
180.135803 96.0
182.257706 76.0
195.008194 132.0
199.382233 84.0
202.106354 152.0
208.06337 200.0
228.121933 96.0
235.937607 232.0
244.052811 68.0
254.685074 128.0
259.077698 136.0
272.113068 156.0
276.196198 52.0
284.185181 188.0
286.094177 116.0
294.866241 84.0
300.532471 48.0
302.374359 140.0
304.166351 36.0
331.619659 36.0
333.434387 84.0
340.041412 84.0
340.239655 68.0
352.518829 76.0
356.002777 124.0
358.225647 104.0
358.289703 188.0
359.191559 316.0
362.241241 116.0
376.327301 108.0
390.988953 80.0
464.038727 48.0
467.345978 88.0
479.597717 60.0
761.23584 88.0
928.56842 148.0
960.374573 144.0
964.041931 80.0
998.707947 64.0
1001.490051 128.0
1012.967468 116.0
1023.287537 56.0
1033.781494 124.0
1035.490845 196.0
1084.476807 180.0
1103.640869 120.0
1111.317627 72.0
1114.431641 200.0
1118.035767 124.0
1118.728027 204.0
1121.692505 168.0
1124.941162 184.0
1135.379272 232.0
1160.993652 140.0
1176.364258 108.0
1210.149048 112.0
1213.05188 176.0
1213.883789 192.0
1235.168335 152.0
1241.184448 88.0
1251.675537 144.0
1253.528198 96.0
1259.758301 104.0
1275.063477 152.0
1281.695923 136.0
1293.065063 216.0
1294.933716 160.0
1310.695557 176.0
1317.802856 172.0
1322.568604 56.0
1328.721069 180.0
1334.451538 224.0
1337.448853 148.0
1343.519043 188.0
1367.775513 136.0
1368.62207 176.0
1371.15625 152.0
1374.77002 132.0
1380.554443 124.0
1382.714722 204.0
1385.01001 196.0
1385.884277 44.0
1392.820801 168.0
1395.972168 184.0
1396.314209 232.0
1399.156738 156.0
1404.611816 212.0
1407.156616 84.0
1408.650269 172.0
1411.393188 208.0
1418.843018 188.0
1420.020386 160.0
1422.421387 72.0
1427.816284 172.0
1431.353271 84.0
1437.391235 152.0
1439.459595 56.0
1449.649414 164.0
1455.923218 148.0
1460.711792 52.0
1465.325195 96.0
1468.191406 184.0
1476.906006 136.0
1484.541992 180.0
1496.536987 196.0
1497.776978 136.0
1498.978882 176.0
