>compound MLS001146879-01!35212-22-7
>formula C18H16O3
>ionization [M+H]+
>parentmass 281.1172208240905
#inchi InChI=1S/C18H16O3/c1-12(2)21-14-8-9-15-17(10-14)20-11-16(18(15)19)13-6-4-3-5-7-13/h3-12H,1-2H3
#inchikey SFBODOKJTYAUCM
#Ion_Source LC-ESI
#Instrument qTof
#Compound_Source NIH Pharmacologically Active Library
#PI Dorrestein
#Data_Collector VP/LMS
#Scan -1
#Precursor_MZ 281.113
#ExactMass 280.11
#Charge 1
#CAS_Number N/A
#Pubmed_ID N/A
#Smiles CC(C)Oc1ccc2c(=O)c(coc2c1)c3ccccc3
#INCHI_AUX N/A
#Library_Class 1
#SpectrumID CCMSLIB00000085356
#IonMode Positive
#UpdateWorkflowName UPDATE-SINGLE-ANNOTATED-GOLD
#LibraryQualityString Gold
#TaskID d252d724072548979f1f6f1ced849daf
##Scan# 2499
#SpectrumFile p3-H08_GH8_01_18313.mzXML
#LibraryName Pharm_Active_Library.mgf
#MQScore -1
#Organism Pharm_Active_Library
#TIC_Query 0
#RT_Query -1
#MZErrorPPM -1
#SharedPeaks 0
#MassDiff 0
#LibMZ -1
#SpecMZ 281.113
#SpecCharge 0
#internalFilename spec-00000.mgf

>collision 10
44.889835 140.0
44.932678 168.0
45.003262 160.0
45.064705 128.0
45.090099 168.0
45.158287 140.0
45.184456 164.0
45.229206 352.0
45.257656 224.0
45.27607 108.0
45.285446 108.0
45.314919 136.0
45.332676 128.0
45.406078 164.0
45.42754 188.0
45.473164 136.0
45.490616 136.0
45.537617 152.0
45.622276 40.0
45.66127 60.0
45.821468 168.0
45.857712 188.0
45.8983 136.0
45.923923 192.0
45.959003 172.0
45.999493 160.0
46.042702 180.0
46.05621 136.0
46.098091 200.0
46.138645 204.0
46.160278 128.0
46.189629 84.0
46.213036 180.0
46.25798 308.0
46.329475 216.0
46.386395 40.0
46.437923 204.0
46.447418 116.0
46.469128 116.0
46.583912 308.0
46.613384 152.0
46.623631 160.0
46.676956 144.0
46.686474 192.0
46.743092 208.0
46.781727 140.0
46.799427 208.0
46.814404 160.0
46.868896 148.0
46.88525 168.0
46.972515 180.0
46.984795 188.0
47.002533 116.0
47.024368 68.0
47.044846 200.0
47.099472 140.0
47.118595 204.0
47.133625 36.0
47.170528 160.0
47.193771 156.0
47.225227 176.0
47.282696 168.0
47.293644 160.0
47.393623 152.0
47.434738 128.0
47.481361 108.0
47.501938 168.0
47.705185 124.0
47.756065 200.0
47.800091 320.0
47.90749 148.0
47.983295 132.0
48.002598 144.0
48.104702 136.0
48.157177 196.0
48.183426 216.0
48.230412 280.0
48.245621 156.0
48.28019 148.0
48.467079 188.0
48.492023 100.0
48.572449 164.0
48.583549 156.0
48.654331 248.0
48.673771 204.0
48.801609 132.0
48.86142 128.0
48.925442 64.0
48.94215 192.0
48.963039 156.0
49.021553 132.0
49.087074 180.0
49.099625 208.0
49.268532 148.0
49.29089 156.0
49.486725 72.0
49.511932 160.0
49.546951 96.0
49.595264 120.0
49.656296 68.0
49.745102 180.0
49.785416 148.0
49.809296 120.0
49.81913 108.0
49.830463 180.0
49.868313 112.0
49.893696 72.0
49.927364 168.0
49.955132 92.0
50.006157 164.0
50.032902 220.0
50.042759 216.0
50.108959 128.0
50.166744 88.0
50.193535 128.0
50.220329 168.0
50.242313 192.0
50.275356 36.0
50.302177 232.0
50.311737 212.0
50.323769 232.0
50.483036 136.0
50.500008 204.0
50.559433 164.0
50.580666 104.0
50.613541 200.0
50.624557 224.0
50.798901 132.0
50.80883 168.0
50.847145 124.0
50.875538 128.0
50.984913 200.0
51.003391 60.0
51.031826 176.0
51.06694 208.0
51.127136 92.0
51.23251 136.0
51.278111 156.0
51.329433 172.0
51.389347 120.0
51.446434 164.0
51.456429 48.0
51.529274 204.0
51.539276 156.0
51.629337 56.0
51.7295 72.0
51.781052 164.0
51.802536 72.0
51.832626 84.0
51.86129 136.0
51.938026 148.0
51.971722 184.0
52.026264 180.0
52.04493 100.0
52.119625 88.0
52.148369 152.0
52.264435 204.0
52.320995 160.0
52.392426 248.0
52.407413 140.0
52.492462 112.0
52.560265 172.0
52.586243 208.0
52.612225 192.0
52.655548 116.0
52.690216 212.0
52.706112 144.0
52.746578 372.0
52.775848 212.0
52.866631 216.0
52.922321 172.0
52.983921 84.0
53.043343 156.0
53.059288 196.0
53.07959 152.0
53.118317 188.0
53.208729 108.0
53.257362 172.0
53.322037 164.0
53.585438 208.0
53.604382 76.0
53.618408 288.0
53.658314 328.0
53.737076 268.0
53.766262 192.0
53.779396 36.0
53.796913 212.0
53.838467 252.0
53.978096 200.0
53.989796 96.0
54.001495 124.0
54.011734 172.0
54.121502 68.0
54.151535 300.0
54.187416 248.0
54.223656 104.0
54.265099 40.0
54.307629 124.0
54.319363 188.0
54.345772 140.0
54.378059 148.0
54.445599 144.0
54.458817 248.0
54.560215 160.0
54.745621 172.0
54.810467 208.0
54.839916 144.0
54.858532 292.0
54.97118 144.0
54.994793 48.0
55.030766 208.0
55.087826 156.0
55.099644 124.0
55.121807 216.0
55.135109 164.0
55.291882 284.0
55.349621 200.0
55.416279 192.0
55.429615 152.0
55.450363 80.0
55.469631 172.0
55.527462 144.0
55.586803 84.0
55.644695 208.0
55.684376 172.0
55.810593 80.0
55.816948 52.0
55.834354 128.0
55.860195 216.0
55.897392 92.0
55.91674 196.0
56.019485 344.0
56.16856 104.0
56.234215 200.0
56.32082 208.0
56.377598 188.0
56.498718 168.0
56.512184 176.0
56.609985 176.0
56.619968 128.0
56.630451 160.0
56.664829 380.0
56.685886 132.0
56.711365 120.0
56.723324 172.0
56.790836 164.0
56.959892 180.0
57.001026 172.0
57.082203 32.0
57.10025 92.0
57.166451 176.0
57.208595 168.0
57.317043 132.0
57.34417 180.0
57.413525 140.0
57.473866 80.0
57.546658 180.0
57.620331 180.0
57.638462 140.0
57.688339 112.0
57.726143 148.0
57.80632 260.0
57.854755 168.0
57.868382 176.0
57.903214 212.0
57.938053 192.0
57.963814 164.0
58.064182 136.0
58.083591 244.0
58.096535 168.0
58.123039 252.0
58.208046 192.0
58.229309 204.0
58.244499 244.0
58.286457 240.0
58.334156 136.0
58.348309 220.0
58.364567 112.0
58.390419 204.0
58.445187 200.0
58.475624 140.0
58.490845 204.0
58.503025 208.0
58.528908 160.0
58.582214 204.0
58.670609 176.0
58.69043 144.0
58.702629 156.0
58.749916 176.0
58.78043 220.0
58.814007 92.0
58.829792 264.0
58.872471 180.0
58.885773 152.0
58.905632 116.0
58.927021 176.0
59.004971 252.0
59.131939 140.0
59.165619 88.0
59.203899 148.0
59.242096 188.0
59.266708 228.0
59.361752 108.0
59.381687 112.0
59.412369 156.0
59.461472 148.0
59.490639 120.0
59.518486 204.0
59.535168 112.0
59.556671 52.0
59.568958 104.0
59.60276 188.0
59.628521 84.0
59.647331 96.0
59.708839 168.0
59.761143 184.0
59.789944 140.0
59.856579 180.0
59.93206 148.0
60.023006 176.0
60.076992 200.0
60.092422 76.0
60.120197 168.0
60.147316 180.0
60.158787 156.0
60.234455 164.0
60.310177 88.0
60.328724 124.0
60.365833 120.0
60.379753 184.0
60.451229 120.0
60.47723 188.0
60.507042 312.0
60.522129 152.0
60.563946 184.0
60.656921 184.0
60.677074 100.0
60.701885 412.0
60.715843 224.0
60.749966 152.0
60.780998 144.0
60.852909 184.0
60.895885 164.0
61.011436 212.0
61.116642 140.0
61.149326 228.0
61.183571 180.0
61.205372 188.0
61.264557 228.0
61.325333 196.0
61.351833 164.0
61.397053 96.0
61.467255 164.0
61.520325 120.0
61.553116 164.0
61.579666 204.0
61.609344 112.0
61.632782 204.0
61.662476 136.0
61.735096 276.0
61.750034 192.0
61.940998 104.0
61.976032 164.0
61.991138 148.0
62.022484 176.0
62.066383 140.0
62.174629 196.0
62.301819 156.0
62.326962 192.0
62.353676 148.0
62.370968 152.0
62.477905 220.0
62.503624 220.0
62.521965 140.0
62.550385 256.0
62.583359 128.0
62.594383 128.0
62.818195 136.0
62.849751 152.0
62.889206 148.0
62.905228 208.0
62.923935 132.0
62.963413 160.0
62.977631 96.0
62.991848 76.0
63.050312 160.0
63.088249 140.0
63.10564 160.0
63.147312 228.0
63.172066 136.0
63.203709 128.0
63.217953 180.0
63.240112 364.0
63.290771 304.0
63.312943 156.0
63.373138 192.0
63.394665 168.0
63.412758 136.0
63.444462 164.0
63.591293 100.0
63.668201 140.0
63.687263 148.0
63.714268 156.0
63.760349 48.0
63.774654 156.0
63.804108 164.0
63.866882 160.0
64.048347 152.0
64.062683 56.0
64.096146 152.0
64.121643 152.0
64.217026 156.0
64.253998 132.0
64.324219 132.0
64.383301 260.0
64.431221 60.0
64.520721 264.0
64.560699 156.0
64.639091 388.0
64.687103 144.0
64.728424 188.0
64.828056 92.0
64.856674 196.0
64.949913 128.0
65.092758 200.0
65.124565 124.0
65.140938 132.0
65.184319 160.0
65.213249 172.0
65.240715 232.0
65.271126 124.0
65.304901 32.0
65.390182 136.0
65.440224 136.0
65.464241 116.0
65.565735 224.0
65.608002 144.0
65.688278 152.0
65.873932 112.0
66.006462 108.0
66.025871 188.0
66.074402 84.0
66.123161 180.0
66.148651 168.0
66.203896 132.0
66.228195 180.0
66.267075 224.0
66.323799 148.0
66.348831 216.0
66.412369 212.0
66.495735 144.0
66.520081 132.0
66.575287 112.0
66.605988 200.0
66.627266 144.0
66.654404 120.0
66.692268 188.0
66.710152 120.0
66.736168 192.0
66.767059 92.0
66.802849 132.0
66.845703 188.0
66.991737 136.0
67.048721 156.0
67.079697 136.0
67.133499 192.0
67.304848 244.0
67.427376 52.0
67.467545 188.0
67.551643 128.0
67.633469 240.0
67.648201 104.0
67.667625 176.0
67.728439 188.0
67.739906 224.0
67.797256 124.0
67.874306 208.0
67.966606 148.0
68.028534 140.0
68.209236 188.0
68.286415 188.0
68.321068 132.0
68.375374 136.0
68.396767 132.0
68.444511 180.0
68.558182 148.0
68.587852 144.0
68.654106 152.0
68.668648 64.0
68.719788 120.0
68.767647 172.0
68.785805 148.0
68.820358 168.0
68.846893 80.0
68.912971 108.0
69.119667 164.0
69.139526 148.0
69.212364 184.0
69.260399 204.0
69.305481 132.0
69.364792 112.0
69.447701 96.0
69.502449 148.0
69.54892 192.0
69.585442 108.0
69.655197 132.0
69.75219 160.0
69.81144 100.0
69.82901 184.0
69.846367 192.0
69.880363 192.0
69.927902 52.0
69.942879 212.0
69.990883 120.0
70.068367 160.0
70.092773 204.0
70.107773 224.0
70.137581 172.0
70.322929 156.0
70.413086 176.0
70.706612 236.0
70.722412 208.0
70.767616 144.0
70.784363 132.0
70.871857 188.0
70.928452 148.0
70.956947 160.0
71.050873 156.0
71.081619 148.0
71.107925 180.0
71.247307 132.0
71.259064 220.0
71.356552 148.0
71.386818 80.0
71.404709 176.0
71.42382 364.0
71.437279 184.0
71.47934 352.0
71.598869 132.0
71.694901 100.0
71.77076 196.0
71.855095 112.0
71.950432 264.0
71.969872 184.0
72.042503 140.0
72.07798 196.0
72.099953 216.0
72.156746 136.0
72.170952 160.0
72.25383 188.0
72.310768 192.0
72.34861 152.0
72.36554 208.0
72.380783 128.0
72.406181 312.0
72.428177 236.0
72.492584 192.0
72.503532 148.0
72.587517 128.0
72.610565 88.0
72.649689 196.0
72.675728 164.0
72.742943 192.0
72.782669 120.0
72.899597 168.0
72.918579 88.0
73.069923 140.0
73.148209 116.0
73.166939 88.0
73.207802 108.0
73.240166 132.0
73.43261 208.0
73.451538 112.0
73.475418 116.0
73.511253 176.0
73.530029 36.0
73.611977 172.0
73.646133 164.0
73.746948 140.0
73.911133 192.0
73.998428 384.0
74.042946 180.0
74.144035 108.0
74.221176 132.0
74.288071 196.0
74.312088 96.0
74.324097 120.0
74.344688 144.0
74.413429 184.0
74.451134 228.0
74.554214 288.0
74.584114 212.0
74.628647 216.0
74.66597 116.0
74.695206 196.0
74.727898 192.0
74.765755 44.0
74.827728 120.0
74.841499 152.0
74.862167 160.0
74.882828 148.0
74.896614 28.0
74.915558 132.0
74.973877 128.0
75.01207 176.0
75.024132 72.0
75.124161 180.0
75.148315 128.0
75.167297 232.0
75.253601 152.0
75.365875 176.0
75.386047 220.0
75.485153 248.0
75.56472 164.0
75.713776 152.0
75.765862 232.0
75.776825 80.0
75.819794 256.0
75.899727 196.0
75.997894 144.0
76.023926 184.0
76.068954 136.0
76.097946 312.0
76.112457 144.0
76.19236 160.0
76.217003 152.0
76.317505 164.0
76.357498 196.0
76.369675 188.0
76.383591 52.0
76.46711 140.0
76.514114 124.0
76.535683 196.0
76.550041 252.0
76.582031 108.0
76.62384 204.0
76.69529 180.0
76.744102 128.0
76.761543 124.0
76.801659 144.0
76.93428 200.0
76.972694 104.0
77.088875 144.0
77.143921 176.0
77.169617 144.0
77.236603 192.0
77.311844 204.0
77.397621 232.0
77.478195 132.0
77.562309 40.0
77.637703 172.0
77.662262 104.0
77.826851 216.0
77.876404 156.0
78.029289 160.0
78.067978 168.0
78.188667 132.0
78.250984 196.0
78.285873 172.0
78.305573 148.0
78.495911 132.0
78.71907 204.0
78.732391 164.0
78.765953 104.0
78.80835 176.0
78.834862 160.0
78.856071 76.0
78.971001 108.0
79.068314 212.0
79.103714 164.0
79.16568 144.0
79.252487 160.0
79.284378 156.0
79.341103 204.0
79.382538 216.0
79.475906 132.0
79.511398 128.0
79.623253 108.0
79.680092 184.0
79.726295 184.0
79.746506 176.0
79.788513 164.0
79.862968 156.0
79.873589 152.0
79.923691 176.0
79.941742 168.0
79.964622 144.0
80.026932 172.0
80.108856 184.0
80.246086 44.0
80.302773 204.0
80.335266 148.0
80.510193 148.0
80.594147 176.0
80.655319 284.0
80.723549 144.0
80.738953 64.0
80.753258 216.0
80.785065 200.0
80.814941 152.0
80.916107 148.0
80.96804 144.0
80.996483 184.0
81.039993 192.0
81.066574 356.0
81.123932 188.0
81.151314 132.0
81.17234 168.0
81.186691 40.0
81.315865 48.0
81.389473 68.0
81.411018 236.0
81.441551 80.0
81.493652 52.0
81.515213 168.0
81.572731 156.0
81.607643 168.0
81.621277 136.0
81.635666 144.0
81.684227 164.0
81.765198 116.0
81.819199 148.0
81.831802 124.0
81.885826 40.0
81.916451 128.0
81.937439 164.0
82.055222 212.0
82.093086 124.0
82.268112 188.0
82.322281 128.0
82.381889 228.0
82.408989 152.0
82.446938 168.0
82.526474 164.0
82.553001 60.0
82.615097 172.0
82.653099 140.0
82.745407 124.0
82.775528 196.0
82.799736 228.0
82.825096 232.0
82.83699 120.0
82.859512 92.0
82.874008 76.0
82.892128 84.0
82.910248 152.0
82.92765 160.0
82.955528 208.0
82.989326 200.0
83.003212 200.0
83.019028 80.0
83.10247 216.0
83.144211 100.0
83.264038 316.0
83.278572 172.0
83.362144 240.0
83.604019 196.0
83.727821 60.0
83.758781 184.0
83.815155 136.0
83.844421 52.0
83.884521 180.0
83.917336 208.0
83.942863 180.0
83.984818 220.0
84.114372 152.0
84.147232 104.0
84.227592 212.0
84.267784 120.0
84.286278 264.0
84.31813 224.0
84.32402 124.0
84.328758 196.0
84.342712 156.0
84.412186 164.0
84.42675 228.0
84.445107 116.0
84.468819 220.0
84.507309 160.0
84.556717 60.0
84.62262 208.0
84.683052 188.0
84.697708 112.0
84.716026 140.0
84.76059 248.0
84.803986 104.0
84.865929 136.0
84.880981 108.0
84.910324 184.0
84.928665 100.0
85.047935 180.0
85.074898 244.0
85.104851 108.0
85.130562 172.0
85.16729 172.0
85.200363 184.0
85.292244 124.0
85.314308 176.0
85.327171 204.0
85.351616 136.0
85.378662 208.0
85.455925 84.0
85.546104 184.0
85.568497 220.0
85.621605 168.0
85.662125 136.0
85.682388 244.0
85.848022 112.0
85.898087 136.0
85.938675 140.0
85.97551 192.0
86.021729 212.0
86.054962 164.0
86.230461 208.0
86.269279 116.0
86.420937 256.0
86.469055 144.0
86.487564 76.0
86.622742 216.0
86.726509 124.0
86.779305 188.0
86.802696 220.0
86.816795 184.0
86.906403 180.0
87.015038 144.0
87.118179 192.0
87.147789 120.0
87.203537 176.0
87.324394 112.0
87.374626 112.0
87.466743 168.0
87.514214 208.0
87.61293 200.0
87.648331 108.0
87.719154 168.0
87.868355 204.0
87.900078 200.0
87.913139 124.0
87.926201 192.0
87.946991 172.0
88.053162 96.0
88.076866 232.0
88.171326 164.0
88.298004 160.0
88.402771 172.0
88.415871 120.0
88.55143 200.0
88.644348 156.0
88.670586 204.0
88.711823 156.0
88.760574 80.0
88.792458 164.0
88.848732 216.0
88.878754 324.0
88.908775 204.0
88.938805 52.0
88.967323 188.0
88.997009 148.0
89.036736 196.0
89.080696 204.0
89.113464 212.0
89.149452 208.0
89.184875 84.0
89.198036 160.0
89.224266 132.0
89.248795 172.0
89.294456 200.0
89.376709 60.0
89.431282 224.0
89.448227 172.0
89.519699 104.0
89.578163 180.0
89.606422 188.0
89.645996 88.0
89.674263 204.0
89.793045 116.0
89.855301 180.0
89.874168 188.0
89.921349 144.0
89.942108 140.0
90.019249 140.0
90.04451 264.0
90.081848 112.0
90.238716 256.0
90.509293 168.0
90.532021 240.0
90.547173 228.0
90.588028 228.0
90.637405 152.0
90.746147 60.0
90.776337 204.0
90.783791 188.0
90.791313 176.0
90.812523 184.0
90.842873 236.0
90.895088 168.0
90.916878 148.0
90.943443 188.0
91.011795 140.0
91.030777 208.0
91.059189 184.0
91.09346 112.0
91.186569 172.0
91.220787 176.0
91.237892 60.0
91.260712 132.0
91.313957 176.0
91.332977 144.0
91.350098 48.0
91.388153 236.0
91.513771 184.0
91.544243 196.0
91.643295 48.0
91.71637 152.0
91.767189 112.0
91.782448 72.0
91.81868 240.0
91.866364 264.0
91.940781 168.0
91.963684 152.0
91.978958 188.0
92.041962 204.0
92.087799 184.0
92.160393 152.0
92.21199 128.0
92.273163 128.0
92.416405 148.0
92.420265 132.0
92.439575 172.0
92.489342 180.0
92.516136 96.0
92.564011 244.0
92.57933 64.0
92.600395 144.0
92.649345 152.0
92.665527 68.0
92.67894 176.0
92.69619 160.0
92.719444 204.0
92.770935 128.0
92.820793 188.0
93.001129 148.0
93.030655 248.0
93.066406 104.0
93.083687 88.0
93.127251 164.0
93.160515 72.0
93.191261 184.0
93.345039 200.0
93.453636 124.0
93.481621 160.0
93.553078 160.0
93.578102 132.0
93.6549 144.0
93.724258 152.0
93.863045 184.0
93.876549 168.0
93.93248 148.0
93.955627 208.0
94.02317 152.0
94.054047 160.0
94.092659 140.0
94.106178 88.0
94.155701 180.0
94.18631 136.0
94.204674 144.0
94.252975 200.0
94.283897 136.0
94.316757 168.0
94.417297 96.0
94.455322 232.0
94.498543 144.0
94.535309 104.0
94.687691 96.0
94.765747 196.0
94.78125 180.0
94.821945 100.0
94.878159 192.0
94.906693 168.0
94.923347 184.0
94.947716 156.0
95.011978 108.0
95.07019 160.0
95.235016 184.0
95.277962 72.0
95.316826 144.0
95.390678 96.0
95.407425 156.0
95.435394 204.0
95.449005 136.0
95.495682 220.0
95.522919 72.0
95.596855 132.0
95.678604 120.0
95.715599 268.0
95.785713 316.0
95.818832 92.0
95.859756 128.0
95.974762 136.0
95.994263 152.0
96.022781 368.0
96.158142 72.0
96.197182 160.0
96.259666 212.0
96.294815 376.0
96.310448 36.0
96.359283 172.0
96.386642 236.0
96.410088 140.0
96.468727 92.0
96.490952 164.0
96.602318 64.0
96.667213 148.0
96.754936 108.0
96.80706 236.0
96.877739 232.0
96.963959 156.0
97.030609 132.0
97.056099 188.0
97.126701 120.0
97.156647 196.0
97.203224 172.0
97.232658 144.0
97.260139 136.0
97.332779 136.0
97.530602 464.0
97.564629 160.0
97.621651 148.0
97.649185 204.0
97.672211 136.0
97.677299 192.0
97.698364 192.0
97.739685 92.0
97.753456 148.0
97.881416 160.0
97.925201 136.0
97.979897 180.0
98.133629 156.0
98.165184 188.0
98.208572 152.0
98.23027 196.0
98.287178 204.0
98.304741 172.0
98.356567 208.0
98.488861 268.0
98.510597 228.0
98.542206 160.0
98.591606 248.0
98.619385 148.0
98.635094 156.0
98.716393 164.0
98.756187 400.0
98.817039 196.0
98.845642 368.0
98.880363 176.0
98.943703 64.0
99.036781 52.0
99.135841 132.0
99.171516 192.0
99.236938 172.0
99.280563 288.0
99.302383 164.0
99.32222 140.0
99.451195 212.0
99.502602 188.0
99.520683 208.0
99.538551 172.0
99.564064 156.0
99.568886 132.0
99.626732 132.0
99.677605 80.0
99.832664 164.0
99.860512 92.0
99.904274 160.0
99.979187 104.0
100.0177 148.0
100.133186 168.0
100.198929 84.0
100.228813 148.0
100.260696 88.0
100.364365 212.0
100.402252 136.0
100.509979 128.0
100.541908 148.0
100.555878 180.0
100.637726 72.0
100.675407 248.0
100.753571 172.0
100.783539 156.0
100.80352 104.0
100.817513 176.0
100.905418 168.0
100.96946 200.0
101.005463 180.0
101.051476 196.0
101.233627 180.0
101.266769 140.0
101.343803 132.0
101.359833 52.0
101.373863 200.0
101.43399 44.0
101.5541 196.0
101.624519 76.0
101.638565 48.0
101.68071 196.0
101.823257 216.0
101.843346 108.0
101.895576 108.0
101.913399 124.0
101.990028 200.0
102.026215 216.0
102.044983 348.0
102.060394 188.0
102.075348 156.0
102.096596 140.0
102.255531 136.0
102.283714 124.0
102.313911 188.0
102.366608 212.0
102.432732 304.0
102.493172 140.0
102.522621 320.0
102.58992 240.0
102.606049 112.0
102.648392 168.0
102.703491 188.0
102.755295 148.0
102.769417 132.0
102.930901 188.0
102.967255 100.0
102.981392 188.0
103.054665 7816.0
103.083084 144.0
103.088402 132.0
103.147087 100.0
103.182968 96.0
103.210663 188.0
103.256271 144.0
103.272453 208.0
103.327072 80.0
103.383736 56.0
103.466728 140.0
103.497093 160.0
103.618629 156.0
103.649017 160.0
103.675362 136.0
103.740227 72.0
103.837555 164.0
103.943054 172.0
104.057991 1212.0
104.115608 116.0
104.150139 84.0
104.278885 188.0
104.294411 264.0
104.312706 140.0
104.371666 140.0
104.408272 164.0
104.571037 144.0
104.605637 88.0
104.646355 176.0
104.675095 176.0
104.731361 244.0
104.79818 304.0
104.859062 164.0
104.961052 184.0
104.982582 192.0
105.03421 1652.0
105.058517 176.0
105.074379 132.0
105.123352 60.0
105.143761 136.0
105.183655 124.0
105.219284 56.0
105.339775 156.0
105.439903 188.0
105.476692 204.0
105.512169 204.0
105.597336 212.0
105.615738 132.0
105.670975 116.0
105.701668 148.0
105.763069 188.0
105.83268 112.0
105.855865 152.0
105.912552 120.0
105.947372 28.0
105.961716 148.0
106.040848 172.0
106.113388 76.0
106.150291 108.0
106.185158 164.0
106.250801 88.0
106.410889 212.0
106.456062 56.0
106.478828 144.0
106.601288 124.0
106.623878 264.0
106.73143 148.0
106.776672 164.0
106.941277 176.0
106.977966 204.0
107.000664 80.0
107.023155 124.0
107.081284 192.0
107.258492 28.0
107.297661 64.0
107.312088 148.0
107.369453 152.0
107.421394 168.0
107.449272 212.0
107.510124 100.0
107.613335 168.0
107.677353 168.0
107.775978 240.0
107.842468 208.0
107.910866 132.0
107.938637 232.0
107.981178 60.0
108.021606 140.0
108.159126 224.0
108.196388 156.0
108.210876 260.0
108.270935 164.0
108.287498 192.0
108.302002 164.0
108.341362 248.0
108.364151 160.0
108.393158 168.0
108.410217 208.0
108.436684 152.0
108.486427 56.0
108.505089 192.0
108.541794 256.0
108.590111 152.0
108.735344 160.0
108.762329 76.0
108.793472 180.0
108.851608 196.0
108.874451 64.0
108.915993 152.0
108.945076 176.0
108.976234 120.0
109.008011 220.0
109.027336 552.0
109.061447 228.0
109.135925 220.0
109.190285 232.0
109.244438 116.0
109.455757 136.0
109.527008 200.0
109.583801 204.0
109.62809 172.0
109.656738 220.0
109.673409 144.0
109.729698 64.0
109.838142 76.0
109.852745 120.0
109.867348 76.0
109.939255 140.0
110.031143 208.0
110.04734 168.0
110.086517 156.0
110.122025 168.0
110.174248 200.0
110.230721 136.0
110.305901 168.0
110.408356 184.0
110.435547 196.0
110.455132 192.0
110.487846 168.0
110.531784 160.0
110.580391 248.0
110.686691 156.0
110.741142 64.0
110.759216 108.0
110.835419 216.0
111.041733 204.0
111.185631 172.0
111.263298 124.0
111.334694 72.0
111.389305 220.0
111.439613 148.0
111.494362 148.0
111.609985 172.0
111.704628 32.0
112.035149 176.0
112.054108 88.0
112.077286 84.0
112.108894 204.0
112.186882 228.0
112.486443 56.0
112.522339 172.0
112.617363 148.0
112.653275 52.0
112.693832 164.0
112.777954 76.0
112.809662 108.0
112.826576 60.0
112.870972 64.0
112.940765 180.0
113.065605 64.0
113.137573 156.0
113.20533 144.0
113.275223 116.0
113.30912 172.0
113.353615 100.0
113.398125 356.0
113.419319 96.0
113.503311 136.0
113.565628 124.0
113.654732 96.0
113.731133 200.0
113.789513 136.0
113.884018 156.0
113.90522 208.0
113.962624 156.0
114.007248 204.0
114.054008 80.0
114.07177 56.0
114.089905 176.0
114.124161 140.0
114.213486 164.0
114.245392 100.0
114.268799 144.0
114.287949 136.0
114.32412 164.0
114.373077 64.0
114.407135 200.0
114.475273 196.0
114.522125 168.0
114.571121 196.0
114.590302 200.0
114.626518 100.0
114.649963 56.0
114.685196 196.0
114.745888 156.0
114.84185 224.0
114.961327 96.0
114.989075 112.0
115.029633 104.0
115.05381 5764.0
115.125717 216.0
115.321495 88.0
115.422752 112.0
115.508308 204.0
115.54895 184.0
115.599831 152.0
115.793861 196.0
115.915108 136.0
115.979401 120.0
116.026566 152.0
116.062759 68.0
116.084457 112.0
116.148804 148.0
116.18956 64.0
116.208107 192.0
116.224411 164.0
116.274323 128.0
116.297577 192.0
116.314034 184.0
116.351723 172.0
116.378441 132.0
116.414352 188.0
116.442863 184.0
116.472931 204.0
116.505157 92.0
116.548126 280.0
116.84211 176.0
116.868721 168.0
116.902405 192.0
116.945992 108.0
116.96106 148.0
117.012726 144.0
117.036407 168.0
117.064125 220.0
117.083786 208.0
117.098862 164.0
117.116096 172.0
117.187187 188.0
117.221664 100.0
117.271233 152.0
117.530029 40.0
117.608505 220.0
117.63578 228.0
117.737267 148.0
117.758865 88.0
117.791267 156.0
117.860397 160.0
117.946854 60.0
117.985764 148.0
118.040581 1760.0
118.076584 176.0
118.139313 176.0
118.189392 192.0
118.271317 144.0
118.323273 148.0
118.347092 108.0
118.375237 60.0
118.509544 204.0
118.693787 52.0
118.800064 184.0
118.852615 164.0
118.905235 200.0
118.982368 148.0
119.048035 520.0
119.079674 84.0
119.121902 176.0
119.160187 156.0
119.219582 156.0
119.260429 84.0
119.373489 108.0
119.464836 192.0
119.654182 108.0
119.691193 168.0
119.858971 212.0
120.0784 184.0
120.138008 128.0
120.153282 180.0
120.186012 180.0
120.26239 100.0
120.33007 144.0
120.375923 204.0
120.439262 184.0
120.565987 184.0
120.640305 84.0
120.659981 116.0
120.747177 160.0
120.764946 52.0
120.802132 140.0
120.856834 164.0
120.891846 164.0
120.968452 56.0
121.028809 404.0
121.053841 228.0
121.072792 220.0
121.148026 164.0
121.327736 260.0
121.382553 108.0
121.422028 184.0
121.46151 116.0
121.545853 208.0
121.632668 132.0
121.654617 96.0
121.707314 196.0
121.777588 192.0
121.966743 144.0
122.019318 216.0
122.127075 228.0
122.248085 112.0
122.270088 144.0
122.31411 196.0
122.347137 156.0
122.439499 148.0
122.470451 168.0
122.494514 204.0
122.521118 200.0
122.54702 164.0
122.609444 144.0
122.637062 228.0
122.651886 212.0
122.716179 140.0
122.757668 176.0
122.849609 180.0
122.964348 148.0
123.017326 72.0
123.05265 208.0
123.103439 164.0
123.198418 84.0
123.258072 160.0
123.376305 244.0
123.445976 152.0
123.481361 180.0
123.499054 140.0
123.536659 144.0
123.569847 104.0
123.725624 156.0
123.782341 244.0
123.808914 80.0
123.83992 36.0
123.936722 144.0
124.030487 188.0
124.083687 104.0
124.105865 144.0
124.172394 164.0
124.192352 152.0
124.298843 92.0
124.336571 128.0
124.364296 120.0
124.383186 128.0
124.432022 188.0
124.454231 152.0
124.55304 208.0
124.583046 224.0
124.696373 132.0
124.720825 164.0
124.949883 156.0
124.983253 112.0
125.034439 176.0
125.070053 116.0
125.092316 144.0
125.143517 88.0
125.199188 100.0
125.244057 120.0
125.294975 176.0
125.326164 48.0
125.438683 196.0
125.511177 188.0
125.555779 152.0
125.589233 120.0
125.624924 120.0
125.787834 148.0
125.805504 188.0
125.984352 156.0
126.100052 180.0
126.12825 204.0
126.158669 132.0
126.315208 188.0
126.371506 220.0
126.391281 152.0
126.522377 224.0
126.637543 164.0
126.659943 140.0
126.711464 240.0
126.737152 224.0
126.893013 192.0
126.928886 184.0
126.964767 168.0
127.052452 280.0
127.08815 96.0
127.139763 172.0
127.2071 60.0
127.319366 132.0
127.346321 56.0
127.364288 180.0
127.406975 104.0
127.451912 164.0
127.47438 220.0
127.510338 160.0
127.532242 176.0
127.593513 188.0
127.638481 124.0
127.669968 204.0
127.732941 148.0
127.767982 132.0
127.793686 188.0
127.820686 196.0
127.912964 160.0
127.956268 68.0
127.989517 152.0
128.02713 188.0
128.061935 1836.0
128.106628 124.0
128.217041 160.0
128.232819 104.0
128.248596 92.0
128.295944 128.0
128.379364 164.0
128.411179 192.0
128.483124 144.0
128.537277 68.0
128.595963 28.0
128.720123 164.0
128.771057 152.0
128.811493 164.0
128.89859 92.0
128.958633 160.0
129.034882 184.0
129.069138 3488.0
129.142761 120.0
129.181213 132.0
129.240036 40.0
129.337357 108.0
129.355453 192.0
129.3871 152.0
129.482254 208.0
129.519791 208.0
129.624176 72.0
129.647644 168.0
129.731522 180.0
129.760986 216.0
129.801804 64.0
129.869843 192.0
129.978745 188.0
130.076828 548.0
130.114929 80.0
130.146713 160.0
130.195282 144.0
130.22847 160.0
130.25119 36.0
130.280716 188.0
130.310257 132.0
130.330704 164.0
130.401154 112.0
130.421616 64.0
130.626205 152.0
130.674042 76.0
130.826523 36.0
130.876617 108.0
130.922806 128.0
131.049088 176.0
131.076187 200.0
131.115814 180.0
131.145447 300.0
131.19104 56.0
131.218399 176.0
131.239319 156.0
131.263992 156.0
131.325577 148.0
131.368912 184.0
131.423676 140.0
131.450043 244.0
131.47348 184.0
131.520065 188.0
131.615417 100.0
131.693054 160.0
131.743317 56.0
131.761597 48.0
131.79129 188.0
131.898712 144.0
132.266998 88.0
132.292175 80.0
132.3311 84.0
132.36087 156.0
132.445602 168.0
132.516617 152.0
132.561081 168.0
132.599121 40.0
132.628723 136.0
132.65184 144.0
132.682556 240.0
132.713745 120.0
132.761902 204.0
132.782547 56.0
132.812363 172.0
132.853653 176.0
132.897247 280.0
132.955643 124.0
133.028748 2252.0
133.057907 260.0
133.090958 188.0
133.150284 88.0
133.197998 208.0
133.225571 92.0
133.34166 176.0
133.391022 200.0
133.40712 132.0
133.427811 200.0
133.574692 60.0
133.600296 188.0
133.641708 156.0
133.770599 224.0
133.936401 124.0
133.959427 152.0
133.975555 80.0
134.028473 392.0
134.056198 168.0
134.086166 148.0
134.102295 72.0
134.162231 124.0
134.199127 164.0
134.236008 196.0
134.272919 168.0
134.289062 48.0
134.452866 156.0
134.528824 168.0
134.551147 156.0
134.614471 48.0
134.662979 168.0
134.690689 136.0
134.803909 92.0
134.91716 160.0
134.958786 132.0
135.038803 168.0
135.140717 232.0
135.191666 172.0
135.227142 180.0
135.28363 228.0
135.324371 188.0
135.3591 188.0
135.412369 168.0
135.442474 136.0
135.458694 164.0
135.500732 188.0
135.522278 144.0
135.556 60.0
135.595398 152.0
135.644073 108.0
135.718002 180.0
135.776154 228.0
135.836548 64.0
135.989136 184.0
136.01442 148.0
136.089523 52.0
136.122025 176.0
136.173126 48.0
136.194031 396.0
136.238159 136.0
136.277664 132.0
136.361328 156.0
136.384567 168.0
136.503708 196.0
136.546158 152.0
136.60527 204.0
136.642166 172.0
136.648056 132.0
136.657532 212.0
136.726471 144.0
136.749741 76.0
136.779999 172.0
136.806641 168.0
136.828888 216.0
136.859161 160.0
136.887436 424.0
136.924362 112.0
136.944046 160.0
136.960403 188.0
136.982605 108.0
137.023621 23520.0
137.068771 236.0
137.17131 176.0
137.245956 116.0
137.27861 200.0
137.338303 88.0
137.369568 196.0
137.404572 44.0
137.437241 184.0
137.455902 32.0
137.472244 148.0
137.537582 72.0
137.571442 176.0
137.602951 52.0
137.626984 188.0
137.649658 72.0
137.675339 88.0
137.712708 116.0
137.7314 172.0
137.75943 60.0
137.810837 104.0
137.834198 244.0
138.027252 1496.0
138.109329 152.0
138.130112 196.0
138.163879 212.0
138.287201 172.0
138.493958 112.0
138.51503 220.0
138.5401 160.0
138.592346 180.0
138.636871 140.0
138.658447 156.0
138.683502 116.0
138.707184 140.0
138.811691 188.0
138.906509 160.0
138.930252 136.0
138.954437 64.0
139.03125 436.0
139.054581 700.0
139.079422 212.0
139.159286 136.0
139.225723 48.0
139.256256 128.0
139.272705 188.0
139.300888 236.0
139.336136 72.0
139.42543 272.0
139.580582 124.0
139.627609 256.0
139.681717 244.0
139.712128 208.0
139.742889 192.0
139.782883 176.0
139.884094 132.0
139.902924 68.0
139.951019 264.0
139.976517 236.0
140.027725 136.0
140.057724 396.0
140.093689 80.0
140.197357 160.0
140.218567 216.0
140.325912 156.0
140.466156 176.0
140.686066 168.0
140.78479 152.0
140.822586 156.0
140.839111 132.0
140.869827 208.0
140.938339 40.0
141.032867 124.0
141.070297 6988.0
141.120041 152.0
141.143997 64.0
141.181824 260.0
141.21257 196.0
141.285904 180.0
141.311935 52.0
141.411316 244.0
141.432617 192.0
141.648117 72.0
141.674164 160.0
141.700226 96.0
141.723923 112.0
141.821091 124.0
141.856598 176.0
141.921951 48.0
142.039246 96.0
142.071014 1124.0
142.120605 96.0
142.152908 172.0
142.193466 84.0
142.22908 148.0
142.31929 160.0
142.365997 228.0
142.423782 164.0
142.521194 300.0
142.635391 152.0
142.662567 116.0
142.725616 44.0
142.861191 252.0
142.92305 172.0
142.95784 200.0
142.987305 160.0
143.006348 96.0
143.055069 144.0
143.084335 316.0
143.165863 76.0
143.192062 204.0
143.208725 212.0
143.246841 204.0
143.399338 224.0
143.427948 132.0
143.541519 196.0
143.561462 348.0
143.742767 84.0
143.825607 204.0
143.878815 216.0
143.909866 116.0
143.986282 116.0
144.055206 248.0
144.080231 72.0
144.087723 136.0
144.120651 80.0
144.151123 140.0
144.2276 88.0
144.256287 80.0
144.341599 176.0
144.380615 192.0
144.402145 192.0
144.44281 196.0
144.461945 112.0
144.493057 128.0
144.524765 140.0
144.568634 116.0
144.713242 172.0
144.773117 176.0
144.798737 328.0
144.842575 172.0
144.952789 180.0
145.033203 144.0
145.037521 192.0
145.067871 376.0
145.10379 236.0
145.214096 124.0
145.281265 52.0
145.305252 68.0
145.353241 148.0
145.403641 176.0
145.478058 152.0
145.533279 100.0
145.554886 88.0
145.573593 208.0
145.638947 136.0
145.71582 68.0
145.768677 216.0
145.836838 156.0
145.910492 160.0
145.933899 208.0
145.953781 216.0
146.004349 136.0
146.110123 156.0
146.141403 96.0
146.247284 44.0
146.268951 196.0
146.454727 132.0
146.519684 172.0
146.613388 220.0
146.645294 176.0
146.676056 220.0
146.70015 204.0
146.735245 212.0
146.823135 48.0
147.035446 180.0
147.07164 224.0
147.378357 200.0
147.499191 120.0
147.58139 192.0
147.639435 156.0
147.690231 132.0
147.738602 68.0
147.796677 116.0
147.886215 152.0
147.956421 144.0
148.004837 204.0
148.027786 144.0
148.0896 120.0
148.138046 228.0
148.184082 172.0
148.385254 80.0
148.435043 156.0
148.477402 152.0
148.588989 188.0
148.659348 136.0
148.72731 204.0
148.749161 112.0
148.783142 172.0
148.809296 192.0
148.905884 192.0
148.970139 84.0
149.006638 444.0
149.045456 180.0
149.076172 228.0
149.176712 112.0
149.247223 188.0
149.327469 164.0
149.407745 68.0
149.439377 180.0
149.495346 132.0
149.624344 96.0
149.72905 284.0
149.799698 204.0
149.84111 208.0
149.929855 172.0
149.984894 96.0
150.029343 104.0
150.084854 116.0
150.11412 152.0
150.177521 124.0
150.255585 164.0
150.304382 180.0
150.326355 152.0
150.384918 132.0
150.602234 204.0
150.619095 188.0
150.664719 236.0
150.736603 140.0
150.812378 128.0
151.029999 260.0
151.054092 364.0
151.113174 168.0
151.193817 164.0
151.233078 124.0
151.542435 200.0
151.663406 164.0
151.710754 240.0
151.794128 156.0
151.818649 80.0
151.835815 180.0
151.8806 292.0
151.958466 156.0
152.025085 268.0
152.062363 1496.0
152.132721 144.0
152.254974 152.0
152.30748 200.0
152.324265 152.0
152.366028 56.0
152.41272 196.0
152.430267 140.0
152.621658 212.0
152.653625 160.0
152.686478 144.0
152.727402 240.0
152.759384 144.0
152.796295 160.0
152.818436 44.0
152.875031 276.0
152.895477 208.0
152.953796 160.0
152.985794 160.0
153.019821 204.0
153.025833 168.0
153.03447 248.0
153.041367 112.0
153.070312 18944.0
153.148315 220.0
153.232071 144.0
153.308914 216.0
153.377472 64.0
153.39473 48.0
153.411987 140.0
153.444031 52.0
153.464127 160.0
153.542679 52.0
153.574738 132.0
153.599411 40.0
153.70549 188.0
153.737579 144.0
153.842834 68.0
153.960358 176.0
154.076553 6088.0
154.142578 68.0
154.170227 84.0
154.206329 156.0
154.325485 140.0
154.363663 164.0
154.392731 256.0
154.454102 52.0
154.481308 140.0
154.54068 140.0
154.686707 64.0
154.728226 140.0
154.755066 176.0
154.783264 112.0
154.817688 160.0
154.82515 144.0
154.867035 264.0
154.917221 192.0
154.941788 156.0
154.964081 28.0
155.057648 1168.0
155.086014 21208.0
155.191559 120.0
155.234268 124.0
155.25087 220.0
155.293991 252.0
155.374786 148.0
155.410385 76.0
155.445038 248.0
155.461578 96.0
155.509659 76.0
155.534485 196.0
155.565842 164.0
155.668549 108.0
155.695862 28.0
155.725677 188.0
155.800201 188.0
155.832489 68.0
155.866119 68.0
155.934387 168.0
155.999008 52.0
156.036453 188.0
156.087997 3432.0
156.153183 52.0
156.190018 232.0
156.240829 152.0
156.272583 40.0
156.377106 160.0
156.431717 128.0
156.504303 172.0
156.551376 48.0
156.576294 84.0
156.623611 128.0
156.648529 196.0
156.678421 196.0
156.71994 156.0
156.858658 100.0
156.885269 156.0
157.012436 44.0
157.060974 280.0
157.089142 308.0
157.141571 152.0
157.227966 144.0
157.269424 180.0
157.286911 156.0
157.356812 132.0
157.466461 132.0
157.494156 196.0
157.671555 72.0
157.73497 140.0
157.799042 220.0
157.881042 172.0
157.939087 180.0
157.987442 196.0
158.016647 188.0
158.06778 156.0
158.119247 56.0
158.23587 128.0
158.261932 140.0
158.28447 160.0
158.334549 72.0
158.504913 152.0
158.539993 116.0
158.620193 116.0
158.641602 104.0
158.660309 144.0
159.009918 104.0
159.044128 148.0
159.074249 128.0
159.287704 52.0
159.368088 212.0
159.403152 256.0
159.539001 128.0
159.616943 144.0
159.652145 152.0
159.750244 148.0
159.813141 136.0
159.97171 160.0
160.090042 132.0
160.130341 72.0
160.228592 160.0
160.357101 92.0
160.402481 80.0
160.539398 196.0
160.679886 192.0
160.790909 152.0
160.836349 168.0
160.901978 88.0
160.919662 124.0
160.9496 124.0
161.071182 144.0
161.19751 184.0
161.414917 152.0
161.766602 160.0
161.78685 204.0
161.976776 148.0
162.047714 84.0
162.113602 120.0
162.265686 144.0
162.39502 148.0
162.526947 48.0
162.585312 44.0
162.630997 132.0
162.653839 112.0
162.722382 208.0
162.763016 196.0
162.826508 168.0
162.956055 176.0
163.03952 272.0
163.048172 160.0
163.056503 76.0
163.098373 132.0
163.161926 124.0
163.228027 56.0
163.245834 40.0
163.334854 144.0
163.655518 208.0
163.714096 108.0
163.861832 144.0
164.035141 176.0
164.062164 1064.0
164.098877 132.0
164.162613 152.0
164.228394 96.0
164.312424 208.0
164.456024 180.0
164.545364 144.0
164.562637 332.0
164.59848 120.0
164.65007 348.0
164.723404 140.0
164.747131 40.0
164.767563 172.0
164.869781 96.0
164.941345 36.0
164.960968 212.0
164.980179 404.0
165.021332 184.0
165.070862 67392.0
165.120331 104.0
165.171494 208.0
165.210999 72.0
165.24556 260.0
165.288773 128.0
165.327026 284.0
165.416809 60.0
165.424225 84.0
165.441635 176.0
165.466843 68.0
165.490967 448.0
165.5298 44.0
165.584442 88.0
165.610672 152.0
165.665558 100.0
165.68605 60.0
165.773163 92.0
165.819443 72.0
165.897171 116.0
165.952606 60.0
166.000183 148.0
166.074768 10752.0
166.171524 204.0
166.237335 76.0
166.323639 204.0
166.37645 220.0
166.42215 32.0
166.442703 52.0
166.507599 112.0
166.545425 108.0
166.565979 72.0
166.607071 124.0
166.70665 112.0
166.771545 60.0
166.794678 180.0
166.853806 44.0
166.931854 236.0
166.987518 64.0
167.051651 268.0
167.076584 1668.0
167.167801 164.0
167.198502 124.0
167.247284 132.0
167.277512 92.0
167.35553 164.0
167.393997 140.0
167.494598 108.0
167.517776 48.0
167.595673 52.0
167.66037 204.0
167.687851 168.0
167.732269 104.0
167.853989 136.0
167.873474 108.0
167.904419 252.0
167.934387 156.0
167.963745 132.0
167.984375 144.0
168.057022 7336.0
168.091614 212.0
168.129364 220.0
168.151306 104.0
168.180496 116.0
168.211472 80.0
168.239868 196.0
168.265686 152.0
168.327652 48.0
168.419525 172.0
168.476227 108.0
168.494049 200.0
168.529144 76.0
168.57048 60.0
168.629929 120.0
168.676453 180.0
168.697128 136.0
168.73671 104.0
168.82901 144.0
168.867798 52.0
168.917801 92.0
168.953156 172.0
169.010086 220.0
169.063385 2568.0
169.098068 300.0
169.188675 184.0
169.224915 36.0
169.253403 100.0
169.305191 68.0
169.517624 36.0
169.56427 180.0
169.605743 140.0
169.693893 108.0
169.74057 32.0
169.764618 188.0
169.802811 36.0
169.835251 212.0
169.896194 268.0
169.971436 332.0
170.019501 176.0
170.068878 336.0
170.324524 128.0
170.360886 124.0
170.418045 132.0
170.464828 168.0
170.519394 148.0
170.537598 52.0
170.633774 100.0
170.654099 196.0
170.661011 160.0
170.97612 212.0
171.047424 252.0
171.078949 412.0
171.211456 48.0
171.245316 68.0
171.396423 92.0
171.43811 152.0
171.60495 180.0
171.707748 220.0
171.737946 124.0
171.784897 136.0
171.80838 228.0
171.8423 96.0
171.985825 116.0
172.048477 176.0
172.105927 180.0
172.126816 168.0
172.207764 48.0
172.270462 36.0
172.351456 152.0
172.424896 120.0
172.518372 148.0
172.527145 128.0
172.538696 176.0
172.7724 180.0
173.021042 152.0
173.044601 76.0
173.065552 32.0
173.171036 128.0
173.201736 140.0
173.222687 172.0
173.311768 44.0
173.505722 112.0
173.575409 180.0
173.943832 76.0
174.206436 108.0
174.282944 132.0
174.477127 156.0
174.506042 136.0
174.58493 80.0
174.629639 156.0
174.65332 136.0
174.687515 236.0
174.726974 124.0
174.987534 104.0
175.052231 120.0
175.074432 128.0
175.13501 80.0
175.242752 192.0
175.274643 328.0
175.625015 152.0
175.672775 124.0
175.828445 204.0
176.058456 232.0
176.298553 128.0
176.43071 144.0
176.451859 164.0
176.51796 144.0
176.599945 148.0
176.618469 212.0
176.692535 196.0
176.716354 116.0
176.750748 180.0
176.793091 208.0
176.869843 64.0
177.012817 84.0
177.069138 168.0
177.147888 160.0
177.261826 188.0
177.31218 176.0
177.434891 152.0
177.489792 144.0
177.508362 112.0
177.585602 196.0
177.646286 160.0
177.824066 140.0
177.924942 144.0
178.017868 248.0
178.077713 168.0
178.113495 136.0
178.13208 136.0
178.233047 172.0
178.318085 224.0
178.360611 272.0
178.407394 240.0
178.773361 236.0
178.846405 140.0
178.903488 172.0
179.032654 296.0
179.105682 204.0
179.132324 212.0
179.213776 188.0
179.286865 104.0
179.342834 148.0
179.438797 120.0
179.460434 180.0
179.612152 168.0
179.630814 136.0
179.694839 136.0
179.736298 112.0
179.814926 300.0
179.876328 168.0
179.935059 180.0
179.977783 272.0
180.001816 120.0
180.055908 344.0
180.108643 116.0
180.373184 128.0
180.560349 124.0
180.632568 80.0
180.664673 140.0
180.71283 64.0
180.85466 104.0
180.940735 132.0
181.001923 156.0
181.021835 220.0
181.064819 12896.0
181.138504 120.0
181.17334 64.0
181.233704 68.0
181.374313 96.0
181.395767 48.0
181.457428 196.0
181.474854 128.0
181.564682 132.0
181.626373 48.0
181.664413 176.0
181.711746 212.0
181.757843 100.0
181.87056 56.0
181.980621 200.0
182.033157 92.0
182.072037 8440.0
182.131012 44.0
182.277435 88.0
182.332535 48.0
182.372162 252.0
182.391663 208.0
182.417191 176.0
182.437363 316.0
182.461563 108.0
182.485764 196.0
182.520721 68.0
182.542221 132.0
182.623444 184.0
182.660568 160.0
182.746658 340.0
182.786865 132.0
182.846222 100.0
182.865067 72.0
182.905365 140.0
182.934891 144.0
182.955933 308.0
182.991592 124.0
183.014236 88.0
183.04509 172.0
183.081345 61372.0
183.144379 60.0
183.219177 24.0
183.269653 136.0
183.29248 356.0
183.312134 168.0
183.344864 56.0
183.366623 204.0
183.395691 220.0
183.419052 144.0
183.446899 40.0
183.483917 44.0
183.523972 152.0
183.571548 104.0
183.591995 120.0
183.614517 108.0
183.665771 72.0
183.725922 224.0
183.822037 48.0
183.854202 56.0
183.875793 56.0
183.911148 196.0
183.935165 72.0
183.977936 76.0
184.003967 116.0
184.045593 120.0
184.083252 7820.0
184.186295 72.0
184.272034 76.0
184.324081 108.0
184.372726 56.0
184.391647 48.0
184.428207 152.0
184.498016 148.0
184.548447 72.0
184.577545 188.0
184.610641 44.0
184.629562 100.0
184.667435 156.0
184.721527 48.0
184.783752 44.0
184.806305 60.0
184.848694 48.0
184.914169 84.0
184.956619 224.0
184.988617 132.0
185.056198 132.0
185.088943 280.0
185.176285 128.0
185.223419 248.0
185.300888 124.0
185.322571 76.0
185.345963 112.0
185.363205 240.0
185.382187 64.0
185.411987 76.0
185.453369 120.0
185.482468 64.0
185.557327 84.0
185.588196 116.0
185.612595 100.0
185.631577 160.0
185.704803 128.0
186.0793 176.0
186.168915 32.0
186.258545 80.0
186.331894 188.0
186.391663 84.0
186.497269 164.0
186.539078 84.0
186.665039 156.0
186.698853 128.0
186.75325 140.0
186.813095 56.0
186.935532 48.0
186.968201 132.0
187.098846 136.0
187.262238 76.0
187.327606 148.0
187.368469 120.0
187.611038 204.0
187.794449 216.0
187.837372 196.0
188.145752 116.0
188.216751 136.0
188.282288 220.0
188.309601 72.0
188.539093 224.0
188.724991 124.0
189.10524 168.0
189.23938 108.0
189.373581 88.0
189.49411 212.0
189.529724 188.0
189.705139 228.0
189.735291 216.0
190.073166 152.0
190.223877 212.0
190.55867 184.0
190.621872 128.0
190.773041 212.0
191.348038 44.0
191.419632 216.0
191.474716 120.0
191.518784 132.0
191.543579 112.0
191.562851 144.0
191.604187 184.0
192.152832 192.0
192.177673 160.0
192.203308 304.0
192.254929 132.0
192.343262 228.0
192.384674 144.0
192.420563 104.0
192.459213 96.0
192.511673 36.0
192.586258 36.0
192.635971 124.0
192.655304 132.0
192.732666 132.0
192.823868 48.0
192.892044 96.0
192.915085 136.0
193.022919 160.0
193.075363 7128.0
193.110352 124.0
193.160782 52.0
193.194397 144.0
193.230362 44.0
193.269104 60.0
193.337006 216.0
193.385345 100.0
193.432388 132.0
193.507767 72.0
193.792435 44.0
193.831223 76.0
194.005844 132.0
194.075607 1508.0
194.113968 136.0
194.136154 244.0
194.211044 88.0
194.335876 80.0
194.480194 76.0
194.969025 116.0
195.044067 156.0
195.069901 464.0
195.113571 152.0
195.155273 172.0
195.280411 252.0
195.355515 128.0
195.486298 28.0
195.541946 268.0
195.58371 128.0
195.67836 60.0
195.700638 108.0
195.814804 68.0
195.92836 220.0
196.049942 424.0
196.090103 168.0
196.151962 172.0
196.338776 180.0
196.391769 136.0
196.411301 100.0
196.439194 188.0
196.603821 44.0
196.670792 180.0
196.798096 192.0
196.989136 108.0
197.058441 1032.0
197.096603 156.0
197.145096 176.0
197.237839 104.0
197.307724 28.0
197.355255 192.0
197.413986 108.0
197.514664 52.0
197.623779 172.0
197.825287 176.0
197.965286 240.0
198.068909 240.0
198.200592 216.0
198.318298 172.0
198.393982 148.0
198.601501 192.0
198.741776 112.0
198.814728 128.0
198.848404 84.0
198.92981 224.0
198.983154 228.0
199.014038 72.0
199.05336 68.0
199.125122 180.0
199.410141 200.0
199.457932 140.0
199.491669 108.0
199.511337 128.0
199.725067 32.0
199.840408 140.0
199.874176 124.0
200.045212 176.0
200.065567 168.0
200.096542 176.0
200.138763 136.0
200.265503 116.0
200.581085 104.0
200.679764 168.0
200.730515 156.0
200.882828 180.0
200.981583 228.0
201.03801 168.0
201.23999 80.0
201.724365 196.0
201.813599 128.0
202.046768 152.0
202.168442 168.0
202.290146 164.0
202.570511 104.0
202.788696 204.0
202.919098 128.0
203.225418 132.0
203.429764 92.0
203.577408 152.0
203.750671 88.0
203.784775 144.0
203.909805 108.0
203.969498 136.0
204.063324 84.0
204.088913 108.0
204.239639 156.0
204.409348 160.0
204.546951 160.0
204.601044 156.0
204.746277 108.0
204.95137 136.0
205.022614 180.0
205.187943 32.0
205.555908 52.0
205.981308 132.0
206.154114 184.0
206.215622 264.0
206.279266 60.0
206.50441 120.0
206.635986 80.0
206.656021 180.0
206.985199 168.0
207.159912 84.0
207.263062 140.0
207.40062 176.0
207.496567 172.0
207.590286 184.0
208.356232 56.0
208.407959 200.0
208.482666 164.0
208.540146 40.0
208.560272 196.0
209.066467 268.0
209.343201 140.0
209.377396 48.0
209.411957 192.0
209.763504 128.0
210.069366 1104.0
210.123993 196.0
210.253845 136.0
210.37796 196.0
210.424164 152.0
210.455917 56.0
210.649429 80.0
210.692764 76.0
210.796783 140.0
210.822784 120.0
210.937561 208.0
211.075348 4664.0
211.18129 104.0
211.247833 40.0
211.443314 116.0
211.617645 148.0
211.806519 180.0
211.971664 208.0
211.991943 124.0
212.079926 700.0
212.360153 172.0
212.409454 152.0
212.650299 220.0
213.053619 152.0
213.184692 104.0
213.440506 148.0
213.489456 48.0
213.623734 124.0
213.906921 192.0
214.248398 232.0
214.345795 52.0
214.380768 180.0
214.465286 144.0
214.488617 220.0
214.60231 148.0
214.751038 140.0
214.788956 64.0
214.975693 136.0
215.001953 96.0
215.115784 200.0
215.13623 104.0
215.296814 144.0
215.393204 68.0
215.454559 128.0
215.524673 140.0
215.600662 128.0
215.825745 96.0
216.048035 204.0
216.293854 212.0
216.355331 124.0
216.387527 124.0
216.563232 200.0
216.592529 76.0
217.151611 200.0
217.343063 160.0
217.539703 156.0
217.654221 108.0
217.745697 160.0
217.780502 172.0
217.862747 124.0
217.915634 180.0
218.215439 156.0
218.315414 44.0
218.471298 156.0
218.768539 56.0
219.157303 156.0
219.505142 132.0
219.676208 132.0
219.867996 256.0
220.260696 212.0
220.299103 156.0
220.739502 100.0
220.943588 96.0
221.060974 1176.0
221.101135 220.0
221.180328 124.0
221.434967 172.0
221.511993 144.0
221.793503 204.0
221.846863 136.0
221.867615 160.0
221.897263 56.0
221.980286 168.0
222.066483 632.0
222.095947 144.0
222.285828 260.0
222.345184 224.0
222.446106 304.0
222.511414 176.0
222.805435 104.0
222.992645 116.0
223.069214 228.0
223.168045 168.0
223.334579 192.0
223.356934 88.0
223.629166 172.0
223.65892 36.0
223.694641 68.0
224.046661 312.0
224.073303 192.0
224.353012 196.0
224.468796 188.0
224.579651 132.0
224.639313 132.0
224.703537 212.0
224.727844 184.0
224.794464 188.0
224.9646 132.0
225.01236 236.0
225.033264 108.0
225.337906 132.0
225.681641 180.0
226.215683 72.0
226.317581 240.0
226.441757 184.0
226.573563 124.0
226.699402 168.0
226.85228 184.0
226.897247 228.0
226.99173 164.0
227.017181 44.0
227.23616 64.0
227.35318 84.0
227.452225 176.0
227.740494 164.0
228.037949 152.0
228.197281 56.0
228.269455 48.0
228.610199 208.0
228.86525 240.0
228.913437 272.0
229.163452 168.0
229.247818 200.0
229.449783 116.0
229.648804 204.0
229.712158 192.0
229.784561 100.0
229.856979 192.0
229.88414 152.0
229.944489 180.0
230.024979 132.0
230.201111 56.0
230.251892 192.0
230.433701 204.0
230.566666 32.0
230.887131 192.0
230.996017 124.0
231.308121 176.0
231.495422 200.0
231.61235 160.0
231.668076 80.0
232.687088 80.0
233.03334 128.0
233.090225 144.0
233.127533 236.0
233.434586 148.0
233.498444 176.0
233.565369 92.0
233.818802 188.0
233.851379 124.0
234.477203 152.0
234.567886 196.0
234.598877 164.0
234.646469 216.0
234.680008 256.0
234.777588 120.0
234.838577 84.0
234.966705 200.0
235.149796 112.0
235.242584 132.0
235.255936 52.0
235.264877 172.0
235.302429 196.0
235.360443 164.0
235.867599 156.0
236.011292 208.0
236.045319 188.0
236.145859 120.0
236.219269 128.0
236.255981 88.0
236.280457 60.0
236.381424 140.0
236.589554 144.0
236.669159 208.0
236.791656 148.0
236.957809 168.0
236.996429 176.0
237.051834 572.0
237.083267 176.0
237.195633 76.0
237.334091 212.0
237.394058 136.0
237.564117 152.0
237.589752 232.0
237.685867 152.0
237.754349 124.0
237.798859 144.0
237.821869 192.0
237.849503 76.0
237.923172 120.0
237.968063 144.0
237.999939 108.0
238.061783 392.0
238.126297 200.0
238.165771 104.0
238.190445 132.0
238.224136 60.0
238.257935 64.0
238.295959 156.0
238.323959 212.0
238.349991 104.0
238.376328 128.0
238.39978 172.0
238.448456 128.0
238.483704 192.0
238.520538 88.0
238.586594 164.0
238.622208 360.0
238.653366 316.0
238.702255 324.0
238.749191 156.0
238.771317 208.0
238.799866 176.0
238.845871 156.0
238.909119 352.0
238.985229 396.0
239.005997 492.0
239.038284 648.0
239.071579 230324.0
239.128494 416.0
239.16185 104.0
239.181473 224.0
239.24855 128.0
239.271759 148.0
239.284454 120.0
239.320709 176.0
239.347809 196.0
239.375519 196.0
239.409683 268.0
239.435318 212.0
239.457748 116.0
239.515854 156.0
239.545135 88.0
239.57843 1248.0
239.615448 256.0
239.635513 124.0
239.69574 68.0
239.760437 120.0
239.802216 124.0
239.8134 84.0
239.827835 216.0
239.862747 212.0
239.873108 304.0
239.914215 80.0
239.943314 164.0
239.975998 276.0
240.005692 52.0
240.074188 34128.0
240.151764 96.0
240.174164 152.0
240.21785 316.0
240.281021 108.0
240.313263 136.0
240.366043 332.0
240.424469 140.0
240.446472 76.0
240.471527 52.0
240.48056 52.0
240.500305 68.0
240.530197 116.0
240.555618 200.0
240.583435 108.0
240.633392 180.0
240.669174 152.0
240.712418 92.0
240.777664 80.0
240.817169 76.0
240.845612 84.0
240.888428 56.0
240.93158 92.0
240.959 96.0
241.037857 36.0
241.074844 3528.0
241.155853 152.0
241.191696 32.0
241.241943 276.0
241.292328 80.0
241.319809 72.0
241.347656 152.0
241.373276 180.0
241.412491 68.0
241.44632 104.0
241.480698 60.0
241.518051 228.0
241.557159 256.0
241.596527 76.0
241.618073 64.0
241.633713 112.0
241.656784 124.0
241.678955 232.0
241.70874 248.0
241.743484 156.0
241.790741 104.0
241.816315 108.0
241.825165 192.0
241.908173 196.0
241.938782 84.0
241.966919 120.0
242.001419 104.0
242.007324 100.0
242.043716 112.0
242.077728 772.0
242.153992 40.0
242.193665 84.0
242.258087 132.0
242.287277 152.0
242.377045 68.0
242.446259 132.0
242.468124 92.0
242.475601 80.0
242.48819 156.0
242.506836 156.0
242.584702 88.0
242.643692 96.0
242.71492 64.0
242.736633 72.0
242.758331 60.0
242.783249 112.0
242.820206 124.0
242.869995 72.0
242.922729 88.0
243.254776 76.0
243.292023 152.0
243.313751 52.0
243.391373 80.0
243.453491 64.0
243.47522 80.0
243.496964 44.0
243.534241 56.0
243.555984 96.0
243.726852 96.0
243.748611 84.0
243.804535 40.0
243.83873 108.0
243.903061 132.0
243.931976 52.0
244.134079 72.0
244.258499 36.0
244.52298 40.0
244.659943 40.0
244.79071 100.0
245.311035 76.0
245.448227 76.0
245.551132 40.0
246.520569 72.0
246.603348 80.0
247.316498 36.0
247.494934 108.0
247.748642 88.0
247.911575 48.0
247.971115 120.0
248.074554 116.0
248.29718 56.0
248.425797 68.0
248.792969 100.0
248.978226 32.0
249.38353 52.0
249.433823 80.0
249.499847 132.0
249.609894 72.0
249.644485 104.0
249.735687 96.0
249.811188 56.0
249.999969 40.0
250.289597 128.0
250.343124 100.0
250.374619 88.0
250.569916 100.0
250.724319 40.0
250.799973 72.0
251.08374 120.0
251.134201 60.0
251.18782 100.0
251.411835 44.0
251.479141 124.0
251.623337 88.0
251.695953 32.0
251.980225 124.0
252.021301 72.0
252.359512 84.0
252.723251 96.0
253.369156 28.0
253.75264 40.0
254.263367 120.0
254.453827 72.0
254.476059 60.0
254.676117 104.0
255.098755 108.0
255.816116 40.0
256.034241 84.0
258.54361 44.0
258.898956 68.0
260.332489 52.0
261.483459 104.0
262.55954 196.0
262.907959 48.0
266.453705 116.0
267.146179 124.0
268.211029 80.0
269.624329 84.0
269.85968 56.0
271.047882 84.0
271.939911 52.0
275.889526 108.0
277.162262 120.0
277.3461 124.0
278.039307 52.0
278.520721 40.0
279.291901 112.0
281.113647 472.0
281.531647 128.0
282.128937 116.0
283.153687 64.0
285.916809 64.0
288.071442 44.0
292.010254 132.0
294.696564 52.0
300.054321 176.0
300.547546 88.0
303.064819 116.0
306.382904 116.0
308.504761 64.0
309.333862 92.0
309.596466 48.0
312.988739 212.0
313.041565 92.0
319.778961 80.0
322.021637 116.0
323.477386 68.0
324.723907 48.0
325.100616 72.0
329.547821 40.0
331.777313 80.0
342.171753 48.0
344.718201 56.0
348.006226 52.0
349.020599 60.0
349.626984 104.0
350.47229 92.0
353.815125 48.0
354.81546 44.0
355.333038 76.0
359.053345 52.0
362.4216 100.0
365.931213 164.0
369.411835 112.0
374.971924 68.0
376.990356 60.0
377.899078 120.0
381.296112 40.0
381.39328 64.0
381.704285 84.0
385.059753 112.0
386.032867 128.0
388.355347 124.0
388.991028 132.0
389.513306 60.0
391.880371 60.0
397.207001 40.0
398.346283 72.0
398.819153 112.0
404.319305 104.0
407.40686 52.0
408.777954 76.0
409.176422 56.0
409.836975 92.0
410.679565 68.0
414.824341 60.0
415.676056 64.0
417.479767 68.0
417.552979 36.0
417.756348 132.0
418.049316 92.0
418.67627 44.0
423.3237 64.0
425.628296 76.0
427.951508 80.0
429.459839 88.0
429.575317 144.0
429.798126 108.0
429.897156 64.0
430.074646 72.0
430.437958 48.0
432.894318 136.0
433.246368 84.0
434.017303 96.0
435.748138 120.0
438.494629 88.0
439.541382 48.0
442.517456 116.0
443.032623 92.0
445.19278 120.0
446.037292 56.0
447.804535 64.0
450.229645 88.0
452.280273 100.0
454.263428 40.0
454.832062 108.0
455.282135 60.0
455.87265 100.0
458.340759 116.0
460.349976 68.0
461.251495 56.0
466.618896 56.0
468.486725 60.0
472.073547 56.0
472.52774 56.0
472.930206 80.0
475.747864 64.0
477.242462 76.0
478.848267 140.0
479.005066 92.0
481.735901 48.0
484.833801 68.0
488.808136 80.0
490.375977 84.0
490.40683 84.0
493.545715 116.0
493.864136 52.0
495.812256 48.0
496.304321 76.0
500.267426 144.0
504.246307 76.0
508.106323 92.0
510.289124 132.0
511.067261 36.0
514.294006 68.0
515.400513 92.0
515.875061 80.0
521.37323 28.0
523.716431 108.0
529.370605 80.0
530.626099 32.0
531.373718 64.0
532.594849 48.0
536.727661 84.0
538.328918 52.0
539.613525 32.0
542.497803 88.0
559.946289 80.0
566.621033 112.0
575.467712 68.0
577.570435 72.0
579.265015 64.0
589.672974 88.0
589.890503 40.0
598.828613 132.0
600.378479 76.0
601.417664 84.0
611.34259 52.0
616.041565 88.0
624.368958 56.0
636.623291 96.0
639.947144 48.0
644.390686 56.0
655.406433 68.0
660.685791 60.0
678.941284 80.0
679.428894 76.0
687.308899 76.0
700.023621 100.0
707.558533 112.0
720.621216 172.0
740.331055 156.0
766.63678 44.0
768.048218 88.0
768.19165 76.0
781.165771 124.0
781.738892 148.0
790.53949 68.0
797.60083 52.0
807.145874 64.0
820.386536 216.0
820.608887 80.0
824.290588 172.0
827.636902 88.0
844.262085 160.0
847.243103 100.0
854.721497 200.0
861.06427 80.0
870.223083 80.0
878.185364 120.0
879.483459 176.0
886.231262 68.0
895.218872 184.0
898.425659 104.0
898.670288 56.0
899.852051 160.0
908.415833 252.0
912.728699 136.0
925.920837 232.0
933.567749 44.0
937.71106 44.0
938.390503 212.0
941.3255 228.0
943.763672 72.0
944.974731 96.0
945.494873 164.0
946.41925 136.0
948.704529 56.0
949.066284 156.0
955.374023 60.0
960.363708 200.0
965.119019 180.0
980.863708 156.0
985.494507 144.0
992.893799 168.0
998.659607 48.0
1001.378662 140.0
1003.212402 56.0
1003.918579 20.0
1004.744873 180.0
1005.123474 88.0
1008.312622 156.0
1008.375854 64.0
1009.260925 152.0
1013.970825 108.0
1015.16272 240.0
1016.856628 40.0
1019.930908 112.0
1020.229675 196.0
1022.277771 48.0
1023.703796 156.0
1034.110352 140.0
1037.479858 108.0
1045.901611 56.0
1050.612305 172.0
1054.538452 80.0
1059.786865 124.0
1061.614868 144.0
1063.937866 188.0
1064.548218 212.0
1067.810669 248.0
1068.070923 124.0
1068.513306 148.0
1069.313721 168.0
1075.812622 116.0
1076.432861 36.0
1077.569458 184.0
1082.920654 180.0
1083.857422 116.0
1084.453857 60.0
1084.558716 128.0
1084.683228 100.0
1084.761963 92.0
1087.937012 196.0
1090.748657 180.0
1099.284668 92.0
1108.549561 52.0
1112.124268 228.0
1112.635498 52.0
1114.873901 52.0
1115.472168 168.0
1120.130371 196.0
1125.552612 160.0
1125.73291 84.0
1126.828369 52.0
1128.218628 104.0
1130.13147 164.0
1130.419189 168.0
1130.499512 96.0
1132.072632 72.0
1133.258301 144.0
1137.094238 168.0
1137.543945 164.0
1137.624512 264.0
1143.095703 128.0
1143.317749 44.0
1143.761963 160.0
1143.849487 80.0
1144.246704 156.0
1145.162476 152.0
1149.80127 32.0
1149.996948 136.0
1150.570801 124.0
1153.908325 72.0
1154.259888 172.0
1155.42334 68.0
1159.086426 60.0
1163.074341 140.0
1166.92627 160.0
1167.66748 136.0
1169.981079 140.0
1172.092529 208.0
1172.630981 184.0
1174.233154 144.0
1175.119995 160.0
1175.283813 180.0
1175.345215 176.0
1178.124023 172.0
1178.452026 124.0
1180.39209 116.0
1181.14563 152.0
1181.357666 100.0
1184.027222 208.0
1184.246338 76.0
1187.166016 128.0
1187.34436 88.0
1187.44043 52.0
1188.229248 124.0
1191.779053 84.0
1193.937622 36.0
1196.153076 152.0
1197.461426 148.0
1198.859985 96.0
1201.956299 120.0
1202.377319 216.0
1202.508423 196.0
1202.763794 192.0
1203.24707 128.0
1207.330933 200.0
1208.050293 212.0
1208.57605 180.0
1210.645874 232.0
1211.80957 132.0
1212.544189 116.0
1212.772949 168.0
1213.167969 236.0
1213.230469 156.0
1215.928711 180.0
1216.227173 212.0
1216.379883 64.0
1217.157593 124.0
1217.608887 124.0
1217.914551 172.0
1218.505005 148.0
1221.125732 52.0
1224.376099 136.0
1224.835815 208.0
1226.069092 184.0
1226.124756 240.0
1227.505127 152.0
1228.237427 148.0
1228.516479 144.0
1231.490234 160.0
1231.951294 76.0
1232.272583 128.0
1232.384399 84.0
1233.550781 144.0
1233.698364 184.0
1234.026978 148.0
1234.831177 180.0
1235.446777 228.0
1236.601318 172.0
1236.692383 160.0
1237.217407 200.0
1240.061401 136.0
1240.215576 84.0
1242.403564 204.0
1242.459595 104.0
1242.606934 168.0
1244.747803 176.0
1245.267578 184.0
1246.806152 240.0
1247.192749 176.0
1248.099731 224.0
1248.479492 128.0
1249.780884 252.0
1249.914551 76.0
1252.878784 140.0
1253.202881 172.0
1256.721313 160.0
1259.072021 172.0
1259.13562 184.0
1259.487671 148.0
1259.623047 48.0
1260.30835 160.0
1265.096558 180.0
1266.144531 152.0
1266.229492 32.0
1266.335693 80.0
1267.681885 164.0
1269.283936 36.0
1269.915161 140.0
1271.497314 176.0
1272.455688 184.0
1272.640259 200.0
1273.343262 72.0
1274.806763 96.0
1278.085083 236.0
1280.377319 144.0
1280.434326 220.0
1281.061157 152.0
1281.566895 204.0
1281.623901 184.0
1281.951782 132.0
1282.229736 160.0
1282.35083 128.0
1283.377441 144.0
1283.648438 56.0
1284.218994 48.0
1284.276001 184.0
1288.009277 140.0
1288.359253 212.0
1290.124512 160.0
1291.890869 132.0
1292.613525 236.0
1294.159668 148.0
1295.893066 160.0
1296.946533 184.0
1297.620483 208.0
1300.059326 144.0
1303.456055 64.0
1304.246704 184.0
1307.087524 168.0
1307.231445 52.0
1307.850342 116.0
1308.452026 160.0
1309.916992 192.0
1310.839233 140.0
1312.865723 172.0
1312.922729 136.0
1313.297729 148.0
1313.535767 260.0
1313.860474 192.0
1315.029419 132.0
1316.702881 176.0
1317.029541 112.0
1317.62915 132.0
1318.554077 196.0
1318.821533 164.0
1319.551636 124.0
1319.790283 136.0
1320.057861 240.0
1320.940186 184.0
1321.251343 136.0
1321.374268 236.0
1321.605835 172.0
1322.980957 188.0
1323.710327 196.0
1324.22644 232.0
1325.545044 144.0
1326.574219 168.0
1326.965698 200.0
1327.516846 212.0
1327.822021 152.0
1327.886719 156.0
1328.670166 160.0
1329.395752 180.0
1329.961914 172.0
1330.477295 228.0
1330.782227 164.0
1331.457642 180.0
1332.968628 60.0
1334.662354 156.0
1336.21167 172.0
1336.655518 140.0
1336.910156 160.0
1337.259521 148.0
1338.671997 148.0
1339.021484 160.0
1339.6698 152.0
1340.966919 180.0
1342.833374 152.0
1342.993896 156.0
1343.211426 152.0
1343.446167 116.0
1344.08728 164.0
1344.321777 60.0
1344.664795 128.0
1346.343994 128.0
1347.242432 124.0
1347.373901 140.0
1347.914673 176.0
1348.133789 192.0
1348.382324 124.0
1349.215698 128.0
1349.49353 204.0
1349.983398 144.0
1350.044189 196.0
1350.151611 144.0
1351.753784 136.0
1352.009888 224.0
1355.678955 132.0
1356.529175 152.0
1357.263916 176.0
1357.731689 128.0
1358.934814 188.0
1360.84314 48.0
1362.253296 132.0
1362.319336 156.0
1363.046753 96.0
1369.37146 168.0
1371.930664 84.0
1372.144531 144.0
1372.343506 84.0
1372.424683 212.0
1372.948242 96.0
1373.287476 128.0
1373.346558 204.0
1373.435059 276.0
1373.715332 144.0
1374.932861 160.0
1375.641479 208.0
1376.18042 136.0
1377.805298 252.0
1378.063843 160.0
1378.485107 144.0
1379.667725 52.0
1379.993042 252.0
1380.555054 160.0
1380.969238 152.0
1381.568359 168.0
1383.366699 84.0
1384.062622 156.0
1384.299683 20.0
1384.618042 152.0
1384.721802 164.0
1385.307007 52.0
1385.825562 112.0
1386.314697 140.0
1386.373901 100.0
1387.166992 144.0
1387.396851 132.0
1387.715698 184.0
1387.878784 184.0
1388.849121 172.0
1389.043213 188.0
1389.762817 272.0
1389.859253 124.0
1390.156128 84.0
1392.509644 180.0
1392.851318 144.0
1393.200439 60.0
1395.742432 136.0
1395.846436 80.0
1396.567871 260.0
1399.440552 164.0
1400.229858 176.0
1400.409424 196.0
1400.646973 160.0
1401.466553 188.0
1401.712402 132.0
1402.60498 196.0
1402.703735 116.0
1402.882568 172.0
1403.165894 216.0
1403.598389 148.0
1404.2323 152.0
1405.651855 168.0
1405.858765 88.0
1406.187134 180.0
1406.317627 248.0
1406.373657 96.0
1406.866333 132.0
1408.218018 152.0
1408.442017 40.0
1408.52417 176.0
1409.320679 276.0
1410.691406 84.0
1411.768066 168.0
1412.119507 136.0
1412.49353 64.0
1412.628174 140.0
1415.120483 180.0
1415.195312 188.0
1416.970459 188.0
1417.554932 60.0
1418.664185 208.0
1419.758911 112.0
1420.19397 144.0
1420.268921 144.0
1421.161743 68.0
1422.707886 168.0
1422.993164 196.0
1423.503784 160.0
1423.819214 212.0
1424.855835 112.0
1425.816772 148.0
1425.983032 116.0
1426.050659 212.0
1427.260986 124.0
1428.584717 208.0
1428.953369 196.0
1429.487671 232.0
1429.758545 176.0
1430.368286 140.0
1430.631714 180.0
1431.045776 208.0
1432.152832 196.0
1432.46167 260.0
1433.365845 184.0
1433.742676 148.0
1434.021484 60.0
1434.074219 140.0
1434.255127 132.0
1436.17041 156.0
1436.404297 116.0
1436.856934 60.0
1437.973755 112.0
1438.064331 104.0
1438.751221 84.0
1439.763062 136.0
1440.087891 132.0
1440.593262 164.0
1441.538452 136.0
1441.651855 116.0
1442.354736 104.0
1442.619263 36.0
1442.80835 196.0
1442.886475 272.0
1443.503906 156.0
1444.192139 184.0
1444.525024 120.0
1444.600708 112.0
1445.614502 236.0
1446.272949 204.0
1446.607178 204.0
1447.310181 232.0
1448.302368 124.0
1449.416016 136.0
1451.66748 136.0
1452.008667 216.0
1452.190796 44.0
1452.433472 192.0
1453.017578 176.0
1453.396973 148.0
1455.621094 184.0
1456.030518 212.0
1456.456543 180.0
1456.745239 284.0
1458.08252 76.0
1458.280151 88.0
1459.35791 168.0
1459.499268 172.0
1460.500488 152.0
1460.568848 128.0
1461.078613 188.0
1461.968872 152.0
1462.067749 64.0
1462.182861 172.0
1462.516846 92.0
1462.737671 124.0
1463.567505 172.0
1463.70459 236.0
1463.775757 196.0
1464.130981 180.0
1464.184326 64.0
1464.313843 100.0
1464.80896 124.0
1465.060303 132.0
1466.005127 132.0
1466.2948 152.0
1467.770142 196.0
1467.971924 148.0
1468.162598 192.0
1469.718872 112.0
1471.924927 188.0
1472.711548 208.0
1472.780273 124.0
1474.277832 224.0
1474.50708 200.0
1474.980957 120.0
1475.500854 156.0
1476.441406 144.0
1476.999756 108.0
1478.139648 260.0
1478.614136 200.0
1480.115601 152.0
1480.803955 136.0
1483.55481 136.0
1483.892212 220.0
1484.083862 88.0
1484.597656 132.0
1484.973511 224.0
1485.04248 204.0
1485.932373 112.0
1486.477173 104.0
1486.86853 100.0
1487.935547 84.0
1488.204224 180.0
1488.496094 192.0
1489.179565 180.0
1489.251831 204.0
1489.363892 188.0
1489.924683 148.0
1490.533813 188.0
1490.800659 156.0
1490.854492 128.0
1491.338745 120.0
1491.561646 136.0
1492.122803 56.0
1492.514893 156.0
1492.922485 380.0
1493.530151 152.0
1494.487793 140.0
1495.099731 184.0
1495.2229 76.0
1495.599976 124.0
1496.11853 136.0
1496.423706 192.0
1496.59314 124.0
1497.370972 120.0
1497.748413 140.0
1498.672852 136.0
1498.934814 152.0
1499.350952 156.0
1499.605347 116.0
1500.56897 48.0
1501.17041 164.0
1502.527954 184.0
1505.05188 224.0
