>compound MLS000860058-01!(+/-)-N-Allylnormetazocine hydrochloride
>formula C17H23NO
>ionization [M+H]+
>parentmass 258.186035
#inchi InChI=1S/C17H23NO/c1-4-8-18-9-7-17(3)12(2)16(18)10-13-5-6-14(19)11-15(13)17/h4-6,11-12,16,19H,1,7-10H2,2-3H3
#inchikey LGQCVMYAEFTEFN
#origInchi InChI=1S/C17H23NO.ClH/c1-4-8-18-9-7-17(3)12(2)16(18)10-13-5-6-14(19)11-15(13)17;/h4-6,11-12,16,19H,1,7-10H2,2-3H3;1H
#Ion_Source LC-ESI
#Instrument qTof
#Compound_Source NIH Pharmacologically Active Library
#PI Dorrestein
#Data_Collector VP/LMS
#Scan -1
#Precursor_MZ 258.191
#ExactMass 257.178
#Charge 1
#CAS_Number N/A
#Pubmed_ID N/A
#Smiles CC1C2Cc3ccc(O)cc3C1(C)CCN2CC=C.Cl
#INCHI_AUX N/A
#Library_Class 1
#SpectrumID CCMSLIB00000086092
#IonMode Positive
#UpdateWorkflowName UPDATE-SINGLE-ANNOTATED-GOLD
#LibraryQualityString Gold
#TaskID d252d724072548979f1f6f1ced849daf
##Scan# 1306
#SpectrumFile p5-E02_GE2_01_18459.mzXML
#LibraryName Pharm_Active_Library.mgf
#MQScore -1
#Organism Pharm_Active_Library
#TIC_Query 0
#RT_Query -1
#MZErrorPPM -1
#SharedPeaks 0
#MassDiff 0
#LibMZ -1
#SpecMZ 258.191
#SpecCharge 0
#internalFilename spec-00000.mgf

>collision 10
44.901165 148.0
44.961197 108.0
45.007919 148.0
45.017265 116.0
45.081387 148.0
45.12817 152.0
45.138866 168.0
45.177654 200.0
45.20575 188.0
45.216457 144.0
45.270004 112.0
45.296196 324.0
45.319569 140.0
45.363792 164.0
45.413406 116.0
45.434868 100.0
45.44426 188.0
45.495872 160.0
45.519344 68.0
45.595997 160.0
45.610783 88.0
45.622879 204.0
45.652458 72.0
45.700882 128.0
45.764141 204.0
45.83149 228.0
45.958229 128.0
45.998718 100.0
46.025482 152.0
46.040573 124.0
46.054077 116.0
46.190598 148.0
46.209534 152.0
46.257313 224.0
46.356438 156.0
46.397785 168.0
46.415413 100.0
46.450672 120.0
46.468307 164.0
46.498161 76.0
46.526665 208.0
46.612232 164.0
46.64621 152.0
46.676121 108.0
46.69788 100.0
46.730526 220.0
46.75502 44.0
46.809471 168.0
46.898735 140.0
47.043156 204.0
47.10067 176.0
47.14912 208.0
47.186054 292.0
47.207932 172.0
47.277699 116.0
47.332455 200.0
47.38176 136.0
47.405052 96.0
47.440689 172.0
47.459881 200.0
47.485195 232.0
47.513371 148.0
47.543556 248.0
47.577873 160.0
47.656155 132.0
47.72213 148.0
47.751007 188.0
47.790897 100.0
47.820618 208.0
47.872528 148.0
47.947197 168.0
47.958904 64.0
48.018192 160.0
48.052677 84.0
48.128819 168.0
48.170021 124.0
48.20594 196.0
48.27644 156.0
48.288887 148.0
48.317936 164.0
48.345867 216.0
48.409286 96.0
48.45084 124.0
48.46608 132.0
48.509045 176.0
48.535385 108.0
48.578899 212.0
48.597801 224.0
48.696362 144.0
48.765827 148.0
48.778339 144.0
48.790848 92.0
48.883469 220.0
48.975922 164.0
49.024685 172.0
49.081554 196.0
49.13623 108.0
49.178097 140.0
49.193157 228.0
49.261875 120.0
49.288418 172.0
49.328949 216.0
49.358307 228.0
49.428246 108.0
49.499634 32.0
49.527645 128.0
49.538853 156.0
49.589294 128.0
49.606113 180.0
49.719284 128.0
49.775875 116.0
49.794132 240.0
49.857349 164.0
49.982502 184.0
50.033173 220.0
50.099361 244.0
50.133175 144.0
50.150089 140.0
50.25021 180.0
50.269962 200.0
50.315998 156.0
50.337719 156.0
50.36879 124.0
50.45499 292.0
50.470779 144.0
50.479607 352.0
50.511555 208.0
50.534813 112.0
50.565323 176.0
50.580856 164.0
50.589451 168.0
50.630444 160.0
50.692776 228.0
50.714035 160.0
50.857288 116.0
50.889938 156.0
50.918339 164.0
50.936802 196.0
50.952431 124.0
50.989372 176.0
51.134438 60.0
51.155788 48.0
51.191383 140.0
51.249233 228.0
51.271156 204.0
51.282558 152.0
51.352421 188.0
51.389511 196.0
51.407265 172.0
51.446968 200.0
51.491547 168.0
51.500858 204.0
51.540859 192.0
51.616615 208.0
51.688137 160.0
51.726185 184.0
51.804104 168.0
51.829891 148.0
51.87862 176.0
51.935978 348.0
52.030685 112.0
52.046478 168.0
52.209488 164.0
52.287983 120.0
52.316769 172.0
52.413265 52.0
52.501198 148.0
52.548798 200.0
52.574772 196.0
52.723518 68.0
52.746643 116.0
52.784233 112.0
52.808815 152.0
52.830513 212.0
52.882603 92.0
52.978172 128.0
53.168114 176.0
53.213112 180.0
53.24173 204.0
53.269749 196.0
53.311886 176.0
53.356941 92.0
53.41291 168.0
53.474766 208.0
53.544651 168.0
53.572323 148.0
53.582523 144.0
53.653934 148.0
53.676159 196.0
53.686012 232.0
53.785221 144.0
53.817337 48.0
53.900906 168.0
53.903725 196.0
53.991226 148.0
54.014915 224.0
54.040958 40.0
54.115604 220.0
54.166859 164.0
54.180046 148.0
54.209347 176.0
54.258373 188.0
54.289974 148.0
54.457279 84.0
54.473438 48.0
54.517513 208.0
54.545441 136.0
54.55867 132.0
54.570431 128.0
54.589546 144.0
54.613747 184.0
54.660152 204.0
54.727863 232.0
54.748901 180.0
54.792664 200.0
54.847969 140.0
54.907639 124.0
54.957794 132.0
55.05817 164.0
55.166031 288.0
55.299152 144.0
55.387642 136.0
55.402805 200.0
55.458385 212.0
55.501373 152.0
55.516933 136.0
55.644539 172.0
55.684631 164.0
55.786709 132.0
55.837711 128.0
55.913586 120.0
55.962708 40.0
55.986534 92.0
56.009037 184.0
56.031219 96.0
56.08667 264.0
56.100731 168.0
56.172066 108.0
56.183281 168.0
56.250435 144.0
56.266853 352.0
56.338539 168.0
56.369915 212.0
56.399803 144.0
56.471573 188.0
56.507736 228.0
56.570328 148.0
56.587399 172.0
56.697639 204.0
56.714127 180.0
56.768097 52.0
56.793594 148.0
56.837101 152.0
56.858109 132.0
56.948738 164.0
57.033833 132.0
57.048862 140.0
57.106003 284.0
57.136086 72.0
57.259514 36.0
57.309227 136.0
57.328815 208.0
57.380062 164.0
57.399662 304.0
57.444908 140.0
57.462421 236.0
57.482628 164.0
57.543003 140.0
57.582264 184.0
57.654778 200.0
57.734901 132.0
57.762127 72.0
57.825676 392.0
57.998337 172.0
58.012344 200.0
58.112736 140.0
58.172779 128.0
58.206181 148.0
58.412868 68.0
58.461555 140.0
58.485909 208.0
58.706818 200.0
58.717495 176.0
58.741898 168.0
58.76936 120.0
58.784618 108.0
58.867046 224.0
58.920506 144.0
58.95565 184.0
59.018322 160.0
59.030556 208.0
59.149887 104.0
59.160603 180.0
59.177814 164.0
59.225586 208.0
59.270878 164.0
59.283134 152.0
59.370327 196.0
59.407326 28.0
59.473309 92.0
59.55315 152.0
59.676086 148.0
59.74683 96.0
59.877666 140.0
59.948532 124.0
59.975887 144.0
60.152023 200.0
60.193802 52.0
60.2216 72.0
60.240135 168.0
60.260216 260.0
60.318943 200.0
60.33131 144.0
60.416363 124.0
60.479809 164.0
60.497459 188.0
60.552578 168.0
60.612991 244.0
60.693596 140.0
60.704449 208.0
60.733917 36.0
60.758736 104.0
60.85651 132.0
60.918633 112.0
61.042969 172.0
61.181442 204.0
61.193897 164.0
61.248402 164.0
61.274883 160.0
61.383469 216.0
61.583748 168.0
61.6353 188.0
61.654053 164.0
61.673923 168.0
61.786469 140.0
61.852684 176.0
61.932537 168.0
61.945068 180.0
61.99041 132.0
62.00304 156.0
62.031254 72.0
62.061043 152.0
62.097107 144.0
62.142601 212.0
62.158455 192.0
62.170292 168.0
62.205372 168.0
62.22892 156.0
62.290169 76.0
62.387596 152.0
62.408035 176.0
62.431622 152.0
62.603149 152.0
62.615097 164.0
62.718159 160.0
62.729195 184.0
62.744957 124.0
62.799061 204.0
62.831699 116.0
62.931816 176.0
63.014835 160.0
63.041698 88.0
63.093239 224.0
63.174507 164.0
63.253628 112.0
63.28529 148.0
63.310627 144.0
63.364483 68.0
63.388248 140.0
63.413605 168.0
63.43166 204.0
63.448475 144.0
63.519367 108.0
63.629333 216.0
63.673794 200.0
63.747292 152.0
63.761173 200.0
63.858154 164.0
63.933537 188.0
63.94566 152.0
63.959984 108.0
64.007744 184.0
64.153374 148.0
64.248146 216.0
64.32341 176.0
64.390472 120.0
64.412834 104.0
64.505516 276.0
64.547081 92.0
64.558815 224.0
64.599327 156.0
64.651169 224.0
64.694275 112.0
64.734299 204.0
64.787155 124.0
64.826035 224.0
64.848045 148.0
64.86087 188.0
64.875298 124.0
64.886513 40.0
64.90654 320.0
64.94104 188.0
64.955475 272.0
65.022858 120.0
65.064598 196.0
65.083862 168.0
65.12883 208.0
65.156136 100.0
65.363274 144.0
65.435974 92.0
65.448853 220.0
65.476227 188.0
65.490723 128.0
65.542274 140.0
65.579338 80.0
65.592232 152.0
65.619637 156.0
65.674469 132.0
65.720428 220.0
65.745987 232.0
65.758369 156.0
65.769661 168.0
65.814865 192.0
65.945717 160.0
65.981277 108.0
66.010384 116.0
66.028168 124.0
66.051659 276.0
66.075081 148.0
66.143044 120.0
66.188377 76.0
66.241821 216.0
66.266121 32.0
66.324097 180.0
66.36985 140.0
66.382828 132.0
66.40715 208.0
66.476913 196.0
66.510994 140.0
66.610039 180.0
66.728676 100.0
66.783958 184.0
66.798599 200.0
66.89135 168.0
66.922287 104.0
66.989059 176.0
67.003716 176.0
67.132484 152.0
67.1651 144.0
67.390381 144.0
67.447578 128.0
67.540779 116.0
67.637321 140.0
67.666786 136.0
67.722466 204.0
67.796188 116.0
67.88562 180.0
67.919456 432.0
67.948769 144.0
67.968369 184.0
67.991341 176.0
68.011032 48.0
68.073425 128.0
68.180199 192.0
68.19828 248.0
68.227867 200.0
68.292 108.0
68.324898 140.0
68.354515 192.0
68.385612 160.0
68.426933 172.0
68.476334 44.0
68.502686 56.0
68.526108 184.0
68.66111 312.0
68.679062 164.0
68.718651 148.0
68.733498 92.0
68.83419 136.0
68.875481 112.0
68.905212 52.0
68.936607 60.0
68.974617 184.0
69.013748 228.0
69.053986 204.0
69.081451 204.0
69.120155 140.0
69.164841 144.0
69.207878 196.0
69.244308 156.0
69.285721 148.0
69.32383 144.0
69.339676 236.0
69.378876 208.0
69.434906 164.0
69.44651 100.0
69.477386 228.0
69.507225 188.0
69.61911 176.0
69.668304 136.0
69.730423 216.0
69.752029 152.0
69.818535 124.0
69.860115 100.0
69.886734 176.0
69.905037 212.0
69.92334 144.0
69.967239 196.0
69.978271 156.0
70.149704 124.0
70.174873 236.0
70.249924 152.0
70.276611 116.0
70.304977 236.0
70.316666 188.0
70.34671 208.0
70.36718 168.0
70.426903 140.0
70.468086 176.0
70.615723 128.0
70.627434 188.0
70.696022 160.0
70.713753 148.0
70.796463 204.0
70.836662 156.0
70.898659 140.0
70.935532 176.0
70.985825 228.0
71.026978 112.0
71.073051 156.0
71.115005 176.0
71.126755 128.0
71.197273 128.0
71.245979 144.0
71.343452 60.0
71.387161 236.0
71.452759 140.0
71.528488 172.0
72.033264 272.0
72.13929 124.0
72.181396 164.0
72.223335 200.0
72.254128 156.0
72.325195 148.0
72.359055 200.0
72.383926 220.0
72.409851 132.0
72.446884 148.0
72.464058 172.0
72.480568 156.0
72.601357 124.0
72.715019 144.0
72.7286 148.0
72.772736 140.0
72.810097 220.0
72.957924 160.0
73.04805 236.0
73.082458 176.0
73.121208 172.0
73.150146 72.0
73.204628 48.0
73.22847 152.0
73.247208 148.0
73.294556 116.0
73.318764 308.0
73.366493 192.0
73.472221 176.0
73.484169 148.0
73.567787 152.0
73.666832 204.0
73.702713 192.0
73.733475 184.0
74.084236 144.0
74.099655 144.0
74.166039 108.0
74.30024 168.0
74.351715 168.0
74.401497 136.0
74.478767 136.0
74.497665 100.0
74.518906 164.0
74.566528 148.0
74.614525 156.0
74.674232 188.0
74.704666 172.0
74.753845 188.0
74.796021 236.0
74.860573 176.0
74.891571 136.0
74.970818 112.0
74.988052 212.0
75.029427 112.0
75.303787 172.0
75.348694 160.0
75.362518 160.0
75.447205 184.0
75.467949 28.0
75.564804 132.0
75.638145 176.0
75.691154 188.0
75.795082 172.0
75.836884 200.0
75.926826 160.0
75.949379 156.0
76.048279 160.0
76.089935 40.0
76.102089 96.0
76.136818 160.0
76.176765 76.0
76.25148 204.0
76.27581 148.0
76.291458 92.0
76.334923 120.0
76.369705 44.0
76.413193 60.0
76.446259 68.0
76.64476 376.0
76.833061 128.0
77.023338 140.0
77.119438 172.0
77.217346 100.0
77.234833 128.0
77.266319 192.0
77.278572 152.0
77.338066 140.0
77.374832 140.0
77.411598 96.0
77.45713 176.0
77.474648 196.0
77.537056 188.0
77.569283 212.0
77.639534 176.0
77.676247 152.0
77.735893 164.0
77.751686 168.0
77.781525 148.0
77.836807 172.0
77.902687 180.0
77.922012 44.0
77.937828 120.0
77.951881 260.0
78.06263 156.0
78.074936 148.0
78.156456 184.0
78.178726 56.0
78.22097 152.0
78.250298 260.0
78.28611 180.0
78.303726 192.0
78.319572 284.0
78.337029 216.0
78.39608 160.0
78.418243 164.0
78.453499 140.0
78.474655 140.0
78.524025 80.0
78.546959 64.0
78.601646 144.0
78.628113 136.0
78.649292 128.0
78.788795 160.0
78.836502 104.0
78.864784 168.0
78.882416 188.0
78.930191 156.0
78.969093 84.0
78.986786 128.0
79.015091 212.0
79.043396 220.0
79.063805 60.0
79.103569 228.0
79.167313 104.0
79.227386 148.0
79.280685 212.0
79.312592 180.0
79.418976 132.0
79.440262 120.0
79.486389 204.0
79.50058 124.0
79.521194 104.0
79.596443 140.0
79.754555 148.0
79.81144 200.0
79.841667 176.0
79.859459 92.0
79.934174 132.0
79.953751 120.0
79.996468 152.0
80.014267 72.0
80.249443 136.0
80.33683 196.0
80.395706 192.0
80.456398 204.0
80.486748 228.0
80.558189 140.0
80.57962 228.0
80.629654 116.0
80.821907 172.0
80.91227 160.0
80.931969 112.0
80.949875 148.0
80.992134 160.0
81.059143 172.0
81.093193 188.0
81.107529 188.0
81.146973 252.0
81.177452 228.0
81.193588 204.0
81.219002 168.0
81.281487 388.0
81.301231 152.0
81.410736 32.0
81.430679 188.0
81.452415 192.0
81.531097 168.0
81.655144 60.0
81.7379 188.0
81.750496 188.0
81.797287 276.0
81.860298 200.0
81.897354 212.0
81.943153 156.0
82.103577 192.0
82.116203 156.0
82.145065 184.0
82.164909 188.0
82.181145 100.0
82.30027 164.0
82.323746 244.0
82.356255 164.0
82.401413 196.0
82.448395 124.0
82.551437 152.0
82.641876 180.0
82.658157 224.0
82.674057 184.0
82.699783 132.0
82.745041 144.0
82.763145 168.0
82.793221 112.0
82.830154 76.0
82.908058 144.0
83.02771 208.0
83.114784 144.0
83.16378 224.0
83.200081 124.0
83.214607 204.0
83.301781 116.0
83.338112 136.0
83.394447 152.0
83.441872 180.0
83.494438 148.0
83.605415 128.0
83.632713 140.0
83.796608 128.0
83.823936 132.0
83.843979 140.0
84.192429 152.0
84.223473 124.0
84.272797 152.0
84.31292 192.0
84.398911 52.0
84.437317 136.0
84.484871 136.0
84.521461 72.0
84.541313 212.0
84.561722 184.0
84.63678 180.0
84.750336 76.0
84.773148 184.0
84.790657 172.0
84.836479 144.0
85.008881 184.0
85.023567 136.0
85.093315 124.0
85.155746 136.0
85.218208 144.0
85.242096 108.0
85.267822 136.0
85.444344 128.0
85.464584 188.0
85.528992 128.0
85.611206 152.0
85.644295 228.0
85.698418 60.0
85.742638 108.0
85.796097 128.0
85.864319 212.0
86.007309 168.0
86.026688 176.0
86.039612 180.0
86.131943 124.0
86.18972 188.0
86.311203 136.0
86.34449 176.0
86.516571 156.0
86.534767 164.0
86.583229 172.0
86.609161 208.0
86.703651 140.0
86.729599 72.0
86.742569 140.0
86.774086 72.0
86.848259 172.0
86.887215 264.0
86.96701 128.0
86.981857 176.0
87.052124 356.0
87.162003 152.0
87.175011 128.0
87.219612 148.0
87.314438 188.0
87.38884 136.0
87.401871 88.0
87.429779 68.0
87.455833 172.0
87.470726 128.0
87.539612 128.0
87.589897 152.0
87.686783 164.0
87.716606 156.0
87.744568 156.0
87.880722 88.0
87.925507 148.0
88.033783 252.0
88.048721 156.0
88.082336 124.0
88.155205 168.0
88.168282 144.0
88.192581 176.0
88.289803 40.0
88.390816 100.0
88.414299 196.0
88.428246 136.0
88.464996 168.0
88.518105 136.0
88.568665 176.0
88.675461 196.0
88.72982 168.0
88.809608 180.0
88.829216 152.0
88.866737 240.0
88.883621 68.0
88.977463 160.0
89.037552 172.0
89.075119 160.0
89.120201 200.0
89.16906 164.0
89.214172 168.0
89.278099 224.0
89.434258 204.0
89.477554 104.0
89.573593 100.0
89.687546 84.0
89.737549 144.0
89.767715 136.0
89.792229 216.0
89.84127 196.0
89.882782 124.0
89.967712 136.0
90.018692 148.0
90.147141 176.0
90.166039 116.0
90.188721 68.0
90.264343 156.0
90.307838 144.0
90.428558 164.0
90.50843 184.0
90.543633 184.0
90.557526 52.0
90.562248 124.0
90.642921 164.0
90.726311 124.0
90.819229 172.0
90.859062 48.0
90.895111 120.0
90.914085 188.0
91.014694 180.0
91.056511 1248.0
91.103958 200.0
91.159058 156.0
91.210373 212.0
91.25219 112.0
91.282616 200.0
91.301636 184.0
91.44622 204.0
91.611877 52.0
91.651886 148.0
91.75412 204.0
91.842117 56.0
91.913116 140.0
91.966545 168.0
92.057884 176.0
92.109756 184.0
92.155075 216.0
92.289391 144.0
92.319992 180.0
92.375458 172.0
92.413719 152.0
92.430939 148.0
92.511322 180.0
92.528549 56.0
92.554794 204.0
92.616638 160.0
92.691353 220.0
92.733513 148.0
92.752678 132.0
92.802521 60.0
92.817863 156.0
93.038506 208.0
93.072159 176.0
93.08886 212.0
93.184464 180.0
93.201073 192.0
93.224808 136.0
93.319 200.0
93.418999 188.0
93.445435 168.0
93.510895 216.0
93.532532 120.0
93.549858 120.0
93.582085 200.0
93.599915 84.0
93.619171 172.0
93.651909 164.0
93.671173 180.0
93.690437 216.0
93.804131 364.0
93.834976 116.0
93.871613 164.0
93.966805 136.0
93.989273 244.0
94.041382 152.0
94.062004 480.0
94.109779 232.0
94.132118 160.0
94.186073 132.0
94.220116 184.0
94.321449 228.0
94.361107 140.0
94.400719 260.0
94.540047 148.0
94.61161 120.0
94.638718 128.0
94.669701 144.0
94.731674 376.0
94.826622 52.0
94.861969 204.0
94.883347 152.0
94.92437 284.0
94.946045 232.0
95.039932 320.0
95.061279 136.0
95.076157 204.0
95.2127 212.0
95.232117 164.0
95.342857 72.0
95.441994 168.0
95.471169 152.0
95.512009 204.0
95.560638 164.0
95.642372 64.0
95.679359 48.0
95.702721 184.0
95.858551 240.0
95.903374 144.0
95.920914 84.0
95.934563 64.0
95.963806 156.0
96.024254 40.0
96.084724 372.0
96.188148 148.0
96.205292 184.0
96.272102 60.0
96.313118 92.0
96.463577 200.0
96.483124 168.0
96.535919 312.0
96.581711 96.0
96.655235 164.0
96.760933 160.0
96.823586 156.0
97.154846 160.0
97.203896 72.0
97.221558 324.0
97.280739 156.0
97.344162 192.0
97.400215 360.0
97.451294 88.0
97.46701 148.0
97.491074 172.0
97.567245 132.0
97.602638 172.0
97.632133 136.0
97.655159 68.0
97.677368 160.0
97.694038 152.0
97.740784 156.0
97.811172 160.0
97.852516 132.0
97.905754 164.0
97.966736 172.0
98.327568 184.0
98.361122 140.0
98.46402 140.0
98.570465 168.0
98.596153 176.0
98.639412 208.0
98.738495 120.0
98.752342 152.0
98.824608 140.0
98.869072 216.0
98.894798 208.0
99.011604 140.0
99.057159 180.0
99.08886 176.0
99.124527 56.0
99.142357 200.0
99.181999 152.0
99.279144 192.0
99.350548 184.0
99.412056 172.0
99.435638 136.0
99.528595 152.0
99.545059 120.0
99.598679 212.0
99.729813 152.0
99.793427 64.0
99.906792 148.0
99.952553 164.0
100.030167 156.0
100.054634 180.0
100.083923 92.0
100.107811 132.0
100.137688 124.0
100.16494 152.0
100.183502 200.0
100.205414 100.0
100.305054 224.0
100.46843 152.0
100.512466 64.0
100.562355 204.0
100.582214 156.0
100.636215 216.0
100.813995 132.0
100.913933 176.0
100.958618 196.0
101.003929 68.0
101.037933 156.0
101.137985 180.0
101.176971 152.0
101.209976 200.0
101.214859 332.0
101.322212 168.0
101.374313 120.0
101.430428 80.0
101.47052 204.0
101.526665 156.0
101.56678 140.0
101.592857 148.0
101.624954 148.0
101.686035 168.0
101.715263 184.0
101.753403 88.0
101.776108 180.0
101.82766 212.0
101.862473 180.0
101.912071 228.0
101.946228 176.0
102.014565 204.0
102.04142 156.0
102.070854 192.0
102.103706 168.0
102.131187 76.0
102.173431 80.0
102.25251 188.0
102.275856 120.0
102.316322 156.0
102.35659 252.0
102.533859 120.0
102.564095 128.0
102.60038 44.0
102.634651 104.0
102.672966 188.0
102.689102 128.0
102.733475 108.0
102.787949 152.0
102.830673 164.0
102.890884 176.0
102.915115 120.0
102.94944 192.0
102.98983 164.0
103.02417 176.0
103.053925 2040.0
103.14946 164.0
103.224266 88.0
103.252068 208.0
103.388123 180.0
103.428596 208.0
103.527847 180.0
103.562233 200.0
103.600716 148.0
103.635162 152.0
103.837868 140.0
103.89061 80.0
103.94133 220.0
103.970169 188.0
104.008301 136.0
104.061852 232.0
104.172775 128.0
104.258118 180.0
104.351883 184.0
104.370964 196.0
104.410583 116.0
104.4655 144.0
104.5392 136.0
104.579453 236.0
104.614052 124.0
104.709755 136.0
104.782066 84.0
104.815681 196.0
104.83606 148.0
104.866631 212.0
104.895164 172.0
104.933899 332.0
104.965637 240.0
105.070679 3372.0
105.105225 88.0
105.133095 232.0
105.248108 44.0
105.264442 160.0
105.321625 116.0
105.337967 156.0
105.360435 48.0
105.546425 204.0
105.560738 80.0
105.654823 132.0
105.734627 132.0
105.778488 196.0
105.925041 84.0
105.943474 196.0
106.050026 124.0
106.073708 500.0
106.103325 172.0
106.125877 132.0
106.224312 168.0
106.255089 128.0
106.310616 128.0
106.361794 116.0
106.39534 152.0
106.415169 208.0
106.456238 212.0
106.478828 100.0
106.714066 144.0
106.752151 144.0
106.919266 256.0
106.990021 188.0
107.049988 4516.0
107.10202 192.0
107.151459 164.0
107.180756 164.0
107.316338 48.0
107.351395 168.0
107.471031 180.0
107.497856 184.0
107.512299 64.0
107.568024 224.0
107.590729 80.0
107.629959 216.0
107.646477 164.0
107.683655 228.0
107.710503 196.0
107.863411 224.0
107.90062 152.0
107.973831 168.0
108.053963 508.0
108.081871 284.0
108.10746 136.0
108.246155 200.0
108.374573 164.0
108.416016 52.0
108.440887 180.0
108.532097 152.0
108.561127 160.0
108.617126 160.0
108.737465 164.0
108.880714 164.0
108.922256 192.0
108.997047 176.0
109.136307 160.0
109.248192 176.0
109.273582 176.0
109.340164 80.0
109.373466 192.0
109.4151 200.0
109.569214 200.0
109.602547 116.0
109.66507 176.0
109.829285 176.0
109.848557 196.0
109.898628 192.0
109.929924 72.0
110.007149 192.0
110.097069 3036.0
110.174919 252.0
110.205551 196.0
110.29541 172.0
110.354263 104.0
110.485703 156.0
110.579865 120.0
110.617538 192.0
110.646851 152.0
110.674065 168.0
110.722229 148.0
110.74527 148.0
110.780876 76.0
110.806015 128.0
111.047073 60.0
111.076439 144.0
111.099907 540.0
111.120499 192.0
111.146576 176.0
111.168755 40.0
111.3703 176.0
111.3871 188.0
111.411797 196.0
111.52504 216.0
111.704514 92.0
111.767532 184.0
111.820236 144.0
111.881279 172.0
111.92128 148.0
111.938126 212.0
111.9655 124.0
112.016052 132.0
112.062401 180.0
112.09845 180.0
112.171982 232.0
112.199387 60.0
112.252098 224.0
112.287949 100.0
112.302711 32.0
112.317474 48.0
112.336464 156.0
112.395531 156.0
112.467445 160.0
112.495758 172.0
112.530617 204.0
112.625648 60.0
112.714371 188.0
112.910973 384.0
112.961731 192.0
113.027321 168.0
113.048477 144.0
113.086571 168.0
113.188187 124.0
113.226303 104.0
113.247482 180.0
113.295143 144.0
113.436066 176.0
113.480583 276.0
113.516632 128.0
113.5345 140.0
113.541374 60.0
113.547729 180.0
113.631165 160.0
113.660873 116.0
113.686333 224.0
113.790344 140.0
113.8498 120.0
113.883774 196.0
113.897652 192.0
113.915443 216.0
113.960251 140.0
114.000626 152.0
114.062256 128.0
114.082878 280.0
114.134544 76.0
114.247223 204.0
114.306099 232.0
114.330246 152.0
114.345139 344.0
114.406868 80.0
114.426025 136.0
114.506943 124.0
114.597473 136.0
114.722153 188.0
114.824501 152.0
114.920486 184.0
115.005852 212.0
115.055031 11132.0
115.09024 60.0
115.116867 28.0
115.163849 108.0
115.198021 136.0
115.236481 188.0
115.251434 96.0
115.289894 80.0
115.31768 104.0
115.365547 124.0
115.401047 36.0
115.495499 144.0
115.522949 180.0
115.56076 208.0
115.587715 176.0
115.617096 160.0
115.766479 148.0
115.78244 152.0
115.822632 168.0
115.882614 112.0
115.916893 48.0
115.938324 76.0
115.970474 68.0
116.060783 2880.0
116.20636 188.0
116.277168 48.0
116.378059 224.0
116.393089 100.0
116.790665 140.0
116.870262 180.0
116.949883 188.0
117.011864 176.0
117.07003 4996.0
117.11998 44.0
117.175995 116.0
117.260033 36.0
117.285896 68.0
117.333321 116.0
117.441139 80.0
117.508011 84.0
117.626701 128.0
117.671761 204.0
117.749771 76.0
117.79081 120.0
117.825371 92.0
117.853462 116.0
117.877228 180.0
117.950706 432.0
118.073898 536.0
118.188599 136.0
118.20591 112.0
118.318459 220.0
118.34848 152.0
118.428894 244.0
118.46138 200.0
118.500381 108.0
118.643417 60.0
118.832092 64.0
119.049049 308.0
119.08445 800.0
119.10997 188.0
119.127342 168.0
119.242508 196.0
119.365891 228.0
119.525208 168.0
119.586143 144.0
119.762497 160.0
119.808243 112.0
119.893219 220.0
119.928093 180.0
119.956429 68.0
120.051407 164.0
120.113426 124.0
120.196877 144.0
120.213783 120.0
120.248703 164.0
120.28363 184.0
120.314186 132.0
120.371735 168.0
120.445206 136.0
120.467163 164.0
120.499825 36.0
120.536964 96.0
120.574921 76.0
120.593788 156.0
120.613457 144.0
120.733704 136.0
120.819008 152.0
120.854019 112.0
120.869331 128.0
120.899971 168.0
120.928421 124.0
120.943741 200.0
120.96344 72.0
121.00544 108.0
121.064209 1344.0
121.153954 64.0
121.215302 40.0
121.303429 152.0
121.557381 84.0
121.649559 196.0
121.675903 148.0
121.718605 204.0
121.743965 148.0
121.768127 164.0
121.794479 112.0
121.822212 32.0
121.926308 76.0
121.996643 296.0
122.071617 348.0
122.106583 260.0
122.253983 236.0
122.42569 120.0
122.522606 184.0
122.584297 100.0
122.615837 204.0
122.672455 180.0
122.700562 80.0
122.793724 164.0
122.837837 196.0
122.90844 152.0
122.972435 188.0
123.019669 72.0
123.105507 188.0
123.210915 176.0
123.226379 200.0
123.286041 180.0
123.332451 160.0
123.423088 164.0
123.493347 208.0
123.560219 164.0
123.611107 52.0
123.655365 140.0
123.755386 196.0
123.928627 180.0
124.1567 192.0
124.195976 64.0
124.25528 212.0
124.346848 172.0
124.417877 120.0
124.466721 124.0
124.492691 180.0
124.52668 100.0
124.595543 172.0
124.665695 300.0
124.731094 224.0
124.831772 184.0
124.860054 184.0
124.886742 124.0
124.977951 48.0
125.118164 160.0
125.147102 248.0
125.224716 188.0
125.263397 220.0
125.285187 88.0
125.378769 132.0
125.459007 160.0
125.486794 140.0
125.615105 160.0
125.659721 212.0
125.675346 108.0
125.813713 96.0
125.869293 152.0
125.889626 184.0
125.981201 156.0
126.049225 216.0
126.072861 176.0
126.110802 124.0
126.182335 116.0
126.236 92.0
126.345596 168.0
126.392578 104.0
126.573608 228.0
126.643311 164.0
126.67691 28.0
126.757561 48.0
126.818069 96.0
126.836006 104.0
126.856178 192.0
126.871452 152.0
126.93689 172.0
127.055603 3444.0
127.121521 156.0
127.187286 188.0
127.275711 224.0
127.347572 180.0
127.435867 224.0
127.472916 232.0
127.504845 176.0
127.545296 212.0
127.644218 176.0
127.709435 144.0
127.790421 176.0
127.848923 84.0
127.899513 136.0
127.918694 224.0
127.992989 124.0
128.020004 132.0
128.035782 64.0
128.061508 1600.0
128.164169 220.0
128.213745 160.0
128.274597 144.0
128.326462 212.0
128.382828 220.0
128.414398 152.0
128.432449 68.0
128.486588 200.0
128.520432 108.0
128.544037 184.0
128.646805 136.0
128.672119 132.0
128.72583 156.0
128.761627 184.0
128.804306 348.0
128.841019 76.0
128.886215 196.0
128.968506 144.0
129.003723 216.0
129.030853 180.0
129.069748 4376.0
129.15976 84.0
129.175583 176.0
129.225357 108.0
129.252518 60.0
129.278564 84.0
129.370193 140.0
129.409103 176.0
129.440384 92.0
129.542297 56.0
129.576279 144.0
129.594406 168.0
129.725861 68.0
129.764389 196.0
129.98233 184.0
130.020706 176.0
130.036606 172.0
130.078659 4192.0
130.100876 492.0
130.193253 236.0
130.213684 56.0
130.240936 116.0
130.272751 72.0
130.293182 84.0
130.318176 140.0
130.368164 128.0
130.470459 176.0
130.577316 84.0
130.625092 196.0
130.674652 228.0
130.910812 160.0
130.943741 116.0
130.959686 152.0
130.978638 188.0
131.022079 72.0
131.050491 3388.0
131.08638 12136.0
131.110382 216.0
131.146301 124.0
131.18071 36.0
131.213013 232.0
131.329956 280.0
131.379105 128.0
131.433853 36.0
131.458954 104.0
131.516006 176.0
131.600479 72.0
131.630157 192.0
131.694107 148.0
131.738602 184.0
131.758072 60.0
131.840317 144.0
131.874603 136.0
131.89975 136.0
131.920319 268.0
131.947754 48.0
132.053909 444.0
132.088577 1188.0
132.160446 152.0
132.25177 164.0
132.312027 192.0
132.414551 60.0
132.531372 128.0
132.648254 100.0
132.71524 92.0
132.741821 208.0
132.783539 208.0
132.824814 144.0
132.854645 180.0
132.921173 196.0
132.944122 116.0
132.986603 180.0
133.01915 124.0
133.065582 23428.0
133.140274 184.0
133.166489 168.0
133.249512 88.0
133.26918 156.0
133.287033 204.0
133.323044 52.0
133.432724 72.0
133.495453 84.0
133.535202 196.0
133.580551 76.0
133.632614 76.0
133.743912 108.0
133.764633 84.0
133.803772 60.0
133.889679 208.0
133.937332 108.0
133.97879 96.0
134.068344 1344.0
134.112442 72.0
134.154037 88.0
134.202347 76.0
134.276138 96.0
134.368408 80.0
134.396088 36.0
134.478668 204.0
134.549438 208.0
134.643097 112.0
134.781693 216.0
134.844086 56.0
134.87413 32.0
134.89032 136.0
134.927307 144.0
134.947052 96.0
134.994354 132.0
135.080765 492.0
135.179413 96.0
135.289444 104.0
135.387756 228.0
135.427124 168.0
135.445648 52.0
135.494308 104.0
135.628708 76.0
135.744629 120.0
135.774765 80.0
135.855957 168.0
135.876831 148.0
135.897705 404.0
135.976608 136.0
136.090347 128.0
136.113754 184.0
136.1922 112.0
136.320312 156.0
136.501617 152.0
136.517899 156.0
136.571655 180.0
136.622574 184.0
136.685379 224.0
136.729599 116.0
136.808746 160.0
136.852966 276.0
136.92572 184.0
136.931519 44.0
136.943039 172.0
137.134369 136.0
137.202438 84.0
137.267731 120.0
137.321365 84.0
137.456665 148.0
137.636002 184.0
137.858261 188.0
137.879349 44.0
138.017258 152.0
138.042984 360.0
138.128845 112.0
138.253525 128.0
138.415039 180.0
138.543854 184.0
138.583679 140.0
138.705551 144.0
138.736023 176.0
138.86734 100.0
138.986969 200.0
139.054214 328.0
139.092575 176.0
139.145462 168.0
139.21701 184.0
139.37204 108.0
139.52951 116.0
139.571838 144.0
139.602402 72.0
139.712952 40.0
139.847076 112.0
139.942337 192.0
140.042862 204.0
140.06369 132.0
140.135315 208.0
140.348846 116.0
140.374786 192.0
140.476807 236.0
140.575302 128.0
140.783035 140.0
140.842072 124.0
140.985962 228.0
141.041443 192.0
141.070602 6016.0
141.116196 44.0
141.148865 212.0
141.452133 140.0
141.55867 92.0
141.593536 172.0
141.733963 60.0
141.835861 132.0
141.899872 220.0
142.035141 188.0
142.074158 2020.0
142.201126 156.0
142.45282 192.0
142.481323 148.0
142.50351 160.0
142.818878 160.0
142.845032 164.0
142.890244 212.0
142.974945 140.0
142.999695 216.0
143.055374 320.0
143.082993 968.0
143.152481 200.0
143.214417 88.0
143.246323 124.0
143.283066 136.0
143.307587 172.0
143.332108 204.0
143.426041 248.0
143.473709 72.0
143.516632 140.0
143.533325 72.0
143.563538 196.0
143.595322 164.0
143.650177 164.0
143.765015 184.0
143.814819 172.0
143.833923 168.0
143.884048 224.0
143.903152 52.0
143.929413 224.0
143.947754 176.0
143.998657 152.0
144.057449 15748.0
144.092667 480.0
144.137222 96.0
144.280624 124.0
144.302139 56.0
144.330826 96.0
144.41748 156.0
144.491074 140.0
144.593353 220.0
144.634659 152.0
144.6586 48.0
144.704529 212.0
144.786667 220.0
144.888626 228.0
144.945984 104.0
144.985199 156.0
145.0056 168.0
145.065094 20996.0
145.101242 19116.0
145.144623 204.0
145.212082 208.0
145.239273 60.0
145.284042 48.0
145.314621 204.0
145.332031 68.0
145.384827 136.0
145.401627 64.0
145.435226 144.0
145.462509 68.0
145.482941 104.0
145.51358 168.0
145.538452 196.0
145.560059 36.0
145.576874 92.0
145.654327 144.0
145.689758 76.0
145.762375 124.0
145.862091 200.0
145.896423 52.0
145.939697 96.0
145.970963 108.0
146.004028 148.0
146.069122 5676.0
146.104919 1472.0
146.13652 192.0
146.162888 208.0
146.2043 100.0
146.233185 92.0
146.254684 128.0
146.280685 184.0
146.329468 88.0
146.392075 112.0
146.429993 160.0
146.435577 120.0
146.443329 168.0
146.51973 216.0
146.552795 116.0
146.586609 232.0
146.715408 204.0
146.736633 52.0
146.7715 172.0
146.799316 32.0
146.817993 80.0
146.871674 128.0
146.915085 112.0
146.949265 96.0
146.988556 160.0
147.079468 4432.0
147.110245 300.0
147.155426 116.0
147.228867 104.0
147.25444 88.0
147.302994 104.0
147.330307 64.0
147.359299 144.0
147.468048 128.0
147.539627 52.0
147.620346 168.0
147.864685 64.0
147.920349 200.0
147.970108 116.0
148.022842 176.0
148.082703 612.0
148.191589 32.0
148.254593 192.0
148.290421 128.0
148.376907 216.0
148.499451 172.0
148.550385 116.0
148.57222 168.0
148.715393 180.0
148.766357 32.0
148.785782 64.0
148.890182 36.0
148.98735 172.0
149.087311 196.0
149.174469 164.0
149.235107 216.0
149.315491 136.0
149.437119 144.0
149.488205 144.0
149.64267 200.0
149.765915 120.0
150.043549 176.0
150.097183 136.0
150.12468 220.0
150.160583 124.0
150.258163 68.0
150.511993 80.0
150.577927 160.0
150.788391 140.0
150.812485 160.0
150.920044 244.0
150.98851 240.0
151.047211 100.0
151.132828 128.0
151.295776 208.0
151.316391 148.0
151.382507 228.0
151.431488 84.0
151.500076 216.0
151.544174 144.0
151.828522 136.0
152.002686 40.0
152.061996 620.0
152.125397 48.0
152.14418 240.0
152.4496 176.0
152.552826 68.0
152.693848 148.0
152.734802 84.0
152.796295 192.0
152.833206 132.0
152.924591 148.0
153.024994 160.0
153.069427 1944.0
153.127914 84.0
153.32077 68.0
153.513046 132.0
153.535019 88.0
153.700516 172.0
153.885635 240.0
153.986877 164.0
154.018982 96.0
154.075043 1284.0
154.149933 196.0
154.237289 160.0
154.295761 44.0
154.340256 68.0
154.407028 52.0
154.45401 224.0
154.500702 160.0
154.518936 196.0
154.718796 40.0
154.76088 184.0
154.802979 184.0
154.832703 88.0
154.852509 52.0
154.904526 172.0
154.991241 64.0
155.030884 152.0
155.063141 1720.0
155.085785 13160.0
155.172165 112.0
155.199005 180.0
155.242004 160.0
155.32399 200.0
155.348236 116.0
155.395386 116.0
155.437561 208.0
155.497192 180.0
155.539307 72.0
155.573746 156.0
155.735474 220.0
155.814957 60.0
155.871109 372.0
155.91684 40.0
155.949142 308.0
155.978973 68.0
156.00383 184.0
156.028687 192.0
156.061722 144.0
156.088806 2244.0
156.1754 240.0
156.19281 36.0
156.232605 92.0
156.311478 132.0
156.389374 72.0
156.414261 144.0
156.538742 76.0
156.563644 156.0
156.782074 168.0
156.805313 144.0
156.83522 52.0
156.852661 60.0
156.89006 152.0
156.92746 132.0
157.009735 120.0
157.064804 8104.0
157.152618 144.0
157.194336 212.0
157.236099 120.0
157.253876 84.0
157.311356 140.0
157.361572 144.0
157.418243 100.0
157.462158 72.0
157.483337 84.0
157.488464 84.0
157.544571 216.0
157.601349 108.0
157.658813 188.0
157.711304 168.0
157.732391 128.0
157.751297 164.0
157.796295 168.0
157.860046 348.0
157.906326 124.0
157.958847 132.0
157.99292 180.0
158.017502 144.0
158.039825 196.0
158.073624 50972.0
158.12648 108.0
158.158127 64.0
158.213486 100.0
158.249146 108.0
158.288666 92.0
158.320328 276.0
158.354309 100.0
158.371948 104.0
158.404404 84.0
158.428726 132.0
158.493317 224.0
158.529678 112.0
158.547226 108.0
158.583313 60.0
158.64682 120.0
158.670044 188.0
158.688675 48.0
158.734467 72.0
158.752792 96.0
158.77832 168.0
158.814209 204.0
158.870667 108.0
158.895752 96.0
158.922165 144.0
158.968521 56.0
159.01683 120.0
159.08075 41076.0
159.134399 360.0
159.163635 88.0
159.192688 100.0
159.227676 52.0
159.260468 112.0
159.27832 160.0
159.299774 132.0
159.351547 88.0
159.397919 84.0
159.449677 236.0
159.492554 124.0
159.525558 36.0
159.586426 68.0
159.606003 92.0
159.623566 312.0
159.65097 84.0
159.702698 272.0
159.761368 180.0
159.800217 68.0
159.824203 60.0
159.85054 156.0
159.880737 124.0
159.921005 172.0
159.946259 160.0
159.961075 48.0
159.966782 96.0
159.983627 92.0
160.08519 7880.0
160.124695 180.0
160.156601 48.0
160.185394 160.0
160.203018 52.0
160.230728 92.0
160.255585 144.0
160.293716 124.0
160.323959 100.0
160.344131 128.0
160.364288 128.0
160.386581 88.0
160.418213 92.0
160.557495 88.0
160.679489 160.0
160.72995 44.0
160.775375 160.0
160.808182 208.0
160.848572 108.0
160.909149 148.0
160.957123 32.0
161.017731 104.0
161.037933 64.0
161.058136 136.0
161.089462 952.0
161.136139 132.0
161.227417 92.0
161.261169 112.0
161.305771 84.0
161.356323 104.0
161.394257 80.0
161.444824 88.0
161.51059 76.0
161.842102 224.0
161.859833 120.0
161.971252 48.0
161.991516 160.0
162.091583 696.0
162.124222 276.0
162.168884 40.0
162.189163 176.0
162.326065 48.0
162.374252 144.0
162.391998 120.0
162.445358 116.0
162.658417 212.0
162.873413 228.0
162.942841 188.0
163.03685 116.0
163.11412 200.0
163.443726 72.0
163.598969 132.0
163.789948 36.0
164.162048 164.0
164.220703 152.0
164.368668 204.0
164.43866 196.0
164.480957 136.0
164.565201 88.0
164.659683 124.0
164.915176 136.0
164.973969 152.0
165.160629 136.0
165.311584 112.0
165.426758 72.0
165.695953 148.0
165.857086 56.0
166.005783 108.0
166.072464 148.0
166.347015 188.0
166.372681 148.0
166.40863 40.0
166.54216 124.0
166.647491 92.0
166.729721 52.0
166.773407 136.0
167.033096 120.0
167.084595 256.0
167.128296 60.0
167.187469 72.0
167.437195 208.0
167.473251 76.0
167.651016 68.0
167.748962 80.0
167.772156 164.0
167.792786 184.0
167.836609 60.0
167.872711 60.0
167.89592 208.0
167.950089 196.0
168.051987 136.0
168.072433 212.0
168.183807 116.0
168.259735 124.0
168.280396 68.0
168.303635 76.0
168.339783 56.0
168.427597 124.0
168.649796 112.0
168.724762 172.0
168.918716 200.0
168.988571 224.0
169.075394 2400.0
169.218903 44.0
169.612671 40.0
169.690445 72.0
169.768753 60.0
170.040634 172.0
170.078018 1040.0
170.167816 248.0
170.274292 212.0
170.375595 144.0
170.411957 144.0
170.580887 56.0
170.677078 168.0
170.788895 168.0
170.942398 88.0
170.978821 52.0
171.078796 1608.0
171.109177 144.0
171.187561 44.0
171.236572 112.0
171.439774 196.0
171.494507 44.0
171.909164 120.0
171.940475 160.0
171.974411 88.0
172.000519 144.0
172.039566 212.0
172.088531 2784.0
172.159531 132.0
172.165604 120.0
172.316498 160.0
172.392273 72.0
172.452377 160.0
172.564789 200.0
172.653442 172.0
172.711136 120.0
172.779968 144.0
172.800171 128.0
172.937286 216.0
172.972794 104.0
173.01268 172.0
173.035889 176.0
173.096771 51216.0
173.133286 236.0
173.158447 68.0
173.191574 72.0
173.250458 36.0
173.291519 116.0
173.310715 104.0
173.320358 124.0
173.328842 92.0
173.369812 68.0
173.407684 60.0
173.450836 200.0
173.47583 136.0
173.531403 48.0
173.658066 68.0
173.680359 84.0
173.724945 148.0
173.788376 196.0
173.819397 68.0
173.850891 72.0
173.940948 116.0
173.987381 96.0
174.011002 84.0
174.063522 48.0
174.099167 5264.0
174.13179 52.0
174.258102 48.0
174.329544 200.0
174.349854 124.0
174.504944 84.0
174.549637 124.0
174.623276 32.0
174.689026 56.0
174.712708 96.0
174.749542 152.0
174.781113 60.0
174.915329 108.0
174.961761 148.0
175.028534 100.0
175.052231 172.0
175.111893 25280.0
175.163834 236.0
175.186554 148.0
175.206177 80.0
175.241882 260.0
175.283264 176.0
175.315659 84.0
175.336746 32.0
175.365524 104.0
175.399811 112.0
175.44133 100.0
175.460999 112.0
175.480469 88.0
175.515991 52.0
175.540604 84.0
175.580566 68.0
175.634964 108.0
175.668961 88.0
175.695343 52.0
175.732285 76.0
175.88797 52.0
175.969818 188.0
175.996216 36.0
176.114578 3432.0
176.366058 100.0
176.519394 92.0
176.551132 96.0
176.58815 32.0
176.678085 88.0
176.741592 152.0
176.815689 44.0
177.030121 72.0
177.067871 124.0
177.102448 64.0
177.123825 332.0
177.252625 88.0
177.302979 96.0
177.432861 40.0
177.459366 104.0
177.50444 128.0
177.60257 144.0
177.626434 120.0
177.931625 92.0
178.075012 152.0
178.239716 96.0
178.534775 56.0
178.933899 44.0
179.378784 32.0
180.035126 180.0
180.954956 20.0
180.995117 168.0
181.102234 184.0
181.129013 192.0
181.166519 136.0
181.826126 124.0
181.987183 152.0
182.185928 88.0
182.357895 148.0
182.992737 212.0
183.046585 184.0
183.091415 1680.0
183.536987 44.0
183.947815 188.0
184.017258 160.0
184.09166 728.0
184.895752 68.0
185.036514 144.0
185.096848 1104.0
185.294342 100.0
185.326309 192.0
185.684128 64.0
186.101395 540.0
186.164474 76.0
186.210648 88.0
186.264969 116.0
186.966431 68.0
187.061691 36.0
187.109863 928.0
187.225052 48.0
187.492035 36.0
187.835571 48.0
187.993805 84.0
188.10527 1444.0
188.280457 164.0
188.49353 172.0
188.684845 88.0
188.862595 192.0
188.972015 56.0
189.116272 140.0
189.568939 80.0
190.488037 100.0
190.922302 88.0
191.624207 104.0
191.723404 116.0
192.258408 88.0
192.54567 144.0
193.646255 80.0
194.217209 48.0
194.444717 76.0
194.716797 208.0
195.075226 52.0
196.102325 200.0
196.130188 156.0
196.188736 180.0
197.243912 196.0
197.389282 152.0
197.988129 52.0
198.058151 40.0
198.105774 100.0
199.003204 180.0
199.042511 100.0
199.111328 600.0
199.233505 72.0
199.559509 136.0
200.065918 44.0
200.112869 248.0
200.17009 40.0
200.518417 68.0
200.950851 80.0
200.973419 184.0
201.122711 2036.0
201.179443 60.0
201.317795 40.0
201.523987 108.0
201.563538 120.0
201.680038 184.0
201.713333 36.0
201.750076 192.0
201.97348 48.0
202.010239 148.0
202.061172 180.0
202.123108 6576.0
202.187943 184.0
202.270584 56.0
202.341354 100.0
202.429123 44.0
202.460266 92.0
202.525406 48.0
202.562241 76.0
202.675552 128.0
202.757736 80.0
202.902298 180.0
202.941986 64.0
203.124329 1312.0
203.424271 80.0
203.46402 136.0
203.730972 44.0
204.119446 216.0
204.330811 64.0
204.458862 128.0
204.495865 108.0
204.823288 32.0
205.136734 68.0
205.421906 56.0
205.812881 72.0
205.95282 260.0
207.721771 44.0
208.517105 224.0
208.767212 168.0
208.939789 192.0
209.564545 156.0
210.227737 104.0
210.354736 236.0
210.490417 132.0
212.113449 116.0
212.963608 152.0
213.286133 92.0
214.141541 160.0
214.199799 92.0
214.220184 104.0
214.269714 100.0
214.995758 104.0
215.07164 68.0
215.143921 156.0
215.208832 80.0
215.530136 124.0
215.942322 192.0
216.137756 9028.0
216.498367 140.0
216.554016 76.0
216.624313 112.0
216.665314 88.0
216.703415 104.0
216.756149 52.0
217.00235 48.0
217.142502 996.0
217.222305 72.0
217.374863 64.0
217.509872 40.0
217.583252 52.0
217.900436 68.0
218.064987 96.0
218.149963 200.0
218.291351 80.0
218.559036 40.0
218.5914 124.0
218.726776 92.0
218.75032 104.0
218.815094 112.0
220.842361 40.0
221.173752 44.0
221.970673 56.0
222.935425 72.0
223.485535 76.0
224.110794 164.0
225.050323 104.0
225.169769 96.0
225.495407 156.0
225.541046 224.0
227.220184 68.0
227.955811 140.0
228.178223 80.0
228.500031 156.0
229.150345 176.0
229.692963 36.0
229.952454 120.0
230.049042 80.0
230.737823 44.0
230.901108 116.0
232.704071 112.0
234.279419 64.0
235.224747 120.0
235.450684 64.0
236.080215 168.0
236.101624 60.0
237.565704 120.0
237.691483 200.0
238.459229 64.0
238.566803 76.0
239.881256 208.0
240.171097 56.0
240.288315 192.0
240.661774 56.0
241.270401 192.0
241.551804 232.0
241.774582 172.0
242.124405 132.0
242.322647 144.0
242.493088 144.0
242.86203 116.0
242.89061 224.0
244.126053 216.0
244.325104 180.0
245.262405 180.0
245.589798 60.0
250.353592 176.0
250.904984 72.0
251.826385 120.0
252.828583 104.0
252.980515 88.0
253.461914 224.0
253.861313 132.0
253.931091 112.0
254.254684 124.0
254.975601 88.0
255.687988 72.0
255.80574 48.0
256.238861 60.0
256.783936 108.0
256.828583 112.0
256.921082 68.0
256.962555 156.0
257.007233 132.0
257.222565 176.0
257.265747 64.0
257.348755 120.0
257.594666 120.0
257.83429 104.0
257.883423 248.0
257.94696 220.0
257.995819 184.0
258.078827 136.0
258.186035 31200.0
258.2435 244.0
258.279633 180.0
258.34906 48.0
258.403473 44.0
258.43866 72.0
258.514648 96.0
258.557037 64.0
258.585846 76.0
258.68927 52.0
258.721893 144.0
258.76709 52.0
258.796143 180.0
258.857971 68.0
258.915619 72.0
259.025482 52.0
259.069366 56.0
259.187744 5256.0
259.250824 112.0
259.319275 44.0
259.346069 56.0
259.462799 120.0
259.495575 60.0
259.668762 64.0
259.745728 68.0
259.852661 48.0
259.899719 48.0
260.193085 656.0
260.493652 48.0
260.538605 68.0
260.596436 88.0
260.618927 40.0
260.649109 112.0
260.721771 112.0
260.769958 48.0
260.795685 56.0
260.854279 140.0
260.924255 96.0
260.979187 48.0
261.028595 144.0
261.085052 104.0
261.110779 128.0
261.155121 196.0
261.229767 44.0
261.261932 64.0
261.805908 60.0
262.298828 44.0
262.914856 108.0
265.421875 100.0
266.505981 112.0
266.629456 72.0
267.455566 48.0
268.256866 84.0
270.154968 156.0
271.880859 40.0
274.746765 72.0
274.773132 84.0
277.166901 104.0
277.647583 68.0
279.008942 36.0
279.298248 44.0
281.547943 56.0
282.236298 120.0
283.02594 96.0
284.692505 40.0
287.118896 108.0
287.871429 72.0
288.117981 56.0
289.721527 44.0
298.926727 72.0
300.818848 124.0
302.803528 124.0
304.013458 72.0
304.996307 112.0
305.090179 40.0
306.841309 76.0
307.713501 44.0
309.937958 80.0
310.649658 104.0
311.646698 44.0
314.135712 52.0
314.312134 60.0
315.845367 80.0
319.612976 60.0
320.656342 32.0
321.362396 96.0
323.220398 100.0
323.395752 52.0
326.491913 52.0
330.941132 64.0
332.695862 68.0
335.500671 88.0
335.996643 40.0
336.343323 36.0
350.565338 100.0
353.02536 80.0
363.907684 32.0
369.713074 72.0
373.576782 60.0
384.0354 76.0
391.698334 76.0
402.773285 124.0
412.859863 52.0
413.431824 92.0
419.419189 80.0
441.746918 68.0
452.689941 108.0
453.287231 104.0
473.400909 140.0
474.071533 96.0
477.83609 92.0
481.414642 132.0
486.085388 56.0
513.369568 140.0
517.639893 40.0
519.148926 76.0
529.434387 76.0
542.538574 72.0
543.447632 96.0
553.435974 44.0
553.46875 56.0
561.726135 64.0
583.408325 84.0
585.655518 84.0
594.221497 68.0
598.099365 76.0
602.102173 76.0
608.398987 44.0
608.536438 52.0
615.607239 68.0
616.387695 200.0
623.354675 52.0
631.300659 96.0
647.652405 52.0
652.793457 76.0
655.144897 44.0
663.864563 72.0
691.36322 112.0
701.273499 56.0
720.044617 112.0
729.206055 224.0
732.735962 92.0
733.172424 80.0
734.250671 144.0
751.293396 44.0
756.014099 84.0
763.337402 184.0
772.437439 64.0
779.350647 76.0
779.73407 88.0
784.520874 188.0
785.307129 76.0
786.573669 88.0
790.071838 44.0
793.011536 52.0
800.916992 204.0
819.8573 80.0
825.891968 136.0
826.166504 176.0
836.518799 52.0
844.053528 108.0
847.503296 224.0
849.886292 128.0
852.13324 232.0
859.837036 88.0
867.07135 168.0
868.865601 52.0
875.289673 148.0
875.884521 120.0
876.532532 84.0
887.882568 148.0
888.042664 180.0
897.378784 128.0
897.730591 192.0
898.171936 36.0
898.571594 108.0
905.899902 120.0
906.086609 32.0
909.336609 112.0
910.747559 164.0
918.222717 124.0
919.519836 136.0
921.077576 100.0
922.793823 152.0
923.688843 84.0
928.049133 160.0
932.559509 48.0
936.599609 240.0
936.946838 140.0
937.397705 68.0
938.872925 108.0
943.238342 136.0
944.736511 132.0
948.263428 156.0
956.530701 188.0
957.780701 160.0
959.068481 116.0
959.333496 160.0
959.876099 240.0
960.801208 124.0
963.400208 156.0
969.067139 164.0
971.993713 176.0
974.117004 100.0
978.003235 156.0
978.44519 164.0
978.961975 192.0
980.251465 68.0
981.491882 64.0
985.473999 168.0
986.498901 132.0
990.447327 100.0
991.249268 192.0
992.697266 184.0
995.119263 160.0
995.21344 200.0
997.745361 132.0
999.990967 196.0
1000.658203 196.0
1001.407532 104.0
1006.667175 168.0
1006.806091 216.0
1008.524536 180.0
1008.733154 120.0
1009.662537 204.0
1011.902527 188.0
1015.393982 120.0
1019.132874 52.0
1020.067078 56.0
1023.018677 140.0
1027.900757 148.0
1028.506958 172.0
1029.190063 128.0
1029.879761 96.0
1031.016968 160.0
1031.13208 180.0
1031.279053 148.0
1039.290283 168.0
1039.399292 140.0
1039.598267 152.0
1040.843506 88.0
1042.757935 72.0
1048.331055 160.0
1051.749146 156.0
1052.653076 184.0
1053.118042 188.0
1053.356934 252.0
1053.809204 48.0
1056.078247 196.0
1056.89978 180.0
1057.275024 156.0
1057.954712 52.0
1061.206909 92.0
1061.874878 148.0
1063.691528 152.0
1063.964233 220.0
1064.581055 208.0
1064.814819 108.0
1068.8479 172.0
1072.140259 52.0
1072.974609 176.0
1073.078857 132.0
1073.267944 72.0
1075.342407 144.0
1075.799316 168.0
1076.249756 120.0
1077.190186 148.0
1079.778564 140.0
1082.500854 116.0
1083.018311 160.0
1083.064087 156.0
1083.273682 180.0
1083.509521 108.0
1084.000977 160.0
1088.796387 128.0
1089.867065 60.0
1091.470825 136.0
1092.023193 164.0
1092.549438 108.0
1093.25354 44.0
1095.525024 140.0
1098.326538 180.0
1098.44519 144.0
1099.44812 160.0
1099.71875 128.0
1100.2146 164.0
1100.966431 100.0
1101.58728 196.0
1102.637939 168.0
1104.006348 212.0
1104.052612 116.0
1104.68103 32.0
1106.567017 212.0
1107.633179 136.0
1108.593872 148.0
1109.296387 68.0
1109.60144 108.0
1109.840088 208.0
1112.925415 136.0
1113.994629 212.0
1114.93811 160.0
1116.393921 160.0
1117.258667 208.0
1117.824097 136.0
1118.403198 204.0
1120.567383 148.0
1120.67395 92.0
1120.727295 124.0
1125.883545 120.0
1126.057251 192.0
1128.462891 104.0
1128.710205 232.0
1129.646606 136.0
1129.700073 152.0
1133.154541 120.0
1133.476929 156.0
1134.903809 164.0
1135.265869 56.0
1136.2854 48.0
1138.701904 152.0
1139.575195 208.0
1141.087402 148.0
1141.289062 148.0
1141.463867 164.0
1141.779907 220.0
1147.96875 128.0
1148.353149 140.0
1149.540527 84.0
1149.952148 168.0
1152.829102 152.0
1156.785767 184.0
1156.98877 168.0
1157.841919 108.0
1158.194092 212.0
1158.891846 104.0
1160.111816 128.0
1160.2677 196.0
1160.721924 160.0
1161.244141 120.0
1162.214233 36.0
1162.74353 160.0
1162.960693 64.0
1164.135132 172.0
1164.182739 184.0
1164.314575 256.0
1166.016968 136.0
1167.070557 168.0
1167.43103 84.0
1167.852661 176.0
1168.253906 144.0
1168.879883 192.0
1169.131714 120.0
1170.36377 176.0
1171.044678 48.0
1172.018921 192.0
1172.816162 116.0
1174.93689 152.0
1175.359985 224.0
1175.503174 236.0
1176.520142 128.0
1178.425659 76.0
1178.75354 104.0
1179.02002 96.0
1179.430176 156.0
1179.744629 168.0
1179.89502 96.0
1180.811279 124.0
1181.550049 156.0
1182.371094 240.0
1183.021362 124.0
1183.411499 92.0
1183.50061 164.0
1184.01416 104.0
1185.788574 180.0
1185.905029 96.0
1185.980469 224.0
1186.508301 168.0
1188.065063 132.0
1188.126709 120.0
1188.60022 116.0
1189.464844 220.0
1190.062134 144.0
1191.751709 184.0
1191.854858 164.0
1193.009399 112.0
1193.181274 216.0
1193.339478 156.0
1193.841431 180.0
1194.357178 200.0
1194.955688 180.0
1195.43042 180.0
1195.588745 164.0
1196.366455 156.0
1196.807129 204.0
1198.473877 156.0
1199.293945 72.0
1200.024658 164.0
1201.452271 124.0
1201.804199 140.0
1201.873169 172.0
1202.659912 140.0
1202.755127 136.0
1202.815674 188.0
1203.446899 264.0
1205.269409 160.0
1205.684937 144.0
1205.864624 168.0
1206.203125 148.0
1206.279297 60.0
1207.599976 184.0
1207.938843 64.0
1209.772705 188.0
1209.828003 128.0
1210.672729 72.0
1210.901245 124.0
1211.483154 108.0
1212.910522 224.0
1213.527588 128.0
1213.638428 220.0
1213.714722 88.0
1214.970093 184.0
1215.802734 160.0
1216.010864 80.0
1216.503784 120.0
1219.087402 108.0
1223.03772 180.0
1223.349976 196.0
1224.165527 160.0
1224.332642 40.0
1225.391479 88.0
1226.283447 192.0
1227.559204 64.0
1227.959717 168.0
1228.082153 156.0
1228.200806 184.0
1228.410034 148.0
1228.800659 196.0
1228.884399 52.0
1231.229858 176.0
1231.613892 192.0
1232.067993 164.0
1234.297485 152.0
1234.367432 168.0
1235.045776 148.0
1235.703369 60.0
1236.137207 180.0
1237.026001 224.0
1238.720581 180.0
1238.888794 152.0
1239.295044 220.0
1239.75061 168.0
1240.86499 140.0
1241.117432 236.0
1242.225464 224.0
1242.506104 84.0
1242.569214 180.0
1242.765747 140.0
1246.430908 168.0
1246.74707 148.0
1247.189941 172.0
1250.749023 132.0
1250.988281 104.0
1251.255859 104.0
1252.107788 180.0
1252.706543 56.0
1253.453369 144.0
1254.02417 192.0
1254.299072 204.0
1255.47644 128.0
1256.06189 140.0
1257.26123 132.0
1257.324707 108.0
1257.381226 204.0
1258.701294 184.0
1259.252075 160.0
1259.668823 128.0
1260.325928 84.0
1260.460083 128.0
1260.975952 140.0
1263.074585 188.0
1264.073486 120.0
1265.113892 124.0
1265.184692 184.0
1265.411255 172.0
1266.175903 236.0
1266.494629 196.0
1269.180542 152.0
1269.946411 164.0
1270.301025 108.0
1271.464722 208.0
1272.458374 72.0
1272.820557 172.0
1273.111694 192.0
1273.260742 196.0
1273.495117 192.0
1275.072388 240.0
1275.505981 204.0
1275.669434 212.0
1276.59375 172.0
1277.326294 168.0
1277.461426 156.0
1277.553955 164.0
1278.471802 64.0
1278.535767 192.0
1278.635376 68.0
1279.631958 176.0
1280.180298 184.0
1280.47937 192.0
1280.586182 172.0
1281.163086 156.0
1281.384033 132.0
1281.547852 172.0
1282.324585 256.0
1282.538452 164.0
1283.382568 176.0
1283.750366 152.0
1285.312622 140.0
1285.376831 136.0
1287.189819 160.0
1287.389771 168.0
1287.575439 252.0
1287.625488 76.0
1287.911133 148.0
1288.99707 116.0
1289.075684 132.0
1291.234619 44.0
1291.477783 180.0
1291.563599 172.0
1291.685181 96.0
1292.364868 72.0
1293.06604 164.0
1293.223511 188.0
1293.574219 216.0
1294.755615 208.0
1295.307129 172.0
1295.50061 196.0
1295.923218 192.0
1296.102417 132.0
1296.740112 180.0
1297.41394 176.0
1297.700684 92.0
1298.217041 148.0
1299.723389 148.0
1301.805054 124.0
1302.263062 232.0
1302.365234 172.0
1303.873901 196.0
1304.362671 140.0
1304.492065 164.0
1304.989258 180.0
1305.664062 128.0
1305.829468 188.0
1305.908569 212.0
1305.980469 176.0
1307.34314 132.0
1308.081543 152.0
1310.205933 160.0
1311.675903 156.0
1311.942627 144.0
1313.572388 152.0
1315.69397 108.0
1315.758911 132.0
1315.838379 140.0
1316.083862 168.0
1317.042969 156.0
1317.159912 96.0
1317.896729 164.0
1318.503784 164.0
1318.865112 172.0
1319.488647 192.0
1319.645874 64.0
1319.848267 276.0
1319.920654 52.0
1320.007324 40.0
1320.23877 180.0
1321.417847 184.0
1321.714478 156.0
1321.837402 160.0
1322.083496 92.0
1322.177612 144.0
1322.257202 132.0
1322.343994 188.0
1323.234375 200.0
1323.885986 148.0
1324.204712 128.0
1324.617554 120.0
1324.776855 164.0
1324.914551 132.0
1325.320312 176.0
1326.675537 124.0
1326.813232 100.0
1327.226562 136.0
1327.726929 96.0
1328.386963 52.0
1328.481201 148.0
1329.707397 200.0
1331.849243 140.0
1333.069824 176.0
1333.571289 128.0
1335.272583 192.0
1335.723511 124.0
1336.501953 160.0
1337.841064 132.0
1338.368774 196.0
1338.474487 124.0
1338.576416 88.0
1338.70752 100.0
1338.853149 100.0
1338.911377 100.0
1339.158936 160.0
1340.054932 228.0
1341.148071 184.0
1341.264648 208.0
1342.329102 236.0
1342.489502 172.0
1343.539795 236.0
1343.963013 148.0
1344.678101 184.0
1344.765747 172.0
1345.429932 216.0
1345.546753 176.0
1345.74231 184.0
1347.102295 188.0
1347.167969 176.0
1347.219116 236.0
1347.620972 108.0
1347.847412 192.0
1348.453979 168.0
1348.80481 144.0
1348.952515 172.0
1349.901489 120.0
1350.391479 204.0
1350.793701 148.0
1351.130249 124.0
1351.415527 248.0
1351.532593 172.0
1351.84668 204.0
1352.293701 220.0
1353.040283 172.0
1353.20874 180.0
1353.325806 148.0
1353.904297 188.0
1354.248535 48.0
1354.336426 180.0
1354.497559 168.0
1354.973755 168.0
1355.977539 216.0
1356.094849 168.0
1356.160767 152.0
1356.314697 148.0
1357.084473 68.0
1357.172485 160.0
1357.223755 172.0
1357.289795 180.0
1357.759155 168.0
1357.927734 204.0
1358.001099 176.0
1358.411865 36.0
1358.602661 128.0
1359.343628 148.0
1359.798584 128.0
1360.187622 128.0
1360.495972 156.0
1361.817627 148.0
1361.898438 72.0
1362.067383 144.0
1362.853394 108.0
1363.169434 144.0
1364.30127 168.0
1364.521851 208.0
1365.617432 232.0
1366.147095 160.0
1367.236084 200.0
1367.574585 172.0
1367.898438 148.0
1368.075073 120.0
1368.457886 184.0
1368.516846 172.0
1368.613892 176.0
1368.715698 128.0
1368.818726 116.0
1369.061768 76.0
1369.901367 180.0
1370.255005 76.0
1370.704468 180.0
1371.183472 80.0
1371.846802 164.0
1372.57666 116.0
1372.783203 144.0
1373.11499 116.0
1375.011108 196.0
1375.335815 140.0
1375.418701 240.0
1375.623657 220.0
1376.05188 92.0
1376.731201 164.0
1377.299805 164.0
1377.381104 176.0
1377.614136 140.0
1377.90564 240.0
1378.637085 152.0
1379.634888 168.0
1380.795776 172.0
1381.12854 184.0
1381.720337 164.0
1382.001587 192.0
1382.090332 144.0
1382.267944 192.0
1382.352173 164.0
1382.484131 204.0
1382.60437 224.0
1383.503906 52.0
1383.807495 164.0
1384.229492 148.0
1384.925659 76.0
1385.925659 156.0
1386.029419 176.0
1386.192505 208.0
1386.385132 88.0
1386.703857 160.0
1386.800171 200.0
1386.978027 60.0
1387.118896 168.0
1387.467285 168.0
1388.134644 144.0
1388.557251 152.0
1388.816895 164.0
1388.890991 52.0
1389.365845 92.0
1389.78125 156.0
1390.60498 192.0
1391.151123 216.0
1391.466064 196.0
1391.792725 152.0
1392.082275 152.0
1392.394165 160.0
1393.196411 212.0
1393.805664 216.0
1394.585938 228.0
1395.046753 196.0
1395.61792 176.0
1395.723389 212.0
1395.812622 200.0
1396.42981 148.0
1396.809082 100.0
1397.032349 148.0
1397.657227 184.0
1398.148315 156.0
1398.766113 136.0
1399.108521 36.0
1400.329712 212.0
1400.515869 156.0
1400.567993 164.0
1401.191162 148.0
1401.305542 196.0
1401.387451 52.0
1401.581177 124.0
1402.035767 136.0
1402.42334 128.0
1402.818359 168.0
1402.930176 312.0
1402.982422 104.0
1403.630981 124.0
1403.906982 132.0
1404.608032 168.0
1405.868896 176.0
1406.115112 136.0
1407.234863 208.0
1407.989014 132.0
1408.302734 232.0
1409.019775 164.0
1409.12439 156.0
1409.333618 152.0
1409.722168 284.0
1409.916504 132.0
1410.858276 204.0
1411.261963 172.0
1411.389038 152.0
1411.7854 168.0
1412.286499 180.0
1412.974609 128.0
1413.984863 180.0
1414.351562 180.0
1415.684204 240.0
1415.81897 212.0
1416.096069 96.0
1417.069946 76.0
1417.736816 196.0
1418.95105 128.0
1419.041016 180.0
1419.303467 192.0
1419.415894 36.0
1419.543335 116.0
1419.813354 236.0
1420.275269 228.0
1420.938477 248.0
1421.261108 136.0
1421.366211 164.0
1422.784668 164.0
1423.580566 224.0
1423.790771 136.0
1423.918457 152.0
1425.939453 224.0
1426.127319 204.0
1426.563354 104.0
1426.710449 232.0
1427.082031 156.0
1427.593384 44.0
1428.887085 208.0
1429.067627 180.0
1429.443848 128.0
1430.008301 32.0
1430.128662 132.0
1430.196411 196.0
1430.821289 148.0
1431.250366 156.0
1431.423584 128.0
1431.672119 188.0
1431.785034 180.0
1431.995972 164.0
1432.342407 224.0
1432.568359 228.0
1433.020386 220.0
1434.082886 140.0
1434.783936 140.0
1435.192871 136.0
1435.515259 200.0
1435.930054 44.0
1436.578735 124.0
1436.661743 192.0
1436.880493 228.0
1436.993652 152.0
1437.652466 224.0
1438.321777 160.0
1439.371216 132.0
1439.597778 80.0
1439.967773 72.0
1440.050903 120.0
1440.768433 100.0
1441.08667 212.0
1441.848999 176.0
1442.430908 104.0
1442.695557 200.0
1443.83728 128.0
1443.927979 136.0
1443.996094 100.0
1444.358887 128.0
1444.911377 156.0
1445.425781 120.0
1446.243164 144.0
1446.53833 172.0
1447.310547 156.0
1447.560425 276.0
1447.984497 96.0
1448.71167 132.0
1449.302612 152.0
1449.825439 156.0
1450.606079 84.0
1451.417358 196.0
1451.531006 144.0
1451.819214 116.0
1451.925415 136.0
1452.008789 80.0
1452.524536 148.0
1452.820435 144.0
1453.01001 188.0
1454.975586 176.0
1455.104736 148.0
1455.256592 188.0
1455.681763 80.0
1455.818481 100.0
1456.813354 136.0
1457.178101 128.0
1457.481934 88.0
1457.550415 192.0
1458.599121 152.0
1459.017212 216.0
1459.184448 184.0
1459.283325 128.0
1460.089355 160.0
1460.3479 76.0
1460.986816 144.0
1461.823853 176.0
1462.584839 172.0
1462.80542 208.0
1463.384155 140.0
1463.772461 56.0
1464.054199 192.0
1464.297974 156.0
1464.457886 136.0
1464.602539 136.0
1464.861572 128.0
1465.362671 180.0
1465.471069 124.0
1466.103516 264.0
1466.385498 180.0
1466.743652 96.0
1467.322998 156.0
1468.360107 192.0
1468.466797 220.0
1468.749023 120.0
1469.42041 244.0
1469.984985 156.0
1470.557373 188.0
1470.709961 196.0
1470.763428 64.0
1470.931396 116.0
1471.488647 132.0
1472.130005 148.0
1472.282715 116.0
1472.450684 228.0
1473.138184 108.0
1473.19165 164.0
1473.481934 160.0
1473.672974 212.0
1473.848633 68.0
1474.253662 88.0
1474.598511 168.0
1474.788696 140.0
1475.6875 164.0
1476.378906 40.0
1476.78418 160.0
1477.151367 156.0
1477.411377 168.0
1478.061768 132.0
1478.214844 72.0
1478.559204 128.0
1480.02124 212.0
1481.223633 64.0
1481.277222 108.0
1481.928345 228.0
1483.568481 156.0
1483.675781 124.0
1484.434814 204.0
1485.562256 168.0
1485.654297 164.0
1486.413818 168.0
1488.286743 32.0
1488.770508 144.0
1488.908691 164.0
1488.985474 112.0
1489.108398 188.0
1489.623047 156.0
1490.429688 104.0
1490.760132 128.0
1491.705444 140.0
1492.135986 204.0
1492.766479 148.0
1493.235596 116.0
1493.30481 180.0
1493.404785 160.0
1494.243164 196.0
1494.520142 64.0
1494.681763 216.0
1494.762451 144.0
1494.828003 164.0
1494.903198 148.0
1495.058838 156.0
1495.759155 208.0
1496.013184 32.0
1496.08252 132.0
1497.89978 156.0
1498.184814 156.0
1498.277344 132.0
1499.348267 148.0
1499.425415 156.0
1499.502441 144.0
1500.119141 144.0
1500.496826 156.0
1500.704956 152.0
1501.32959 152.0
1501.7229 140.0
1502.293701 136.0
1502.579102 168.0
1503.28894 128.0
1503.412476 188.0
1503.497314 180.0
1503.921875 172.0
1504.232056 400.0
1505.041138 208.0
