>compound MLS001066371-01!Terbutryn886-50-0
>formula C10H19N5S
>ionization [M+H]+
>parentmass 242.143875
#inchi InChI=1S/C10H19N5S/c1-6-11-7-12-8(15-10(2,3)4)14-9(13-7)16-5/h6H2,1-5H3,(H2,11,12,13,14,15)
#inchikey IROINLKCQGIITA
#Ion_Source LC-ESI
#Instrument qTof
#Compound_Source NIH Pharmacologically Active Library
#PI Dorrestein
#Data_Collector VP/LMS
#Scan -1
#Precursor_MZ 242.145
#ExactMass 241.136
#Charge 1
#CAS_Number N/A
#Pubmed_ID N/A
#Smiles CCNc1nc(NC(C)(C)C)nc(SC)n1
#INCHI_AUX N/A
#Library_Class 1
#SpectrumID CCMSLIB00000084989
#IonMode Positive
#UpdateWorkflowName UPDATE-SINGLE-ANNOTATED-GOLD
#LibraryQualityString Gold
#TaskID d252d724072548979f1f6f1ced849daf
##Scan# 1827
#SpectrumFile p3-D06_GD6_01_18263.mzXML
#LibraryName Pharm_Active_Library.mgf
#MQScore -1
#Organism Pharm_Active_Library
#TIC_Query 0
#RT_Query -1
#MZErrorPPM -1
#SharedPeaks 0
#MassDiff 0
#LibMZ -1
#SpecMZ 242.145
#SpecCharge 0
#internalFilename spec-00000.mgf

>collision 10
44.999142 112.0
45.033863 112.0
45.044548 180.0
45.088642 204.0
45.198082 192.0
45.20787 188.0
45.230427 148.0
45.249168 152.0
45.3349 220.0
45.363049 152.0
45.420712 180.0
45.434128 160.0
45.630215 144.0
45.661144 256.0
45.671906 144.0
45.694775 176.0
45.832119 116.0
45.935932 184.0
45.965618 204.0
46.110123 184.0
46.245377 144.0
46.269745 224.0
46.402523 84.0
46.527348 220.0
46.587105 140.0
46.706734 144.0
46.785664 216.0
46.808811 112.0
46.858227 200.0
46.962818 104.0
47.007839 120.0
47.018757 240.0
47.186783 200.0
47.238754 240.0
47.263897 152.0
47.298965 176.0
47.311287 204.0
47.344147 324.0
47.40527 64.0
47.41539 88.0
47.438694 44.0
47.496288 140.0
47.515495 196.0
47.618454 100.0
47.630814 172.0
47.674782 208.0
47.68578 176.0
47.696774 204.0
47.710522 112.0
47.732521 180.0
47.828831 188.0
47.846725 152.0
47.856365 84.0
47.890793 160.0
47.932125 204.0
47.962448 116.0
47.98037 60.0
48.02174 44.0
48.032776 132.0
48.087967 188.0
48.11834 64.0
48.183254 176.0
48.210892 136.0
48.271717 76.0
48.314598 104.0
48.361649 208.0
48.443348 160.0
48.489849 196.0
48.625 244.0
48.668034 164.0
48.738876 172.0
49.049244 72.0
49.112312 244.0
49.134312 192.0
49.426495 180.0
49.44873 40.0
49.513138 156.0
49.534145 136.0
49.570576 100.0
49.709408 124.0
49.72625 188.0
50.029884 156.0
50.409309 204.0
50.423443 188.0
50.461613 240.0
50.563465 232.0
50.59602 80.0
50.618675 156.0
50.668903 200.0
50.688091 160.0
50.734863 176.0
50.754715 164.0
50.815708 80.0
50.825638 152.0
50.875317 200.0
50.898033 92.0
50.926437 176.0
50.948586 176.0
50.973324 144.0
50.990376 112.0
51.00317 172.0
51.052933 212.0
51.139721 156.0
51.227837 200.0
51.294987 168.0
51.332058 140.0
51.373421 84.0
51.531898 224.0
51.541901 148.0
51.826656 96.0
51.848152 176.0
51.882553 128.0
51.935616 128.0
52.010231 224.0
52.028893 200.0
52.06192 204.0
52.082027 164.0
52.12117 228.0
52.146687 140.0
52.220016 188.0
52.30331 216.0
52.371151 100.0
52.384113 208.0
52.395638 164.0
52.466259 116.0
52.580215 164.0
52.624969 96.0
52.687073 144.0
52.730427 220.0
52.744881 160.0
52.763672 80.0
52.838882 164.0
52.851902 196.0
52.870682 168.0
52.899666 180.0
53.072079 188.0
53.132996 112.0
53.188141 160.0
53.211369 148.0
53.237507 152.0
53.254429 240.0
53.279633 168.0
53.289803 48.0
53.304333 52.0
53.358116 80.0
53.397785 128.0
53.567684 136.0
53.582253 188.0
53.660957 156.0
53.774746 224.0
53.841908 164.0
53.955887 260.0
53.970505 184.0
53.989517 132.0
54.002682 192.0
54.050961 192.0
54.122684 148.0
54.169556 52.0
54.285347 76.0
54.305878 56.0
54.495255 88.0
54.520237 156.0
54.549637 136.0
54.568748 168.0
54.875004 124.0
54.913345 188.0
54.923668 224.0
54.979736 52.0
54.994495 160.0
55.035831 172.0
55.097866 284.0
55.127419 208.0
55.199856 96.0
55.211689 120.0
55.254585 228.0
55.29158 40.0
55.404976 208.0
55.417454 164.0
55.54792 76.0
55.639935 184.0
55.674088 192.0
55.736477 104.0
55.752827 176.0
55.911961 188.0
56.032578 180.0
56.044498 124.0
56.06834 128.0
56.084736 72.0
56.204048 232.0
56.250317 192.0
56.277187 116.0
56.310043 132.0
56.378769 180.0
56.517845 160.0
56.544781 232.0
56.663082 140.0
56.714035 140.0
56.856522 140.0
56.909065 128.0
57.083374 180.0
57.163101 144.0
57.306747 132.0
57.350677 172.0
57.363422 172.0
57.375484 224.0
57.422806 252.0
57.518799 204.0
57.545975 196.0
57.58675 148.0
57.689503 156.0
57.771168 156.0
57.781761 152.0
57.860462 192.0
57.910435 52.0
57.924068 180.0
57.949821 144.0
58.048351 220.0
58.104473 132.0
58.174286 208.0
58.194023 88.0
58.210728 188.0
58.35508 108.0
58.382454 168.0
58.412872 184.0
58.59861 124.0
58.688114 72.0
59.047646 160.0
59.076477 128.0
59.160648 148.0
59.179298 176.0
59.214245 176.0
59.307709 168.0
59.484116 196.0
59.597767 164.0
59.611599 184.0
59.665638 152.0
59.691536 172.0
59.712887 152.0
59.825397 208.0
59.959408 160.0
60.010281 144.0
60.024158 104.0
60.324417 204.0
60.343788 144.0
60.374714 176.0
60.391727 176.0
60.453613 188.0
60.509338 164.0
60.523273 184.0
60.551151 108.0
60.569736 180.0
60.617767 92.0
60.75111 136.0
60.78059 184.0
60.850441 128.0
60.901688 40.0
61.134903 84.0
61.150467 136.0
61.175373 148.0
61.28751 172.0
61.349857 164.0
61.482441 168.0
61.542522 172.0
61.579243 180.0
61.66674 132.0
61.771503 120.0
61.964069 48.0
61.986221 116.0
62.03146 232.0
62.091042 144.0
62.241699 180.0
62.276249 72.0
62.328236 176.0
62.340664 152.0
62.477463 132.0
62.490051 204.0
62.599747 180.0
62.622288 208.0
62.656944 104.0
62.690033 176.0
62.824059 116.0
62.846146 200.0
62.869816 140.0
62.895069 56.0
63.120228 156.0
63.185852 184.0
63.293484 176.0
63.340996 184.0
63.40913 132.0
63.512192 88.0
63.602638 212.0
63.651855 156.0
63.720158 196.0
63.759884 164.0
63.825062 180.0
63.839375 144.0
63.871185 136.0
63.912552 96.0
63.980991 80.0
64.011246 360.0
64.293419 172.0
64.315765 184.0
64.336456 264.0
64.409027 216.0
64.536232 96.0
64.585808 28.0
64.686623 72.0
64.701027 204.0
64.713837 128.0
64.790718 160.0
64.861229 132.0
64.898102 116.0
65.039284 128.0
65.085838 200.0
65.207932 124.0
65.269028 64.0
65.516891 124.0
65.573296 72.0
65.592636 156.0
65.660355 136.0
65.684547 148.0
65.695847 208.0
65.71682 180.0
65.749092 160.0
65.833046 116.0
65.92028 228.0
65.973618 176.0
66.001106 140.0
66.020508 92.0
66.122437 196.0
66.200142 180.0
66.214722 200.0
66.239014 84.0
66.298965 148.0
66.360565 76.0
66.38813 176.0
66.418953 120.0
66.553658 152.0
66.585526 204.0
66.651115 36.0
66.724258 160.0
66.864151 128.0
66.950439 132.0
66.986275 144.0
67.000938 56.0
67.022118 44.0
67.067749 116.0
67.13134 128.0
67.191689 108.0
67.212898 128.0
67.245544 220.0
67.284721 196.0
67.338608 160.0
67.388245 188.0
67.441544 192.0
67.47097 216.0
67.484047 188.0
67.528206 176.0
67.567467 64.0
67.621468 184.0
67.711517 32.0
67.844246 204.0
67.966286 128.0
68.103523 168.0
68.126518 272.0
68.201347 176.0
68.281029 60.0
68.475929 192.0
68.534554 144.0
68.552322 244.0
68.570808 184.0
68.681282 152.0
68.745621 100.0
68.813301 124.0
68.890923 160.0
68.91571 136.0
68.948761 144.0
69.006615 156.0
69.051262 140.0
69.152191 132.0
69.173714 196.0
69.372505 192.0
69.450439 148.0
69.462051 164.0
69.485275 184.0
69.598145 144.0
69.643608 128.0
69.691162 148.0
69.726059 212.0
69.855759 76.0
69.894028 128.0
69.948944 220.0
69.978394 176.0
70.095512 84.0
70.138016 128.0
70.329002 128.0
70.397461 164.0
70.514404 156.0
70.571243 132.0
70.613052 168.0
70.874207 184.0
70.902695 140.0
70.94796 240.0
70.978134 208.0
71.043549 168.0
71.05529 196.0
71.1241 168.0
71.159355 168.0
71.355934 128.0
71.566254 168.0
71.658226 192.0
71.691513 212.0
71.789589 104.0
71.812294 172.0
71.898346 200.0
71.928726 164.0
71.9608 44.0
72.072281 120.0
72.08918 168.0
72.101006 172.0
72.128052 140.0
72.165245 68.0
72.253197 200.0
72.441116 188.0
72.48008 164.0
72.495331 248.0
72.56131 156.0
72.600441 312.0
72.625885 212.0
72.673386 196.0
72.792206 148.0
72.877136 92.0
72.929825 136.0
72.957024 160.0
72.977425 180.0
73.034172 172.0
73.110107 84.0
73.135635 152.0
73.183914 172.0
73.207672 104.0
73.29232 144.0
73.336578 124.0
73.438934 72.0
73.570335 112.0
73.778755 188.0
73.792435 236.0
73.845451 196.0
73.867683 228.0
73.879662 164.0
74.002892 152.0
74.018303 188.0
74.061119 144.0
74.079956 40.0
74.203354 172.0
74.253082 160.0
74.593063 132.0
74.605095 152.0
74.751297 160.0
74.924141 136.0
75.101036 44.0
75.135544 192.0
75.415291 152.0
75.576126 88.0
75.628044 132.0
75.679985 184.0
75.71981 192.0
75.733665 216.0
75.853233 80.0
75.889122 200.0
75.962479 168.0
75.991974 184.0
76.018005 144.0
76.082222 108.0
76.132584 92.0
76.219437 188.0
76.233345 96.0
76.426361 148.0
76.51339 176.0
76.547707 180.0
76.57267 180.0
76.657959 152.0
76.799179 132.0
76.898636 252.0
76.96492 128.0
76.989426 172.0
77.064537 80.0
77.292892 188.0
77.468689 208.0
77.491463 192.0
77.523003 232.0
77.692528 240.0
77.909027 164.0
78.103233 136.0
78.118225 180.0
78.17453 168.0
78.229095 152.0
78.294243 52.0
78.313622 68.0
78.33123 224.0
78.373512 200.0
78.406998 216.0
78.433235 176.0
78.450699 260.0
78.683945 144.0
78.851761 168.0
78.9543 132.0
78.986137 112.0
79.033905 176.0
79.189697 136.0
79.225128 252.0
79.315506 192.0
79.485764 104.0
79.519485 148.0
79.533684 120.0
79.557693 168.0
79.673973 180.0
79.912216 276.0
80.150818 216.0
80.182892 184.0
80.272034 192.0
80.343376 216.0
80.371925 132.0
80.570114 156.0
80.694481 164.0
80.838318 132.0
80.994087 156.0
81.250443 244.0
81.347351 212.0
81.647415 76.0
81.766396 156.0
81.966057 180.0
82.068802 232.0
82.088638 88.0
82.146355 124.0
82.160789 204.0
82.189659 156.0
82.234772 124.0
82.408142 200.0
82.563599 180.0
82.616058 140.0
82.708344 140.0
82.836914 176.0
82.88221 116.0
82.96196 152.0
82.990967 232.0
83.039932 140.0
83.111053 196.0
83.13427 172.0
83.187035 116.0
83.230484 208.0
83.274071 164.0
83.343636 232.0
83.403076 200.0
83.443069 156.0
83.557655 48.0
83.638115 188.0
83.665031 188.0
83.867233 144.0
83.881821 196.0
83.911774 252.0
84.113487 180.0
84.221222 184.0
84.279686 100.0
84.393013 164.0
84.413124 252.0
84.477142 152.0
84.53569 128.0
84.594841 164.0
84.652855 128.0
84.671165 240.0
84.687653 200.0
84.980965 152.0
85.052414 236.0
85.230682 44.0
85.304199 56.0
85.491814 72.0
85.548996 180.0
85.563599 148.0
85.635414 176.0
85.871338 140.0
86.092812 364.0
86.142685 204.0
86.161156 156.0
86.360802 112.0
86.455162 144.0
86.523651 172.0
86.595871 140.0
86.655151 76.0
86.695915 216.0
86.80938 136.0
86.84053 184.0
86.942574 188.0
86.964844 152.0
86.987114 204.0
87.046532 220.0
87.063248 164.0
87.176567 104.0
87.260216 144.0
87.285378 156.0
87.35527 180.0
87.411949 168.0
87.535606 148.0
87.576576 392.0
87.610107 180.0
87.777855 100.0
87.850594 216.0
88.046585 96.0
88.274132 164.0
88.409279 136.0
88.536583 196.0
88.589027 176.0
88.628372 92.0
88.755836 96.0
88.793343 184.0
88.872131 220.0
89.05423 160.0
89.174484 188.0
89.191399 224.0
89.398293 32.0
89.48864 224.0
89.530396 184.0
89.569626 216.0
89.654411 224.0
89.773178 124.0
89.795815 216.0
89.850517 148.0
89.920334 148.0
89.959976 116.0
90.016617 204.0
90.046494 156.0
90.075165 164.0
90.146965 180.0
90.311447 156.0
90.381447 144.0
90.426865 144.0
90.568878 152.0
90.618134 100.0
90.67498 208.0
90.783043 164.0
90.80011 188.0
90.885483 204.0
90.91774 144.0
90.932922 60.0
90.993668 144.0
91.031624 2928.0
91.056335 120.0
91.073425 136.0
91.104645 136.0
91.170326 180.0
91.27298 172.0
91.324326 96.0
91.547005 52.0
91.579384 128.0
91.598427 192.0
91.628593 120.0
91.665359 156.0
91.720383 60.0
91.861496 148.0
91.888206 136.0
91.907288 100.0
91.94545 140.0
92.004623 140.0
92.028465 204.0
92.16124 192.0
92.20137 176.0
92.240761 132.0
92.260628 120.0
92.363892 216.0
92.390678 88.0
92.426041 124.0
92.455734 148.0
92.540054 164.0
92.631889 168.0
92.677872 176.0
92.79287 128.0
92.959747 112.0
93.016945 140.0
93.031013 376.0
93.055725 116.0
93.099625 124.0
93.161354 204.0
93.249748 148.0
93.270889 120.0
93.334335 196.0
93.415115 204.0
93.586403 136.0
93.622993 128.0
93.674995 204.0
93.752068 60.0
94.045227 212.0
94.248238 200.0
94.284721 212.0
94.327248 164.0
94.540009 180.0
94.600006 148.0
94.627113 188.0
94.698761 100.0
94.869286 216.0
94.886734 120.0
95.008919 216.0
95.080711 68.0
95.164185 64.0
95.187485 124.0
95.222443 60.0
95.239922 124.0
95.416763 164.0
95.478989 136.0
95.539291 108.0
95.663841 76.0
95.696938 92.0
95.712517 164.0
95.745621 200.0
95.76899 124.0
95.806007 164.0
95.872253 100.0
95.958023 72.0
96.05497 9324.0
96.100479 208.0
96.137482 36.0
96.190178 88.0
96.205795 168.0
96.291718 148.0
96.305389 68.0
96.332733 36.0
96.350319 216.0
96.375717 184.0
96.706215 172.0
96.727753 120.0
96.743408 148.0
96.835442 128.0
96.896172 184.0
96.927956 180.0
97.059166 292.0
97.306084 136.0
97.355171 140.0
97.42588 172.0
97.624405 64.0
97.705055 124.0
97.793602 212.0
97.850693 180.0
97.882195 120.0
97.909767 120.0
97.941284 164.0
98.012207 156.0
98.068428 372.0
98.089066 100.0
98.138359 128.0
98.386955 96.0
98.424469 212.0
98.760437 160.0
98.788132 216.0
98.845512 80.0
98.863319 144.0
98.939499 148.0
99.001358 536.0
99.067261 176.0
99.087074 256.0
99.108871 256.0
99.172287 176.0
99.253571 112.0
99.269432 184.0
99.285301 188.0
99.309097 176.0
99.32695 188.0
99.358696 156.0
99.384483 188.0
99.479752 228.0
99.513504 120.0
99.577049 144.0
99.688301 88.0
99.807899 148.0
99.976662 208.0
100.004524 164.0
100.048325 48.0
100.064247 208.0
100.118011 176.0
100.153862 84.0
100.181702 168.0
100.215622 48.0
100.299324 128.0
100.365112 176.0
100.906212 128.0
100.968201 88.0
100.9842 192.0
101.014206 164.0
101.032211 168.0
101.084236 356.0
101.116257 140.0
101.218353 176.0
101.292458 160.0
101.338531 136.0
101.388145 180.0
101.468811 176.0
101.551033 300.0
101.609207 52.0
101.667397 140.0
101.771782 116.0
101.81395 212.0
101.842072 132.0
101.856133 132.0
101.896309 84.0
101.954582 176.0
102.036263 1020.0
102.16169 136.0
102.238152 196.0
102.322693 96.0
102.346855 164.0
102.387131 200.0
102.409286 212.0
102.428665 124.0
102.481812 200.0
102.558388 156.0
102.57653 212.0
102.596687 164.0
102.616852 168.0
102.647095 96.0
102.776146 172.0
102.78196 168.0
102.84481 228.0
102.903358 176.0
102.966385 208.0
103.036659 144.0
103.143761 88.0
103.163979 120.0
103.212502 184.0
103.230698 148.0
103.315651 196.0
103.479591 204.0
103.528183 136.0
103.674049 220.0
103.724716 160.0
103.933617 168.0
104.098038 172.0
104.28698 124.0
104.317474 96.0
104.467957 172.0
104.533806 188.0
104.55806 156.0
104.698814 144.0
104.907837 56.0
104.969002 124.0
105.124039 152.0
105.203644 116.0
105.277153 120.0
105.360901 156.0
105.399719 216.0
105.573479 176.0
105.591881 96.0
105.673706 220.0
105.741241 72.0
105.759659 124.0
105.933716 36.0
106.056664 144.0
106.196091 56.0
106.347931 152.0
106.461937 212.0
106.518356 192.0
106.53479 140.0
106.897072 184.0
106.927536 192.0
107.133453 172.0
107.360184 120.0
107.519043 172.0
107.629921 100.0
107.804039 112.0
107.882576 192.0
108.02787 188.0
108.137009 160.0
108.242592 140.0
108.429039 220.0
108.530617 176.0
108.615646 204.0
108.756752 112.0
108.885475 124.0
108.93557 172.0
108.958183 144.0
109.070404 168.0
109.103661 164.0
109.118217 108.0
109.17852 156.0
109.193077 164.0
109.245079 212.0
109.317902 232.0
109.496941 164.0
109.734505 124.0
109.934753 244.0
110.00528 172.0
110.045868 6052.0
110.067207 164.0
110.133095 156.0
110.160248 84.0
110.206215 100.0
110.266815 92.0
110.298164 252.0
110.505211 108.0
110.538689 76.0
110.614037 136.0
110.729195 208.0
110.863747 160.0
111.048508 356.0
111.343704 164.0
111.37101 132.0
111.421425 120.0
111.440338 136.0
111.644241 112.0
111.662422 204.0
111.690102 164.0
111.805809 164.0
111.835701 144.0
111.964134 148.0
112.065247 232.0
112.332993 172.0
112.41317 156.0
112.455383 120.0
112.554604 144.0
112.588394 188.0
112.66021 136.0
112.727821 172.0
112.746841 128.0
112.901169 208.0
112.949821 88.0
112.992126 96.0
113.081512 3988.0
113.115845 96.0
113.155098 176.0
113.184738 88.0
113.442284 172.0
113.485626 208.0
113.553482 144.0
113.610756 92.0
113.638336 84.0
113.742325 196.0
113.801773 184.0
113.87822 200.0
113.912209 60.0
114.010582 228.0
114.029076 216.0
114.081413 328.0
114.122612 92.0
114.22403 220.0
114.311928 48.0
114.422607 92.0
114.44603 220.0
114.569557 176.0
114.616432 160.0
114.652664 140.0
114.760826 124.0
115.000305 176.0
115.047272 172.0
115.147629 156.0
115.190353 136.0
115.337791 196.0
115.47036 184.0
115.487473 148.0
115.570908 176.0
115.58802 76.0
115.626541 116.0
115.64415 164.0
115.707886 128.0
115.769981 200.0
115.979797 172.0
116.027954 23144.0
116.091438 56.0
116.119034 120.0
116.127472 20.0
116.133072 80.0
116.177231 144.0
116.269501 48.0
116.31411 172.0
116.363953 104.0
116.396156 76.0
116.429405 100.0
116.44648 164.0
116.531479 144.0
116.557266 112.0
116.606689 152.0
116.722786 68.0
116.772041 168.0
116.832474 160.0
116.851837 92.0
116.886269 152.0
116.931458 152.0
117.028961 808.0
117.092247 176.0
117.118156 152.0
117.230812 64.0
117.323502 124.0
117.528397 56.0
117.56292 68.0
117.636307 96.0
117.703239 136.0
117.761551 188.0
117.798683 104.0
117.839317 176.0
117.878212 68.0
117.932243 132.0
117.975471 96.0
118.023376 816.0
118.18959 196.0
118.278328 168.0
118.367096 100.0
118.408241 160.0
118.445061 180.0
118.49617 88.0
118.674782 120.0
118.696465 184.0
118.836678 100.0
118.985046 48.0
119.043671 64.0
119.093628 156.0
119.147934 176.0
119.214104 124.0
119.27832 132.0
119.40226 148.0
119.456635 204.0
119.532791 156.0
119.846344 112.0
119.913902 168.0
120.310905 148.0
120.367676 144.0
120.52829 184.0
120.597069 216.0
120.824493 172.0
120.973305 112.0
121.038528 208.0
121.045403 164.0
121.050301 196.0
121.082787 168.0
121.153931 132.0
121.176987 160.0
121.236145 180.0
121.387413 188.0
121.46637 208.0
121.661583 184.0
122.035172 236.0
122.217735 184.0
122.31237 228.0
122.340988 152.0
122.426865 120.0
122.473114 148.0
122.554626 136.0
122.980255 64.0
122.99791 164.0
123.024399 192.0
123.150269 76.0
123.178986 208.0
123.351349 180.0
123.371239 40.0
123.411041 200.0
123.466324 176.0
123.542633 224.0
123.627823 168.0
123.680939 144.0
123.703072 96.0
123.730103 212.0
123.747353 172.0
123.774223 148.0
124.070824 216.0
124.103851 192.0
124.265991 112.0
124.47686 128.0
124.59903 192.0
124.641243 176.0
124.663467 140.0
124.727921 208.0
124.759041 104.0
124.787941 156.0
124.823517 124.0
124.885788 220.0
124.975876 152.0
124.992577 152.0
125.074928 196.0
125.13726 228.0
125.177338 76.0
125.319901 104.0
125.453621 120.0
125.545044 180.0
125.576263 136.0
125.667725 168.0
125.775536 208.0
125.819496 136.0
125.864151 172.0
126.016037 132.0
126.045082 124.0
126.069664 164.0
126.232857 156.0
126.250748 144.0
126.322327 148.0
126.349167 120.0
126.548363 204.0
126.593147 176.0
126.980865 104.0
127.023483 188.0
127.214226 116.0
127.281578 168.0
127.484596 192.0
127.564667 60.0
127.722076 148.0
127.942612 220.0
128.014328 160.0
128.028687 176.0
128.095749 152.0
128.165588 144.0
128.203903 64.0
128.23996 228.0
128.354935 192.0
128.456421 168.0
128.605362 112.0
128.788254 48.0
128.912506 176.0
128.964493 136.0
129.053833 176.0
129.109192 152.0
129.205307 196.0
129.320267 124.0
129.561905 152.0
129.645737 208.0
129.680298 128.0
129.772675 156.0
129.854309 96.0
129.949585 128.0
129.972275 48.0
130.014862 188.0
130.023605 136.0
130.040298 300.0
130.060791 164.0
130.101654 96.0
130.167496 116.0
130.47879 180.0
130.986267 56.0
131.037704 320.0
131.086517 184.0
131.248367 144.0
131.559601 136.0
131.677399 44.0
131.876175 200.0
131.899033 200.0
131.919601 160.0
131.935608 220.0
131.976761 204.0
132.043076 140.0
132.097977 128.0
132.281052 168.0
132.934265 168.0
133.244247 224.0
133.362411 228.0
133.405121 84.0
133.460297 228.0
133.536179 56.0
133.593689 136.0
133.856079 232.0
133.948196 228.0
133.973541 184.0
134.031143 132.0
134.05188 92.0
134.164825 96.0
134.207748 196.0
134.462387 172.0
134.66095 156.0
134.684036 148.0
134.788315 148.0
134.87352 72.0
135.04924 84.0
135.100143 232.0
135.414948 220.0
135.607254 124.0
135.646652 112.0
135.702301 184.0
135.878571 108.0
135.992279 28.0
136.010529 172.0
136.173386 180.0
136.356934 56.0
136.426666 172.0
136.608047 120.0
136.640625 148.0
136.808182 160.0
136.961609 212.0
136.970596 188.0
137.00148 164.0
137.257858 104.0
137.334824 100.0
137.474228 168.0
137.56633 152.0
137.654556 236.0
137.716446 136.0
137.725143 144.0
137.752655 68.0
137.869476 148.0
138.002075 200.0
138.040131 212.0
138.076965 21112.0
138.148849 192.0
138.182388 44.0
138.210892 48.0
138.244293 88.0
138.268188 100.0
138.276031 48.0
138.28392 76.0
138.300812 128.0
138.318558 76.0
138.341049 132.0
138.391129 56.0
138.407516 60.0
138.459961 100.0
138.484802 68.0
138.508224 48.0
138.544189 80.0
138.615997 80.0
138.644974 44.0
138.737823 160.0
138.820282 132.0
138.987488 152.0
139.07663 1208.0
139.115585 160.0
139.157837 56.0
139.18602 44.0
139.261169 204.0
139.277603 100.0
139.388504 176.0
139.453827 72.0
139.49379 72.0
139.51442 180.0
139.571381 112.0
139.627823 88.0
139.731323 204.0
139.766907 196.0
139.813675 36.0
139.881943 116.0
139.957275 152.0
140.019806 116.0
140.053833 188.0
140.091934 260.0
140.112061 172.0
140.183411 40.0
140.215836 200.0
140.261185 92.0
140.289474 76.0
140.695251 188.0
140.888901 88.0
140.924347 240.0
141.022324 380.0
141.082703 52.0
141.125259 224.0
141.1418 160.0
141.231674 52.0
141.314789 152.0
141.373627 152.0
141.442276 92.0
141.608017 164.0
141.809402 164.0
141.95166 176.0
141.981979 228.0
142.00383 128.0
142.258987 144.0
142.34082 140.0
142.428696 36.0
142.478592 176.0
142.721024 124.0
142.87323 120.0
142.956512 84.0
143.02536 508.0
143.101715 156.0
143.175537 84.0
143.349442 40.0
143.444778 144.0
143.523453 72.0
143.549683 212.0
143.614075 184.0
143.664169 168.0
143.734055 192.0
143.845535 124.0
143.933258 140.0
143.976852 152.0
144.029404 276.0
144.058426 17040.0
144.10347 68.0
144.132141 224.0
144.156235 48.0
144.189484 112.0
144.248535 228.0
144.280319 140.0
144.300522 80.0
144.337708 48.0
144.404663 76.0
144.464462 92.0
144.502747 96.0
144.533859 136.0
144.560181 124.0
144.593674 44.0
144.628113 72.0
144.660706 80.0
144.679092 152.0
144.761261 32.0
144.864258 76.0
144.943314 48.0
144.996414 304.0
145.061401 1516.0
145.261841 212.0
145.371796 200.0
145.467163 124.0
145.482971 168.0
145.518982 128.0
145.580948 124.0
145.660675 132.0
145.848099 140.0
145.869736 144.0
145.966827 156.0
146.018814 160.0
146.0522 652.0
146.093384 80.0
146.110214 120.0
146.192032 80.0
146.287109 68.0
146.305161 164.0
146.336456 152.0
146.406296 144.0
146.444824 172.0
146.658051 128.0
146.823227 52.0
146.951065 144.0
147.059097 136.0
147.228668 200.0
147.562134 36.0
147.762878 88.0
147.818527 116.0
147.869354 156.0
147.893555 144.0
148.033981 180.0
148.142975 92.0
148.2108 176.0
148.250259 144.0
148.281082 116.0
148.380478 204.0
148.506577 176.0
148.54538 68.0
148.630295 124.0
148.73465 200.0
148.795349 88.0
148.822052 28.0
149.038223 100.0
149.310501 48.0
149.721802 132.0
149.768066 136.0
149.877701 144.0
149.943497 84.0
149.967865 216.0
150.1483 200.0
150.399597 120.0
150.577835 132.0
150.680435 176.0
150.824615 40.0
151.238007 172.0
151.381744 112.0
151.813751 36.0
151.85054 208.0
151.892242 136.0
152.049271 128.0
152.18428 136.0
152.230942 168.0
152.594604 180.0
152.690506 148.0
152.722488 208.0
152.857803 84.0
152.966095 60.0
153.069504 228.0
153.096588 120.0
153.182785 184.0
153.244385 120.0
153.338028 64.0
153.557449 164.0
154.056076 168.0
154.243881 184.0
154.345245 132.0
154.751038 252.0
154.991302 208.0
155.043335 144.0
155.147446 176.0
155.261505 208.0
155.482315 224.0
155.777786 144.0
155.824982 104.0
155.902023 120.0
156.03215 228.0
156.083481 140.0
156.170532 92.0
156.220276 96.0
156.322296 188.0
156.362106 188.0
156.379532 116.0
156.765564 40.0
156.832855 60.0
156.959991 112.0
157.035812 228.0
157.127106 64.0
157.159546 196.0
157.269348 216.0
157.424149 132.0
157.586502 132.0
157.611496 120.0
157.633987 152.0
157.665161 152.0
157.755096 96.0
157.823959 336.0
157.878967 204.0
157.908981 88.0
157.969025 124.0
157.986526 144.0
158.016449 188.0
158.04924 21244.0
158.086288 248.0
158.089722 328.0
158.156052 212.0
158.193634 148.0
158.266846 212.0
158.311386 204.0
158.353027 68.0
158.384552 48.0
158.447174 152.0
158.484756 64.0
158.600052 172.0
158.672745 204.0
158.763016 72.0
158.928574 92.0
158.961197 68.0
158.991699 52.0
159.050278 788.0
159.146942 120.0
159.267487 56.0
159.335327 160.0
159.380539 236.0
159.430801 132.0
159.533859 48.0
159.659576 60.0
159.765228 180.0
159.782837 148.0
159.815613 132.0
159.863358 124.0
159.948929 180.0
159.966553 136.0
160.004837 232.0
160.045074 1012.0
160.076126 100.0
160.115112 212.0
160.15036 172.0
160.170517 36.0
160.23584 168.0
160.280624 136.0
160.31665 144.0
160.382187 80.0
160.488068 68.0
160.982651 164.0
161.048309 84.0
161.237808 228.0
161.460281 152.0
161.586761 188.0
161.670273 132.0
162.009567 236.0
162.290894 56.0
162.41008 188.0
162.539841 164.0
162.607986 144.0
162.699371 180.0
163.17955 48.0
163.444672 204.0
163.713913 184.0
163.788651 104.0
164.085938 88.0
164.246597 148.0
164.414993 160.0
164.453278 124.0
164.603897 200.0
164.838913 128.0
165.258255 148.0
165.29921 216.0
165.358063 100.0
165.631561 220.0
165.68071 68.0
165.798569 76.0
165.847275 148.0
166.170395 84.0
166.260208 72.0
166.375275 284.0
166.540054 148.0
167.036148 152.0
167.167374 140.0
167.551025 160.0
167.767502 128.0
167.806183 92.0
167.837112 252.0
168.009918 132.0
168.13765 144.0
168.311905 188.0
168.359009 200.0
168.846832 204.0
168.864944 72.0
168.960648 104.0
168.981354 212.0
169.052032 428.0
169.312683 80.0
169.35672 200.0
169.59581 144.0
169.709167 208.0
169.748062 132.0
169.789551 136.0
170.047455 540.0
170.093124 68.0
170.116486 156.0
170.36319 180.0
170.55809 256.0
170.828522 232.0
170.851944 172.0
170.924789 112.0
171.054733 1112.0
171.502899 164.0
171.560303 44.0
171.70105 196.0
171.855026 144.0
172.042938 220.0
172.14476 168.0
172.204834 36.0
172.324997 160.0
172.455658 164.0
172.591599 44.0
172.612518 132.0
172.994522 172.0
173.057632 152.0
173.130676 124.0
173.15686 148.0
173.274734 36.0
173.657471 112.0
173.788635 48.0
173.901474 172.0
173.969727 192.0
174.022232 108.0
174.056366 204.0
174.584564 112.0
174.745026 196.0
174.779236 188.0
174.889755 68.0
175.013489 52.0
175.037186 200.0
175.413956 240.0
175.464035 72.0
175.540863 120.0
175.738342 136.0
176.04718 236.0
176.12114 132.0
176.506989 256.0
176.620712 224.0
176.673615 172.0
176.869446 36.0
176.930328 148.0
177.060074 204.0
177.110397 196.0
177.20842 92.0
177.637909 136.0
177.690964 44.0
177.860809 196.0
177.92186 200.0
178.692596 288.0
178.977402 172.0
179.033325 132.0
179.371704 120.0
179.417023 120.0
179.44101 148.0
179.486343 128.0
180.201675 108.0
180.420837 84.0
180.460938 196.0
180.765869 72.0
180.843491 144.0
180.870255 96.0
180.888992 188.0
180.90773 164.0
181.028214 164.0
181.084457 168.0
181.237152 132.0
181.628571 80.0
181.663437 148.0
181.786865 108.0
181.851273 92.0
182.049942 148.0
182.216492 68.0
182.280975 128.0
182.337402 36.0
182.401917 164.0
182.477188 108.0
182.829575 200.0
183.141891 124.0
183.168823 96.0
183.260422 40.0
183.449081 80.0
183.573547 192.0
183.751129 216.0
184.064743 948.0
184.190231 184.0
184.499237 120.0
184.531677 156.0
184.558716 184.0
184.718277 180.0
184.871307 240.0
185.002426 128.0
185.06311 268.0
185.144363 180.0
185.229904 112.0
185.280182 164.0
185.325806 100.0
185.362656 100.0
185.403305 212.0
185.455887 196.0
185.498169 268.0
185.519852 160.0
185.548599 140.0
185.578964 364.0
185.612045 120.0
185.629379 104.0
185.677246 192.0
185.764664 368.0
185.830917 92.0
185.873627 220.0
185.920349 148.0
185.941818 260.0
185.949448 172.0
185.968704 464.0
186.003937 248.0
186.081085 159412.0
186.161804 168.0
186.193863 152.0
186.218002 68.0
186.248245 76.0
186.273422 128.0
186.283966 64.0
186.289261 144.0
186.312302 84.0
186.334106 200.0
186.388977 192.0
186.429901 180.0
186.50148 176.0
186.527649 1136.0
186.556747 88.0
186.599777 164.0
186.627945 88.0
186.681808 300.0
186.700912 100.0
186.733627 64.0
186.75209 56.0
186.765869 80.0
186.80278 124.0
186.808167 80.0
186.827362 176.0
186.845734 116.0
186.894135 200.0
186.938797 68.0
186.975769 40.0
186.997543 96.0
187.021042 128.0
187.043442 176.0
187.082123 10924.0
187.12236 240.0
187.17189 92.0
187.228439 124.0
187.256195 108.0
187.290588 204.0
187.323395 84.0
187.358154 48.0
187.406036 144.0
187.439316 56.0
187.448334 44.0
187.487 28.0
187.508102 96.0
187.536835 52.0
187.588623 36.0
187.613098 152.0
187.645538 64.0
187.685684 40.0
187.717621 64.0
187.74205 60.0
187.782227 80.0
187.84523 144.0
187.894821 136.0
187.918625 64.0
187.940445 60.0
188.022324 156.0
188.042786 156.0
188.077347 5616.0
188.136963 84.0
188.162277 44.0
188.225998 108.0
188.249268 92.0
188.280685 216.0
188.30899 44.0
188.338211 200.0
188.364578 148.0
188.390289 176.0
188.431427 200.0
188.437744 124.0
188.461136 104.0
188.505692 56.0
188.531494 140.0
188.554214 148.0
188.57991 164.0
188.609818 200.0
188.650558 80.0
188.768494 60.0
188.842667 100.0
188.874786 64.0
188.937698 44.0
188.973267 64.0
189.000641 104.0
189.028 128.0
189.078186 372.0
189.159363 68.0
189.178528 92.0
189.222336 64.0
189.31543 68.0
189.342819 88.0
189.433212 84.0
189.474304 32.0
189.567459 52.0
189.616791 52.0
189.657913 160.0
189.723694 92.0
189.773056 104.0
189.910172 72.0
190.044586 100.0
190.181808 52.0
190.203339 104.0
190.288864 48.0
190.3685 148.0
190.530548 72.0
190.618484 68.0
190.725662 56.0
191.238892 136.0
191.281311 64.0
191.322601 108.0
191.666885 56.0
191.771606 72.0
192.251495 100.0
192.604904 56.0
192.89505 76.0
193.080307 52.0
193.334824 60.0
193.426163 64.0
194.113266 60.0
194.177048 76.0
194.540543 64.0
194.968292 124.0
195.096161 68.0
195.488342 72.0
195.544006 60.0
195.858627 92.0
196.658875 88.0
197.309753 136.0
197.348892 116.0
197.494324 112.0
197.597824 68.0
198.143768 88.0
198.886917 52.0
199.260406 64.0
199.547089 100.0
199.926834 48.0
200.016891 160.0
200.132324 124.0
200.337921 36.0
201.065399 164.0
201.15007 68.0
201.291245 124.0
201.36467 144.0
202.026108 56.0
203.088379 68.0
203.491348 52.0
205.115768 112.0
209.707748 100.0
210.307678 28.0
212.098145 128.0
215.067993 100.0
216.342499 96.0
219.344757 72.0
225.139481 200.0
229.605209 124.0
235.020157 232.0
237.495102 40.0
238.683624 120.0
239.274384 88.0
240.269852 32.0
242.143875 1496.0
242.437408 52.0
243.147598 108.0
244.142502 244.0
244.761032 68.0
249.727646 52.0
258.039459 64.0
260.892822 108.0
263.367645 124.0
265.451904 96.0
266.692078 100.0
272.059143 144.0
282.327972 72.0
286.641724 76.0
293.076569 84.0
298.223633 48.0
302.639404 84.0
306.411346 52.0
306.871399 40.0
307.586578 80.0
309.589996 52.0
309.726593 88.0
318.073181 72.0
324.018036 68.0
327.819611 56.0
330.679932 68.0
340.939514 52.0
342.219635 96.0
342.252777 40.0
343.79364 112.0
345.023621 136.0
346.207703 100.0
350.621246 40.0
358.280365 60.0
364.572876 72.0
364.675476 72.0
367.024384 44.0
369.281342 76.0
370.096466 84.0
376.688446 60.0
398.091187 76.0
407.373627 80.0
409.449158 64.0
410.351776 76.0
435.181702 72.0
437.335114 96.0
437.942993 116.0
445.867401 48.0
450.544617 136.0
472.248627 64.0
479.678131 104.0
497.908051 60.0
507.471039 44.0
526.308105 108.0
537.859131 84.0
538.288513 48.0
542.804871 80.0
570.190125 52.0
586.815552 104.0
592.058472 68.0
612.346924 68.0
648.499268 84.0
660.823059 84.0
703.121948 92.0
716.489868 104.0
717.566467 96.0
726.497864 60.0
727.496033 92.0
733.251526 84.0
734.809937 48.0
752.356384 60.0
769.397583 160.0
778.467224 192.0
783.116638 156.0
816.328918 176.0
825.601685 148.0
858.532837 164.0
861.585571 40.0
862.795349 104.0
864.626221 168.0
867.472839 108.0
894.612488 148.0
895.606934 180.0
899.793213 140.0
904.330383 188.0
905.360168 152.0
907.403503 160.0
911.731445 128.0
914.155029 140.0
915.533569 172.0
922.702087 188.0
923.736206 176.0
929.358459 124.0
930.65741 140.0
934.827332 116.0
934.942993 144.0
935.643005 208.0
942.645203 196.0
946.229553 144.0
946.486694 160.0
954.494446 224.0
956.561707 224.0
961.295166 192.0
961.566711 148.0
962.690308 148.0
964.247192 100.0
966.881836 120.0
967.18512 136.0
968.838562 188.0
970.276367 156.0
973.235901 184.0
980.252502 184.0
981.28717 192.0
982.260071 176.0
985.681458 200.0
986.343933 180.0
987.606995 196.0
992.661133 192.0
992.861816 216.0
1001.661377 180.0
1002.259888 120.0
1003.621399 160.0
1005.192017 180.0
1006.751282 152.0
1007.23761 152.0
1007.484009 140.0
1008.046326 228.0
1012.804016 152.0
1012.930725 196.0
1013.000366 72.0
1014.514954 160.0
1014.965149 152.0
1015.459778 84.0
1021.945801 216.0
1025.888062 172.0
1026.124023 160.0
1029.550537 180.0
1030.157349 140.0
1034.454712 148.0
1035.171875 136.0
1037.632324 196.0
1039.28064 60.0
1040.846924 84.0
1041.354248 144.0
1042.131592 120.0
1042.934814 176.0
1043.892822 76.0
1046.891602 200.0
1047.432617 144.0
1051.191406 216.0
1052.217773 148.0
1053.535278 212.0
1054.989258 220.0
1056.509033 220.0
1061.11377 132.0
1061.995728 108.0
1062.936401 116.0
1064.955566 148.0
1065.631104 56.0
1066.9375 168.0
1069.096924 120.0
1070.105957 172.0
1070.45752 160.0
1072.601074 136.0
1075.307983 120.0
1076.084717 160.0
1076.156616 48.0
1078.501831 180.0
1079.15564 144.0
1081.019897 148.0
1081.654663 48.0
1083.390137 128.0
1085.861328 216.0
1086.530396 124.0
1087.134033 120.0
1089.694946 156.0
1090.016846 116.0
1091.226318 132.0
1091.706299 80.0
1096.532104 68.0
1097.652832 112.0
1097.903442 88.0
1101.209961 160.0
1101.731812 128.0
1102.676758 136.0
1103.112915 144.0
1105.269043 248.0
1105.494019 144.0
1106.089722 52.0
1107.301392 168.0
1110.767944 156.0
1111.604004 216.0
1113.801514 164.0
1115.316528 184.0
1116.978882 148.0
1118.070068 180.0
1118.522705 96.0
1122.226807 184.0
1122.49353 188.0
1123.447388 72.0
1125.429565 240.0
1128.04187 84.0
1129.452759 160.0
1129.66687 224.0
1131.654541 180.0
1131.728149 180.0
1132.853394 156.0
1133.040894 196.0
1134.139893 132.0
1135.152222 144.0
1136.064453 204.0
1136.118164 128.0
1137.339478 148.0
1139.743774 184.0
1140.039429 176.0
1145.745361 180.0
1145.900269 108.0
1146.183228 148.0
1146.412354 168.0
1148.590088 136.0
1149.50769 156.0
1153.560181 160.0
1154.675781 64.0
1155.244019 68.0
1155.988281 120.0
1156.204834 224.0
1156.793701 180.0
1157.266724 160.0
1159.963989 152.0
1161.849243 68.0
1165.101196 124.0
1165.773926 120.0
1166.562378 168.0
1169.276245 164.0
1169.419189 184.0
1170.324707 52.0
1170.767334 212.0
1170.855835 196.0
1176.146729 172.0
1177.64209 184.0
1178.762451 196.0
1181.326416 140.0
1181.449585 132.0
1181.832764 96.0
1182.448608 148.0
1183.051025 168.0
1183.201538 80.0
1183.550781 204.0
1184.920654 176.0
1185.407104 72.0
1187.66272 196.0
1191.005493 176.0
1191.48645 124.0
1192.125366 172.0
1193.624023 144.0
1195.969971 56.0
1196.135254 168.0
1198.738647 172.0
1198.793823 132.0
1199.055664 156.0
1201.607056 216.0
1202.573242 180.0
1203.049438 144.0
1203.698486 116.0
1204.658569 176.0
1206.005981 236.0
1206.718018 148.0
1207.368042 124.0
1208.087402 128.0
1208.350342 172.0
1208.634033 220.0
1209.277588 168.0
1214.363159 212.0
1215.001343 48.0
1216.007568 180.0
1216.785034 56.0
1218.46582 148.0
1220.509277 232.0
1222.366455 204.0
1225.938965 184.0
1228.30249 156.0
1231.520386 156.0
1232.84082 152.0
1233.448853 168.0
1233.616699 200.0
1234.378784 176.0
1234.875366 188.0
1235.707764 172.0
1237.247437 136.0
1237.821655 88.0
1238.494019 172.0
1239.071289 184.0
1239.285645 72.0
1239.334595 48.0
1241.767212 112.0
1241.949585 212.0
1242.026733 108.0
1242.833496 156.0
1243.802002 144.0
1244.553223 140.0
1245.494263 168.0
1246.224976 84.0
1247.068237 196.0
1248.284546 84.0
1248.390015 264.0
1248.987793 180.0
1249.677246 168.0
1251.19043 68.0
1251.281982 136.0
1251.915649 200.0
1252.0354 168.0
1253.23999 140.0
1254.924561 100.0
1255.467529 132.0
1256.680786 140.0
1258.438354 88.0
1258.904297 176.0
1259.667114 192.0
1259.985107 108.0
1262.741943 204.0
1264.043579 244.0
1265.338989 104.0
1266.727051 128.0
1267.081177 156.0
1267.336304 168.0
1269.959351 220.0
1270.881592 156.0
1271.562744 152.0
1272.769653 228.0
1273.032349 208.0
1273.515259 164.0
1273.600586 168.0
1273.806519 208.0
1274.041016 116.0
1274.367798 100.0
1274.424683 236.0
1275.007324 196.0
1275.270264 176.0
1275.58313 152.0
1275.939575 172.0
1276.45752 176.0
1278.072266 168.0
1278.285767 248.0
1278.470825 160.0
1281.618286 196.0
1282.181274 216.0
1282.352295 180.0
1282.516235 204.0
1283.835205 88.0
1284.106201 128.0
1285.17627 100.0
1286.589478 160.0
1289.146606 140.0
1290.032837 236.0
1290.368896 172.0
1290.704956 188.0
1294.175293 44.0
1295.722412 84.0
1296.06665 176.0
1296.252563 160.0
1296.388794 140.0
1297.471069 172.0
1297.678955 176.0
1298.396118 200.0
1299.665771 120.0
1301.051025 144.0
1301.883911 48.0
1302.063477 120.0
1303.270386 140.0
1303.622437 160.0
1305.577881 284.0
1306.124512 196.0
1309.226562 200.0
1310.968994 180.0
1311.524902 172.0
1312.094482 136.0
1312.505371 52.0
1312.822754 172.0
1314.388062 136.0
1315.658447 188.0
1315.716187 204.0
1316.250488 144.0
1316.943726 220.0
1317.962402 160.0
1318.822388 184.0
1319.277832 188.0
1319.747681 180.0
1320.528809 164.0
1322.467896 176.0
1325.248657 48.0
1326.038574 80.0
1326.386475 108.0
1326.451782 120.0
1327.292725 220.0
1327.35083 204.0
1328.649048 40.0
1328.852295 204.0
1329.846436 168.0
1331.850464 180.0
1337.871582 152.0
1338.796265 140.0
1338.861816 208.0
1339.014771 172.0
1339.306152 208.0
1340.071045 124.0
1340.836182 160.0
1340.901855 128.0
1341.302734 164.0
1343.300781 160.0
1343.811401 136.0
1343.9646 152.0
1344.716309 172.0
1345.351318 196.0
1346.001221 136.0
1346.673096 232.0
1347.410889 240.0
1349.508545 192.0
1349.991089 192.0
1350.254395 184.0
1351.658936 148.0
1352.302979 200.0
1352.478638 232.0
1353.591431 216.0
1354.126099 132.0
1354.331177 184.0
1354.419067 164.0
1354.5802 160.0
1355.386108 128.0
1355.818481 108.0
1357.463989 124.0
1358.560791 116.0
1359.529419 48.0
1360.300049 124.0
1360.623047 136.0
1361.261841 160.0
1362.084473 116.0
1362.444458 132.0
1362.598755 168.0
1363.27478 120.0
1364.009766 160.0
1365.296387 192.0
1365.575928 204.0
1365.965698 112.0
1366.120239 228.0
1366.363037 176.0
1366.671997 216.0
1367.047363 204.0
1369.579956 168.0
1369.76416 148.0
1370.080933 172.0
1371.562134 96.0
1371.86438 152.0
1372.122437 176.0
1372.255127 132.0
1372.550049 136.0
1372.71228 200.0
1373.11792 164.0
1373.921875 192.0
1374.401489 164.0
1374.740967 172.0
1376.453613 156.0
1376.985229 180.0
1379.71936 168.0
1380.288696 180.0
1380.495728 48.0
1380.584473 236.0
1381.523804 184.0
1381.790161 132.0
1381.879028 80.0
1382.300781 188.0
1382.36731 180.0
1382.774414 124.0
1383.61084 136.0
1386.11438 212.0
1387.277954 160.0
1387.537476 212.0
1388.160278 104.0
1389.309937 128.0
1391.677612 156.0
1391.803833 220.0
1392.189941 136.0
1393.244629 192.0
1393.400635 168.0
1393.556763 148.0
1394.485596 140.0
1394.976196 40.0
1395.71228 156.0
1396.136108 164.0
1396.262573 92.0
1396.841919 172.0
1398.033203 164.0
1398.360718 204.0
1400.437988 208.0
1401.287231 108.0
1401.428833 156.0
1401.801392 168.0
1402.844849 120.0
1402.993896 136.0
1405.171631 136.0
1406.358276 184.0
1407.261475 88.0
1408.000854 100.0
1409.039062 192.0
1409.300659 176.0
1410.130127 180.0
1410.242188 128.0
1410.780396 176.0
1411.146729 128.0
1411.401001 188.0
1411.587891 172.0
1412.425659 160.0
1412.510376 180.0
1413.734985 196.0
1414.326172 152.0
1414.445923 124.0
1414.797852 152.0
1417.34436 204.0
1417.91394 184.0
1418.048828 192.0
1418.693481 72.0
1418.970825 232.0
1421.040894 148.0
1421.220947 116.0
1424.381714 164.0
1425.110352 132.0
1426.155029 124.0
1426.305298 156.0
1426.688721 216.0
1427.252563 104.0
1428.049805 116.0
1428.350708 156.0
1428.410767 104.0
1429.012695 144.0
1429.381348 156.0
1430.096313 188.0
1430.149048 192.0
1431.285767 208.0
1432.362793 168.0
1433.696411 172.0
1433.930054 152.0
1434.012939 164.0
1434.337036 144.0
1434.480347 244.0
1434.759277 200.0
1434.910034 184.0
1435.158813 80.0
1435.234253 176.0
1436.486206 144.0
1436.599365 168.0
1437.041382 208.0
1439.694092 128.0
1439.988525 108.0
1440.985718 124.0
1441.038574 120.0
1441.235107 164.0
1442.791992 108.0
1442.897827 144.0
1443.321289 176.0
1443.411987 140.0
1443.548096 196.0
1443.805298 204.0
1444.251465 144.0
1444.939941 48.0
1446.124146 188.0
1446.271851 144.0
1446.619995 152.0
1447.377075 132.0
1447.922363 140.0
1448.164795 212.0
1449.960327 172.0
1453.334961 52.0
1453.426025 156.0
1453.911743 140.0
1454.556885 212.0
1454.663086 164.0
1457.214844 132.0
1457.366821 156.0
1457.860718 192.0
1458.19519 224.0
1458.993286 204.0
1460.400146 160.0
1461.107544 124.0
1461.632568 144.0
1462.051147 96.0
1462.172852 172.0
1462.606689 180.0
1462.880737 68.0
1463.261475 164.0
1463.421265 160.0
1463.802002 152.0
1464.365601 152.0
1464.807373 188.0
1466.064575 172.0
1466.704834 136.0
1467.351562 168.0
1467.520508 236.0
1467.642578 176.0
1467.764526 204.0
1467.863647 116.0
1468.283081 140.0
1468.641602 176.0
1468.717896 148.0
1468.844727 188.0
1470.266724 136.0
1470.816284 160.0
1471.793457 72.0
1472.457886 148.0
1472.908447 176.0
1473.886353 144.0
1474.096802 240.0
1474.995483 180.0
1476.3479 336.0
1476.753296 204.0
1477.189209 192.0
1478.15332 68.0
1479.132935 172.0
1479.936768 144.0
1480.128174 236.0
1480.273682 84.0
1480.38855 44.0
1480.480469 156.0
1481.422607 184.0
1481.789429 176.0
1482.204102 188.0
1483.008789 220.0
1483.69104 192.0
1485.148071 128.0
1485.281128 192.0
1485.431885 144.0
1486.820679 216.0
1488.947266 172.0
1489.653931 144.0
1491.044678 204.0
1491.590454 200.0
1492.266968 220.0
1493.428101 112.0
1494.120483 188.0
1494.7052 196.0
1494.928345 192.0
1495.174683 96.0
1495.297852 160.0
1495.428711 128.0
1495.875122 84.0
1495.959839 208.0
1496.706543 88.0
1497.299561 152.0
1497.438232 240.0
1497.576782 152.0
1497.992798 156.0
1498.401123 164.0
1498.863403 128.0
1499.903809 132.0
1500.466675 240.0
1500.643921 132.0
1500.813599 220.0
1500.944702 88.0
1502.163208 56.0
1502.595337 136.0
1502.880737 140.0
1503.961182 176.0
1504.293091 180.0
1504.44751 100.0
1504.879883 84.0
