>compound RIZATRIPTAN BENZOATE
>formula C15H19N5
>ionization [M+H]+
>parentmass 270.171387
#inchi InChI=1S/C15H19N5/c1-19(2)6-5-13-8-17-15-4-3-12(7-14(13)15)9-20-11-16-10-18-20/h3-4,7-8,10-11,17H,5-6,9H2,1-2H3
#inchikey ULFRLSNUDGIQQP
#Ion_Source LC-ESI
#Instrument qTof
#Compound_Source Commercial
#PI Dorrestein
#Data_Collector Garg_Neha
#Scan -1
#Precursor_MZ 270.172
#ExactMass 269.164
#Charge 1
#CAS_Number N/A
#Pubmed_ID N/A
#Smiles CN(C)CCc1c[nH]c2ccc(Cn3cncn3)cc12
#INCHI_AUX N/A
#Library_Class 1
#SpectrumID CCMSLIB00000079264
#IonMode Positive
#UpdateWorkflowName UPDATE-SINGLE-ANNOTATED-GOLD
#LibraryQualityString Gold
#TaskID 278b19f5865741e282cec7349aa7e7a1
##Scan# 1014
#SpectrumFile NCP003512_A2_B11_BD4_01_15728.mzXML
#LibraryName NIHcollectionI_05062014.mgf
#MQScore -1
#Organism NIHcollectionI_05062014
#TIC_Query 0
#RT_Query -1
#MZErrorPPM -1
#SharedPeaks 0
#MassDiff 0
#LibMZ -1
#SpecMZ 270.172
#SpecCharge 0
#internalFilename spec-00000.mgf

>collision 10
45.274693 156.0
48.003754 188.0
49.156525 204.0
49.660164 144.0
49.734528 164.0
50.167782 152.0
51.149471 148.0
51.918152 152.0
59.129425 140.0
62.679794 140.0
63.045898 216.0
66.362846 168.0
67.749794 160.0
68.894791 184.0
70.144371 144.0
74.839432 144.0
75.011711 204.0
75.372414 220.0
79.794991 196.0
80.012039 140.0
83.072617 148.0
84.944244 172.0
87.787041 180.0
88.585114 168.0
88.645065 220.0
94.853371 196.0
97.509872 144.0
98.153603 144.0
100.0298 140.0
101.933815 168.0
102.898605 248.0
106.556541 164.0
107.173782 164.0
107.365486 248.0
109.61264 252.0
110.178062 196.0
110.581627 152.0
111.006905 220.0
113.509949 176.0
115.052498 288.0
116.912994 148.0
117.066971 156.0
118.068275 224.0
121.820549 168.0
124.922043 156.0
128.064285 128.0
130.065781 144.0
130.399719 156.0
130.79776 156.0
131.085571 276.0
132.080124 180.0
133.781296 252.0
138.087173 200.0
141.069778 304.0
142.063477 280.0
143.073792 1196.0
144.078415 332.0
144.73497 172.0
145.032043 208.0
145.077576 156.0
145.62468 164.0
147.228653 144.0
148.496811 156.0
149.750916 208.0
150.392151 196.0
150.939392 180.0
151.198685 208.0
152.896973 184.0
153.315628 264.0
153.443802 188.0
153.769409 168.0
153.939758 196.0
154.065552 292.0
155.896744 168.0
156.080536 6096.0
156.18515 164.0
157.086899 1180.0
157.43129 172.0
157.941147 140.0
158.051208 180.0
158.097137 19980.0
158.166336 152.0
158.529495 236.0
158.944977 144.0
158.975861 156.0
159.061188 160.0
159.10054 2776.0
159.96109 184.0
160.104141 288.0
160.373428 284.0
164.506302 164.0
165.736465 184.0
166.621613 212.0
167.038071 144.0
167.077087 192.0
168.081482 156.0
169.078964 144.0
170.096909 476.0
172.057785 144.0
172.11145 904.0
173.117935 404.0
174.115875 172.0
174.71254 144.0
175.123184 152.0
177.342575 140.0
179.077545 196.0
180.080383 204.0
180.54541 144.0
181.496033 228.0
183.089188 128.0
185.041794 164.0
186.112747 148.0
195.091797 200.0
196.082703 188.0
196.104996 184.0
200.415039 236.0
200.514954 132.0
200.586945 148.0
200.853668 172.0
200.874573 184.0
200.904388 188.0
200.943253 188.0
201.076294 120.0
201.139435 52328.0
201.299561 112.0
201.437363 100.0
201.58403 148.0
202.142273 6904.0
202.494156 148.0
203.052475 156.0
203.144638 984.0
203.416046 116.0
203.634293 120.0
204.165741 208.0
219.112488 144.0
223.208847 172.0
225.114334 1384.0
226.114944 792.0
240.683365 184.0
243.107117 224.0
268.152863 168.0
269.12796 164.0
269.434967 156.0
269.627747 168.0
270.127991 176.0
270.171387 3988.0
270.599243 168.0
271.175507 1144.0
272.170837 160.0
272.695374 152.0
272.895905 140.0
545.366272 144.0
1393.098511 172.0
1450.931152 152.0
1527.258911 184.0
1553.340332 240.0
1584.851685 232.0
1660.222412 172.0
1730.556396 156.0
1760.708252 156.0
1794.533569 192.0
1842.836426 196.0
1852.769287 168.0
1852.846436 140.0
1923.59668 264.0
1942.611938 140.0
1960.477905 184.0
1961.394531 164.0
1963.49292 148.0
1978.142334 144.0
1978.691162 176.0
1980.019409 176.0
1996.828735 212.0
