>compound MLS000069824-01!NORETHYNODREL
>formula C20H26O2
>ionization [M+H]+
>parentmass 299.20055652409053
#inchi InChI=1S/C20H26O2/c1-3-20(22)11-9-18-17-6-4-13-12-14(21)5-7-15(13)16(17)8-10-19(18,20)2/h1,16-18,22H,4-12H2,2H3/t16-,17-,18+,19+,20+/m1/s1
#inchikey ICTXHFFSOAJUMG
#Ion_Source LC-ESI
#Instrument qTof
#Compound_Source NIH Pharmacologically Active Library
#PI Dorrestein
#Data_Collector VP/LMS
#Scan -1
#Precursor_MZ 299.203
#ExactMass 298.193
#Charge 1
#CAS_Number N/A
#Pubmed_ID N/A
#Smiles C[C@@]12CC[C@H]3[C@@H](CCC4=C3CCC(=O)C4)[C@@H]2CC[C@@]1(O)C#C
#INCHI_AUX N/A
#Library_Class 3
#SpectrumID CCMSLIB00000084822
#IonMode Positive
#UpdateWorkflowName UPDATE-SINGLE-ANNOTATED-BRONZE
#LibraryQualityString Bronze
#TaskID d252d724072548979f1f6f1ced849daf
##Scan# 2244
#SpectrumFile p3-B03_GB3_01_18236.mzXML
#LibraryName Pharm_Active_Library.mgf
#MQScore -1
#Organism Pharm_Active_Library
#TIC_Query 0
#RT_Query -1
#MZErrorPPM -1
#SharedPeaks 0
#MassDiff 0
#LibMZ -1
#SpecMZ 299.203
#SpecCharge 0
#internalFilename spec-00000.mgf

>collision 10
45.606647 140.0
45.644291 188.0
46.26088 56.0
47.645119 172.0
47.986443 192.0
49.257683 164.0
50.554031 44.0
52.302448 180.0
52.976814 232.0
53.839352 196.0
56.082043 168.0
56.56451 156.0
56.994938 204.0
58.920727 148.0
59.248119 96.0
59.292557 192.0
59.711689 168.0
60.875401 152.0
63.877556 156.0
64.499443 160.0
65.904053 140.0
66.464287 136.0
66.623398 172.0
66.846146 232.0
67.647522 96.0
67.931015 180.0
68.02948 132.0
68.116508 128.0
69.191727 92.0
69.642776 128.0
70.025314 144.0
70.218651 164.0
70.32209 212.0
70.435631 124.0
70.535889 176.0
70.811966 152.0
72.252884 132.0
73.363548 192.0
73.423225 164.0
74.443184 124.0
75.423492 140.0
75.582603 52.0
76.683609 144.0
77.438385 148.0
80.014816 212.0
80.349876 48.0
82.170898 184.0
82.313484 164.0
83.435028 208.0
84.490959 212.0
84.767433 52.0
85.612457 216.0
86.993622 244.0
88.428886 172.0
89.306961 152.0
90.036339 52.0
91.055237 172.0
91.930962 164.0
92.623062 80.0
92.933632 116.0
93.920517 196.0
95.083328 204.0
95.559402 152.0
97.306679 180.0
97.997017 100.0
101.218811 184.0
101.35302 168.0
102.399635 152.0
103.054588 296.0
103.364594 160.0
104.053726 140.0
104.106522 144.0
105.07003 1156.0
106.071304 168.0
107.089081 412.0
108.050316 148.0
108.205528 196.0
108.796379 116.0
109.094398 176.0
110.505333 148.0
111.080345 176.0
113.738091 156.0
114.022697 212.0
114.154495 200.0
114.718712 156.0
115.05674 740.0
115.568703 164.0
116.063431 348.0
116.825912 200.0
117.07048 832.0
117.101433 40.0
117.31044 28.0
118.074089 372.0
118.908882 204.0
119.084976 588.0
119.312904 64.0
120.094643 152.0
121.062813 172.0
121.09993 232.0
122.103035 144.0
122.118431 116.0
124.543083 132.0
124.832001 128.0
125.098984 144.0
125.932922 180.0
127.0532 348.0
127.546165 152.0
127.912811 260.0
128.061462 912.0
129.070999 884.0
129.350693 132.0
129.781128 72.0
130.075485 524.0
130.826218 100.0
131.0867 384.0
131.793213 52.0
132.067535 184.0
132.083542 176.0
133.100708 304.0
133.638947 108.0
134.070663 352.0
135.087753 172.0
135.11763 196.0
135.351593 104.0
136.081955 164.0
136.872482 104.0
137.093781 164.0
137.548569 244.0
137.817139 268.0
141.072495 596.0
142.076752 300.0
142.401443 100.0
142.941086 240.0
143.085083 748.0
144.054489 132.0
144.092758 188.0
144.157227 32.0
144.224152 96.0
144.508713 52.0
145.103043 812.0
145.6306 120.0
146.111359 188.0
146.299057 156.0
147.055939 148.0
147.077652 172.0
147.116287 364.0
147.601898 76.0
148.124649 100.0
149.100647 76.0
150.042007 204.0
150.454285 188.0
151.11171 192.0
151.611221 68.0
151.748489 60.0
153.068726 312.0
154.076477 288.0
155.0858 652.0
155.187943 52.0
155.416122 68.0
156.084274 116.0
157.09967 916.0
157.190247 36.0
158.109863 132.0
158.688492 68.0
159.079025 308.0
159.117508 152.0
161.095963 192.0
162.255966 68.0
163.113998 236.0
163.442062 176.0
165.073105 284.0
166.075912 176.0
167.085388 252.0
168.007706 112.0
168.088455 312.0
168.927353 156.0
168.992035 124.0
169.101181 548.0
170.106049 176.0
170.95108 108.0
171.116425 528.0
172.115555 208.0
172.733032 152.0
173.099426 176.0
173.12561 176.0
174.1353 196.0
175.113419 168.0
178.071655 328.0
179.083359 548.0
179.459625 84.0
179.961227 220.0
181.101913 292.0
181.349579 32.0
183.116638 612.0
183.403046 128.0
184.014633 196.0
184.085602 120.0
184.106644 172.0
184.115555 136.0
184.124115 184.0
184.201736 56.0
185.02652 116.0
185.102341 160.0
185.135452 140.0
186.146317 136.0
187.119705 360.0
188.152954 136.0
189.074097 116.0
189.164429 136.0
190.077057 128.0
190.200562 92.0
190.802155 56.0
191.086975 36.0
192.091385 172.0
192.919357 152.0
193.100693 284.0
194.107101 308.0
194.917633 132.0
195.116211 132.0
196.12265 164.0
197.099396 236.0
197.130722 152.0
197.636246 120.0
198.130768 196.0
199.085449 124.0
201.135071 88.0
201.1633 40.0
203.002319 120.0
203.087402 108.0
205.099167 260.0
206.108734 172.0
206.136444 76.0
207.034683 124.0
207.120758 144.0
208.118423 148.0
209.126144 260.0
209.147751 40.0
210.141937 160.0
212.03595 112.0
212.108414 196.0
213.095093 168.0
213.132858 108.0
213.163574 748.0
214.162308 184.0
215.145355 44.0
215.168716 152.0
218.105392 160.0
219.116226 176.0
220.119247 116.0
221.132782 344.0
222.135941 176.0
222.915344 40.0
223.152084 176.0
224.031067 40.0
224.138321 120.0
225.591766 40.0
226.148117 164.0
227.292892 72.0
227.638092 140.0
231.167999 164.0
233.126953 140.0
233.15126 172.0
234.054718 44.0
235.147598 260.0
236.86438 84.0
237.161514 152.0
240.180984 116.0
241.008331 156.0
245.116547 224.0
247.149261 112.0
248.157547 264.0
249.162079 140.0
249.574585 80.0
251.145218 144.0
257.049255 144.0
260.394592 212.0
260.770508 112.0
262.892792 80.0
263.176239 180.0
264.185181 128.0
264.806641 48.0
265.351044 44.0
279.574799 88.0
281.197784 64.0
297.205536 52.0
298.247284 148.0
299.126617 176.0
299.212677 116.0
328.837372 164.0
342.142578 76.0
426.597595 68.0
470.135406 68.0
496.677032 112.0
747.797974 132.0
797.05481 136.0
803.557922 152.0
933.881592 96.0
1009.19104 160.0
1029.116211 116.0
1050.132446 164.0
1084.587036 136.0
1110.718262 216.0
1120.830078 104.0
1134.866455 204.0
1165.095825 112.0
1167.801147 192.0
1176.693848 144.0
1228.56665 172.0
1234.559448 132.0
1241.681641 184.0
1241.9552 80.0
1250.456543 140.0
1259.163574 224.0
1260.194824 176.0
1266.165039 144.0
1278.610229 176.0
1284.837891 272.0
1285.066162 52.0
1286.743408 156.0
1302.138794 156.0
1322.846924 216.0
1335.385132 376.0
1345.119629 164.0
1348.939941 184.0
1357.388672 92.0
1368.542603 120.0
1391.751953 176.0
1394.961426 156.0
1396.783203 116.0
1409.47937 72.0
1414.579956 40.0
1415.703125 168.0
1419.592285 52.0
1422.480835 144.0
1423.449341 132.0
1423.584473 164.0
1424.974121 220.0
1434.177368 160.0
1444.771606 116.0
1447.723511 220.0
1454.220703 144.0
1465.833374 56.0
1466.664062 264.0
1468.410034 200.0
1469.981567 136.0
1471.6073 148.0
1475.771362 116.0
1481.189575 140.0
1483.833374 212.0
1486.234009 172.0
