>compound Raltegravir (MK-0518)
>formula C20H21FN6O5
>ionization [M+Na]+
>parentmass 467.145447
#inchi InChI=1S/C20H21FN6O5/c1-10-25-26-17(32-10)16(30)24-20(2,3)19-23-13(14(28)18(31)27(19)4)15(29)22-9-11-5-7-12(21)8-6-11/h5-8,28H,9H2,1-4H3,(H,22,29)(H,24,30)
#inchikey CZFFBEXEKNGXKS
#Ion_Source LC-ESI
#Instrument qTof
#Compound_Source Commercial
#PI Dorrestein
#Data_Collector Garg_Neha
#Scan -1
#Precursor_MZ 467.145
#ExactMass 444.156
#Charge 1
#CAS_Number 518048-05-0, 1292804-07-9 (sodium salt)
#Pubmed_ID N/A
#Smiles N1(C(=NC(=C(C1=O)O)C(NCC2=CC=C(C=C2)F)=O)C(NC(C3=NN=C(O3)C)=O)(C)C)C
#INCHI_AUX N/A
#Library_Class 1
#SpectrumID CCMSLIB00000078385
#IonMode Positive
#UpdateWorkflowName UPDATE-SINGLE-ANNOTATED-GOLD
#LibraryQualityString Gold
#TaskID 77f51c88eb8b467eb4a01dd2d0cb90d2
##Scan# 1249
#SpectrumFile Plate6_21_40_GD8_01_15775.mzXML
#LibraryName FDALibrary_2_04302014.mgf
#MQScore -1
#Organism FDALibrary_2_04302014
#TIC_Query 0
#RT_Query -1
#MZErrorPPM -1
#SharedPeaks 0
#MassDiff 0
#LibMZ -1
#SpecMZ 467.145
#SpecCharge 0
#internalFilename spec-00000.mgf

>collision 10
71.112305 228.0
78.081276 152.0
90.294487 264.0
91.174194 252.0
107.698883 232.0
107.967575 148.0
109.043823 192.0
110.056175 148.0
121.105057 200.0
136.68074 152.0
148.558243 204.0
151.841522 140.0
158.97464 156.0
165.063889 124.0
170.837418 148.0
174.071533 256.0
175.006744 160.0
181.182144 148.0
182.070007 160.0
183.074265 192.0
183.838776 184.0
187.045105 340.0
190.056488 1512.0
192.230865 192.0
197.054153 152.0
201.068069 564.0
208.066986 268.0
209.064346 144.0
215.040024 428.0
216.013687 184.0
226.080185 192.0
229.034668 136.0
229.824539 140.0
230.051743 1032.0
231.057693 176.0
232.056763 164.0
233.034103 168.0
234.080475 164.0
234.247986 144.0
236.073212 204.0
237.06424 232.0
241.108994 140.0
243.086731 312.0
244.44281 192.0
247.084061 140.0
248.02829 284.0
248.960144 164.0
249.0952 156.0
250.236816 140.0
251.065567 248.0
251.545166 164.0
252.022064 208.0
257.811981 140.0
258.047028 6368.0
259.053101 840.0
260.050262 132.0
266.032257 172.0
270.28894 148.0
273.059326 1256.0
274.063995 188.0
276.065704 308.0
277.065186 160.0
288.085693 172.0
296.685822 220.0
298.089661 152.0
300.076691 132.0
301.051727 1084.0
302.064178 164.0
310.259491 212.0
312.078186 176.0
319.139374 180.0
322.72641 204.0
325.230591 176.0
325.970428 228.0
327.211395 156.0
328.086853 180.0
332.093567 164.0
335.085388 152.0
339.578125 152.0
340.104584 208.0
342.079834 3356.0
343.079712 620.0
344.083099 152.0
346.060394 140.0
348.099823 160.0
348.34494 176.0
355.119965 148.0
356.877869 120.0
357.093628 268.0
358.096344 168.0
359.231384 140.0
359.588593 168.0
360.089691 520.0
361.131409 208.0
368.586731 176.0
373.155701 216.0
374.067505 168.0
374.126434 168.0
378.050385 160.0
379.470825 100.0
380.601471 152.0
381.106445 228.0
381.613617 176.0
383.110748 6072.0
383.209808 164.0
384.11557 1360.0
385.112122 284.0
385.943695 192.0
386.190063 140.0
386.452179 144.0
391.437317 184.0
392.092194 280.0
393.100891 164.0
394.297516 184.0
399.766479 164.0
400.640717 144.0
401.067352 168.0
401.123444 348.0
401.452362 216.0
407.556274 148.0
407.909943 172.0
409.728943 216.0
410.1026 120.0
412.804688 160.0
417.391052 148.0
422.11969 592.0
422.616974 392.0
423.118286 308.0
423.34903 152.0
424.106995 172.0
424.697449 152.0
427.059235 148.0
427.256683 156.0
433.126984 144.0
438.1745 148.0
443.762604 160.0
445.160034 140.0
445.823669 212.0
446.154327 132.0
449.128784 276.0
449.457855 200.0
454.786102 140.0
464.135284 160.0
464.25531 212.0
464.562439 144.0
464.63681 692.0
465.079285 224.0
465.134033 352.0
465.397858 148.0
466.096985 108.0
466.654022 152.0
466.853638 200.0
467.047974 284.0
467.145447 60856.0
467.314758 136.0
467.404694 104.0
467.678192 256.0
467.721863 148.0
467.771454 108.0
467.852936 132.0
467.89151 300.0
468.004242 156.0
468.05072 132.0
468.147491 18080.0
468.762421 112.0
469.034729 148.0
469.149933 2088.0
469.258209 140.0
469.306335 156.0
470.163452 140.0
470.327637 152.0
470.39328 152.0
470.434235 192.0
470.85556 156.0
470.944092 148.0
471.071594 492.0
471.136597 164.0
471.20285 132.0
471.389191 108.0
471.843628 116.0
471.94455 160.0
472.231537 144.0
472.443756 104.0
483.468109 156.0
487.129303 144.0
500.076721 152.0
501.087708 308.0
501.14801 160.0
502.099487 228.0
502.134888 196.0
503.082764 388.0
584.152527 152.0
637.181396 152.0
652.109192 156.0
726.441162 168.0
805.248901 104.0
1816.391357 232.0
1903.590088 252.0
