>compound MLS000083578-01!Ticlopidine Hydrochloride
>formula C14H14ClNS
>ionization [M+H]+
>parentmass 264.0608245800905
#inchi InChI=1S/C14H14ClNS/c15-13-4-2-1-3-11(13)9-16-7-5-14-12(10-16)6-8-17-14/h1-4,6,8H,5,7,9-10H2
#inchikey PHWBOXQYWZNQIN
#origInchi InChI=1S/C14H14ClNS.ClH/c15-13-4-2-1-3-11(13)9-16-7-5-14-12(10-16)6-8-17-14;/h1-4,6,8H,5,7,9-10H2;1H
#Ion_Source LC-ESI
#Instrument qTof
#Compound_Source NIH Pharmacologically Active Library
#PI Dorrestein
#Data_Collector VP/LMS
#Scan -1
#Precursor_MZ 264.057
#ExactMass 263.054
#Charge 1
#CAS_Number N/A
#Pubmed_ID N/A
#Smiles Clc1ccccc1CN2CCc3sccc3C2.Cl
#INCHI_AUX N/A
#Library_Class 1
#SpectrumID CCMSLIB00000085298
#IonMode Positive
#UpdateWorkflowName UPDATE-SINGLE-ANNOTATED-GOLD
#LibraryQualityString Gold
#TaskID d252d724072548979f1f6f1ced849daf
##Scan# 1443
#SpectrumFile p3-H02_GH2_01_18307.mzXML
#LibraryName Pharm_Active_Library.mgf
#MQScore -1
#Organism Pharm_Active_Library
#TIC_Query 0
#RT_Query -1
#MZErrorPPM -1
#SharedPeaks 0
#MassDiff 0
#LibMZ -1
#SpecMZ 264.057
#SpecCharge 0
#internalFilename spec-00000.mgf

>collision 10
44.96661 132.0
44.983963 84.0
45.00132 140.0
45.073452 108.0
45.124249 144.0
45.142967 128.0
45.19648 112.0
45.233955 68.0
45.338436 172.0
45.396084 176.0
45.494038 136.0
45.50478 136.0
45.550442 80.0
45.675461 180.0
45.688915 136.0
45.737362 244.0
45.784489 36.0
45.917923 220.0
46.017788 248.0
46.038185 192.0
46.075867 176.0
46.262508 56.0
46.280109 164.0
46.570339 192.0
46.579849 80.0
46.711716 216.0
46.766148 136.0
46.952816 232.0
46.988281 236.0
47.018307 176.0
47.105698 140.0
47.128922 116.0
47.172661 48.0
47.262932 88.0
47.34433 192.0
47.365616 52.0
47.420429 188.0
47.521912 148.0
47.53289 244.0
47.722458 208.0
47.741707 200.0
48.184204 172.0
48.485878 164.0
48.502514 160.0
48.521923 176.0
48.562138 176.0
48.635681 240.0
48.813694 132.0
48.941547 156.0
49.082321 184.0
49.22184 188.0
49.30566 184.0
49.354591 196.0
49.403545 104.0
49.491726 160.0
49.537945 188.0
49.579983 200.0
49.658501 136.0
49.728657 120.0
49.763756 256.0
49.787628 116.0
49.848038 116.0
49.890205 224.0
49.912704 156.0
49.928173 136.0
49.953491 104.0
50.009781 164.0
50.07737 128.0
50.14782 156.0
50.181656 232.0
50.202808 112.0
50.274757 196.0
50.346764 108.0
50.369392 188.0
50.440018 108.0
50.485264 136.0
50.561665 120.0
50.619713 76.0
50.699047 196.0
50.731647 136.0
50.86784 200.0
50.955894 152.0
50.967262 288.0
51.042606 192.0
51.135082 136.0
51.163551 140.0
51.189182 112.0
51.223366 172.0
51.251862 36.0
51.297886 260.0
51.321709 216.0
51.377335 76.0
51.548683 204.0
51.609104 180.0
51.624454 128.0
51.658783 164.0
51.691692 104.0
51.816269 144.0
51.832031 140.0
52.08886 208.0
52.113281 196.0
52.15564 192.0
52.234051 160.0
52.259949 100.0
52.304565 228.0
52.438526 228.0
52.465916 216.0
52.526485 208.0
52.562557 140.0
52.585648 160.0
52.626072 60.0
52.773457 156.0
52.83276 208.0
52.955807 144.0
52.997818 224.0
53.019558 184.0
53.071747 132.0
53.144272 64.0
53.356335 136.0
53.397053 184.0
53.647518 188.0
53.742321 128.0
53.803623 248.0
53.825527 208.0
53.856197 160.0
53.930721 204.0
54.112129 60.0
54.185364 176.0
54.214458 196.0
54.217323 168.0
54.243984 184.0
54.296772 204.0
54.417107 188.0
54.462635 144.0
54.802483 148.0
54.960262 132.0
54.976494 172.0
55.091671 168.0
55.115311 160.0
55.134521 52.0
55.332745 200.0
55.635204 76.0
55.655991 136.0
55.679752 220.0
55.691635 188.0
55.819607 172.0
55.898296 152.0
56.080231 180.0
56.18737 220.0
56.278419 68.0
56.493649 92.0
56.796253 212.0
56.842766 156.0
56.8923 148.0
56.949364 88.0
57.053055 240.0
57.198982 128.0
57.229095 112.0
57.287834 140.0
57.303467 200.0
57.364693 56.0
57.428028 208.0
57.470268 160.0
57.480831 116.0
57.498943 100.0
57.536537 188.0
57.577454 152.0
57.613708 104.0
57.669621 220.0
57.74371 56.0
57.761864 168.0
57.81028 172.0
57.873859 152.0
58.167992 184.0
58.218735 144.0
58.277344 172.0
58.301659 168.0
58.415703 96.0
58.446133 152.0
58.564884 160.0
58.625828 248.0
58.732559 148.0
58.756638 184.0
58.834805 132.0
59.033451 184.0
59.048744 120.0
59.129837 200.0
59.192604 180.0
59.221706 176.0
59.260006 248.0
59.318245 96.0
59.557232 92.0
59.809818 140.0
59.842148 60.0
59.933029 100.0
60.010502 200.0
60.042484 60.0
60.128887 124.0
60.161304 176.0
60.247791 60.0
60.266331 100.0
60.338978 176.0
60.400837 224.0
60.515366 224.0
60.662552 184.0
60.681385 216.0
60.723026 224.0
60.809917 132.0
60.932598 236.0
60.991653 212.0
61.053177 216.0
61.080292 168.0
61.307621 56.0
61.391808 184.0
61.491661 144.0
61.51976 172.0
61.557232 156.0
61.605656 164.0
61.654095 52.0
61.782318 48.0
61.916939 180.0
61.963936 120.0
62.064857 176.0
62.114441 172.0
62.139542 156.0
62.150524 192.0
62.175636 156.0
62.233719 152.0
62.397129 148.0
62.493076 44.0
62.680462 152.0
62.836567 68.0
62.854111 168.0
62.870216 172.0
62.920219 168.0
62.97707 172.0
62.999184 48.0
63.078201 400.0
63.162014 56.0
63.174671 208.0
63.226887 52.0
63.71212 76.0
63.735954 120.0
63.815434 88.0
63.828152 188.0
63.866325 120.0
63.893368 68.0
63.926785 116.0
63.958618 152.0
63.990456 56.0
64.054161 112.0
64.101959 260.0
64.183258 208.0
64.251442 140.0
64.26461 248.0
64.755402 96.0
64.833496 244.0
64.890022 140.0
64.941338 192.0
65.018356 128.0
65.103447 140.0
65.327553 184.0
65.381577 112.0
65.618378 188.0
65.759651 260.0
65.813622 60.0
65.955795 128.0
66.001068 176.0
66.102051 168.0
66.379997 72.0
66.409187 168.0
66.573112 184.0
66.605598 60.0
66.764893 124.0
66.851112 188.0
66.917854 124.0
66.930885 168.0
66.989517 156.0
67.070999 172.0
67.098709 128.0
67.142738 132.0
67.419456 168.0
67.441544 84.0
67.506943 132.0
67.54129 156.0
67.655846 128.0
67.698418 180.0
67.877045 164.0
67.924606 168.0
67.940048 136.0
67.995384 180.0
68.170898 132.0
68.305725 100.0
68.46209 152.0
68.641724 124.0
68.819939 140.0
68.914085 204.0
68.93557 144.0
68.990112 132.0
69.100929 212.0
69.327789 112.0
69.536766 176.0
69.555023 168.0
69.629379 180.0
69.681244 208.0
69.692879 156.0
69.749382 136.0
69.945679 188.0
69.986496 184.0
70.019394 204.0
70.07058 148.0
70.142242 96.0
70.297363 224.0
70.384163 148.0
70.486069 204.0
70.609779 140.0
70.76709 184.0
70.865913 136.0
70.978218 204.0
71.045311 152.0
71.093971 144.0
71.208633 164.0
71.300552 148.0
71.315674 184.0
71.542778 168.0
71.573082 152.0
71.687637 144.0
71.763489 208.0
71.802277 120.0
71.828323 192.0
71.888321 132.0
71.944023 88.0
71.98455 120.0
72.315926 208.0
72.366714 40.0
72.458176 152.0
72.614136 188.0
72.676903 160.0
72.734604 204.0
72.829697 228.0
72.950356 120.0
72.993561 232.0
73.100945 124.0
73.123863 160.0
73.272011 140.0
73.314613 160.0
73.44249 76.0
73.519272 184.0
73.532921 128.0
73.589256 164.0
73.621704 48.0
73.649033 148.0
73.896927 160.0
73.968803 244.0
73.984215 156.0
74.01503 132.0
74.121239 156.0
74.154434 196.0
74.230949 40.0
74.266968 104.0
74.316719 108.0
74.507309 148.0
74.619026 212.0
74.77729 212.0
74.815163 236.0
74.857666 216.0
74.96077 164.0
75.001213 120.0
75.216835 44.0
75.379196 212.0
75.574593 160.0
75.586708 168.0
75.69577 80.0
75.72348 188.0
75.787483 212.0
75.808372 112.0
75.843033 176.0
75.960953 116.0
76.13974 68.0
76.250938 120.0
76.292656 288.0
76.344818 120.0
76.386566 184.0
76.416145 32.0
76.63205 204.0
76.666901 160.0
76.802902 148.0
76.827324 272.0
76.856979 132.0
76.912834 140.0
77.078751 124.0
77.146919 360.0
77.203789 180.0
77.272842 120.0
77.362106 164.0
77.48996 136.0
77.531006 216.0
77.765289 148.0
78.268097 92.0
78.283943 156.0
78.331505 180.0
78.603027 140.0
78.628479 284.0
78.657738 52.0
78.737198 120.0
78.91922 76.0
78.931595 132.0
79.037735 76.0
79.120926 228.0
79.45945 252.0
79.539307 232.0
79.551735 252.0
79.631645 164.0
79.677834 176.0
79.770248 112.0
79.965912 148.0
80.010414 60.0
80.279488 128.0
80.356186 264.0
80.593666 172.0
80.709854 160.0
80.727737 180.0
80.788551 176.0
80.888771 56.0
81.005173 120.0
81.057129 92.0
81.179031 40.0
81.286674 152.0
81.396172 112.0
81.671158 172.0
81.779121 124.0
81.816925 60.0
82.098022 156.0
82.148781 228.0
82.162964 160.0
82.229729 224.0
82.328949 176.0
82.3778 220.0
82.401283 156.0
82.547699 200.0
82.625481 152.0
82.869911 168.0
83.06179 172.0
83.170967 144.0
83.258118 176.0
83.329849 156.0
83.493011 180.0
83.629028 244.0
83.647232 240.0
83.685471 188.0
83.761955 124.0
83.809326 64.0
83.860359 164.0
83.889526 200.0
83.90593 136.0
84.135818 112.0
84.261833 164.0
84.345901 304.0
84.695412 168.0
84.737549 216.0
84.858521 76.0
84.890686 140.0
84.994255 196.0
85.058495 164.0
85.259941 208.0
85.299141 164.0
85.31752 152.0
85.343262 180.0
85.60273 164.0
85.696671 132.0
85.715103 220.0
85.761177 128.0
85.814636 180.0
85.866272 112.0
85.893944 116.0
86.039734 124.0
86.23925 220.0
86.55191 92.0
86.6297 164.0
86.748306 236.0
86.763138 156.0
86.779823 128.0
86.831749 160.0
86.900383 124.0
87.145485 136.0
87.204948 164.0
87.238411 244.0
87.376038 148.0
87.392784 100.0
87.439308 156.0
87.642296 196.0
87.668388 188.0
87.908958 44.0
87.948158 116.0
87.96682 184.0
87.979889 116.0
88.034042 164.0
88.047112 196.0
88.07518 152.0
88.13118 168.0
88.155472 156.0
88.189117 144.0
88.291946 164.0
88.430405 112.0
88.507164 188.0
88.698265 180.0
88.865181 204.0
88.880188 208.0
89.038177 880.0
89.154366 168.0
89.176918 128.0
89.391327 184.0
89.590912 196.0
89.681366 156.0
89.694565 128.0
89.717186 120.0
89.796387 56.0
89.858528 204.0
89.900154 72.0
89.967178 220.0
89.981323 260.0
90.044373 700.0
90.121094 120.0
90.157036 192.0
90.242065 164.0
90.645256 180.0
90.850037 144.0
90.971497 156.0
91.094933 108.0
91.134834 104.0
91.19931 220.0
91.21846 204.0
91.245071 148.0
91.361092 144.0
91.482887 128.0
91.509544 212.0
91.717201 184.0
91.787743 172.0
91.837334 56.0
91.95945 108.0
92.001442 144.0
92.030083 160.0
92.052681 216.0
92.102654 200.0
92.180038 184.0
92.22686 184.0
92.284218 100.0
92.2976 180.0
92.366455 216.0
92.46978 160.0
92.603806 116.0
92.64595 208.0
92.6996 216.0
92.766685 144.0
92.791527 176.0
92.818459 156.0
92.831879 156.0
92.872154 48.0
92.924606 260.0
92.975769 228.0
93.021835 168.0
93.167786 160.0
93.229279 176.0
93.296555 188.0
93.386932 120.0
93.575531 188.0
93.639549 180.0
93.65834 188.0
93.681458 240.0
93.731552 140.0
93.770096 88.0
93.88578 192.0
93.966797 160.0
94.030479 120.0
94.057281 176.0
94.076805 124.0
94.098045 104.0
94.134735 196.0
94.177223 140.0
94.192673 84.0
94.258369 208.0
94.304749 140.0
94.335678 112.0
94.384018 172.0
94.519424 148.0
94.542648 176.0
94.597183 204.0
94.658371 180.0
94.687851 144.0
94.724655 204.0
94.769218 176.0
94.893265 204.0
94.918472 164.0
94.951447 168.0
94.966957 156.0
94.995575 240.0
95.062027 176.0
95.077553 204.0
95.118317 200.0
95.140144 180.0
95.262016 212.0
95.384445 100.0
95.423332 168.0
95.647057 156.0
95.777527 160.0
96.052383 212.0
96.130424 196.0
96.190933 184.0
96.261223 140.0
96.394058 172.0
96.495705 180.0
96.554367 84.0
96.710899 196.0
96.724602 192.0
96.742218 160.0
96.844048 196.0
96.989601 228.0
97.007561 160.0
97.065514 164.0
97.134796 168.0
97.167511 68.0
97.194984 140.0
97.281342 104.0
97.460068 144.0
97.474503 232.0
97.631096 252.0
97.71962 140.0
97.784561 76.0
97.818024 116.0
97.884964 216.0
97.955872 188.0
98.097763 208.0
98.144882 124.0
98.241722 88.0
98.407509 104.0
98.541824 160.0
98.599129 236.0
98.651863 224.0
98.806763 156.0
98.82061 88.0
98.860191 68.0
98.937744 184.0
98.953224 56.0
99.000336 1848.0
99.210785 176.0
99.238548 132.0
99.28614 216.0
99.319855 112.0
99.363503 176.0
100.003395 180.0
100.150742 164.0
100.178635 204.0
100.356018 80.0
100.389915 204.0
100.412651 80.0
100.429802 132.0
100.707253 76.0
100.845123 56.0
100.996414 1024.0
101.021172 104.0
101.105141 120.0
101.201225 192.0
101.413582 148.0
101.563972 136.0
101.588043 60.0
101.688377 172.0
101.75663 96.0
101.81591 148.0
101.840973 36.0
101.891197 64.0
101.959518 120.0
102.357849 104.0
102.380005 136.0
102.41626 48.0
102.464607 72.0
102.635933 220.0
102.654083 148.0
102.668198 72.0
102.722664 80.0
102.805389 148.0
102.981186 168.0
103.061852 116.0
103.104286 116.0
103.225586 196.0
103.328751 136.0
103.379333 176.0
103.448151 128.0
103.506874 176.0
103.644615 76.0
104.287964 144.0
104.312355 180.0
104.350983 148.0
104.371323 120.0
104.420128 124.0
104.578835 144.0
104.945541 176.0
105.006714 160.0
105.045471 160.0
105.300629 140.0
105.455917 92.0
105.90197 228.0
105.932701 140.0
105.97982 152.0
106.018761 180.0
106.051552 180.0
106.173103 196.0
106.605705 232.0
106.630363 132.0
106.764008 124.0
106.852455 268.0
106.922424 152.0
107.055687 104.0
107.233429 164.0
107.256104 136.0
107.425201 160.0
107.462708 156.0
107.485031 148.0
107.555206 212.0
107.699753 136.0
107.738998 164.0
107.784454 116.0
107.811317 188.0
107.881599 168.0
108.185715 168.0
108.218842 180.0
108.266472 56.0
108.399055 260.0
108.419777 144.0
108.741257 160.0
108.765465 172.0
108.992775 220.0
109.059052 204.0
109.109917 240.0
109.346085 172.0
109.541817 132.0
109.606407 112.0
109.764839 208.0
109.781517 144.0
109.829491 152.0
109.906685 52.0
110.017303 156.0
110.090385 172.0
110.205276 172.0
110.345375 144.0
110.498001 160.0
110.556595 196.0
110.581711 280.0
110.603752 208.0
110.782738 128.0
110.833023 108.0
110.853973 200.0
110.874931 124.0
110.971359 184.0
111.02272 280.0
111.105591 204.0
111.248306 112.0
111.307098 232.0
111.565536 144.0
111.618103 180.0
111.643333 172.0
111.76535 124.0
111.929535 208.0
111.969551 200.0
112.03064 160.0
112.127571 256.0
112.153442 160.0
112.180267 124.0
112.241409 140.0
112.309547 196.0
112.484039 36.0
112.505157 184.0
112.69313 264.0
113.101295 160.0
113.116112 160.0
113.232574 208.0
113.313194 152.0
113.36393 116.0
113.419037 284.0
113.497482 156.0
113.565346 212.0
113.614136 168.0
113.826393 168.0
114.017593 180.0
114.072853 148.0
114.198318 140.0
114.294052 176.0
114.342995 180.0
114.481384 188.0
114.530373 72.0
114.579369 216.0
114.854378 156.0
114.888504 128.0
114.950386 164.0
115.017296 160.0
115.146797 48.0
115.186401 192.0
115.313454 136.0
115.36689 196.0
115.605347 200.0
115.649261 44.0
115.664246 164.0
115.816574 148.0
115.88269 228.0
116.067032 144.0
116.101349 76.0
116.30397 196.0
116.45874 212.0
116.616638 44.0
116.754242 228.0
116.769295 136.0
116.797256 276.0
116.890457 176.0
116.969406 96.0
117.033997 196.0
117.293564 148.0
117.413277 220.0
117.55162 192.0
117.633369 144.0
117.691658 184.0
117.853661 160.0
117.981186 144.0
118.221283 208.0
118.24942 256.0
118.355499 44.0
118.433464 132.0
118.461624 192.0
118.556969 116.0
118.791138 136.0
118.823685 132.0
119.027718 136.0
119.171082 216.0
119.196548 128.0
119.314529 100.0
119.421089 168.0
119.529869 188.0
119.63652 148.0
119.723618 132.0
119.751938 132.0
119.767181 164.0
120.242516 116.0
120.327644 152.0
120.487602 204.0
120.537338 160.0
120.793152 208.0
120.957275 164.0
120.972595 124.0
121.06675 152.0
121.281471 312.0
121.334084 128.0
121.37355 136.0
121.491989 224.0
121.634636 204.0
121.691719 148.0
121.733437 172.0
121.863037 204.0
121.889412 160.0
121.970726 104.0
122.0037 216.0
122.063072 148.0
122.082863 72.0
122.157646 212.0
122.412964 212.0
122.437195 160.0
122.485046 204.0
122.525032 164.0
122.571579 184.0
122.591408 208.0
122.686348 168.0
122.853798 168.0
122.880272 252.0
122.919991 92.0
123.029251 328.0
123.109848 144.0
123.215874 180.0
123.233551 116.0
123.288795 200.0
123.32637 128.0
123.36837 200.0
123.41259 156.0
123.436913 188.0
123.512108 148.0
123.545296 164.0
123.560783 76.0
123.702423 164.0
123.717918 104.0
123.799843 152.0
123.841927 188.0
124.127823 144.0
124.210655 196.0
124.285324 140.0
124.37632 104.0
124.426498 232.0
124.456238 176.0
124.558403 180.0
124.625053 136.0
124.652931 184.0
124.678391 164.0
124.696167 72.0
124.727287 152.0
124.747292 176.0
124.762352 124.0
124.793983 120.0
124.818443 264.0
124.850548 340.0
124.863907 196.0
124.875763 88.0
124.881828 176.0
124.9179 184.0
124.934479 188.0
124.96273 368.0
124.985107 340.0
125.015633 111812.0
125.06015 268.0
125.106682 88.0
125.136192 80.0
125.16404 256.0
125.208153 140.0
125.237274 148.0
125.264694 104.0
125.286156 160.0
125.295517 48.0
125.31575 112.0
125.325073 64.0
125.352844 64.0
125.381401 868.0
125.403717 72.0
125.435829 144.0
125.458206 72.0
125.482857 120.0
125.524086 68.0
125.549965 108.0
125.603676 92.0
125.628128 84.0
125.660423 68.0
125.676788 48.0
125.705223 48.0
125.755951 104.0
125.776756 188.0
125.843445 80.0
125.874207 124.0
125.921608 172.0
125.941711 188.0
125.957848 112.0
125.979218 76.0
126.018593 10288.0
126.084709 44.0
126.101997 112.0
126.151489 128.0
126.165771 152.0
126.182022 60.0
126.254623 120.0
126.27475 40.0
126.299355 28.0
126.321724 60.0
126.364235 68.0
126.388847 124.0
126.433601 56.0
126.45282 116.0
126.528008 140.0
126.548759 136.0
126.588081 56.0
126.621674 172.0
126.650787 40.0
126.670952 52.0
126.691185 124.0
126.729965 152.0
126.739883 52.0
126.747719 192.0
126.786118 100.0
126.805397 144.0
126.830765 176.0
126.848289 72.0
126.863678 140.0
126.9104 100.0
126.947807 352.0
126.983788 384.0
127.012444 35224.0
127.039398 468.0
127.055023 264.0
127.082512 112.0
127.104355 64.0
127.133522 132.0
127.157532 56.0
127.188057 60.0
127.236755 68.0
127.265289 76.0
127.328636 96.0
127.357674 136.0
127.380554 104.0
127.413666 64.0
127.458466 64.0
127.490601 40.0
127.590004 48.0
127.685524 100.0
127.750755 56.0
127.840759 68.0
127.865517 56.0
127.927139 96.0
128.015884 1764.0
128.142502 56.0
128.178558 48.0
128.360519 100.0
128.392715 92.0
128.467163 84.0
128.541611 60.0
128.613831 64.0
128.731247 72.0
128.751572 40.0
128.901947 128.0
128.936829 112.0
128.959427 144.0
128.998764 144.0
129.054688 88.0
129.160675 120.0
129.368866 76.0
129.3983 116.0
129.4617 92.0
129.819778 60.0
129.942261 108.0
130.553314 104.0
130.598801 112.0
131.222794 164.0
131.978577 88.0
132.207336 132.0
132.269135 48.0
132.438583 164.0
133.018738 128.0
133.678391 144.0
133.738235 76.0
133.968506 40.0
134.362747 40.0
134.422729 48.0
134.588943 140.0
135.16452 72.0
135.194611 92.0
135.303406 128.0
135.497955 168.0
136.184616 56.0
136.493713 108.0
136.582092 32.0
136.905624 76.0
137.236526 108.0
137.490799 92.0
138.00473 156.0
138.038116 328.0
138.121658 192.0
138.152069 192.0
138.29248 84.0
138.709427 116.0
138.763351 152.0
138.953339 56.0
139.040161 104.0
139.909897 168.0
139.940506 116.0
140.34343 64.0
140.83194 56.0
142.402344 84.0
143.315872 132.0
144.598282 92.0
144.806595 84.0
145.751816 100.0
146.87616 48.0
148.116226 148.0
148.610794 164.0
149.845978 216.0
151.225739 204.0
151.414261 184.0
151.544098 76.0
152.899643 184.0
153.030121 140.0
153.075394 228.0
153.86348 108.0
153.98201 204.0
154.041565 7584.0
154.070007 192.0
154.108002 48.0
154.300797 124.0
154.347763 68.0
154.476379 52.0
154.60257 52.0
155.045898 680.0
155.219421 88.0
155.522095 60.0
155.728195 156.0
156.001526 72.0
156.037262 2448.0
156.25769 104.0
156.290039 36.0
156.631134 48.0
156.730789 48.0
157.045029 172.0
157.274475 80.0
157.916626 180.0
159.101929 212.0
161.480743 76.0
164.022491 120.0
165.072037 160.0
166.073822 192.0
167.091431 216.0
168.09288 180.0
168.335541 96.0
175.179993 60.0
176.259109 112.0
181.457672 124.0
183.544235 72.0
185.034973 148.0
185.466492 96.0
187.562271 96.0
189.039886 132.0
194.916595 144.0
198.939011 188.0
199.058411 368.0
199.368408 88.0
199.407745 36.0
200.069351 168.0
200.364517 96.0
201.04126 132.0
203.058487 180.0
208.339493 64.0
212.386795 100.0
218.245422 112.0
221.012253 88.0
226.382523 80.0
230.915054 104.0
235.032562 356.0
236.036514 116.0
237.030228 256.0
237.153976 48.0
240.497498 92.0
241.907089 64.0
247.138977 60.0
247.549042 32.0
255.87915 120.0
258.458191 40.0
260.474823 264.0
264.051575 268.0
265.056274 176.0
266.057709 128.0
274.02597 68.0
278.196472 48.0
295.340607 112.0
311.759064 128.0
357.676331 52.0
359.90448 52.0
376.969421 92.0
381.356689 68.0
399.163544 72.0
410.000793 80.0
429.953644 88.0
457.794403 48.0
511.597626 60.0
514.500977 56.0
537.414429 156.0
547.646057 92.0
614.08197 184.0
617.539429 172.0
622.356445 120.0
652.017578 196.0
665.99707 144.0
702.148254 60.0
708.443787 120.0
726.179016 168.0
734.111877 192.0
735.298828 164.0
737.367371 200.0
743.639404 124.0
745.545776 132.0
750.374146 180.0
754.671204 96.0
760.615479 144.0
767.255493 236.0
772.33606 140.0
777.47229 120.0
778.688171 220.0
780.110657 136.0
781.862793 112.0
783.098816 36.0
786.13739 272.0
786.689941 132.0
787.48291 148.0
798.569641 164.0
802.269287 132.0
802.506104 72.0
806.214844 196.0
807.764099 88.0
812.846313 220.0
814.362183 116.0
815.504272 140.0
815.936279 148.0
820.103333 132.0
825.55011 200.0
827.461365 140.0
830.34375 152.0
839.966858 248.0
840.57843 120.0
840.924744 216.0
846.665955 212.0
848.201416 164.0
850.765503 192.0
856.586792 124.0
861.288452 160.0
866.56543 152.0
868.470703 72.0
869.157104 208.0
873.498901 196.0
874.569885 208.0
876.937744 64.0
878.783569 184.0
880.820374 184.0
890.36853 172.0
896.627441 200.0
904.164673 172.0
917.952332 108.0
918.658081 124.0
936.784485 252.0
937.430359 184.0
938.966675 224.0
941.426208 48.0
941.756042 156.0
942.037048 172.0
944.751404 156.0
957.125183 76.0
958.085999 116.0
959.904358 256.0
965.351074 100.0
969.945129 120.0
972.879456 168.0
973.593506 128.0
975.463745 72.0
977.864807 160.0
980.80481 156.0
983.025146 332.0
983.281006 48.0
987.96759 160.0
1000.179626 196.0
1002.302063 148.0
1008.031921 200.0
1008.480652 272.0
1009.568115 60.0
1010.435425 176.0
1010.991577 124.0
1013.277527 148.0
1016.536743 152.0
1016.84137 192.0
1017.457092 128.0
1017.907898 192.0
1018.771729 212.0
1019.210144 228.0
1022.555237 196.0
1025.931396 156.0
1028.406494 176.0
1028.52771 196.0
1037.079956 176.0
1039.843628 180.0
1040.71106 208.0
1042.15625 144.0
1042.336182 240.0
1046.433594 172.0
1051.068115 216.0
1052.520508 100.0
1053.385986 116.0
1056.262573 192.0
1057.867432 220.0
1058.184692 100.0
1061.502319 120.0
1062.936035 180.0
1066.32605 224.0
1068.484985 200.0
1068.608643 224.0
1069.506714 196.0
1073.037598 52.0
1073.454956 156.0
1073.891968 124.0
1075.967041 140.0
1077.717529 276.0
1078.789429 172.0
1082.060547 72.0
1084.137085 152.0
1085.061401 136.0
1091.035889 100.0
1092.357788 148.0
1093.140747 180.0
1098.490845 84.0
1099.440918 60.0
1099.949219 208.0
1100.067993 128.0
1101.593506 108.0
1102.862305 128.0
1103.00769 168.0
1103.483765 132.0
1103.768066 196.0
1104.323608 196.0
1105.600464 152.0
1107.659668 224.0
1110.05896 124.0
1110.21814 196.0
1111.359131 164.0
1112.036133 192.0
1117.61853 188.0
1117.698364 268.0
1119.096191 144.0
1120.168457 204.0
1120.634766 124.0
1122.807983 116.0
1123.435059 108.0
1124.015503 200.0
1126.799927 144.0
1128.230103 68.0
1129.286743 432.0
1129.694702 180.0
1130.511108 116.0
1131.146973 136.0
1131.562012 144.0
1132.492798 172.0
1135.026123 232.0
1136.112793 44.0
1138.093384 164.0
1138.46875 140.0
1138.972534 104.0
1139.476318 160.0
1139.892944 156.0
1141.560181 160.0
1142.091431 160.0
1143.517944 176.0
1144.157471 176.0
1146.090576 44.0
1146.392822 180.0
1149.394653 232.0
1152.190063 204.0
1152.676514 144.0
1152.798096 252.0
1154.15686 184.0
1154.373291 168.0
1156.396118 128.0
1159.498169 116.0
1162.90979 192.0
1163.167725 172.0
1164.220215 116.0
1165.096436 136.0
1167.271484 160.0
1168.108154 136.0
1169.401001 160.0
1171.573242 220.0
1172.479492 184.0
1173.467896 132.0
1173.563354 148.0
1173.883911 140.0
1178.942383 156.0
1183.806641 144.0
1184.217651 200.0
1184.491577 68.0
1186.396729 272.0
1186.883545 132.0
1187.000122 124.0
1188.516113 184.0
1188.701416 172.0
1190.781616 164.0
1191.454712 184.0
1191.544067 152.0
1191.73645 216.0
1192.238159 204.0
1193.331055 176.0
1194.458984 128.0
1195.807617 240.0
1199.217773 164.0
1199.713379 92.0
1200.009888 160.0
1204.730713 196.0
1205.17981 148.0
1206.264893 208.0
1206.970093 144.0
1207.620117 144.0
1208.187378 120.0
1208.657837 84.0
1209.211548 236.0
1209.384521 176.0
1210.783203 148.0
1211.171021 160.0
1213.555054 192.0
1214.255493 232.0
1214.782715 80.0
1215.462646 236.0
1215.941528 128.0
1217.579956 152.0
1218.10791 44.0
1218.406616 112.0
1219.956421 196.0
1220.93689 164.0
1221.298584 144.0
1221.402954 128.0
1221.472412 204.0
1222.036011 192.0
1223.062134 164.0
1223.23999 224.0
1223.657715 216.0
1224.019775 144.0
1225.182983 156.0
1226.214355 156.0
1226.939331 180.0
1227.26001 100.0
1228.208496 116.0
1228.543335 200.0
1228.682861 180.0
1229.220215 172.0
1229.904175 216.0
1231.10498 68.0
1231.524048 44.0
1233.739258 132.0
1234.36853 228.0
1235.65564 172.0
1235.70459 132.0
1236.544312 204.0
1237.020386 228.0
1238.525879 152.0
1240.740356 84.0
1240.810547 176.0
1241.736206 72.0
1245.442139 112.0
1245.820679 184.0
1245.898804 112.0
1247.241089 200.0
1248.169067 216.0
1248.637207 196.0
1249.03418 112.0
1249.800415 188.0
1250.575195 136.0
1252.4552 184.0
1253.075195 152.0
1253.279541 152.0
1253.349976 160.0
1253.991333 184.0
1254.118164 40.0
1256.099609 96.0
1256.339478 36.0
1256.776978 108.0
1257.793213 136.0
1258.012085 64.0
1259.021851 188.0
1259.212524 184.0
1259.410278 184.0
1261.261597 284.0
1262.265503 168.0
1262.449463 176.0
1262.541382 212.0
1263.397217 260.0
1263.581177 156.0
1264.310059 192.0
1265.839233 128.0
1266.22876 136.0
1266.618286 192.0
1266.972534 240.0
1267.199219 152.0
1268.907349 172.0
1268.964111 176.0
1269.978149 68.0
1270.155518 92.0
1270.687622 148.0
1271.035278 76.0
1271.155884 176.0
1271.432739 224.0
1271.517822 160.0
1271.66687 52.0
1273.236084 172.0
1273.790039 76.0
1274.095581 96.0
1274.280273 272.0
1274.627563 152.0
1275.104614 192.0
1276.448242 216.0
1276.498047 108.0
1276.690063 56.0
1277.415527 176.0
1278.347656 100.0
1278.916992 64.0
1280.184326 168.0
1282.592529 172.0
1282.877686 240.0
1283.227051 208.0
1283.719116 84.0
1283.861694 212.0
1284.703369 164.0
1284.960205 132.0
1285.052979 116.0
1285.197266 196.0
1285.645264 184.0
1285.902222 156.0
1287.422974 136.0
1288.2229 192.0
1288.558716 124.0
1288.880249 196.0
1289.459106 164.0
1289.744995 216.0
1290.695923 212.0
1291.139282 176.0
1291.360962 148.0
1291.589844 160.0
1291.890381 180.0
1292.276733 68.0
1292.391235 72.0
1293.586426 220.0
1294.080444 232.0
1294.789307 216.0
1294.839478 96.0
1295.562988 196.0
1295.777954 216.0
1297.268677 168.0
1297.483643 148.0
1299.958374 148.0
1302.579102 164.0
1303.261597 148.0
1303.606567 132.0
1304.088013 124.0
1304.605591 204.0
1304.663086 112.0
1305.173584 96.0
1306.756104 116.0
1307.029541 180.0
1308.101929 180.0
1308.771484 52.0
1309.016235 104.0
1309.253906 212.0
1310.269653 120.0
1311.386597 180.0
1311.573975 176.0
1312.230103 184.0
1312.388672 168.0
1312.453613 172.0
1312.857422 172.0
1312.994385 180.0
1313.145874 280.0
1313.78064 156.0
1313.975464 52.0
1314.35791 208.0
1315.447754 160.0
1315.61377 128.0
1316.104736 108.0
1316.588623 168.0
1318.474243 144.0
1319.666992 168.0
1319.970703 160.0
1321.50415 224.0
1321.641724 244.0
1322.119263 132.0
1323.219604 192.0
1324.595581 140.0
1324.798462 120.0
1326.36377 124.0
1326.97998 232.0
1327.22644 32.0
1327.61084 180.0
1327.944458 40.0
1328.046021 80.0
1328.531982 192.0
1328.706177 56.0
1330.208374 148.0
1331.050659 56.0
1332.772217 156.0
1333.030396 148.0
1333.186401 120.0
1334.763916 180.0
1334.945801 240.0
1335.2948 56.0
1335.949463 136.0
1336.00769 144.0
1338.263916 212.0
1339.378296 108.0
1339.465698 132.0
1340.514893 152.0
1340.697021 80.0
1342.578003 156.0
1343.482422 208.0
1344.007812 200.0
1344.474854 148.0
1344.840088 184.0
1345.328857 140.0
1345.788818 156.0
1346.183105 108.0
1346.862427 152.0
1348.089844 128.0
1348.140991 52.0
1349.544556 228.0
1350.144165 188.0
1350.202759 108.0
1350.378296 48.0
1350.524536 220.0
1351.490234 208.0
1352.683228 80.0
1353.290894 36.0
1353.669678 220.0
1354.074463 92.0
1354.404053 180.0
1354.462646 176.0
1354.909546 188.0
1355.246582 184.0
1356.727173 148.0
1357.951782 140.0
1358.626587 156.0
1358.773315 156.0
1359.074219 196.0
1359.320801 152.0
1359.731079 144.0
1362.098999 172.0
1363.02478 160.0
1363.259888 136.0
1366.392334 184.0
1366.591064 128.0
1366.848511 236.0
1367.297485 176.0
1368.983398 88.0
1369.351685 188.0
1370.7146 196.0
1371.252563 164.0
1371.525269 176.0
1372.196167 140.0
1372.690186 72.0
1373.088501 144.0
1373.560547 172.0
1373.656372 48.0
1374.091675 196.0
1374.777954 160.0
1375.744873 140.0
1375.922119 36.0
1376.010742 172.0
1376.520142 252.0
1378.145264 168.0
1378.884277 200.0
1385.684937 136.0
1386.127075 192.0
1388.160767 148.0
1389.39209 172.0
1389.844727 220.0
1390.349243 152.0
1390.661011 116.0
1391.685547 144.0
1392.294434 160.0
1392.658447 168.0
1393.000122 188.0
1393.520142 200.0
1393.891724 180.0
1394.508545 52.0
1395.281616 208.0
1395.460083 88.0
1395.943481 256.0
1396.144165 172.0
1396.895508 156.0
1397.646973 48.0
1399.559937 188.0
1399.671631 156.0
1400.103516 92.0
1401.034668 236.0
1401.347656 180.0
1401.541382 156.0
1401.697876 60.0
1405.515747 76.0
1406.232178 180.0
1407.031006 176.0
1407.216064 204.0
1407.568604 248.0
1407.942017 196.0
1408.352783 144.0
1408.457397 184.0
1408.927979 192.0
1409.002686 120.0
1410.527222 140.0
1410.782349 172.0
1410.930908 180.0
1411.529175 80.0
1414.177612 144.0
1414.956177 196.0
1415.338013 180.0
1417.330566 140.0
1417.600342 60.0
1418.093506 200.0
1420.006958 168.0
1421.139648 168.0
1421.22229 184.0
1421.672485 188.0
1421.875122 216.0
1422.670776 164.0
1422.790894 204.0
1423.068726 68.0
1423.241455 156.0
1424.698486 136.0
1424.946411 228.0
1425.171875 164.0
1425.870728 116.0
1426.509644 116.0
1426.592407 200.0
1427.043457 136.0
1427.118652 152.0
1427.712769 196.0
1428.051147 128.0
1428.412231 156.0
1428.592773 128.0
1428.878662 160.0
1429.623657 176.0
1429.826904 180.0
1429.887085 96.0
1429.939697 68.0
1430.240845 120.0
1431.144287 152.0
1431.79187 168.0
1432.098145 232.0
1432.168457 220.0
1432.658203 200.0
1433.019775 72.0
1433.404053 160.0
1433.637695 284.0
1433.702759 240.0
1434.979492 112.0
1435.183105 232.0
1435.484741 148.0
1436.186279 164.0
1437.348022 184.0
1437.50647 112.0
1438.442383 216.0
1439.58252 104.0
1439.786377 216.0
1440.103638 192.0
1440.904419 184.0
1443.224854 152.0
1443.746582 152.0
1443.807129 204.0
1444.094482 160.0
1444.677002 124.0
1445.002319 164.0
1445.456299 188.0
1446.023926 68.0
1446.425049 156.0
1446.531006 200.0
1446.765747 168.0
1447.689575 172.0
1447.886475 168.0
1448.030273 176.0
1448.477295 196.0
1448.719604 116.0
1449.052979 176.0
1450.182129 128.0
1450.409546 168.0
1450.674927 144.0
1450.985718 132.0
1451.326904 176.0
1451.963989 140.0
1452.214233 168.0
1452.896973 152.0
1454.035156 168.0
1454.627197 152.0
1454.741089 156.0
1455.211792 148.0
1455.348511 228.0
1455.773804 188.0
1455.84436 192.0
1456.001587 136.0
1456.297852 180.0
1456.730835 120.0
1456.875122 252.0
1457.999756 228.0
1458.896729 68.0
1459.771118 180.0
1459.97644 136.0
1460.911987 32.0
1460.9729 200.0
1461.147827 48.0
1462.038208 148.0
1462.635132 196.0
1463.225708 136.0
1463.81958 156.0
1466.912964 160.0
1467.439087 268.0
1468.384644 212.0
1468.659302 140.0
1468.766113 116.0
1469.788452 140.0
1470.238647 124.0
1470.314941 96.0
1470.589722 176.0
1470.696655 236.0
1471.597412 152.0
1471.796021 116.0
1472.017456 196.0
1472.620728 140.0
1472.788818 120.0
1473.224243 160.0
1473.911865 192.0
1474.01123 180.0
1474.378052 252.0
1474.653198 88.0
1475.402344 148.0
1475.846313 168.0
1476.587646 168.0
1477.861084 216.0
1478.454346 128.0
1478.68396 160.0
1478.984497 168.0
1479.113525 172.0
1479.181519 200.0
1480.123291 196.0
1481.226196 144.0
1481.455933 200.0
1481.540283 148.0
1482.704956 140.0
1482.869019 180.0
1483.203247 168.0
1483.609497 132.0
1483.663208 160.0
1483.939209 160.0
1484.24585 164.0
1486.247925 184.0
1486.907959 92.0
1487.191895 120.0
1487.517212 216.0
1488.796631 132.0
1489.89502 172.0
1489.987183 124.0
1490.204834 200.0
1490.37146 192.0
1490.517456 176.0
1490.625 108.0
1491.41626 160.0
1491.885498 160.0
1492.10083 144.0
1492.554443 144.0
1493.915894 336.0
1494.177368 136.0
1494.523682 132.0
1494.869995 176.0
1495.062378 184.0
1495.539551 132.0
1495.932617 252.0
1496.178467 128.0
1496.925415 164.0
1497.333496 228.0
1497.402832 212.0
1497.803345 136.0
1498.257935 196.0
1498.966797 140.0
1499.999634 148.0
1500.146118 76.0
1500.724243 168.0
1501.125244 68.0
1501.881104 116.0
1502.251343 192.0
1502.606323 148.0
1503.107788 148.0
1503.956787 132.0
1504.458618 136.0
1504.666992 172.0
1504.96814 164.0
1505.114868 192.0
