>compound MLS002172465-01!SKF-75670 hydrobromide
>formula C17H19NO2
>ionization [M+H]+
>parentmass 270.150696
#inchi InChI=1S/C17H19NO2/c1-18-8-7-13-9-16(19)17(20)10-14(13)15(11-18)12-5-3-2-4-6-12/h2-6,9-10,15,19-20H,7-8,11H2,1H3
#inchikey LIHCKGZEDBNUJG
#origInchi InChI=1S/C17H19NO2.BrH/c1-18-8-7-13-9-16(19)17(20)10-14(13)15(11-18)12-5-3-2-4-6-12;/h2-6,9-10,15,19-20H,7-8,11H2,1H3;1H
#Ion_Source LC-ESI
#Instrument qTof
#Compound_Source NIH Pharmacologically Active Library
#PI Dorrestein
#Data_Collector VP/LMS
#Scan -1
#Precursor_MZ 270.151
#ExactMass 269.142
#Charge 1
#CAS_Number N/A
#Pubmed_ID N/A
#Smiles CN1CCc2cc(O)c(O)cc2C(C1)c3ccccc3.Br
#INCHI_AUX N/A
#Library_Class 1
#SpectrumID CCMSLIB00000085988
#IonMode Positive
#UpdateWorkflowName UPDATE-SINGLE-ANNOTATED-GOLD
#LibraryQualityString Gold
#TaskID d252d724072548979f1f6f1ced849daf
##Scan# 1208
#SpectrumFile p5-A02_GA2_01_18431.mzXML
#LibraryName Pharm_Active_Library.mgf
#MQScore -1
#Organism Pharm_Active_Library
#TIC_Query 0
#RT_Query -1
#MZErrorPPM -1
#SharedPeaks 0
#MassDiff 0
#LibMZ -1
#SpecMZ 270.151
#SpecCharge 0
#internalFilename spec-00000.mgf

>collision 10
44.919498 152.0
44.971539 84.0
45.01693 92.0
45.138531 96.0
45.174644 116.0
45.258957 116.0
45.388931 156.0
45.403683 192.0
45.541924 136.0
45.805561 44.0
45.851372 132.0
45.895855 140.0
45.91069 144.0
45.956551 48.0
46.068607 120.0
46.286358 288.0
46.295837 148.0
46.514122 120.0
46.683952 128.0
46.701633 192.0
46.792809 136.0
46.806774 248.0
46.866356 212.0
46.971333 152.0
47.092812 168.0
47.535007 152.0
47.780952 176.0
47.790581 60.0
47.812599 208.0
47.84013 132.0
48.091 192.0
48.125515 152.0
48.211155 180.0
48.274746 204.0
48.292725 104.0
48.476856 244.0
48.740505 148.0
48.780811 176.0
48.801662 208.0
48.844776 180.0
49.056435 116.0
49.161041 140.0
49.193146 156.0
49.346928 204.0
49.411156 196.0
49.460133 76.0
49.469933 176.0
49.495132 216.0
49.91328 168.0
49.947033 148.0
50.079342 160.0
50.216057 156.0
50.231571 52.0
50.271076 116.0
50.280956 160.0
50.295071 68.0
50.430664 136.0
50.456108 156.0
50.698151 160.0
50.784634 40.0
50.868351 280.0
50.906685 36.0
51.017509 152.0
51.063522 56.0
51.099998 40.0
51.174007 72.0
51.337872 144.0
51.494858 212.0
51.510571 44.0
51.562008 160.0
51.673542 148.0
51.870102 212.0
52.184132 120.0
52.207138 176.0
52.297779 92.0
52.340965 160.0
52.374088 184.0
52.46199 236.0
52.547077 148.0
52.6409 348.0
52.704456 156.0
52.773834 56.0
52.854836 156.0
52.976448 172.0
53.180904 236.0
53.595367 200.0
53.605568 188.0
53.763062 160.0
53.773277 152.0
53.916401 108.0
53.933941 100.0
54.074352 88.0
54.153416 48.0
54.316113 100.0
54.377735 144.0
54.480522 136.0
54.515785 172.0
54.578995 164.0
54.803581 124.0
54.879364 128.0
54.995907 124.0
55.075638 188.0
55.159863 136.0
55.208652 76.0
55.371445 192.0
55.386257 152.0
55.39959 136.0
55.494438 156.0
55.537445 180.0
55.617569 136.0
55.679928 140.0
55.694778 156.0
55.752724 108.0
55.92078 124.0
55.977352 208.0
56.013096 84.0
56.04438 212.0
56.136799 192.0
56.208679 152.0
56.354729 284.0
56.493767 164.0
56.73637 176.0
56.883385 152.0
57.191528 156.0
57.386784 280.0
57.429592 180.0
57.470322 316.0
57.495975 172.0
57.594112 176.0
57.942039 148.0
57.970829 164.0
58.025394 220.0
58.216583 216.0
58.242401 188.0
58.259109 168.0
58.322933 196.0
58.424816 212.0
58.436985 116.0
58.476967 192.0
58.700497 148.0
58.866825 164.0
59.001286 168.0
59.020935 164.0
59.184883 80.0
59.220104 196.0
59.319702 136.0
59.66972 152.0
59.959106 168.0
60.035229 244.0
60.119495 176.0
60.201313 152.0
60.230659 36.0
60.343468 108.0
60.416157 160.0
60.592644 188.0
60.646881 116.0
60.678692 200.0
60.704247 160.0
60.767841 144.0
60.850971 228.0
60.884258 168.0
61.011673 128.0
61.089428 172.0
61.277802 84.0
61.302731 104.0
61.330784 128.0
61.427464 136.0
61.586674 124.0
61.625729 120.0
61.746094 176.0
61.761738 160.0
61.83997 180.0
61.987179 192.0
62.060596 224.0
62.216171 40.0
62.348114 64.0
62.601391 236.0
63.114227 148.0
63.164837 228.0
63.215466 144.0
63.226543 108.0
63.280361 232.0
63.329453 196.0
63.424522 232.0
63.518074 120.0
63.683147 88.0
63.695858 164.0
63.773716 176.0
63.872295 184.0
64.048981 156.0
64.10952 116.0
64.372734 136.0
64.516533 160.0
64.572502 120.0
64.644493 148.0
65.05159 156.0
65.139908 204.0
65.468018 236.0
65.572929 164.0
65.740456 148.0
65.913239 184.0
66.018318 200.0
66.03772 168.0
66.419975 140.0
66.57579 176.0
66.613144 212.0
66.741531 260.0
66.964478 120.0
67.124191 116.0
67.396782 204.0
67.422928 32.0
67.501396 160.0
67.686302 156.0
67.7127 168.0
67.735954 396.0
67.935425 116.0
68.268845 220.0
68.283646 156.0
68.372482 264.0
68.636055 80.0
68.673988 52.0
68.752182 172.0
68.933182 172.0
69.050552 204.0
69.181274 136.0
69.219353 124.0
69.376747 164.0
69.52935 172.0
69.574165 196.0
69.607376 152.0
69.677132 168.0
69.821747 124.0
69.833389 80.0
69.89196 228.0
69.904922 216.0
70.011467 236.0
70.118088 140.0
70.211449 132.0
70.486893 84.0
70.665802 76.0
70.697594 152.0
70.898552 168.0
70.923691 148.0
70.949471 184.0
71.009201 188.0
71.047783 144.0
71.142151 172.0
71.166946 200.0
71.222359 140.0
71.276123 176.0
71.572166 200.0
71.59742 76.0
71.717041 176.0
72.223587 152.0
72.347473 132.0
72.365738 172.0
72.531403 212.0
72.630104 164.0
72.884758 168.0
72.996948 104.0
73.122833 176.0
73.369827 136.0
73.530167 172.0
73.6548 188.0
73.974571 164.0
74.010521 176.0
74.165031 104.0
74.250427 172.0
74.518211 124.0
74.626495 148.0
74.647125 164.0
74.690125 80.0
74.745178 180.0
74.770416 192.0
75.032814 164.0
75.070747 84.0
75.13974 88.0
75.274368 160.0
75.346909 252.0
75.362465 168.0
75.437515 188.0
75.460976 228.0
75.566483 124.0
75.789833 104.0
76.018723 128.0
76.122879 184.0
76.211464 200.0
76.432289 144.0
76.470573 168.0
76.615105 64.0
76.759766 184.0
76.913292 132.0
76.990112 220.0
77.075706 244.0
77.241798 124.0
77.28553 96.0
77.610397 112.0
77.727089 124.0
77.964157 164.0
78.032707 140.0
78.147034 156.0
78.236786 172.0
78.5681 176.0
78.965546 120.0
78.990303 148.0
79.018608 184.0
79.066383 160.0
79.220428 216.0
79.236374 128.0
79.300171 204.0
79.548492 156.0
79.619514 140.0
79.781212 184.0
79.857666 40.0
80.033844 120.0
80.087273 160.0
80.103302 188.0
80.12468 216.0
80.313637 228.0
80.408203 60.0
80.52961 148.0
80.822357 284.0
81.159531 172.0
81.303032 188.0
81.364059 60.0
81.480797 156.0
81.701927 292.0
81.835106 168.0
81.915344 212.0
82.031441 204.0
82.047699 200.0
82.111382 364.0
82.35627 212.0
82.609337 176.0
82.813873 128.0
82.99147 140.0
83.171066 116.0
83.225533 140.0
83.305443 188.0
83.336472 148.0
83.359947 208.0
83.499931 160.0
83.596352 172.0
83.680077 176.0
84.121262 92.0
84.300247 124.0
84.331314 144.0
84.3825 196.0
84.400787 184.0
84.53981 116.0
84.684441 176.0
84.743057 156.0
84.834694 168.0
84.887863 88.0
84.996086 168.0
85.008934 168.0
85.221931 184.0
85.299118 192.0
85.576912 184.0
85.86438 136.0
86.019363 208.0
86.250267 192.0
86.487022 236.0
86.70372 192.0
86.774155 196.0
86.985641 176.0
87.093338 172.0
87.305214 108.0
87.32753 96.0
87.593704 176.0
87.619781 168.0
87.634689 128.0
88.351616 52.0
88.460152 152.0
88.535049 156.0
88.863075 196.0
89.037651 128.0
89.052673 124.0
89.088364 96.0
89.221794 176.0
89.351555 148.0
89.404243 172.0
89.42495 188.0
89.438118 176.0
89.652824 184.0
89.667084 252.0
89.841377 200.0
89.884773 84.0
89.981033 152.0
90.124573 192.0
90.162369 208.0
90.292816 68.0
90.427147 244.0
90.595665 176.0
90.766243 60.0
90.81176 128.0
90.834518 112.0
90.862976 204.0
90.889542 64.0
90.986336 204.0
91.024307 132.0
91.055038 10160.0
91.084587 184.0
91.089775 136.0
91.096725 168.0
91.15728 36.0
91.254219 56.0
91.273232 48.0
91.358818 148.0
91.810234 176.0
91.89035 64.0
91.947594 224.0
92.059647 952.0
92.077415 212.0
92.193481 280.0
92.287621 64.0
92.327774 164.0
92.348808 196.0
92.47126 132.0
92.589966 48.0
92.756653 104.0
92.998337 192.0
93.050163 128.0
93.074028 168.0
93.121216 176.0
93.138504 168.0
93.267242 176.0
93.284538 28.0
93.336449 124.0
93.534607 236.0
93.702148 128.0
93.731049 136.0
94.043152 272.0
94.085938 68.0
94.230782 132.0
94.426018 272.0
94.493721 168.0
94.522743 168.0
94.586609 184.0
94.611778 244.0
94.679543 144.0
94.820969 196.0
94.836479 124.0
94.90239 200.0
95.049805 44.0
95.119667 268.0
95.238396 168.0
95.344971 184.0
95.449638 228.0
95.56665 84.0
95.813911 216.0
96.022484 120.0
96.446167 136.0
96.46376 208.0
96.540016 136.0
96.894295 80.0
97.037369 164.0
97.34346 140.0
97.367027 196.0
97.384697 124.0
97.561546 200.0
97.842285 160.0
97.850609 112.0
97.85717 152.0
97.872406 108.0
98.014229 208.0
98.037872 184.0
98.270554 204.0
98.294228 132.0
98.50943 88.0
98.552895 160.0
98.574631 92.0
98.655663 152.0
98.699158 184.0
98.748596 140.0
98.889076 104.0
99.044579 156.0
99.315063 52.0
99.362671 168.0
99.418228 136.0
100.028404 64.0
100.042336 136.0
100.265427 124.0
100.281372 172.0
100.385033 172.0
100.402985 116.0
100.660416 192.0
100.676392 204.0
100.719444 152.0
100.822227 192.0
100.896179 64.0
100.93145 136.0
101.098198 128.0
101.170258 156.0
101.470963 204.0
101.689415 204.0
101.713501 168.0
101.729759 200.0
101.749634 164.0
101.922363 120.0
102.046783 1324.0
102.093231 276.0
102.350807 176.0
102.455536 128.0
102.852791 200.0
103.055313 2096.0
103.133553 172.0
103.228577 44.0
103.305435 132.0
103.542252 132.0
103.560478 180.0
103.888855 92.0
104.037003 128.0
104.062401 608.0
104.09182 76.0
104.207596 196.0
104.250267 156.0
104.323433 212.0
104.528236 216.0
104.563454 152.0
104.791519 176.0
104.90361 164.0
104.977005 188.0
105.005562 144.0
105.035172 572.0
105.070869 4460.0
105.130005 172.0
105.158577 88.0
105.20961 40.0
105.260651 96.0
105.289238 108.0
105.319878 168.0
105.354607 100.0
105.383202 124.0
105.493568 200.0
105.702179 156.0
105.778008 176.0
105.816803 156.0
105.896011 240.0
105.911003 100.0
106.025734 52.0
106.076584 624.0
106.349785 112.0
106.910858 192.0
106.95031 192.0
107.050903 144.0
107.141472 236.0
107.155891 156.0
107.209465 132.0
107.223892 140.0
107.260994 156.0
107.300163 120.0
107.324905 176.0
107.36821 124.0
107.456909 224.0
107.892677 124.0
108.008476 160.0
108.109856 156.0
108.211281 240.0
108.712898 236.0
108.791771 156.0
108.982841 176.0
109.03064 176.0
109.06588 1920.0
109.099228 168.0
109.19696 88.0
109.567474 132.0
109.590393 140.0
109.759232 100.0
109.800934 144.0
109.946976 228.0
109.992889 140.0
110.037117 172.0
110.070137 196.0
110.155678 192.0
110.222618 168.0
110.291588 172.0
110.440041 156.0
110.467232 188.0
110.506981 140.0
110.804283 44.0
111.045341 224.0
111.183815 168.0
111.387474 108.0
111.503036 240.0
111.64389 40.0
111.789047 208.0
111.822716 252.0
112.117561 128.0
112.168144 184.0
112.347389 56.0
112.379036 172.0
112.480339 224.0
112.594353 192.0
112.981163 120.0
113.034058 108.0
113.055222 164.0
113.213989 140.0
113.368637 180.0
113.472504 152.0
113.710083 136.0
113.786499 64.0
113.843826 180.0
113.924538 116.0
113.994652 204.0
114.109428 224.0
114.224266 88.0
114.392372 176.0
114.520134 60.0
114.854774 164.0
114.976387 36.0
115.055733 5428.0
115.092369 192.0
115.164268 40.0
115.217667 176.0
115.251854 180.0
115.457069 56.0
115.862686 80.0
115.966614 120.0
116.059647 580.0
116.08667 88.0
116.131706 156.0
116.163879 220.0
116.19606 124.0
116.533134 136.0
116.724434 200.0
116.879402 96.0
117.068695 612.0
117.122581 152.0
117.342392 140.0
117.86055 228.0
118.011696 144.0
118.033318 176.0
118.067101 1116.0
118.466179 212.0
118.719772 192.0
118.832565 152.0
118.948143 216.0
119.013657 176.0
119.050262 10108.0
119.07399 4660.0
119.136848 76.0
119.195168 92.0
119.212555 44.0
119.277756 100.0
119.363831 88.0
119.368561 52.0
119.408211 172.0
119.588791 156.0
119.606209 136.0
119.638855 76.0
119.675873 40.0
119.712891 228.0
119.800682 116.0
119.817436 112.0
119.93293 176.0
120.051186 684.0
120.078392 640.0
120.131363 176.0
120.225182 140.0
120.264465 116.0
120.428223 44.0
120.659851 96.0
120.710144 208.0
120.791061 228.0
120.882957 36.0
120.89827 84.0
120.966125 56.0
121.001152 96.0
121.02523 168.0
121.068138 776.0
121.199051 116.0
121.77961 128.0
121.926811 188.0
122.390968 152.0
122.468048 184.0
122.781013 92.0
122.937645 124.0
123.006065 168.0
123.044876 3476.0
123.120728 60.0
123.34182 60.0
123.49881 60.0
123.567383 240.0
123.71566 80.0
123.868454 160.0
124.047806 596.0
124.125542 176.0
124.462822 28.0
124.582756 40.0
124.665977 240.0
124.918427 172.0
125.083092 200.0
125.348122 152.0
125.439499 68.0
125.624588 136.0
125.925919 200.0
126.046555 84.0
126.13372 180.0
126.314842 156.0
126.505051 100.0
126.583412 172.0
126.915039 176.0
126.998016 116.0
127.056953 336.0
127.12365 156.0
127.220161 100.0
127.433517 100.0
127.892273 156.0
128.01384 132.0
128.063995 1248.0
128.115494 216.0
128.144485 80.0
128.345093 224.0
128.403717 164.0
128.590973 196.0
128.749008 68.0
128.913925 124.0
128.96138 84.0
129.040497 196.0
129.070465 2924.0
129.216919 112.0
129.255371 164.0
130.0009 224.0
130.041885 1200.0
130.069885 288.0
130.098495 52.0
130.118927 108.0
130.191589 112.0
130.284714 132.0
130.573395 168.0
130.614334 56.0
130.695969 152.0
130.728088 132.0
131.001312 108.0
131.050308 1360.0
131.07486 300.0
131.153976 48.0
131.213257 152.0
131.533463 76.0
131.957535 80.0
132.005554 180.0
132.052322 188.0
132.076691 240.0
132.161102 68.0
132.373978 128.0
132.972321 92.0
133.064911 220.0
133.092422 560.0
133.181244 52.0
133.457016 152.0
133.489212 140.0
133.530609 176.0
133.626038 64.0
133.774506 88.0
133.845871 160.0
133.862 360.0
133.954117 128.0
134.058807 164.0
134.097702 14852.0
134.178528 224.0
134.22377 120.0
134.304489 92.0
134.320633 104.0
134.348312 36.0
134.412918 60.0
134.44754 132.0
134.493256 168.0
134.588486 68.0
134.701508 48.0
134.773132 60.0
134.807785 260.0
134.854004 60.0
134.909485 136.0
134.976532 144.0
135.044724 512.0
135.099548 1256.0
135.166214 56.0
135.379181 80.0
135.56218 176.0
135.589996 88.0
135.696625 124.0
135.726761 40.0
135.749954 104.0
135.847366 56.0
135.879852 104.0
135.984146 76.0
136.041107 148.0
136.093369 188.0
136.118912 116.0
136.169998 64.0
136.31636 196.0
136.532562 148.0
136.725708 164.0
136.907242 144.0
136.951492 160.0
137.016708 136.0
137.061066 18620.0
137.113464 100.0
137.14122 56.0
137.185562 24.0
137.217148 40.0
137.245117 48.0
137.273102 92.0
137.343063 84.0
137.497055 64.0
137.637115 60.0
137.658142 44.0
137.746887 164.0
137.833328 68.0
137.953033 72.0
137.988007 156.0
138.065109 2560.0
138.223831 120.0
138.399384 100.0
138.74144 36.0
138.964249 180.0
139.020569 96.0
139.064224 156.0
139.135574 116.0
139.213989 132.0
139.228226 96.0
139.276474 124.0
139.398636 220.0
139.563171 116.0
139.732513 96.0
139.751343 108.0
139.861954 56.0
139.96553 200.0
140.156326 104.0
140.318954 64.0
140.507629 72.0
140.866455 164.0
140.894806 124.0
140.918442 100.0
141.071503 532.0
141.1548 76.0
141.332199 120.0
141.355865 88.0
141.993118 200.0
142.071091 204.0
142.133087 248.0
142.869614 96.0
142.900543 164.0
143.049881 2320.0
143.098083 164.0
143.131424 228.0
143.181427 40.0
143.255264 44.0
143.386322 152.0
143.407761 204.0
143.426834 240.0
143.665298 88.0
143.755966 172.0
144.055145 500.0
144.081573 172.0
144.108124 148.0
144.128464 144.0
144.432083 176.0
144.714478 96.0
144.776733 104.0
144.8965 172.0
145.052185 116.0
145.065262 76.0
145.196121 224.0
145.289673 192.0
145.308868 136.0
146.036728 296.0
146.057556 540.0
146.097809 644.0
146.249481 156.0
147.044678 716.0
147.111404 152.0
147.609116 128.0
147.633301 132.0
147.840134 20.0
147.933319 56.0
148.052109 1040.0
148.076508 480.0
148.110016 132.0
148.366959 136.0
148.556107 164.0
148.633743 136.0
148.835205 72.0
148.8862 160.0
148.944504 56.0
149.0271 112.0
149.060684 1248.0
149.203476 112.0
149.228821 88.0
149.400482 48.0
149.442856 84.0
149.579147 196.0
149.90036 160.0
150.073166 280.0
150.091797 312.0
150.216476 132.0
150.493362 136.0
150.703415 176.0
150.957626 56.0
151.063278 220.0
151.097046 144.0
151.876022 96.0
151.895645 116.0
152.06427 1180.0
152.303116 36.0
152.357162 44.0
152.659485 80.0
152.792297 212.0
152.94487 68.0
153.070435 984.0
153.740952 148.0
154.070465 460.0
154.130783 180.0
154.185471 72.0
154.269516 148.0
154.935211 132.0
155.058624 368.0
155.089554 296.0
156.397827 132.0
156.636856 68.0
156.66925 120.0
157.260223 28.0
157.407516 188.0
157.499924 60.0
157.744797 36.0
157.782303 72.0
158.320267 120.0
158.485596 88.0
159.053589 148.0
159.07019 304.0
159.182907 32.0
159.298447 52.0
159.343658 148.0
159.396423 152.0
159.43161 68.0
159.456741 136.0
160.079056 360.0
160.675491 60.0
160.7966 124.0
160.990997 216.0
161.062912 2056.0
161.099609 208.0
162.052673 416.0
162.093933 172.0
162.149673 188.0
162.253601 68.0
162.401993 140.0
162.611267 152.0
163.076248 284.0
163.406631 64.0
163.926071 140.0
164.03566 128.0
164.071991 1016.0
164.193741 100.0
164.791061 236.0
164.913727 192.0
164.936722 224.0
165.000641 152.0
165.072067 3400.0
165.445786 172.0
165.502106 68.0
165.591736 116.0
166.078354 4048.0
166.137711 80.0
166.177841 64.0
166.391785 236.0
166.759109 52.0
166.88765 172.0
167.005936 40.0
167.084793 1984.0
167.170593 152.0
167.327606 64.0
167.386826 244.0
167.649582 196.0
168.060898 180.0
168.086548 544.0
168.411377 128.0
168.588928 124.0
168.684555 48.0
169.070999 128.0
169.108765 140.0
169.126877 132.0
169.440216 68.0
170.109283 172.0
170.150833 96.0
172.268066 120.0
172.639206 208.0
172.929611 108.0
173.162628 64.0
173.474442 208.0
173.660599 84.0
173.778656 164.0
174.093582 336.0
174.50618 112.0
174.677124 128.0
174.821823 52.0
175.572632 148.0
176.031799 96.0
176.069427 672.0
176.132172 172.0
176.362045 156.0
176.494232 76.0
176.82225 96.0
177.076096 716.0
177.125732 232.0
177.309555 188.0
177.882477 76.0
178.036469 112.0
178.078827 7024.0
178.123672 332.0
178.171936 76.0
178.192291 96.0
178.299469 124.0
178.429718 172.0
178.48555 260.0
178.786148 40.0
179.086319 2440.0
179.15892 52.0
179.201538 60.0
179.381821 180.0
179.462738 56.0
179.521408 52.0
179.788177 84.0
180.091721 412.0
180.159317 80.0
180.359726 76.0
180.401993 148.0
180.541534 144.0
180.699356 88.0
181.065094 772.0
181.101761 2416.0
181.193237 76.0
181.261627 176.0
181.382233 116.0
181.588699 40.0
182.07608 136.0
182.101624 208.0
182.496353 88.0
182.606598 120.0
182.655014 132.0
182.74379 96.0
183.077576 308.0
183.121002 156.0
183.228409 92.0
183.419739 96.0
184.060577 188.0
184.091537 184.0
184.2509 72.0
184.342758 108.0
184.375198 60.0
184.504944 40.0
184.542786 76.0
185.094772 164.0
186.638702 152.0
188.052567 184.0
188.11261 80.0
189.028198 96.0
189.070404 180.0
189.100143 248.0
189.850021 48.0
190.080307 232.0
190.286301 144.0
191.085205 568.0
191.364059 156.0
191.995071 56.0
192.097168 532.0
192.538742 136.0
193.002991 80.0
193.070435 228.0
193.100998 2432.0
193.132965 156.0
193.16893 32.0
193.448547 88.0
193.481644 48.0
194.019089 132.0
194.071762 780.0
194.10817 392.0
194.135544 180.0
194.276993 48.0
194.53508 64.0
194.571167 68.0
194.99617 104.0
195.08046 508.0
195.112274 312.0
195.140717 196.0
196.042572 148.0
196.070435 212.0
196.122757 260.0
196.589157 96.0
197.063843 108.0
197.664993 112.0
198.712921 80.0
198.802719 56.0
199.074356 336.0
199.114853 172.0
199.431808 60.0
199.538635 100.0
200.078796 136.0
201.674744 204.0
202.078384 1436.0
202.419449 56.0
202.521408 140.0
202.685715 36.0
202.835922 56.0
202.87561 332.0
203.085022 1296.0
203.122314 168.0
203.383377 80.0
203.505432 40.0
203.71962 48.0
203.766739 104.0
204.09111 316.0
204.113495 144.0
204.21019 92.0
204.426407 104.0
204.489014 104.0
205.061447 532.0
205.067505 140.0
205.112793 180.0
205.577667 112.0
206.071503 744.0
206.165955 96.0
206.211685 152.0
207.077637 256.0
208.088974 176.0
209.059525 208.0
209.096176 1180.0
209.479874 96.0
209.759399 100.0
210.068008 584.0
211.073563 512.0
211.107712 120.0
211.718323 80.0
212.084732 388.0
212.112366 72.0
212.477753 104.0
213.089203 132.0
213.145554 236.0
213.488556 104.0
215.380066 120.0
215.68396 136.0
215.938324 76.0
216.146042 132.0
217.007172 168.0
218.484436 40.0
219.080551 776.0
219.9254 64.0
220.096451 140.0
221.098694 1308.0
221.619904 56.0
222.098999 624.0
223.071152 124.0
223.104553 304.0
223.529175 80.0
224.0811 828.0
224.187271 60.0
224.231979 108.0
224.42276 40.0
225.08815 172.0
225.398804 44.0
225.605042 88.0
226.970291 92.0
227.108582 652.0
227.234222 60.0
227.762573 100.0
228.112518 140.0
229.07106 124.0
231.136139 196.0
231.596298 156.0
232.272232 36.0
232.709229 128.0
234.522308 140.0
235.071259 148.0
235.123138 108.0
236.106873 116.0
236.296509 240.0
237.08345 428.0
237.138611 64.0
238.101974 100.0
239.106461 1896.0
239.245819 48.0
239.335098 60.0
240.111816 516.0
241.125183 280.0
241.95018 120.0
242.129776 240.0
242.41478 48.0
245.642044 104.0
246.135147 268.0
247.13739 136.0
249.669937 52.0
249.9216 56.0
255.448654 76.0
258.345215 144.0
266.492401 52.0
266.521637 132.0
267.292267 188.0
267.927155 108.0
268.967407 136.0
269.062073 72.0
269.865784 156.0
270.150696 6692.0
270.22229 184.0
270.562653 96.0
270.598663 120.0
270.664154 156.0
270.860657 40.0
271.037567 92.0
271.103119 72.0
271.15152 1232.0
271.186646 180.0
271.375183 48.0
272.090393 208.0
272.160706 352.0
272.740814 120.0
272.832855 92.0
273.030487 76.0
273.204468 100.0
274.426331 44.0
275.617889 84.0
276.179871 28.0
278.596405 120.0
279.760315 44.0
280.51651 88.0
284.067841 168.0
295.895691 96.0
296.89621 40.0
297.187805 44.0
297.919067 104.0
298.221466 76.0
298.572144 72.0
306.35672 104.0
307.032898 112.0
307.985718 84.0
309.139465 56.0
311.432312 128.0
312.057831 88.0
312.560791 44.0
350.2229 96.0
358.092163 56.0
363.263 60.0
366.871857 72.0
370.793579 88.0
383.271057 80.0
388.538544 64.0
399.103821 100.0
410.306549 68.0
413.845795 52.0
431.447418 40.0
437.034027 80.0
445.668274 56.0
455.48645 64.0
479.871918 108.0
488.49942 64.0
497.199371 56.0
506.643372 80.0
527.775879 128.0
536.471497 80.0
548.016174 104.0
552.643188 28.0
638.782776 52.0
670.639893 40.0
685.415039 144.0
710.861389 160.0
722.401733 176.0
728.647278 72.0
740.787109 196.0
763.5578 152.0
769.569763 188.0
770.381592 48.0
772.775452 196.0
774.03186 144.0
779.095703 172.0
779.77356 212.0
830.108215 44.0
832.725159 124.0
834.075378 96.0
845.964172 112.0
847.458313 144.0
847.585815 172.0
849.754272 144.0
858.852539 192.0
860.655823 144.0
870.422668 188.0
875.903931 196.0
883.016235 172.0
886.704651 72.0
889.017578 48.0
894.533142 248.0
901.917786 80.0
902.886353 56.0
907.413208 204.0
907.713013 68.0
909.020691 160.0
912.799072 56.0
917.013184 144.0
917.718018 176.0
931.219238 184.0
938.2901 200.0
938.674194 132.0
939.033997 180.0
941.725586 124.0
942.073792 124.0
946.158875 244.0
946.893677 168.0
947.671631 116.0
951.713623 80.0
952.518127 172.0
953.452026 124.0
955.235107 144.0
955.567322 76.0
961.254456 236.0
962.643372 76.0
968.246216 100.0
969.788879 156.0
970.142212 196.0
975.623779 168.0
976.226929 184.0
978.89032 144.0
979.475708 164.0
980.809143 148.0
981.357788 96.0
982.243347 156.0
984.558899 224.0
988.910217 180.0
989.29834 200.0
995.913757 152.0
997.421753 188.0
998.138428 184.0
1000.340454 140.0
1003.118469 220.0
1005.105103 220.0
1005.250183 196.0
1006.241211 196.0
1007.839111 208.0
1009.432007 152.0
1010.115051 168.0
1010.311157 216.0
1011.253967 156.0
1013.597107 208.0
1016.602844 144.0
1018.215332 172.0
1019.791016 232.0
1023.009583 148.0
1024.181274 156.0
1024.926636 148.0
1025.04126 156.0
1025.474609 40.0
1027.419434 152.0
1027.980957 148.0
1028.746826 136.0
1029.93457 116.0
1031.768555 228.0
1031.941162 44.0
1032.919678 168.0
1036.479248 140.0
1038.030396 196.0
1041.354736 172.0
1051.172363 136.0
1051.462769 180.0
1054.588623 92.0
1054.827759 148.0
1055.060547 232.0
1058.165894 168.0
1058.664551 192.0
1061.444458 108.0
1062.994751 172.0
1065.61792 140.0
1065.689453 236.0
1069.682495 92.0
1074.746338 184.0
1075.235718 228.0
1076.796143 196.0
1077.985107 168.0
1078.200684 148.0
1081.241821 168.0
1082.204102 140.0
1082.682007 140.0
1083.533569 92.0
1084.831177 228.0
1086.529663 116.0
1087.920898 136.0
1089.86499 96.0
1091.389893 116.0
1092.067261 136.0
1095.206787 236.0
1095.259521 128.0
1100.786133 184.0
1103.045654 212.0
1103.448975 228.0
1104.791504 132.0
1104.943604 72.0
1108.18103 152.0
1109.036011 92.0
1109.294556 48.0
1109.506714 52.0
1110.236084 68.0
1111.934448 72.0
1112.770752 160.0
1113.574219 140.0
1115.567627 180.0
1117.576172 124.0
1119.146973 168.0
1121.038696 124.0
1123.305542 176.0
1124.179565 164.0
1124.993774 188.0
1125.908569 76.0
1126.035522 40.0
1126.275879 240.0
1128.287354 96.0
1128.527954 32.0
1129.731812 204.0
1129.925781 216.0
1130.086426 172.0
1135.680054 136.0
1144.995361 60.0
1147.883545 236.0
1148.879517 224.0
1149.957397 216.0
1150.497437 48.0
1151.415771 156.0
1151.577759 196.0
1151.773682 204.0
1153.902344 164.0
1153.990234 40.0
1154.355347 40.0
1156.648926 112.0
1156.960327 112.0
1158.717163 164.0
1160.496826 188.0
1163.699219 32.0
1170.75061 176.0
1172.944458 276.0
1173.421631 212.0
1175.433716 72.0
1177.181274 156.0
1177.939331 180.0
1178.00769 76.0
1178.513184 244.0
1180.365601 144.0
1180.529663 252.0
1180.933228 160.0
1183.910278 160.0
1184.102051 228.0
1185.595581 152.0
1187.487793 148.0
1192.272949 36.0
1192.657837 176.0
1195.973145 104.0
1197.067749 136.0
1197.233032 184.0
1197.363892 176.0
1199.292969 224.0
1202.576172 112.0
1202.803833 168.0
1203.473511 144.0
1203.832642 164.0
1205.78772 200.0
1206.630981 76.0
1207.19104 196.0
1208.429199 208.0
1210.609619 180.0
1210.699585 188.0
1211.655518 188.0
1214.476807 88.0
1214.525391 188.0
1214.76123 52.0
1216.884766 164.0
1219.392456 168.0
1219.795654 168.0
1219.962402 216.0
1220.956665 184.0
1221.255737 172.0
1221.854004 100.0
1225.00061 184.0
1225.850586 220.0
1227.704956 140.0
1229.358276 232.0
1231.047607 176.0
1232.025513 192.0
1233.485962 148.0
1235.380981 188.0
1236.115601 180.0
1236.605469 136.0
1239.946289 60.0
1241.790161 180.0
1242.702026 120.0
1242.856445 68.0
1246.542847 132.0
1249.038696 180.0
1251.38916 136.0
1254.644043 108.0
1254.940186 108.0
1255.90625 148.0
1256.703491 160.0
1257.289185 188.0
1258.333862 232.0
1258.835083 180.0
1259.089355 180.0
1259.562622 116.0
1259.901611 140.0
1265.481812 152.0
1266.799072 124.0
1267.64917 92.0
1267.705933 160.0
1267.812256 200.0
1268.223267 156.0
1268.471313 36.0
1268.591919 184.0
1268.749756 52.0
1269.932007 68.0
1270.201538 168.0
1271.31543 48.0
1272.152954 220.0
1272.92688 144.0
1273.502075 160.0
1274.503784 72.0
1274.702759 208.0
1281.063354 228.0
1282.146362 176.0
1282.217651 52.0
1282.28894 176.0
1282.638184 220.0
1286.233154 172.0
1287.532593 96.0
1288.011108 52.0
1290.119141 168.0
1290.219238 144.0
1290.269287 48.0
1290.884155 184.0
1291.427734 152.0
1293.939453 180.0
1294.906128 248.0
1296.568237 152.0
1297.894409 180.0
1298.503906 144.0
1299.070557 208.0
1301.496338 168.0
1304.140015 212.0
1307.196533 140.0
1307.700317 156.0
1309.557861 180.0
1310.415039 156.0
1310.991577 216.0
1311.654541 156.0
1311.762695 64.0
1311.820435 208.0
1311.986206 256.0
1313.168701 148.0
1314.019897 160.0
1318.75708 44.0
1319.140137 160.0
1319.696777 208.0
1320.579102 172.0
1320.962402 284.0
1321.693115 60.0
1322.091064 108.0
1324.03125 60.0
1325.29895 136.0
1325.393188 204.0
1325.668457 196.0
1327.074707 152.0
1329.033081 148.0
1330.898438 216.0
1331.602783 144.0
1331.922363 184.0
1332.641602 228.0
1333.433716 216.0
1333.659058 180.0
1335.338501 244.0
1335.556763 188.0
1339.443604 224.0
1339.909912 144.0
1341.00293 172.0
1341.813232 188.0
1342.052612 216.0
1343.788452 180.0
1347.643555 140.0
1347.890137 96.0
1348.761597 108.0
1348.885864 208.0
1351.599121 216.0
1352.345581 160.0
1353.143555 204.0
1353.692627 128.0
1354.528564 196.0
1355.289551 232.0
1356.220215 180.0
1357.019287 180.0
1357.429932 180.0
1357.884521 164.0
1363.317261 220.0
1363.846436 208.0
1365.633057 48.0
1369.858154 216.0
1370.086426 156.0
1371.154907 168.0
1372.894775 220.0
1374.458618 152.0
1374.57666 128.0
1376.702637 180.0
1376.916748 180.0
1378.771118 184.0
1380.811646 204.0
1381.188843 32.0
1383.97876 180.0
1385.660034 152.0
1386.067627 108.0
1386.178711 96.0
1387.401733 80.0
1387.802002 128.0
1389.730469 188.0
1390.272217 168.0
1391.459839 248.0
1391.786499 184.0
1393.071289 152.0
1393.346191 200.0
1393.88855 240.0
1394.081787 240.0
1394.52771 176.0
1396.237305 172.0
1396.520264 64.0
1401.470215 220.0
1402.066895 164.0
1402.692993 132.0
1402.789795 184.0
1403.468262 72.0
1404.900269 168.0
1406.23584 152.0
1407.69165 152.0
1407.87085 176.0
1409.170654 156.0
1410.119629 168.0
1410.18689 172.0
1410.807251 208.0
1415.131592 176.0
1416.075073 160.0
1416.367188 200.0
1418.060547 112.0
1418.292847 108.0
1419.882324 172.0
1420.639893 140.0
1420.785645 156.0
1421.487793 144.0
1421.945557 156.0
1422.711182 76.0
1423.199097 64.0
1423.627197 136.0
1423.762329 112.0
1424.423218 124.0
1424.573486 168.0
1425.460083 140.0
1427.316772 160.0
1428.399658 196.0
1430.145386 92.0
1431.545654 112.0
1434.386108 140.0
1434.974121 88.0
1435.245483 140.0
1436.995361 160.0
1437.765015 164.0
1442.281494 176.0
1442.795532 148.0
1443.457642 184.0
1444.18689 100.0
1444.5802 116.0
1444.844971 196.0
1446.335815 88.0
1446.525024 152.0
1446.780884 236.0
1448.183228 212.0
1449.213501 252.0
1451.024902 88.0
1451.320557 104.0
1452.162354 108.0
1453.383667 120.0
1454.297974 192.0
1455.600098 244.0
1456.792603 32.0
1457.050781 196.0
1457.445923 140.0
1458.084229 192.0
1459.064819 180.0
1460.737793 188.0
1460.958374 44.0
1461.300781 176.0
1463.172974 140.0
1463.2948 148.0
1463.980103 212.0
1465.198853 176.0
1466.448486 184.0
1467.26416 144.0
1469.575073 168.0
1470.002319 156.0
1470.719727 192.0
1472.307739 200.0
1472.9646 104.0
1474.599731 48.0
1475.295288 148.0
1475.409912 148.0
1476.518677 180.0
1476.72522 168.0
1477.742554 144.0
1478.278198 160.0
1478.56897 224.0
1479.020996 200.0
1480.260864 172.0
1480.544189 244.0
1480.865845 148.0
1480.942383 260.0
1481.248779 148.0
1483.53125 176.0
1485.449463 192.0
1487.014771 188.0
1488.765137 184.0
1489.502441 140.0
1489.702148 132.0
1489.809692 164.0
1490.124634 224.0
1490.939209 132.0
1491.761597 204.0
1492.399658 172.0
1492.561157 76.0
1492.799561 168.0
1495.276733 208.0
1495.330566 48.0
1495.584595 172.0
1495.730835 80.0
1496.138794 148.0
1496.839478 136.0
1496.962646 68.0
1497.27063 128.0
1497.501709 52.0
1497.655762 100.0
1499.219727 96.0
1500.198608 44.0
1500.676636 124.0
1501.162354 180.0
1502.944214 136.0
1503.021362 160.0
1503.276001 144.0
1503.646484 132.0
