>compound Dexamethazone
>formula C22H29FO5 
>ionization [M+H]+
>parentmass 393.209
#inchi InChI=1S/C22H29FO5/c1-12-8-16-15-5-4-13-9-14(25)6-7-19(13,2)21(15,23)17(26)10-20(16,3)22(12,28)18(27)11-24/h6-7,9,12,15-17,24,26,28H,4-5,8,10-11H2,1-3H3/t12-,15+,16+,17+,19+,20+,21+,22+/m1/s1
#inchikey UREBDLICKHMUKA
#Ion_Source LC-ESI
#Instrument qTof
#Compound_Source Isolated
#PI Sirenas
#Data_Collector Ed Esquenazi 
#Scan -1
#Precursor_MZ 393.209
#ExactMass 0.0
#Charge 1
#CAS_Number N/A
#Pubmed_ID N/A
#Smiles N/A
#INCHI_AUX N/A
#Library_Class 3
#SpectrumID CCMSLIB00000004679
#IonMode Positive
#UpdateWorkflowName UPDATE-SINGLE-ANNOTATED-BRONZE
#LibraryQualityString Bronze
#TaskID d19310cd93df49b68e9fcbec27720eb5
##Scan# 6
#SpectrumFile Dexamethazone.mgf
#LibraryName fda_library.mgf
#MQScore -1
#Organism fda_library
#TIC_Query 0
#RT_Query -1
#MZErrorPPM -1
#SharedPeaks 0
#MassDiff 0
#LibMZ -1
#SpecMZ 393.209
#SpecCharge 0
#internalFilename spec-00000.mgf

>collision 10
101.059013 80.495453
103.05574 142.843307
103.114799 2.0
104.520264 21.04167
104.589622 24.088421
104.688133 12.18561
104.785309 11.45588
105.070236 1728.795044
105.113274 14.34074
105.138481 11.96296
105.223869 6.666667
105.334625 10.41667
105.418007 8.005952
105.423828 4.66821
105.445198 17.340691
105.555008 2.708333
106.153755 11.67014
106.22187 7.001263
106.2649 7.671568
106.476585 6.363636
106.755104 4.5
107.050461 235.794403
107.085175 2087.058105
107.130188 6.225
107.138153 2.336539
107.22097 7.666667
107.231773 11.09921
107.271408 6.05
107.296173 3.185606
107.412529 17.116501
107.422791 4.349638
107.505737 8.416667
107.530968 1.675
107.664513 8.894444
107.913727 8.341311
108.057236 112.409698
108.503601 5.346264
108.650581 12.96451
108.956955 22.00658
109.065369 336.449585
109.100868 1095.689941
109.138687 2.333333
109.203262 6.42803
109.237877 19.339279
109.251381 7.486111
109.29866 6.422222
109.423698 13.06667
109.481117 12.69823
110.649086 23.325979
111.051407 4.666667
111.08036 250.471802
111.209114 8.819445
111.381599 7.088889
113.055351 49.708328
113.063446 37.494949
115.054283 225.525803
115.073479 138.618607
115.101219 4.15
115.452896 2.361111
116.059853 112.709999
117.050797 27.03347
117.070892 385.061005
117.205498 7.969086
118.167793 13.3375
118.457008 9.25641
118.515121 8.815
118.543564 8.408334
118.669807 5.721154
118.936646 32.894642
119.049881 45.090691
119.084663 2113.12793
119.115997 8.531863
119.141212 11.44444
119.148384 2.14881
119.240456 5.840278
119.251846 11.01136
119.306778 26.67424
119.342751 3.791667
119.386749 10.91667
119.393349 9.023809
119.468925 4.59375
119.511223 9.711021
119.582588 6.00119
119.597809 6.775537
119.746231 5.0625
119.82618 15.07716
120.39801 13.83043
120.432907 12.37306
120.484726 9.484849
120.505066 18.62722
120.58139 2.336539
120.685043 3.185606
120.872597 15.11204
121.064766 4285.018066
121.100571 650.854614
121.150131 11.36687
121.208733 5.133333
121.217865 5.884804
121.296555 2.341667
121.346611 8.428572
121.361961 10.66774
121.442581 22.42149
121.536118 8.424243
121.557503 7.388514
121.702751 13.90476
121.970177 3.958333
122.55291 12.07407
123.00782 17.44907
123.044426 97.490578
123.079834 401.894501
123.116341 33.555611
123.25222 12.00198
123.289291 27.53175
124.312088 34.125
124.408531 10.60093
124.674934 10.44231
125.059631 763.395203
125.095749 181.391403
125.131416 2.695513
125.384392 5.121212
125.438942 12.0
127.07692 7.336111
128.063446 306.158386
128.094513 2.708333
128.114258 3.666667
128.145523 5.680555
128.51387 20.149281
128.587265 14.83
129.070938 618.21991
129.120209 3.005953
129.163818 13.00658
129.238953 12.51724
130.081512 90.738991
130.102554 3.010417
130.638809 12.84667
130.809845 12.33796
131.050064 103.362602
131.084335 1108.10498
131.129486 8.408334
131.181473 11.776
131.219986 3.028846
131.247879 6.020833
131.267899 7.017857
131.28775 9.0
131.320175 15.00417
131.380142 19.125
131.570908 11.60333
132.056 195.875198
132.093933 22.694441
132.258224 22.08284
132.430939 5.061275
132.582611 16.4543
133.064392 578.88208
133.102386 289.421387
133.168549 10.66667
133.321548 12.29861
133.449097 8.213384
134.310501 11.36594
134.427734 28.892
134.516205 5.338889
134.653427 8.49132
135.079926 1789.202026
135.117615 90.239777
135.130203 2.0
135.183456 5.544117
135.215134 9.33435
135.227295 7.560484
135.2556 4.668651
135.307465 14.2663
135.339508 12.83452
135.349045 7.337302
135.419693 8.680555
135.466629 23.755119
135.567307 7.361111
135.676697 4.763889
135.769928 4.708333
136.10704 57.33181
136.331116 13.06667
136.382629 9.122549
137.057953 111.7845
137.095245 346.619812
137.127197 3.675
137.155899 4.531863
137.347275 5.673077
139.073944 21.902781
139.082031 4.708333
139.652267 14.04753
141.024384 8.097222
141.049515 16.90542
141.06987 601.535583
141.088882 503.199493
141.123825 3.011905
141.14035 5.001544
141.392578 9.136261
141.476776 6.710784
141.504288 3.678571
142.114044 3.694444
142.166016 2.815476
142.312424 10.67105
142.386673 20.76552
142.503632 16.2838
143.083878 995.947021
143.168625 11.44048
143.285202 1.666667
143.327026 4.531863
143.393494 6.666667
143.509552 5.354167
143.57692 12.93426
143.91037 30.36886
144.055511 318.774414
144.545609 8.075618
145.04393 26.34803
145.064667 994.115723
145.100922 1004.119019
145.135071 14.10486
145.150421 19.725281
145.190628 27.459829
145.347656 13.64209
145.362045 13.36687
145.723389 3.125
145.73587 4.033333
146.072144 421.359314
146.215042 2.35
146.265549 13.08255
146.33075 11.15648
146.377457 12.48302
146.400208 14.33611
146.463348 4.681667
146.582031 9.410256
146.64444 3.00463
146.707642 8.352941
146.901398 8.214286
146.958466 4.416667
147.019623 11.00833
147.080124 6433.021973
147.115036 133.992401
147.142319 25.691219
147.168457 8.680555
147.176224 11.80167
147.19783 17.135969
147.218201 6.916667
147.232941 17.272221
147.275085 29.265409
147.307816 15.49745
147.31926 1.6875
147.333405 7.810991
147.357544 3.047619
147.368759 9.725783
147.38588 9.080129
147.425064 15.26059
147.440247 4.306818
147.454422 18.338329
147.467087 2.816667
147.505112 9.013333
147.518036 7.347222
147.567413 32.442619
147.593857 6.335318
147.631897 3.002778
147.666 6.075
147.674072 21.232189
147.723587 4.682971
147.827393 22.40291
148.258148 13.5744
148.507828 13.4422
148.708389 6.446428
149.096222 636.303711
149.154114 3.0
149.166031 5.0
149.322708 11.02885
149.3573 7.783046
149.397217 5.884804
149.57045 5.898148
149.67305 17.6674
149.789795 2.893518
151.075592 368.587097
151.580963 16.907789
152.056503 77.33873
153.091995 73.360863
153.54863 11.34568
154.077576 88.928528
154.148438 9.960366
154.286667 5.454545
154.741409 7.111111
155.085205 609.816284
155.121948 2.008333
155.13913 3.025
155.2388 4.675
155.338516 3.358333
155.379333 3.333333
155.408157 20.33164
155.44693 4.349638
155.529358 2.680556
155.637833 9.333333
155.946136 12.89943
156.067871 12.35417
156.127167 3.893518
156.436157 6.080883
156.655197 13.60093
157.065567 48.347229
157.098969 219.368896
157.201462 10.27222
157.230301 1.671296
157.292679 10.02778
157.431213 6.25
157.464966 9.63362
158.072281 785.660828
158.193848 16.506941
158.240875 19.282049
158.292236 36.894859
158.638138 2.695513
159.079895 2239.336914
159.115036 152.462906
159.137878 2.458333
159.146805 1.694445
159.167435 11.89815
159.200012 16.27224
159.218216 7.818182
159.278748 23.714199
159.348938 11.58671
159.384827 6.446428
159.420685 17.94562
159.52449 7.719017
159.590591 18.26042
159.629959 7.710784
159.6521 7.656609
159.731064 11.09167
159.796951 3.683333
159.81842 15.54825
160.069199 17.402781
161.059433 142.274597
161.095627 814.5578
161.140091 57.22625
161.18988 13.32237
161.230362 13.92754
161.269241 5.801667
161.315933 20.133011
161.433029 3.339286
161.468109 5.335145
161.653839 10.32143
161.679001 9.5625
161.702484 6.482143
161.804245 2.333333
161.936096 17.366871
161.959167 13.01449
163.073349 105.226898
163.108353 23.736111
163.156754 5.0
163.628494 13.34722
164.055679 21.24766
164.840118 22.85714
165.067368 251.563293
165.296753 12.05762
165.503708 20.309299
167.084961 503.145996
167.117767 49.33997
167.138748 7.866667
167.446075 4.75
167.639709 16.390539
168.059189 24.526199
168.302628 7.291667
168.397293 9.171748
169.063156 120.468399
169.099686 197.064102
169.184036 12.24537
169.233521 16.765841
169.328156 7.013889
170.071548 173.382202
170.167084 2.367424
170.289642 10.3373
170.493988 4.666667
170.734833 18.471781
171.079941 3327.538086
171.113174 249.221207
171.176056 21.108841
171.198364 14.47738
171.253281 10.65278
171.271774 5.003788
171.303513 2.333333
171.335388 14.33333
171.380936 17.70476
171.421112 8.666667
171.49025 9.142858
171.54364 10.66865
171.858566 2.347222
172.146912 11.78268
172.172485 17.986839
172.302124 8.041667
172.462082 4.844298
172.501251 6.266666
172.781952 4.0
172.999237 15.41667
173.095428 1640.641968
173.161713 1.671296
173.231644 9.932017
173.34491 14.51022
173.37236 3.668651
173.381531 14.03
173.407181 11.97348
173.444443 10.07428
173.482315 12.1
173.720688 14.6832
173.752777 3.342592
174.061951 71.735626
174.128998 3.010417
174.179504 3.670455
174.266754 7.358974
175.112579 94.23175
175.462921 3.722222
175.514084 3.335526
176.558136 6.906746
177.067261 78.954742
177.088852 244.893997
177.17749 7.335318
178.075302 166.867401
178.127228 4.674242
178.186142 12.44444
178.402618 6.12037
178.535172 3.888889
178.866547 18.777781
179.085281 678.292175
179.150162 3.335526
179.169327 5.932018
179.397476 2.816667
179.457596 8.601191
179.746994 6.208333
180.215729 3.666667
180.320236 4.458333
180.344238 12.76552
180.381454 5.774123
180.409561 5.083333
180.460251 8.779321
180.629288 12.80474
181.063599 76.523369
181.104752 270.320801
181.34996 12.335
181.79538 6.335318
182.076538 204.640305
182.411789 3.266667
182.485565 1.666667
183.079117 754.341003
183.116302 205.050903
183.137726 4.387821
184.024704 13.93333
184.092957 76.175797
184.460266 4.898148
185.036865 10.0
185.061295 59.430679
185.095673 1112.706055
185.130188 42.394482
185.151978 3.640152
185.190704 21.11632
185.249878 9.360043
185.387222 3.0
185.584869 14.65988
185.614761 5.774123
185.718536 27.86421
185.966232 2.347222
187.075699 387.242004
187.109726 327.599396
187.14389 8.210526
187.210602 11.87179
187.272614 4.166667
187.343094 3.677083
187.396286 6.685185
187.42012 15.03125
187.510651 11.49123
187.534424 5.690476
187.722641 7.416667
187.772705 6.805555
187.953888 16.123739
187.987274 9.388888
188.975937 7.698232
189.068207 258.373413
189.087997 92.222527
189.204178 28.56333
190.07869 214.354202
190.120651 3.402778
191.083054 235.078903
191.104477 28.30682
191.127151 2.016667
191.384323 6.070402
191.894821 8.367424
192.09346 405.782104
192.278137 2.875
193.100601 432.705414
193.158173 3.708333
193.348129 6.422222
193.454575 4.75
193.667679 13.54167
193.909668 3.34375
193.938736 12.73035
194.072815 458.940308
194.107193 292.512085
194.266708 3.75
194.27803 4.010417
194.481735 5.033333
194.525406 12.37083
194.622421 17.67816
194.729248 3.34375
194.767731 22.123739
194.924316 7.481667
194.949524 4.761905
195.03035 12.74423
195.118317 340.061005
195.285004 29.83456
196.003235 8.001811
196.021118 3.402778
196.087601 1139.963013
196.134933 24.39558
196.165466 3.266667
196.241959 20.000601
196.266571 27.945829
196.61734 15.70014
197.126144 61.700211
197.215195 12.75758
197.401962 3.560185
197.579559 5.333333
197.650604 8.666667
197.877991 16.667589
198.103531 342.944794
198.531815 5.833333
198.80397 16.025511
198.902084 7.486111
199.074966 106.769096
199.112045 369.661285
199.179306 26.700951
199.377228 6.333333
199.422501 2.700758
199.496201 4.668478
199.737045 8.745098
200.211884 10.66793
201.087173 39.19857
201.127533 59.830841
201.274078 5.88587
201.797485 13.43678
201.840073 10.77564
202.072556 96.501534
202.662262 13.42188
203.085144 131.753296
203.111053 38.424789
203.363297 7.111111
203.380569 2.741667
204.037445 13.67647
204.092957 435.234589
204.252457 7.935
204.460052 6.364899
204.612717 9.260417
204.664047 7.429762
204.967743 4.09375
205.057877 29.594139
205.07164 22.125
205.101669 450.509186
205.820328 11.36111
206.070984 46.122101
206.167175 12.45714
206.560043 5.265351
206.804733 7.344048
206.879776 10.125
206.940002 13.0336
206.99617 28.95833
207.020905 2.347222
207.078323 213.656693
207.114487 416.024109
207.145065 7.33477
207.545883 6.840517
207.666412 8.323276
208.051056 4.926282
208.088364 544.221497
208.363556 11.33621
208.398712 7.383333
208.431335 5.875
208.502274 4.854167
208.523636 15.43561
208.564728 10.375
208.655792 12.06127
208.926361 7.0
209.052399 33.73719
209.096054 996.161316
209.13298 532.707092
209.202698 8.075
209.218124 4.0
209.27684 8.816667
209.328842 18.0056
209.772003 6.67803
209.822495 22.94079
209.924774 6.414286
209.975296 4.297619
210.103241 589.212708
210.162262 15.00529
210.230881 17.890961
210.256577 8.320652
210.312164 65.818527
210.341766 9.041667
210.356995 1.694445
210.382172 15.11538
210.47702 6.375
210.508682 33.068409
210.756226 18.438101
211.06958 12.74242
211.110703 1105.999023
211.143402 41.995659
211.185211 27.029039
211.364716 3.375
211.382431 23.403049
211.453262 54.70459
211.752853 13.18561
212.082626 75.13868
213.004074 10.125
213.093414 155.8078
213.127289 559.006226
213.166565 3.675
213.303741 5.679598
213.476517 4.0
213.832474 14.29167
214.542969 18.60088
215.084137 56.708328
215.10614 256.176086
215.139633 31.26449
215.167221 6.041667
215.26947 8.334523
216.090668 126.674599
216.660904 1.741667
216.773727 6.075
216.864944 2.700758
217.115952 26.01515
217.331406 9.419871
217.43399 5.678764
217.877701 13.17188
218.073425 61.925251
218.106949 64.6101
218.646317 17.66667
219.080887 180.548096
219.116333 876.491821
219.198318 2.14881
219.243622 18.094481
219.294968 11.64031
219.332397 4.225
219.392517 46.560749
219.568085 7.388514
219.74855 11.15705
219.97467 3.483333
220.08725 120.097298
220.223251 10.0049
220.755325 7.173851
220.83287 4.001984
220.857513 11.37876
220.937317 3.720238
221.018875 3.125
221.096512 764.838623
221.127945 155.022293
221.205292 8.962963
221.269516 8.132247
221.438049 14.6768
221.473312 15.375
221.495102 2.671296
221.655624 7.755556
221.750504 10.82843
221.894257 10.45583
222.055267 58.67429
222.103271 1136.47998
222.167969 12.09053
222.313904 11.67738
222.355026 22.73387
222.407288 13.55107
222.459167 4.711957
222.679565 44.741669
223.06662 5.522727
223.086273 89.804352
223.111115 1620.708984
223.156082 47.62714
223.304169 17.111111
223.461731 6.666667
223.503342 15.68134
223.632019 4.782407
223.830887 8.366667
224.203415 1.875
224.232071 9.334401
224.317276 34.03846
224.37796 9.476191
224.75853 4.71627
224.967834 10.96491
225.088791 48.50843
225.125259 552.614685
225.264725 5.37037
225.392197 22.50605
225.437057 5.668651
225.489288 10.72464
225.524002 9.44246
225.734909 16.007351
225.755737 11.36694
225.930527 8.132247
226.100433 113.764297
226.200348 10.32143
227.08519 16.339741
227.14122 184.319504
227.419312 7.414216
227.45256 7.666667
228.089035 8.740942
228.219223 2.336539
228.425751 28.741501
229.101074 163.147903
229.124069 25.67045
229.144592 5.469444
229.737106 1.720238
230.57901 17.03582
231.078903 94.648468
231.118881 83.268028
231.415451 38.544071
231.52861 9.25641
232.085922 108.223503
232.124969 74.349998
232.326782 28.44628
233.011032 17.82036
233.026825 7.682539
233.096771 261.760406
233.130264 88.373306
233.680603 23.138889
233.714783 12.54672
233.914642 6.927469
234.064392 42.275742
234.10321 256.314087
234.132263 80.736732
234.464645 8.150001
235.017212 2.669444
235.070328 61.230049
235.111481 1306.782959
235.14743 95.631363
235.321304 6.700269
235.556213 20.5942
235.604233 12.70417
235.684494 3.125
235.919586 6.339285
235.964828 3.333333
236.032532 3.686404
236.080734 42.17857
236.151779 61.85754
236.229401 23.36232
236.512894 10.3375
236.973236 17.75812
237.087708 67.54509
237.126785 1269.338989
237.165985 123.682404
237.195389 3.666667
237.311249 5.633333
237.349838 19.339279
237.388458 5.041667
237.428665 5.0
237.519806 7.810714
237.683762 34.03949
237.739746 2.708333
237.932846 7.378623
238.002579 8.509804
238.096191 136.446701
238.310684 19.78104
239.105774 64.699783
239.143997 797.140076
239.189224 5.666667
239.325821 2.761364
239.425262 5.075
239.648605 20.32658
239.79509 8.401667
239.970963 9.527778
240.115936 66.990433
241.099213 64.764702
241.117142 148.722794
241.46608 8.333333
242.106979 79.209053
243.069489 35.934158
243.115646 172.158295
243.241974 7.013889
243.291306 7.369253
243.440552 11.125
243.692932 6.388158
244.124237 338.230713
244.168793 7.125
244.823944 6.125
244.916733 12.55408
245.093109 133.879303
245.131134 335.043488
245.177887 4.358333
245.559464 15.48214
246.050888 18.889549
246.100876 105.006897
246.334076 13.84444
246.698776 4.630952
247.110962 228.4608
247.143494 90.79364
247.226013 2.14881
247.333145 10.04167
247.539581 6.832977
247.848846 14.88441
247.870697 9.775537
248.029617 10.5873
248.119125 579.198486
248.165924 4.791667
248.26683 32.281731
248.429916 15.52688
248.451675 15.9001
248.675262 11.74405
248.896042 4.408333
249.035248 13.5375
249.0849 46.306339
249.126724 421.668701
249.158508 43.73288
249.218613 6.891666
249.286362 22.721991
249.301468 3.518939
249.371292 18.683331
249.487762 14.22834
249.539734 23.44961
249.694077 14.0947
249.731903 3.185606
249.89595 3.703704
250.070526 15.08854
250.135361 228.734894
250.16954 50.504768
250.792389 24.252529
251.111816 19.66667
251.143372 329.126709
251.176056 37.741249
251.2117 2.416667
251.245102 1.720238
251.91246 12.14682
252.264847 5.336111
252.449951 4.669445
253.088684 48.289291
253.122009 369.651611
253.159378 91.220177
255.137192 140.701996
256.655914 13.56944
257.092285 65.259789
258.103485 449.841187
258.140991 69.751648
258.542358 10.98994
259.143158 118.5811
259.409698 4.166667
259.994202 5.573412
260.046021 15.125
260.118164 248.401703
260.308228 5.037037
260.642029 13.37745
260.942963 9.010715
261.028473 7.190217
261.08548 5.136111
261.129242 432.967285
261.164001 107.395798
261.201416 5.358974
261.280151 5.335526
261.294128 21.416849
261.336182 2.008333
261.71347 11.45833
262.006073 4.120098
262.093567 133.148193
262.135071 332.677399
262.162933 67.742416
262.24823 4.028846
262.318207 7.492559
262.512848 5.427083
262.687866 8.367424
262.806305 12.93667
263.026306 2.00463
263.100189 94.512466
263.143463 934.639221
263.179352 49.66256
263.217346 2.333333
263.251953 28.252741
263.28476 9.055555
263.325378 9.369253
263.354675 7.852564
263.388641 18.375
263.448669 3.703704
263.535431 2.347222
263.719391 5.629902
263.777313 6.564103
263.856537 10.7815
263.945709 7.136111
264.194916 2.75
264.342529 8.698232
264.404755 6.805555
264.456085 6.008333
264.546021 9.125
264.671783 17.947069
265.118286 20.0
265.161591 94.252159
265.232056 11.93889
265.574188 4.416667
266.133179 17.115391
266.979218 19.008129
267.140228 44.055771
267.348816 13.00379
267.508087 3.337963
268.11731 9.599999
268.316711 12.43254
269.069305 10.79688
269.096741 28.29348
269.127747 71.435028
269.554474 11.86786
270.582397 6.053572
271.110535 307.128113
272.476318 20.954201
272.528137 1.777778
272.802979 11.53846
273.125488 89.854843
273.162079 59.794449
274.137421 276.016296
274.184937 6.225
274.212585 2.354167
274.264404 5.720238
275.140717 131.3526
275.161804 14.22222
275.267822 3.013889
275.510284 19.775511
276.118073 95.35955
276.150635 523.670227
276.321838 10.38075
277.190796 24.77632
277.398315 5.075
277.48288 2.020833
277.7901 8.881579
278.024994 4.0
278.130035 34.351608
278.164734 194.232193
278.579224 12.11935
279.131836 63.272751
279.172089 227.236298
279.299713 10.67188
279.433441 11.73851
279.51712 5.884804
279.61377 8.672222
279.807648 21.90399
279.959442 11.48761
280.144928 66.424591
280.411285 16.37833
281.140991 62.668259
281.156677 117.562202
281.244965 3.335784
284.643524 4.630952
284.687469 12.89851
285.120209 18.04167
286.142181 111.168098
286.514252 13.83043
286.580109 1.777778
287.109253 8.033334
287.168701 14.27161
289.105133 23.016529
289.124695 190.960999
289.1539 70.514931
289.306488 7.088889
289.444122 2.408333
289.928131 8.091216
290.15921 37.50502
291.171478 123.995697
291.238739 19.33378
292.154694 31.75482
293.113129 40.82534
293.154266 123.005699
295.173645 44.42976
295.253937 5.466667
296.171906 108.2145
297.192322 83.420776
297.571869 5.003205
299.142975 71.751648
300.148743 53.125931
300.18219 5.011905
301.158966 226.010101
303.13681 7.005556
303.359558 21.58333
304.146179 57.205132
306.15802 97.905434
307.165771 117.309601
307.214783 2.733333
307.641693 4.083333
309.185364 56.771702
309.258606 1.708333
311.161591 39.068062
318.8349 4.694444
319.170105 54.06221
321.146667 20.502979
325.351776 4.222222
327.176544 18.980391
434.681366 6.840517
1581.542114 62.600929
