>compound MLS002153171-01!Sulindac sulfone59864-04-9
>formula C20H17FO4S
>ionization [M+H]+
>parentmass 373.0904346960906
#inchi InChI=1S/C20H17FO4S/c1-12-17(9-13-3-6-15(7-4-13)26(2,24)25)16-8-5-14(21)10-19(16)18(12)11-20(22)23/h3-10H,11H2,1-2H3,(H,22,23)/b17-9+
#inchikey MVGSNCBCUWPVDA
#Ion_Source LC-ESI
#Instrument qTof
#Compound_Source NIH Pharmacologically Active Library
#PI Dorrestein
#Data_Collector VP/LMS
#Scan -1
#Precursor_MZ 373.097
#ExactMass 372.083
#Charge 1
#CAS_Number N/A
#Pubmed_ID N/A
#Smiles CC/1=C(CC(=O)O)c2cc(F)ccc2\C1=C\c3ccc(cc3)S(=O)(=O)C
#INCHI_AUX N/A
#Library_Class 1
#SpectrumID CCMSLIB00000085535
#IonMode Positive
#UpdateWorkflowName UPDATE-SINGLE-ANNOTATED-GOLD
#LibraryQualityString Gold
#TaskID d252d724072548979f1f6f1ced849daf
##Scan# 2048
#SpectrumFile p4-C04_GC4_01_18352.mzXML
#LibraryName Pharm_Active_Library.mgf
#MQScore -1
#Organism Pharm_Active_Library
#TIC_Query 0
#RT_Query -1
#MZErrorPPM -1
#SharedPeaks 0
#MassDiff 0
#LibMZ -1
#SpecMZ 373.097
#SpecCharge 0
#internalFilename spec-00000.mgf

>collision 10
45.082714 200.0
45.539562 100.0
45.550308 184.0
45.888088 152.0
46.435749 148.0
46.555176 132.0
47.243492 60.0
47.374908 92.0
48.279209 232.0
48.297192 208.0
49.154377 160.0
49.76746 48.0
49.809589 172.0
50.178291 156.0
50.18816 28.0
50.203671 176.0
51.020657 80.0
51.151531 188.0
51.453751 136.0
51.559448 160.0
52.052238 148.0
52.152802 56.0
52.965153 180.0
54.944538 160.0
55.047859 172.0
55.404312 124.0
55.629719 124.0
55.793129 160.0
55.807999 104.0
55.873436 124.0
56.044655 184.0
56.17585 220.0
56.245983 256.0
56.305706 148.0
56.778625 160.0
57.307751 156.0
58.054619 196.0
58.228989 136.0
58.510296 100.0
58.708378 156.0
58.815174 148.0
58.909847 112.0
59.156048 132.0
59.177479 188.0
59.217293 164.0
59.630005 68.0
59.719177 228.0
59.930077 216.0
59.942402 216.0
60.872074 176.0
60.890713 124.0
61.004139 148.0
61.309204 44.0
61.504158 116.0
61.73069 168.0
62.35463 92.0
62.595318 120.0
62.967487 196.0
63.750092 160.0
64.424057 112.0
64.529533 108.0
64.710327 152.0
66.251587 204.0
66.425964 176.0
66.972816 248.0
67.155365 104.0
68.199974 184.0
68.277245 176.0
68.313431 168.0
68.984589 164.0
69.489693 144.0
70.0616 116.0
70.106583 232.0
70.418556 172.0
70.629158 196.0
71.511711 196.0
71.8386 116.0
72.046242 60.0
72.132423 168.0
72.149323 156.0
72.359108 136.0
72.861107 196.0
72.898483 116.0
73.223419 72.0
73.349503 128.0
74.360352 56.0
74.379234 48.0
74.898514 180.0
75.269302 52.0
75.571785 160.0
75.765686 164.0
76.314117 148.0
77.255882 204.0
77.874641 56.0
79.039917 200.0
79.156746 192.0
79.31974 176.0
79.815056 160.0
80.533241 180.0
80.767387 152.0
81.34716 136.0
81.428757 156.0
81.475456 172.0
83.085815 224.0
83.162025 168.0
83.450859 88.0
84.026382 104.0
84.048279 120.0
84.183357 132.0
84.585579 156.0
84.983253 96.0
85.01078 88.0
85.100723 196.0
85.676369 284.0
86.344551 188.0
86.412994 116.0
86.44075 204.0
86.585144 208.0
86.746338 180.0
87.990898 140.0
88.679276 68.0
89.830017 128.0
90.12075 148.0
90.671402 184.0
90.739647 156.0
90.800323 152.0
91.064133 240.0
91.358757 180.0
91.802536 144.0
92.34774 200.0
92.400383 180.0
92.53244 132.0
93.071198 160.0
93.103844 196.0
94.35437 164.0
94.396912 36.0
94.832497 128.0
94.882973 100.0
95.477058 176.0
96.281929 120.0
96.749245 204.0
96.780571 68.0
97.254974 160.0
97.703003 140.0
98.912666 44.0
98.954239 244.0
99.287132 104.0
99.422035 220.0
100.179016 244.0
100.87001 180.0
101.059998 196.0
101.350319 120.0
102.018639 168.0
102.070915 148.0
102.785988 140.0
103.016144 60.0
103.396271 140.0
103.436752 160.0
103.535957 108.0
104.061134 156.0
104.140335 220.0
104.636505 140.0
104.683334 176.0
106.271553 160.0
106.419327 128.0
106.698746 112.0
106.861214 160.0
106.968231 176.0
107.050278 304.0
108.62133 116.0
108.637924 272.0
108.687714 144.0
108.714691 184.0
108.793564 160.0
109.044907 396.0
109.302765 116.0
110.575729 184.0
110.623871 124.0
111.009377 68.0
111.034546 216.0
112.325966 108.0
113.109901 188.0
113.512436 116.0
115.054993 336.0
115.574341 164.0
116.249313 176.0
116.825127 152.0
117.536102 256.0
118.415939 88.0
118.498253 212.0
118.623947 144.0
118.701996 172.0
118.758385 112.0
118.955841 116.0
119.090462 208.0
119.934669 56.0
119.973907 164.0
120.170189 212.0
121.28109 60.0
121.548637 108.0
122.725403 216.0
123.766083 144.0
124.320251 180.0
125.020264 200.0
125.173859 48.0
125.372116 192.0
125.436752 152.0
125.461273 176.0
125.673149 232.0
126.061668 152.0
126.538094 216.0
126.616463 92.0
127.932236 160.0
128.051575 216.0
128.330994 60.0
128.547531 172.0
129.055756 160.0
129.943588 188.0
130.934662 136.0
131.057663 156.0
131.155655 156.0
131.753525 196.0
131.796936 52.0
132.05983 72.0
132.272614 148.0
132.506195 72.0
133.045135 180.0
133.061203 88.0
133.951172 112.0
134.278473 68.0
134.518433 120.0
134.624634 180.0
134.680069 140.0
134.938889 160.0
135.770157 184.0
135.809586 140.0
136.157715 192.0
136.222748 32.0
136.562103 100.0
137.989227 180.0
138.886108 232.0
139.050354 160.0
139.261658 128.0
139.459015 124.0
139.814148 180.0
140.247498 204.0
140.636673 124.0
141.251007 176.0
141.281769 160.0
141.724487 124.0
142.512222 124.0
142.695221 140.0
142.942596 124.0
143.118729 160.0
143.292603 132.0
143.476105 48.0
143.738464 128.0
144.548508 168.0
144.730423 204.0
145.27446 80.0
146.055206 156.0
146.112869 176.0
146.305405 176.0
146.435425 128.0
146.637802 88.0
146.796906 168.0
147.062286 120.0
147.100906 216.0
147.859848 164.0
148.08017 200.0
148.105865 168.0
148.909622 76.0
149.074814 112.0
150.22644 104.0
150.367966 112.0
150.641434 184.0
150.883362 132.0
151.370255 64.0
151.42659 196.0
152.056671 144.0
152.337601 212.0
152.535614 176.0
152.71019 148.0
153.022705 200.0
153.330612 104.0
153.868347 132.0
154.07579 160.0
156.456573 188.0
156.785355 136.0
157.027191 88.0
157.241745 232.0
157.306641 56.0
157.526382 176.0
157.778778 204.0
158.063904 204.0
159.060608 340.0
159.490891 260.0
159.858078 160.0
160.041824 196.0
160.087143 128.0
160.631546 184.0
161.064331 176.0
161.520676 112.0
161.626938 200.0
161.796509 120.0
162.275345 120.0
162.47316 148.0
163.054626 100.0
163.108002 144.0
163.97847 68.0
164.419678 96.0
164.649445 168.0
164.841034 124.0
165.193863 192.0
165.493286 204.0
166.057053 124.0
166.413742 136.0
167.092239 212.0
168.223572 180.0
168.786789 148.0
169.076508 136.0
169.449387 108.0
169.703369 152.0
170.042542 192.0
170.326202 104.0
170.597778 148.0
171.387619 192.0
171.562241 116.0
171.760422 140.0
171.872604 156.0
172.034409 184.0
172.306015 192.0
172.324295 144.0
172.452347 208.0
172.504623 240.0
172.528152 232.0
173.512497 200.0
173.66983 132.0
173.740646 40.0
174.076614 208.0
174.439178 104.0
174.486496 148.0
174.596924 140.0
175.025864 44.0
175.605621 204.0
178.109497 108.0
178.314072 160.0
178.391159 140.0
179.13092 220.0
179.490707 104.0
180.045761 180.0
180.198013 168.0
180.446564 212.0
181.062012 160.0
181.635574 76.0
181.713364 140.0
182.395462 160.0
183.016907 152.0
183.857941 196.0
184.160309 212.0
184.489975 164.0
184.928177 212.0
185.039154 140.0
186.138367 208.0
187.132004 136.0
187.205933 152.0
187.560104 124.0
188.277664 244.0
189.45105 144.0
190.076157 152.0
190.721527 208.0
190.867233 108.0
191.004745 204.0
191.230362 128.0
191.36525 68.0
191.401047 180.0
193.457901 264.0
194.153351 180.0
194.231003 176.0
194.894501 140.0
195.319855 184.0
196.032578 148.0
196.297394 136.0
197.078949 224.0
197.098511 172.0
197.554214 192.0
198.355087 92.0
199.04805 72.0
199.716904 132.0
200.330536 144.0
200.787155 180.0
201.173706 96.0
201.625626 176.0
201.713242 40.0
202.080887 280.0
202.315781 232.0
202.47435 168.0
202.783157 208.0
202.879532 144.0
203.080856 120.0
203.231201 108.0
203.878616 68.0
203.980942 156.0
204.851685 128.0
205.584427 104.0
205.984146 180.0
206.046997 144.0
206.247025 44.0
206.447144 28.0
206.658829 124.0
207.05835 140.0
207.331741 68.0
207.555328 64.0
208.063156 164.0
208.106216 64.0
208.390564 160.0
208.919556 88.0
209.077805 128.0
209.339767 180.0
210.097794 128.0
210.912109 160.0
211.186798 48.0
211.591904 152.0
212.310501 192.0
212.412018 168.0
213.072067 128.0
213.527344 164.0
213.559326 200.0
213.643692 56.0
213.786255 116.0
214.741821 128.0
214.8638 172.0
215.039413 164.0
215.084106 708.0
215.141571 184.0
215.521255 176.0
216.038727 124.0
216.092957 360.0
217.08728 48.0
218.717834 100.0
218.968094 136.0
218.991653 192.0
219.371765 60.0
219.504059 160.0
219.601746 112.0
219.752197 144.0
219.808258 160.0
219.982391 260.0
220.066513 724.0
221.07695 320.0
221.144028 160.0
221.277237 120.0
221.493408 176.0
221.543762 196.0
221.626724 172.0
221.671173 136.0
222.083176 348.0
222.16037 88.0
222.667938 156.0
223.449707 80.0
223.80983 256.0
223.971161 96.0
224.09404 188.0
224.220917 108.0
225.094971 176.0
226.039551 136.0
226.079636 172.0
226.225113 36.0
226.320923 36.0
226.485626 196.0
226.893158 64.0
227.082642 340.0
227.187057 188.0
227.436111 136.0
228.098267 260.0
228.196136 228.0
228.233521 212.0
228.534439 116.0
228.728607 84.0
228.96344 108.0
229.098984 288.0
229.608383 180.0
229.976456 192.0
230.227036 184.0
230.625839 192.0
230.894913 228.0
230.99472 40.0
231.059311 148.0
231.542557 96.0
231.950623 336.0
232.066177 140.0
232.09407 72.0
232.306366 84.0
232.37001 156.0
232.640182 80.0
232.710007 132.0
232.77829 180.0
232.815292 220.0
232.873978 140.0
232.907394 148.0
232.965103 152.0
232.986374 228.0
233.076706 32252.0
233.151566 100.0
233.197708 64.0
233.279617 72.0
233.319366 112.0
233.34964 68.0
233.383347 116.0
233.407211 96.0
233.442291 108.0
233.48587 72.0
233.577484 124.0
233.609558 48.0
233.652161 56.0
233.69313 64.0
233.745087 140.0
233.840805 200.0
233.898636 212.0
233.983871 120.0
234.019333 68.0
234.082626 18696.0
234.156921 256.0
234.182953 160.0
234.229019 56.0
234.273193 68.0
234.29451 84.0
234.325821 172.0
234.453888 52.0
234.510864 44.0
234.577911 60.0
234.635834 84.0
234.773056 80.0
234.827942 36.0
234.943848 120.0
234.995712 36.0
235.041489 152.0
235.088455 4264.0
235.195633 108.0
235.294815 124.0
235.322296 160.0
235.37114 84.0
235.416946 132.0
235.441376 96.0
235.56485 124.0
235.627701 68.0
235.649094 244.0
235.668686 184.0
235.733749 116.0
235.765579 64.0
235.786591 104.0
235.875229 68.0
235.924133 100.0
235.976105 84.0
235.997513 72.0
236.097076 868.0
236.19017 40.0
236.379852 60.0
236.493088 200.0
236.542068 48.0
236.583847 156.0
236.649216 72.0
236.701263 104.0
236.746429 56.0
236.878891 40.0
237.087234 216.0
237.329391 68.0
237.534866 124.0
237.801819 176.0
237.884689 60.0
238.016708 112.0
238.087326 216.0
238.237839 40.0
238.391464 52.0
239.04953 92.0
239.209564 76.0
239.240356 56.0
239.341949 32.0
239.56369 72.0
240.177109 252.0
243.156616 144.0
243.203171 64.0
244.822952 88.0
245.605225 64.0
245.767456 148.0
245.892273 80.0
246.078873 644.0
246.129517 56.0
246.341888 72.0
246.851334 152.0
247.090408 3684.0
247.135971 124.0
247.289307 56.0
247.567932 128.0
247.643097 60.0
247.690079 152.0
247.752731 40.0
247.877274 108.0
247.8862 100.0
247.898132 168.0
247.972076 156.0
248.05043 232.0
248.099121 6560.0
248.151123 132.0
248.35144 68.0
248.470642 40.0
248.530258 72.0
248.596161 44.0
248.630676 48.0
248.687164 64.0
248.938324 100.0
248.979141 48.0
249.10379 2068.0
249.227295 92.0
249.551041 48.0
249.786896 40.0
250.081421 208.0
250.107254 496.0
250.221176 76.0
250.246353 48.0
250.284134 104.0
250.309326 32.0
250.403809 68.0
250.473099 84.0
250.627472 148.0
250.655823 76.0
250.699936 156.0
250.917419 96.0
251.083496 256.0
251.108871 180.0
251.191788 44.0
252.003113 48.0
252.095642 184.0
252.784103 140.0
252.961349 64.0
253.106979 120.0
254.035583 100.0
254.62912 68.0
255.000839 136.0
255.630524 72.0
257.658356 96.0
258.077148 112.0
258.364868 68.0
259.085175 156.0
260.092072 84.0
260.158508 92.0
260.824432 92.0
261.058716 124.0
261.110565 164.0
261.583557 76.0
262.172943 136.0
263.079285 104.0
263.118011 148.0
264.064789 320.0
264.113312 228.0
264.359192 180.0
265.065125 116.0
266.073822 184.0
266.112762 132.0
267.022644 168.0
267.074677 212.0
275.076538 48.0
276.096649 504.0
277.097107 92.0
278.79599 56.0
280.036926 140.0
280.09024 568.0
281.080353 164.0
281.353333 92.0
283.015686 148.0
283.3573 112.0
284.82663 104.0
286.666931 104.0
287.047852 216.0
292.094116 204.0
292.996216 128.0
293.060974 160.0
293.088226 232.0
294.070343 104.0
294.097046 208.0
295.095154 204.0
295.180634 156.0
299.043488 96.0
310.726593 76.0
311.054016 700.0
311.203888 176.0
312.059204 308.0
313.069489 460.0
313.219391 168.0
313.700714 28.0
314.066071 268.0
314.206024 88.0
314.84137 180.0
315.661194 52.0
319.548645 64.0
322.451263 52.0
323.116333 96.0
326.159485 188.0
327.08432 984.0
328.097534 108.0
329.071625 88.0
332.013428 88.0
339.0495 72.0
340.047058 172.0
342.193787 112.0
347.174713 160.0
347.356445 80.0
352.232727 104.0
354.702332 68.0
367.054016 120.0
367.790314 92.0
369.062439 108.0
371.191376 180.0
371.283417 176.0
375.224701 108.0
382.102936 44.0
382.826904 76.0
390.253693 100.0
390.591919 72.0
404.452301 44.0
411.515503 136.0
419.324249 96.0
428.824615 60.0
483.464508 112.0
499.422699 88.0
501.234619 64.0
512.873291 268.0
520.210205 72.0
539.991577 96.0
551.279297 112.0
574.872925 44.0
591.691345 68.0
596.493896 76.0
613.012207 68.0
637.792908 92.0
684.014404 140.0
693.704346 72.0
729.845764 80.0
764.15155 144.0
780.951782 76.0
828.468079 108.0
839.388245 252.0
855.995728 76.0
868.519958 108.0
877.422974 68.0
877.476074 68.0
882.630493 76.0
1043.099854 84.0
1080.7677 132.0
1088.902954 120.0
1122.548706 120.0
1131.17395 104.0
1223.583008 64.0
1301.19043 180.0
1301.377075 128.0
1317.401367 128.0
1334.657593 164.0
1354.09082 152.0
1360.64624 204.0
1383.411255 168.0
1387.678589 124.0
1389.66626 208.0
1395.310669 152.0
1398.085083 168.0
1399.864258 88.0
1410.854614 92.0
1446.996704 104.0
1449.594727 100.0
1473.417603 112.0
1475.221069 148.0
1475.419922 208.0
1484.838135 244.0
1485.275269 128.0
1485.44397 228.0
1491.317993 188.0
1493.255493 120.0
1497.342163 144.0
