>compound MLS001076674-01!GLIMEPIRIDE
>formula C24H34N4O5S
>ionization [M+H]+
>parentmass 491.2322676400905
#inchi InChI=1S/C24H34N4O5S/c1-4-21-17(3)15-28(22(21)29)24(31)25-14-13-18-7-11-20(12-8-18)34(32,33)27-23(30)26-19-9-5-16(2)6-10-19/h7-8,11-12,16,19H,4-6,9-10,13-15H2,1-3H3,(H,25,31)(H2,26,27,30)/t16-,19-
#inchikey WIGIZIANZCJQQY
#Ion_Source LC-ESI
#Instrument qTof
#Compound_Source NIH Pharmacologically Active Library
#PI Dorrestein
#Data_Collector VP/LMS
#Scan -1
#Precursor_MZ 491.236
#ExactMass 490.225
#Charge 1
#CAS_Number N/A
#Pubmed_ID N/A
#Smiles CCC1=C(C)CN(C(=O)NCCc2ccc(cc2)S(=O)(=O)NC(=O)N[C@H]3CC[C@H](C)CC3)C1=O
#INCHI_AUX N/A
#Library_Class 1
#SpectrumID CCMSLIB00000085185
#IonMode Positive
#UpdateWorkflowName UPDATE-SINGLE-ANNOTATED-GOLD
#LibraryQualityString Gold
#TaskID d252d724072548979f1f6f1ced849daf
##Scan# 2356
#SpectrumFile p3-F09_GF9_01_18290.mzXML
#LibraryName Pharm_Active_Library.mgf
#MQScore -1
#Organism Pharm_Active_Library
#TIC_Query 0
#RT_Query -1
#MZErrorPPM -1
#SharedPeaks 0
#MassDiff 0
#LibMZ -1
#SpecMZ 491.236
#SpecCharge 0
#internalFilename spec-00000.mgf

>collision 10
44.924015 196.0
44.939289 188.0
44.955303 132.0
44.989044 188.0
45.014442 256.0
45.044765 116.0
45.074162 172.0
45.194511 128.0
45.242699 188.0
45.321724 200.0
45.426308 40.0
45.479984 112.0
45.57045 244.0
45.583405 180.0
45.651966 180.0
45.707268 152.0
45.743465 88.0
45.835564 212.0
46.047455 212.0
46.065781 160.0
46.230747 172.0
46.306908 192.0
46.345856 144.0
46.399624 224.0
46.470608 72.0
46.539833 128.0
46.564308 184.0
46.591057 180.0
46.761333 160.0
46.84214 180.0
46.867664 176.0
46.91946 160.0
46.954914 160.0
46.969238 136.0
47.035423 128.0
47.179893 176.0
47.203484 248.0
47.281464 188.0
47.308842 176.0
47.331764 216.0
47.410206 188.0
47.640739 60.0
47.666843 164.0
47.78923 140.0
47.812626 176.0
47.858055 216.0
47.895241 88.0
47.918663 152.0
47.953117 172.0
48.013783 88.0
48.099335 160.0
48.115902 164.0
48.128326 144.0
48.14772 192.0
48.190487 68.0
48.265133 148.0
48.308182 96.0
48.327381 52.0
48.464466 148.0
48.50882 216.0
48.54071 140.0
48.58371 192.0
48.68782 160.0
48.837936 88.0
49.027298 124.0
49.077484 200.0
49.119324 176.0
49.208649 92.0
49.251942 92.0
49.313423 144.0
49.404324 112.0
49.4645 128.0
49.619694 140.0
49.645252 156.0
49.662128 132.0
49.687336 80.0
49.768749 208.0
49.874119 136.0
49.921925 88.0
49.943024 228.0
49.972885 176.0
50.021828 172.0
50.064068 144.0
50.078156 136.0
50.100693 152.0
50.111965 64.0
50.124649 124.0
50.192314 192.0
50.213467 56.0
50.275547 144.0
50.349632 156.0
50.384281 256.0
50.442226 60.0
50.654499 112.0
50.669613 408.0
50.727951 212.0
50.746624 188.0
50.769314 160.0
50.87006 172.0
50.879997 148.0
50.908398 272.0
50.952435 176.0
50.973747 292.0
50.992226 96.0
51.013252 136.0
51.024921 224.0
51.059326 144.0
51.127342 112.0
51.214199 212.0
51.235569 72.0
51.321087 244.0
51.333923 188.0
51.453785 204.0
51.559498 184.0
51.582367 160.0
51.679623 208.0
51.738308 148.0
51.868675 140.0
51.891552 180.0
52.030792 108.0
52.07761 200.0
52.181656 172.0
52.289551 64.0
52.3241 92.0
52.337059 116.0
52.452324 160.0
52.491253 136.0
52.563381 128.0
52.593693 176.0
52.629784 188.0
52.69912 160.0
52.819122 172.0
52.84082 104.0
52.872532 184.0
52.918983 136.0
53.06678 164.0
53.07893 116.0
53.358627 136.0
53.38044 192.0
53.397892 176.0
53.413891 260.0
53.424076 160.0
53.469185 228.0
53.482285 124.0
53.507034 192.0
53.565292 256.0
53.591515 124.0
53.626492 148.0
53.66148 172.0
53.678932 120.0
53.800091 176.0
53.81469 188.0
53.855583 148.0
53.91806 216.0
53.94326 156.0
54.016083 196.0
54.14959 32.0
54.192074 116.0
54.271229 176.0
54.343426 184.0
54.366581 148.0
54.394165 212.0
54.464916 136.0
54.611954 156.0
54.653149 176.0
54.676697 44.0
54.716442 36.0
54.860828 236.0
54.877045 128.0
55.018688 176.0
55.049698 148.0
55.133911 176.0
55.164951 172.0
55.178257 160.0
55.246292 180.0
55.342499 48.0
55.391376 132.0
55.447681 140.0
55.5233 164.0
55.5411 132.0
55.710335 248.0
55.85305 176.0
55.873878 216.0
55.941563 360.0
55.961693 192.0
55.99297 192.0
56.124115 240.0
56.171841 164.0
56.182285 120.0
56.231529 60.0
56.31963 80.0
56.355484 156.0
56.39135 172.0
56.446671 148.0
56.483612 316.0
56.547455 176.0
56.581341 124.0
56.657188 212.0
56.705677 136.0
56.720669 60.0
56.76115 144.0
56.774647 176.0
56.86417 204.0
56.954765 192.0
57.041924 196.0
57.059963 216.0
57.165512 216.0
57.233006 48.0
57.245052 164.0
57.278187 236.0
57.329418 220.0
57.365593 156.0
57.472679 72.0
57.548153 172.0
57.697128 200.0
57.717396 96.0
57.731007 204.0
57.758232 148.0
57.820271 240.0
57.876286 224.0
57.892941 160.0
57.941418 140.0
57.958084 208.0
58.000519 136.0
58.020229 172.0
58.08696 108.0
58.239265 216.0
58.2813 136.0
58.317776 116.0
58.328415 156.0
58.361095 164.0
58.390759 188.0
58.422703 160.0
58.651134 256.0
58.677052 124.0
58.78841 44.0
58.810772 184.0
58.872379 272.0
58.889179 172.0
59.066498 200.0
59.170567 136.0
59.199661 132.0
59.210381 100.0
59.221104 136.0
59.294651 124.0
59.314579 164.0
59.401989 120.0
59.431141 212.0
59.465599 88.0
59.475647 148.0
59.532459 64.0
59.552425 208.0
59.586224 152.0
59.687672 176.0
59.744583 148.0
59.755352 108.0
59.783054 156.0
59.875427 180.0
59.904697 168.0
59.98175 128.0
60.034176 132.0
60.262642 208.0
60.296013 148.0
60.343018 168.0
60.360027 64.0
60.398693 168.0
60.420353 212.0
60.467445 204.0
60.496189 192.0
60.511669 204.0
60.542641 164.0
60.612354 128.0
60.637154 200.0
60.671257 204.0
60.796902 172.0
60.845024 184.0
60.955311 200.0
61.005051 196.0
61.029926 180.0
61.087475 148.0
61.155945 168.0
61.222897 152.0
61.244701 116.0
61.438007 228.0
61.577766 212.0
61.637455 256.0
61.712902 152.0
61.791111 140.0
61.895985 104.0
61.930443 260.0
62.071079 120.0
62.109138 152.0
62.255112 188.0
62.470455 152.0
62.486191 156.0
62.498775 92.0
62.62315 200.0
62.635754 200.0
62.700356 152.0
62.75238 184.0
62.774456 196.0
62.80127 136.0
62.930679 60.0
63.045998 224.0
63.142441 216.0
63.18364 188.0
63.208889 176.0
63.229462 128.0
63.270622 184.0
63.300613 204.0
63.305225 192.0
63.333969 48.0
63.379913 96.0
63.41795 184.0
63.44173 144.0
63.461891 240.0
63.484543 148.0
63.524197 160.0
63.571606 164.0
63.730598 164.0
63.829155 44.0
64.012161 156.0
64.051979 160.0
64.080658 160.0
64.11412 188.0
64.157166 152.0
64.297539 192.0
64.406113 36.0
64.438065 144.0
64.4972 200.0
64.629944 168.0
64.679619 212.0
64.713181 132.0
64.735603 260.0
64.85096 204.0
64.863426 180.0
64.915092 108.0
65.040237 72.0
65.059746 184.0
65.088409 60.0
65.114105 184.0
65.165161 168.0
65.364906 124.0
65.403091 176.0
65.446999 152.0
65.525925 160.0
65.538818 196.0
65.564606 108.0
65.603287 248.0
65.653275 132.0
65.732323 48.0
65.777519 36.0
65.798508 192.0
65.824341 160.0
65.885719 156.0
66.144478 200.0
66.314568 160.0
66.338882 216.0
66.370468 132.0
66.587151 248.0
66.622894 160.0
66.660263 148.0
66.704147 176.0
66.720406 168.0
66.757805 208.0
66.80986 168.0
66.855423 144.0
66.879837 144.0
66.894485 184.0
66.917274 160.0
66.959618 216.0
67.062271 168.0
67.081833 164.0
67.116829 144.0
67.132378 96.0
67.202522 152.0
67.262909 232.0
67.347412 144.0
67.419716 148.0
67.447502 128.0
67.460579 28.0
67.491646 156.0
67.532532 88.0
67.547256 188.0
67.571793 148.0
67.632347 232.0
67.646507 172.0
67.704391 156.0
67.727325 216.0
67.761513 184.0
67.784668 92.0
67.846954 80.0
67.899429 136.0
67.948639 228.0
67.997871 120.0
68.040558 220.0
68.088173 180.0
68.106247 172.0
68.18676 136.0
68.221451 228.0
68.265671 156.0
68.354103 244.0
68.553772 160.0
68.62796 120.0
68.654343 188.0
68.77314 180.0
68.82267 180.0
68.977974 180.0
69.034187 204.0
69.080505 192.0
69.110283 140.0
69.199669 128.0
69.21788 172.0
69.260948 196.0
69.318939 56.0
69.360374 116.0
69.395187 128.0
69.420059 48.0
69.547821 92.0
69.587662 220.0
69.607048 160.0
69.634163 124.0
69.752144 72.0
69.792046 176.0
69.89518 132.0
69.981735 128.0
69.995163 128.0
70.016708 112.0
70.041695 160.0
70.101677 76.0
70.406937 144.0
70.453751 140.0
70.478813 48.0
70.498093 152.0
70.547348 164.0
70.627617 212.0
70.65271 232.0
70.664421 240.0
70.690483 216.0
70.725235 156.0
70.815086 156.0
71.106834 132.0
71.210686 132.0
71.281502 40.0
71.303352 136.0
71.352097 112.0
71.397499 220.0
71.446281 208.0
71.530434 160.0
71.746071 196.0
71.75956 160.0
71.820274 52.0
71.847267 140.0
71.86245 180.0
72.092567 284.0
72.186783 156.0
72.202003 60.0
72.266289 80.0
72.3069 76.0
72.339569 236.0
72.415268 148.0
72.48642 260.0
72.637321 164.0
72.657684 128.0
72.681435 260.0
72.711983 152.0
72.732353 160.0
72.818954 44.0
72.890305 232.0
72.948097 204.0
73.054634 216.0
73.15905 72.0
73.179985 176.0
73.259537 48.0
73.331108 52.0
73.423172 180.0
73.46582 96.0
73.484589 168.0
73.515305 120.0
73.602371 144.0
73.629692 172.0
73.675812 180.0
73.718529 208.0
73.757843 172.0
73.793747 88.0
73.819336 120.0
73.993935 116.0
74.089844 140.0
74.151535 176.0
74.168678 132.0
74.185822 184.0
74.25441 132.0
74.293869 192.0
74.359932 136.0
74.396843 220.0
74.576385 204.0
74.606438 124.0
74.788788 156.0
74.864883 184.0
74.892105 80.0
74.905891 196.0
74.931953 156.0
74.959305 228.0
75.085152 100.0
75.166237 184.0
75.224007 164.0
75.238739 168.0
75.290543 180.0
75.340637 136.0
75.370224 208.0
75.515228 216.0
75.532532 132.0
75.586166 244.0
75.613068 196.0
75.686607 160.0
75.726402 220.0
75.821693 52.0
75.92572 128.0
75.943062 184.0
75.95694 172.0
76.022873 144.0
76.07148 212.0
76.111412 136.0
76.165253 184.0
76.182373 168.0
76.51133 108.0
76.589317 144.0
76.638481 244.0
76.680305 176.0
76.695992 160.0
76.872147 148.0
76.921333 200.0
77.092194 104.0
77.153374 188.0
77.251312 140.0
77.26992 196.0
77.295494 192.0
77.309059 200.0
77.337059 188.0
77.373825 132.0
77.394836 32.0
77.452629 128.0
77.492928 124.0
77.506943 208.0
77.545502 328.0
77.568291 100.0
77.606857 148.0
77.647194 144.0
77.798103 148.0
77.863075 132.0
77.936859 60.0
78.114441 224.0
78.17778 164.0
78.369728 116.0
78.498413 148.0
78.602493 196.0
78.667801 192.0
78.710175 180.0
78.761398 156.0
78.773758 212.0
78.800262 132.0
78.819702 152.0
78.892166 144.0
79.012436 48.0
79.031898 156.0
79.063751 132.0
79.115082 104.0
79.145187 196.0
79.157578 164.0
79.169975 52.0
79.249695 192.0
79.276276 156.0
79.416451 132.0
79.444725 156.0
79.473587 240.0
79.583168 136.0
79.711067 52.0
79.794609 160.0
79.840843 28.0
79.873703 144.0
79.885315 192.0
79.899544 156.0
79.960052 220.0
80.02948 180.0
80.047287 224.0
80.066879 144.0
80.143127 184.0
80.229034 156.0
80.312851 148.0
80.407417 112.0
80.509186 104.0
80.543121 164.0
80.593147 48.0
80.652122 132.0
80.687881 188.0
80.710167 196.0
80.784454 36.0
80.80056 96.0
80.820236 164.0
81.120834 212.0
81.266411 152.0
81.332817 268.0
81.359749 212.0
81.406433 216.0
81.444153 156.0
81.489059 172.0
81.54837 172.0
81.578926 168.0
81.61129 144.0
81.625679 212.0
81.724609 204.0
81.755203 116.0
81.784004 64.0
81.812805 156.0
81.836212 128.0
81.888435 148.0
81.946083 220.0
81.998978 184.0
82.016373 192.0
82.072266 176.0
82.129974 168.0
82.155228 168.0
82.247269 236.0
82.261711 60.0
82.368256 124.0
82.454987 172.0
82.588791 212.0
82.637634 136.0
82.67202 144.0
82.691925 76.0
82.71003 172.0
82.726318 128.0
82.78064 68.0
82.818672 392.0
82.8386 196.0
82.891144 160.0
82.916519 92.0
82.950958 148.0
83.041626 160.0
83.086975 188.0
83.226738 232.0
83.330986 236.0
83.442963 160.0
83.506615 140.0
83.542992 120.0
83.677673 72.0
83.690422 68.0
83.730484 164.0
83.765099 156.0
83.836159 124.0
83.996613 192.0
84.023979 72.0
84.045876 180.0
84.067772 112.0
84.281433 160.0
84.350883 156.0
84.387451 88.0
84.445969 160.0
84.469749 196.0
84.484795 160.0
84.539276 256.0
84.903511 152.0
84.964394 176.0
85.133171 140.0
85.276581 216.0
85.29216 164.0
85.326218 304.0
85.344604 84.0
85.410812 172.0
85.425529 140.0
85.46785 144.0
85.815987 160.0
85.836273 120.0
85.858398 160.0
85.898979 188.0
85.983864 148.0
86.203506 172.0
86.330437 204.0
86.41629 152.0
86.471809 112.0
86.54216 180.0
86.562523 124.0
86.671822 180.0
86.762642 172.0
86.77562 180.0
86.862793 112.0
86.894325 96.0
86.970421 224.0
87.007545 196.0
87.024254 116.0
87.074394 176.0
87.127678 200.0
87.161713 140.0
87.288124 196.0
87.332756 208.0
87.418343 140.0
87.444405 160.0
87.520729 108.0
87.608269 148.0
87.735001 160.0
87.76297 168.0
87.856232 124.0
87.93087 180.0
88.082115 132.0
88.234093 212.0
88.321388 164.0
88.463615 144.0
88.62281 140.0
88.639679 104.0
88.658417 136.0
88.694519 200.0
88.718399 176.0
88.767151 44.0
88.798233 176.0
88.817795 64.0
88.964172 88.0
89.120064 204.0
89.177193 240.0
89.274208 132.0
89.317467 148.0
89.387085 192.0
89.434135 172.0
89.505676 160.0
89.605507 196.0
89.794022 112.0
89.82618 172.0
89.942459 272.0
90.130066 140.0
90.182983 160.0
90.300217 216.0
90.394814 128.0
90.546272 144.0
90.620148 216.0
90.785072 164.0
90.80024 84.0
90.824898 276.0
90.874229 180.0
90.895103 200.0
91.001404 80.0
91.055054 672.0
91.155266 128.0
91.183769 148.0
91.233192 180.0
91.400574 188.0
91.54335 108.0
91.575729 224.0
91.59668 140.0
91.621445 136.0
91.640503 104.0
91.655746 200.0
91.728256 180.0
91.766304 48.0
91.829231 188.0
91.876923 136.0
91.916992 152.0
92.027519 200.0
92.142311 116.0
92.159508 176.0
92.201546 212.0
92.308609 52.0
92.350685 160.0
92.402336 208.0
92.486328 176.0
92.545891 108.0
92.645493 40.0
92.697227 184.0
92.77491 144.0
92.833336 180.0
92.898552 216.0
92.925415 128.0
92.965714 208.0
93.015617 176.0
93.055031 616.0
93.09626 332.0
93.1558 192.0
93.398018 208.0
93.5924 220.0
93.621292 160.0
93.636696 152.0
93.675224 232.0
93.769638 236.0
93.839043 144.0
93.867966 212.0
93.914253 104.0
93.956696 104.0
93.9702 52.0
94.043159 144.0
94.063705 212.0
94.082146 136.0
94.128487 176.0
94.184494 164.0
94.228928 156.0
94.308167 160.0
94.338028 152.0
94.371964 112.0
94.433998 204.0
94.455124 120.0
94.489944 128.0
94.608009 68.0
94.677719 120.0
94.695152 156.0
94.762955 84.0
95.01889 108.0
95.061577 180.0
95.172226 160.0
95.193588 184.0
95.220779 236.0
95.310143 140.0
95.382057 172.0
95.545418 156.0
95.572655 240.0
95.588226 564.0
95.601128 156.0
95.732864 188.0
95.766335 232.0
95.839424 176.0
95.93103 84.0
95.992615 168.0
96.009026 100.0
96.043083 2260.0
96.078636 760.0
96.105026 208.0
96.17878 188.0
96.481575 36.0
96.506996 40.0
96.589142 220.0
96.609093 160.0
96.626312 160.0
96.651749 136.0
96.767235 180.0
96.786812 64.0
96.800522 160.0
96.921974 220.0
97.019981 172.0
97.050972 2408.0
97.099915 616.0
97.248123 200.0
97.292686 196.0
97.337845 152.0
97.449814 208.0
97.534317 188.0
97.561844 164.0
97.654266 112.0
97.683769 56.0
97.768379 156.0
97.817589 232.0
97.908165 172.0
97.993652 212.0
98.008636 140.0
98.058083 2508.0
98.095825 2152.0
98.140701 212.0
98.174225 68.0
98.30838 124.0
98.452499 120.0
98.624397 152.0
98.638962 196.0
98.707436 612.0
98.786171 188.0
98.820183 204.0
98.89341 196.0
98.9132 208.0
99.02211 96.0
99.060081 164.0
99.095406 136.0
99.140984 160.0
99.176666 176.0
99.250015 176.0
99.269852 216.0
99.297615 232.0
99.476204 36.0
99.670845 156.0
99.811981 200.0
99.825226 164.0
99.97113 148.0
100.076637 240.0
100.156303 164.0
100.245956 216.0
100.331673 180.0
100.36158 132.0
100.531143 256.0
100.553093 136.0
100.714828 164.0
100.894684 200.0
100.920677 188.0
100.952675 180.0
101.034683 216.0
101.054695 200.0
101.068703 112.0
101.178322 212.0
101.194801 72.0
101.240654 232.0
101.35305 76.0
101.36908 208.0
101.385109 192.0
101.425201 160.0
101.461281 60.0
101.517426 240.0
101.545509 184.0
101.637794 196.0
101.685959 184.0
101.716064 124.0
101.739044 224.0
101.798386 144.0
101.814453 196.0
101.844856 128.0
101.874718 252.0
102.025444 108.0
102.048401 412.0
102.069283 204.0
102.128006 208.0
102.297043 116.0
102.326088 140.0
102.409805 196.0
102.45211 156.0
102.654839 104.0
102.694016 220.0
102.714188 64.0
102.744446 100.0
102.799583 168.0
102.823143 140.0
102.90995 60.0
102.932167 68.0
102.978882 152.0
103.052818 7280.0
103.143806 208.0
103.247429 64.0
103.269676 196.0
103.417389 144.0
103.476097 180.0
103.516594 188.0
103.537575 212.0
103.642189 196.0
103.656372 184.0
103.705917 216.0
103.846954 196.0
103.873322 228.0
103.960571 164.0
104.029587 164.0
104.056686 516.0
104.076828 192.0
104.114868 88.0
104.149399 208.0
104.192055 128.0
104.238792 84.0
104.261147 184.0
104.377022 204.0
104.438042 240.0
104.4674 204.0
104.523491 44.0
104.680779 196.0
104.708748 228.0
104.727303 184.0
104.845261 184.0
104.865967 148.0
104.941071 148.0
105.034882 164.0
105.069458 284.0
105.094048 184.0
105.161392 96.0
105.257355 328.0
105.283897 160.0
105.351311 84.0
105.484146 168.0
105.518898 148.0
105.615013 212.0
105.702995 172.0
105.784004 152.0
105.831955 164.0
105.855682 164.0
105.892731 252.0
106.044891 256.0
106.06192 716.0
106.108566 168.0
106.322754 216.0
106.352692 128.0
106.404015 52.0
106.46357 156.0
106.611397 92.0
106.769791 184.0
106.794472 188.0
106.812988 32.0
106.827385 180.0
106.846977 92.0
106.994087 176.0
107.046234 712.0
107.072342 148.0
107.092934 140.0
107.204193 172.0
107.297356 164.0
107.313446 212.0
107.328629 200.0
107.540382 180.0
107.556892 160.0
107.625023 68.0
107.643608 184.0
107.689049 148.0
107.74276 136.0
107.791763 184.0
107.852287 204.0
107.899834 160.0
107.940819 180.0
108.044609 160.0
108.079155 5512.0
108.125313 160.0
108.218468 188.0
108.258896 96.0
108.309593 72.0
108.384178 80.0
108.502602 180.0
108.579056 236.0
108.614738 156.0
108.63739 160.0
108.676552 236.0
108.780327 152.0
108.86338 160.0
108.913231 48.0
108.968628 252.0
109.01088 344.0
109.064079 9616.0
109.083679 808.0
109.121048 112.0
109.149857 108.0
109.431076 176.0
109.476883 76.0
109.539375 64.0
109.559494 140.0
109.595627 44.0
109.633141 52.0
109.814529 160.0
109.829124 64.0
110.06263 464.0
110.140152 36.0
110.227905 84.0
110.286423 96.0
110.332413 152.0
110.514381 44.0
110.541588 112.0
110.70488 148.0
110.767715 128.0
110.847336 124.0
110.963127 232.0
111.028275 156.0
111.066589 440.0
111.094749 156.0
111.110847 232.0
111.25425 220.0
111.502121 240.0
111.555038 184.0
111.586205 176.0
111.599731 148.0
111.661911 148.0
111.750267 132.0
111.828133 140.0
111.849182 156.0
111.889183 188.0
112.067947 220.0
112.177811 140.0
112.209435 132.0
112.447815 204.0
112.570267 168.0
112.620956 236.0
112.690674 344.0
112.73716 148.0
112.885147 196.0
112.899948 200.0
112.935905 80.0
112.952827 64.0
113.039574 48.0
113.170822 120.0
113.297905 192.0
113.336037 168.0
113.386902 208.0
113.442017 52.0
113.549896 160.0
113.736885 48.0
113.781464 108.0
113.811989 128.0
113.90889 124.0
114.004501 144.0
114.078896 180.0
114.124992 468.0
114.244781 44.0
114.300102 168.0
114.332024 196.0
114.481651 184.0
114.655746 164.0
114.764473 220.0
114.871109 52.0
115.005547 140.0
115.055862 176.0
115.212692 172.0
115.272514 156.0
115.368706 152.0
115.437126 88.0
115.601852 88.0
115.687469 188.0
115.740959 212.0
115.777405 168.0
115.813812 140.0
115.880226 196.0
115.927368 120.0
115.970238 204.0
115.989525 224.0
116.055992 72.0
116.163231 116.0
116.289833 180.0
116.33062 164.0
116.386444 120.0
116.416504 156.0
116.461609 144.0
116.599121 156.0
116.618469 144.0
116.667908 96.0
116.721664 224.0
116.837814 116.0
116.864441 192.0
117.003532 120.0
117.056686 772.0
117.09613 188.0
117.143173 172.0
117.177994 48.0
117.253418 188.0
117.341797 72.0
117.404335 112.0
117.438843 212.0
117.538086 176.0
117.60405 164.0
117.622261 152.0
117.669754 72.0
117.784218 152.0
117.920349 72.0
117.972229 196.0
118.036835 136.0
118.064163 2276.0
118.123611 128.0
118.188515 176.0
118.205826 44.0
118.255608 160.0
118.361687 212.0
118.465652 160.0
118.491653 92.0
118.589172 168.0
118.657272 164.0
118.723595 220.0
118.772942 208.0
118.777321 156.0
118.876129 116.0
118.89933 180.0
118.951424 84.0
119.046783 940.0
119.067101 472.0
119.138191 160.0
119.229454 108.0
119.249016 196.0
119.392517 208.0
119.438461 64.0
119.479523 164.0
119.553505 220.0
119.714607 56.0
119.898819 188.0
119.936852 136.0
119.967369 116.0
120.054695 332.0
120.079407 428.0
120.111298 172.0
120.15493 160.0
120.253128 136.0
120.279327 100.0
120.33609 212.0
120.425621 176.0
120.609169 64.0
120.787392 120.0
120.83165 164.0
120.882568 196.0
120.926338 96.0
121.024857 124.0
121.063057 1588.0
121.171608 184.0
121.222008 44.0
121.355721 220.0
121.403961 88.0
121.452217 44.0
121.482925 120.0
121.535583 84.0
121.565758 208.0
121.673866 48.0
121.713387 148.0
121.752922 176.0
121.770493 212.0
121.902313 44.0
121.996826 176.0
122.059021 276.0
122.192566 220.0
122.280594 36.0
122.452332 68.0
122.509605 188.0
122.633003 44.0
122.79422 204.0
122.827049 68.0
122.851318 160.0
122.905609 112.0
122.926971 180.0
122.960526 212.0
123.069824 132.0
123.088593 40.0
123.120613 132.0
123.312836 128.0
123.334938 228.0
123.359856 220.0
123.421158 136.0
123.476448 152.0
123.629105 120.0
123.6446 128.0
123.710815 140.0
123.788498 144.0
123.815079 112.0
123.847366 180.0
123.945786 184.0
124.039619 380.0
124.074394 4104.0
124.127556 180.0
124.16304 64.0
124.205185 180.0
124.29554 160.0
124.347191 116.0
124.402687 68.0
124.47818 116.0
124.535927 188.0
124.569244 136.0
124.615898 108.0
124.703232 176.0
124.787048 156.0
124.889351 44.0
124.923866 116.0
124.99968 148.0
125.077858 544.0
125.103104 208.0
125.207634 152.0
125.229912 72.0
125.298965 64.0
125.354675 152.0
125.481728 188.0
125.58989 152.0
125.617599 156.0
125.667549 220.0
125.695869 344.0
125.730682 120.0
125.769005 72.0
125.803001 196.0
125.843811 172.0
125.890083 100.0
125.935631 224.0
125.972336 108.0
125.98613 168.0
126.025261 588.0
126.031197 288.0
126.062805 288.0
126.091057 123168.0
126.151428 292.0
126.176773 228.0
126.209297 104.0
126.239349 56.0
126.265022 216.0
126.284981 96.0
126.301323 352.0
126.33432 80.0
126.349434 72.0
126.358215 132.0
126.376717 52.0
126.412865 52.0
126.434563 52.0
126.458206 1548.0
126.484833 48.0
126.509605 60.0
126.545486 44.0
126.581108 28.0
126.628136 80.0
126.64682 176.0
126.665657 76.0
126.684143 172.0
126.725998 76.0
126.767044 136.0
126.791695 192.0
126.809486 64.0
126.85894 88.0
126.939659 60.0
126.993484 84.0
127.049568 80.0
127.093575 13416.0
127.163445 152.0
127.182442 96.0
127.22831 72.0
127.262794 48.0
127.307709 60.0
127.379578 40.0
127.405365 84.0
127.440239 72.0
127.456146 232.0
127.495483 136.0
127.539131 108.0
127.588585 92.0
127.613319 172.0
127.649887 100.0
127.70401 132.0
127.734764 56.0
127.775856 60.0
127.785507 72.0
127.793892 100.0
127.811264 32.0
127.861458 92.0
127.885529 64.0
127.909058 204.0
127.93116 104.0
127.948479 104.0
127.986206 164.0
128.010086 200.0
128.049332 236.0
128.093964 1068.0
128.128738 112.0
128.155716 144.0
128.187332 132.0
128.216629 100.0
128.252686 116.0
128.340607 88.0
128.762619 56.0
128.8078 72.0
128.898178 124.0
129.038315 136.0
129.061905 212.0
129.078247 140.0
129.084427 92.0
129.131042 88.0
129.180801 72.0
129.214737 192.0
129.327896 56.0
129.364105 80.0
129.391281 76.0
129.40712 52.0
129.432037 40.0
129.470535 184.0
129.642715 88.0
129.71524 44.0
129.830887 144.0
130.087296 200.0
130.105453 44.0
130.39621 128.0
130.564468 104.0
130.634979 52.0
131.059479 2156.0
131.082413 156.0
131.275024 60.0
131.316071 32.0
131.400482 40.0
131.779495 96.0
131.93721 192.0
131.966934 84.0
131.99437 152.0
132.060165 324.0
132.092712 108.0
132.241455 188.0
132.617096 60.0
133.04335 172.0
133.061829 176.0
133.068649 140.0
133.087402 184.0
133.273468 196.0
133.687393 128.0
133.770248 124.0
134.039734 260.0
134.059982 348.0
134.099655 192.0
134.141144 36.0
134.208008 160.0
134.79895 68.0
135.027832 220.0
135.060211 168.0
135.231445 136.0
135.347198 44.0
135.416672 36.0
135.442154 68.0
135.801437 124.0
136.047424 132.0
136.344757 48.0
136.57959 108.0
136.62146 144.0
136.905441 120.0
137.00087 124.0
137.0289 92.0
137.071594 360.0
137.192047 188.0
137.450943 144.0
137.532639 140.0
137.598007 136.0
137.654114 136.0
137.981171 52.0
138.014282 196.0
138.038101 84.0
138.123825 36.0
138.411713 164.0
138.428101 160.0
138.505386 224.0
138.596771 176.0
138.692856 144.0
139.016006 172.0
139.21373 56.0
139.453369 120.0
139.850891 112.0
139.8862 80.0
140.069885 196.0
140.399872 124.0
140.637726 148.0
140.713715 132.0
141.240723 192.0
141.563522 52.0
141.685791 36.0
141.756882 148.0
142.654083 88.0
143.077057 152.0
143.170425 176.0
143.220444 76.0
143.71019 244.0
143.957428 160.0
144.083893 200.0
144.182007 168.0
144.392395 220.0
144.46312 248.0
144.763351 140.0
144.837601 56.0
144.993347 148.0
145.05217 148.0
145.071808 164.0
145.46109 60.0
145.561234 220.0
145.831009 100.0
145.939194 148.0
146.057465 800.0
146.102753 148.0
146.121994 32.0
146.167709 132.0
146.288055 200.0
146.391586 152.0
146.446991 116.0
146.524078 160.0
146.738586 92.0
146.931534 136.0
147.062988 192.0
147.21637 176.0
147.275146 228.0
147.312988 140.0
147.581268 176.0
147.736053 120.0
147.784439 124.0
147.939346 136.0
148.080048 192.0
149.152298 124.0
149.310333 84.0
149.495239 184.0
149.677811 72.0
150.023804 164.0
150.051697 1052.0
150.284775 108.0
150.304291 116.0
150.404358 144.0
150.421448 104.0
150.621689 104.0
150.77562 124.0
150.9272 144.0
151.018127 936.0
151.085342 3088.0
151.166931 68.0
151.242798 160.0
151.299103 44.0
151.375763 116.0
151.472977 156.0
151.504822 136.0
151.539124 108.0
151.706467 232.0
151.838211 112.0
151.861252 220.0
151.916306 148.0
151.987854 76.0
152.019577 456.0
152.069641 41432.0
152.118622 144.0
152.170532 104.0
152.198776 176.0
152.27623 128.0
152.297806 104.0
152.328735 76.0
152.367615 108.0
152.402832 52.0
152.442154 48.0
152.466476 116.0
152.535553 48.0
152.587173 56.0
152.707672 72.0
152.727356 184.0
152.802689 180.0
152.861938 108.0
152.884827 48.0
153.006561 104.0
153.027252 144.0
153.073059 3536.0
153.182755 60.0
153.397156 56.0
153.567307 148.0
153.584564 52.0
153.661041 68.0
153.838745 148.0
154.006653 116.0
154.029343 88.0
154.074509 604.0
154.096497 176.0
154.14502 160.0
154.196915 88.0
154.251297 132.0
154.342773 48.0
154.412018 148.0
155.014709 224.0
155.033447 40.0
155.085037 192.0
155.198547 120.0
155.296265 100.0
155.455048 172.0
155.574188 92.0
155.775345 148.0
155.842438 64.0
156.285034 28.0
157.073959 212.0
157.102249 116.0
157.406769 192.0
157.516663 168.0
157.569122 64.0
157.639099 56.0
157.689072 192.0
157.761566 108.0
157.871582 76.0
157.956635 44.0
158.226913 212.0
158.605194 160.0
158.745605 60.0
158.998993 124.0
159.350555 140.0
159.45108 92.0
159.471191 60.0
159.73642 200.0
159.893738 88.0
159.913879 200.0
160.076233 1152.0
160.107742 188.0
160.155594 112.0
160.306763 156.0
160.909637 76.0
161.047211 160.0
161.212753 156.0
161.410873 140.0
162.056564 168.0
162.078217 128.0
162.095963 132.0
162.280258 68.0
162.319046 120.0
162.400192 112.0
162.481384 176.0
162.75296 228.0
162.821533 72.0
162.887573 128.0
163.063477 192.0
163.128983 60.0
163.32225 104.0
163.434189 172.0
163.833939 228.0
163.958801 140.0
164.216309 128.0
164.3311 140.0
164.624664 40.0
164.859695 144.0
165.066772 156.0
165.097458 140.0
165.186981 160.0
165.317474 148.0
165.414734 124.0
165.442902 176.0
165.76564 104.0
165.965576 112.0
166.030197 476.0
166.12204 48.0
166.401779 196.0
166.689468 104.0
166.746017 64.0
166.80513 152.0
166.856552 168.0
166.895111 132.0
166.949799 196.0
166.982147 176.0
167.014984 14280.0
167.062302 164.0
167.096313 36.0
167.154922 76.0
167.178085 96.0
167.216125 72.0
167.296494 68.0
167.355713 152.0
167.391754 124.0
167.458405 132.0
167.569489 144.0
167.618454 72.0
167.63649 68.0
167.7267 132.0
167.74733 136.0
167.825699 120.0
167.8582 120.0
167.930405 192.0
168.017776 1840.0
168.062943 456.0
168.131653 104.0
168.165207 96.0
168.219421 160.0
168.364014 164.0
168.400177 112.0
168.534515 64.0
168.653397 36.0
168.733536 64.0
168.927505 84.0
169.010895 1132.0
169.096329 228.0
169.217361 140.0
169.344254 100.0
169.389771 176.0
169.520432 72.0
169.554123 40.0
169.733002 128.0
169.815994 116.0
169.937927 108.0
170.008774 160.0
170.079254 8592.0
170.12999 156.0
170.161148 36.0
170.21048 52.0
170.283203 104.0
170.30397 44.0
170.348129 76.0
170.431274 48.0
170.647018 48.0
170.797852 64.0
171.081451 824.0
171.167435 172.0
171.276825 52.0
171.336746 148.0
171.756454 148.0
171.978256 44.0
172.080841 176.0
172.249832 68.0
172.29686 136.0
172.338654 108.0
172.498245 128.0
172.638519 180.0
172.746521 160.0
173.039642 148.0
173.057968 116.0
173.081543 168.0
173.102493 44.0
173.439819 96.0
173.479797 136.0
173.555832 152.0
173.823395 136.0
173.873245 120.0
174.065369 5080.0
174.159454 44.0
174.261902 164.0
174.327606 60.0
174.411713 88.0
174.629944 48.0
175.008911 192.0
175.067871 684.0
175.243347 40.0
175.404099 60.0
175.752243 132.0
176.014145 168.0
176.290955 72.0
176.399323 104.0
176.499786 108.0
176.568542 96.0
176.989334 32.0
177.174728 144.0
177.32048 88.0
177.580322 84.0
177.620102 96.0
177.707657 188.0
178.06604 184.0
178.406174 104.0
178.735992 264.0
178.9729 120.0
179.07991 1420.0
179.265915 48.0
179.559189 48.0
179.831345 272.0
180.050278 88.0
180.084991 184.0
180.138428 48.0
180.207886 176.0
180.333496 52.0
180.630295 84.0
180.659729 224.0
180.691833 68.0
180.73732 124.0
180.78688 192.0
180.80957 184.0
180.828308 248.0
180.87381 192.0
180.946091 68.0
181.048843 220.0
181.095993 23796.0
181.161911 96.0
181.184464 172.0
181.22493 40.0
181.245163 68.0
181.268845 124.0
181.296005 128.0
181.331848 60.0
181.366699 80.0
181.390823 40.0
181.45784 68.0
181.503433 108.0
181.546341 80.0
181.581207 124.0
181.63295 68.0
181.699234 100.0
181.779739 48.0
181.852203 44.0
181.946152 188.0
181.991791 112.0
182.029388 48.0
182.098663 3156.0
182.206665 44.0
182.308777 68.0
182.377838 92.0
182.437805 76.0
182.539978 116.0
182.628738 112.0
182.70137 96.0
183.100174 428.0
183.11615 312.0
183.175171 100.0
183.317978 40.0
183.404221 108.0
183.441971 188.0
183.49588 52.0
183.579483 196.0
183.762909 104.0
183.803375 44.0
183.955872 52.0
183.997726 100.0
184.042542 2052.0
184.080612 224.0
184.138138 64.0
184.221878 64.0
184.665207 64.0
185.036942 184.0
185.084686 112.0
185.129257 144.0
186.039703 192.0
186.090668 180.0
186.137726 148.0
186.639542 44.0
187.873367 68.0
188.236404 168.0
188.531448 108.0
188.553299 92.0
189.40152 236.0
189.456314 72.0
190.018356 104.0
190.199493 72.0
190.814865 20.0
190.979874 48.0
191.367905 96.0
192.010025 652.0
192.261063 248.0
192.376999 100.0
192.846603 84.0
193.006241 156.0
193.098206 356.0
194.004425 124.0
194.026794 148.0
194.491943 80.0
194.524094 48.0
197.040115 184.0
197.104385 224.0
198.686371 96.0
199.094742 292.0
199.117584 164.0
200.100616 44.0
200.132462 228.0
200.649506 48.0
201.391693 84.0
203.183655 180.0
204.940811 136.0
205.180237 148.0
206.045013 140.0
206.16217 208.0
207.321243 116.0
208.119308 180.0
208.840088 196.0
209.081772 184.0
209.657776 56.0
209.885513 96.0
210.020325 4896.0
210.098953 28.0
210.159546 32.0
210.223038 68.0
210.370239 72.0
210.500168 108.0
210.910431 148.0
211.02034 964.0
211.108612 192.0
211.248779 64.0
211.509216 72.0
212.012604 568.0
212.326309 120.0
212.90387 156.0
213.025772 136.0
213.098495 220.0
213.130447 152.0
213.377518 92.0
213.476379 72.0
213.944855 232.0
214.116653 112.0
214.349716 72.0
214.792892 124.0
215.044266 188.0
215.064255 268.0
215.116806 140.0
216.047073 204.0
216.138855 64.0
217.596558 40.0
217.863815 88.0
219.070007 48.0
219.998978 68.0
221.845032 84.0
224.273712 100.0
224.804611 120.0
225.088531 148.0
225.437729 76.0
225.797897 196.0
225.880249 88.0
226.122589 380.0
226.311218 132.0
227.04747 128.0
227.414459 148.0
228.031006 424.0
228.136017 400.0
228.433121 68.0
228.676865 124.0
229.062134 716.0
229.134109 196.0
229.240067 48.0
229.803955 56.0
230.06308 312.0
230.462189 108.0
231.045731 160.0
233.101547 152.0
233.992783 72.0
234.467987 176.0
236.10672 188.0
236.897232 120.0
237.709763 148.0
238.105789 128.0
238.646652 168.0
241.131378 120.0
241.666382 52.0
243.146347 456.0
243.601013 40.0
243.939758 140.0
244.134918 208.0
244.235168 80.0
244.614807 152.0
245.085098 68.0
245.128723 188.0
246.050827 136.0
246.220642 156.0
246.60495 96.0
247.487167 188.0
248.160843 156.0
250.555847 168.0
252.038818 92.0
252.588943 148.0
253.129471 520.0
254.13414 488.0
254.493683 156.0
255.071915 152.0
255.106491 160.0
255.116867 140.0
255.126663 180.0
255.99144 172.0
256.078125 168.0
257.218964 208.0
258.123169 136.0
263.888672 156.0
265.666779 96.0
265.955566 140.0
267.190491 44.0
269.812683 184.0
270.053131 136.0
270.13623 236.0
270.683075 68.0
270.915619 120.0
271.043396 148.0
271.141632 1424.0
271.223663 44.0
271.482666 88.0
271.874725 104.0
272.146027 696.0
273.151703 340.0
274.089569 176.0
276.761902 180.0
276.957306 52.0
282.205627 156.0
282.834595 176.0
283.048859 64.0
283.249817 36.0
284.571198 52.0
284.668579 112.0
286.135681 172.0
286.896057 136.0
287.137207 1132.0
287.425598 120.0
287.560608 40.0
287.72937 84.0
288.136993 536.0
288.770203 44.0
288.810791 72.0
289.140503 160.0
289.342102 76.0
291.958344 64.0
292.097412 1220.0
292.152222 40.0
292.203278 48.0
292.461914 52.0
293.10318 692.0
293.136261 52.0
293.211243 52.0
293.310089 140.0
294.104858 140.0
294.374603 84.0
295.198181 80.0
295.800385 32.0
296.064026 136.0
296.098267 84.0
297.72049 44.0
299.023529 188.0
299.094147 228.0
299.333374 20.0
299.988037 44.0
301.496429 88.0
302.129242 136.0
302.720734 172.0
303.590973 108.0
304.496826 104.0
305.884216 140.0
307.683105 88.0
308.619476 168.0
309.116211 260.0
311.135193 132.0
311.465302 196.0
313.823273 188.0
314.161865 88.0
317.036591 160.0
317.095123 404.0
317.281158 72.0
318.09729 160.0
318.391846 168.0
319.415527 84.0
319.806946 220.0
320.120239 152.0
322.253387 224.0
322.961243 20.0
325.717773 100.0
327.05545 100.0
327.732513 32.0
328.201111 60.0
330.107788 144.0
334.123688 332.0
334.913147 88.0
334.949585 228.0
335.011505 168.0
335.103912 9600.0
335.186401 104.0
335.219208 112.0
335.395721 92.0
335.535156 84.0
335.569153 52.0
335.620178 48.0
336.106232 2428.0
336.150085 188.0
336.203857 116.0
336.284149 252.0
336.353516 80.0
336.430176 44.0
336.517792 60.0
336.941467 60.0
336.974365 44.0
337.100494 692.0
337.383698 96.0
337.701843 52.0
337.796967 80.0
337.881104 188.0
338.10141 176.0
338.305634 44.0
338.389862 84.0
338.470398 56.0
338.554626 136.0
338.800049 108.0
339.049225 72.0
339.962402 80.0
340.178986 76.0
340.568207 52.0
340.656372 92.0
342.643036 196.0
343.549988 44.0
344.964417 112.0
346.000305 132.0
346.867188 128.0
347.694336 64.0
349.772125 124.0
350.531921 172.0
351.303741 52.0
351.400726 116.0
352.080139 172.0
352.130707 8152.0
352.397644 92.0
352.438751 60.0
352.520966 60.0
352.58197 136.0
352.692902 80.0
352.722809 88.0
352.816254 72.0
352.864868 68.0
353.006958 60.0
353.136169 1596.0
353.283752 40.0
353.31366 68.0
353.568115 80.0
353.871338 96.0
354.077301 60.0
354.128754 328.0
354.421967 156.0
354.710541 88.0
354.995514 104.0
355.111755 144.0
355.138031 148.0
355.471924 76.0
355.832275 56.0
356.142578 128.0
357.343231 60.0
359.083649 48.0
366.1409 216.0
368.540405 68.0
369.25531 104.0
369.588135 60.0
373.412964 48.0
374.509949 124.0
377.21109 56.0
377.945953 136.0
378.117493 512.0
379.112762 116.0
379.619415 32.0
380.686646 88.0
380.911926 48.0
381.028473 60.0
383.109894 120.0
391.240356 64.0
394.068268 140.0
397.56485 28.0
403.680084 108.0
405.000854 92.0
414.363373 108.0
422.309906 44.0
434.906525 96.0
435.197113 80.0
444.409363 68.0
446.901062 96.0
451.833405 72.0
456.826843 124.0
462.545227 76.0
473.243988 84.0
473.421539 52.0
474.873444 116.0
476.905518 56.0
477.757843 60.0
485.998199 96.0
489.34314 64.0
490.589966 64.0
508.144958 48.0
515.308472 60.0
515.543457 48.0
527.794922 52.0
530.234985 100.0
531.987244 40.0
540.412415 60.0
562.005432 92.0
567.999756 184.0
569.129272 48.0
571.986633 184.0
576.173828 80.0
578.316223 76.0
579.465515 208.0
580.270752 68.0
585.272705 44.0
588.952515 52.0
590.257446 36.0
602.843506 88.0
618.464539 56.0
637.417236 132.0
652.29718 52.0
658.003174 84.0
660.824524 164.0
680.524902 48.0
683.040344 108.0
683.185974 200.0
690.520264 132.0
721.226746 88.0
726.517639 104.0
727.934631 92.0
730.35321 84.0
738.427856 92.0
755.886475 176.0
763.336121 44.0
765.030762 88.0
767.09668 80.0
772.375854 116.0
775.410217 172.0
779.58374 192.0
803.370361 180.0
808.031372 144.0
808.518005 44.0
814.84082 132.0
816.273193 188.0
822.243713 200.0
822.443481 172.0
823.562683 68.0
831.25177 96.0
835.463501 192.0
838.256104 116.0
838.80365 100.0
839.016968 48.0
839.801208 84.0
842.520203 192.0
849.513733 28.0
856.594421 216.0
857.24115 192.0
880.095947 88.0
902.856689 200.0
905.885437 228.0
906.173035 144.0
906.310852 160.0
907.131958 88.0
910.396057 192.0
913.437439 164.0
913.491577 168.0
914.809509 184.0
916.923767 188.0
917.020203 136.0
924.781799 196.0
925.726257 228.0
926.380432 164.0
928.417053 124.0
929.587952 196.0
930.862793 176.0
931.74353 132.0
932.582153 228.0
932.855713 120.0
933.615784 72.0
934.436951 116.0
935.441162 176.0
935.660339 176.0
939.981934 196.0
940.213867 136.0
942.852295 188.0
944.258484 160.0
947.778625 160.0
950.685364 152.0
953.068054 164.0
957.404968 176.0
958.131836 76.0
961.535767 120.0
966.129272 132.0
966.461121 220.0
966.912903 148.0
971.597595 160.0
971.73407 32.0
981.050842 164.0
986.088379 176.0
986.532166 208.0
986.813538 76.0
988.683899 140.0
991.577454 72.0
993.107361 204.0
995.511169 52.0
996.792725 172.0
996.899536 56.0
997.352112 148.0
999.263916 192.0
999.962463 108.0
1001.209045 224.0
1001.530273 168.0
1002.109863 128.0
1003.591125 164.0
1006.645325 192.0
1008.319519 128.0
1009.033813 192.0
1009.267761 236.0
1009.659851 108.0
1010.235474 116.0
1011.032776 96.0
1012.178589 244.0
1012.818298 44.0
1014.567322 208.0
1014.820923 152.0
1015.049194 172.0
1016.114868 156.0
1016.927124 228.0
1017.835022 184.0
1018.603516 72.0
1018.84491 112.0
1019.690063 156.0
1024.825684 200.0
1024.97229 148.0
1026.476685 132.0
1032.070557 152.0
1032.383911 176.0
1036.827026 188.0
1037.211548 140.0
1038.410645 160.0
1039.835083 80.0
1040.554077 132.0
1040.82373 160.0
1041.812866 184.0
1042.217651 160.0
1043.856812 124.0
1044.956787 152.0
1046.696899 204.0
1047.100464 228.0
1051.161987 164.0
1051.988159 48.0
1055.334961 136.0
1056.072144 172.0
1059.678101 208.0
1061.791382 144.0
1063.738037 196.0
1063.783447 84.0
1063.945801 88.0
1067.383057 196.0
1068.000854 164.0
1068.963745 184.0
1069.425903 156.0
1070.715088 96.0
1072.011475 160.0
1072.435181 64.0
1074.000122 192.0
1074.313232 196.0
1075.63147 132.0
1076.427979 136.0
1078.995972 224.0
1080.251587 108.0
1082.208496 160.0
1082.293701 204.0
1084.160645 128.0
1089.777954 64.0
1090.375977 144.0
1092.572266 208.0
1093.875244 152.0
1094.9552 140.0
1095.811523 108.0
1096.358521 100.0
1099.016113 172.0
1102.390503 172.0
1102.793701 152.0
1103.864746 76.0
1104.572388 116.0
1104.843628 156.0
1106.869019 148.0
1108.31311 184.0
1108.564941 136.0
1108.671021 120.0
1109.207886 192.0
1111.177612 68.0
1112.405396 120.0
1115.886719 200.0
1118.255005 88.0
1119.013916 228.0
1119.646484 244.0
1120.7323 220.0
1121.80542 196.0
1122.705566 204.0
1123.439331 148.0
1123.832886 164.0
1125.314697 204.0
1128.468506 176.0
1129.003418 196.0
1129.464966 152.0
1129.585327 168.0
1129.973389 152.0
1130.134033 264.0
1132.557495 244.0
1134.246094 232.0
1134.400269 192.0
1135.513428 200.0
1136.318481 212.0
1138.137451 176.0
1138.258301 160.0
1138.627686 168.0
1138.674683 140.0
1139.386719 168.0
1139.668945 56.0
1140.515747 184.0
1140.609863 160.0
1141.053589 216.0
1141.109985 156.0
1142.284302 52.0
1142.519775 76.0
1142.667847 168.0
1143.199341 144.0
1143.461914 188.0
1144.456055 196.0
1144.895874 128.0
1145.374146 212.0
1146.196167 200.0
1147.227295 240.0
1150.222656 200.0
1150.600708 84.0
1150.884277 160.0
1151.228638 144.0
1151.857422 196.0
1152.586426 188.0
1153.850464 164.0
1154.330566 172.0
1154.519897 232.0
1155.839111 112.0
1157.328247 120.0
1160.641846 120.0
1160.899536 120.0
1161.401367 164.0
1161.543823 196.0
1163.437256 176.0
1163.640869 168.0
1164.143433 188.0
1164.897339 192.0
1165.542847 180.0
1167.888306 276.0
1168.180908 100.0
1168.371338 116.0
1168.697998 192.0
1171.039795 256.0
1171.714966 124.0
1174.106934 236.0
1175.177979 156.0
1175.300781 132.0
1178.141113 252.0
1178.69458 160.0
1179.036255 148.0
1179.419067 144.0
1179.883911 196.0
1180.116333 52.0
1180.355713 236.0
1181.450073 124.0
1181.635864 176.0
1182.284912 144.0
1183.147339 140.0
1183.222656 144.0
1183.523926 64.0
1183.811523 208.0
1185.010254 172.0
1186.936401 184.0
1187.231323 120.0
1187.505615 244.0
1187.807495 160.0
1188.30835 156.0
1189.413208 124.0
1189.495605 152.0
1189.571167 152.0
1189.996826 128.0
1190.408813 80.0
1190.488647 148.0
1191.768921 168.0
1193.246704 140.0
1193.590454 168.0
1194.078735 164.0
1194.151489 188.0
1194.849243 152.0
1196.535522 184.0
1196.590576 144.0
1197.430664 232.0
1197.740601 176.0
1197.912842 152.0
1199.649536 196.0
1199.814941 120.0
1200.049438 152.0
1200.401123 76.0
1203.720459 188.0
1204.887695 148.0
1205.461304 84.0
1206.007324 140.0
1206.532715 160.0
1208.310181 236.0
1208.981323 180.0
1209.625122 132.0
1211.799683 168.0
1212.003662 176.0
1213.296875 128.0
1214.503052 120.0
1217.175537 160.0
1218.057617 152.0
1219.023315 148.0
1220.191162 164.0
1220.274536 152.0
1221.157715 144.0
1221.310791 160.0
1222.131714 148.0
1222.723267 172.0
1224.568359 76.0
1225.404297 188.0
1225.539673 172.0
1227.070068 100.0
1227.579102 200.0
1227.634888 136.0
1228.255737 160.0
1228.897583 188.0
1228.960327 144.0
1229.490723 136.0
1229.762939 240.0
1230.817139 188.0
1231.93457 132.0
1232.018433 244.0
1232.933838 168.0
1233.730713 136.0
1234.311035 188.0
1235.059448 108.0
1235.856934 120.0
1235.905884 240.0
1236.640747 192.0
1239.049805 188.0
1239.238892 108.0
1239.30896 172.0
1239.897705 180.0
1240.563599 228.0
1242.506226 120.0
1242.61853 224.0
1244.141479 204.0
1244.668091 224.0
1244.773438 224.0
1246.310181 196.0
1246.599976 152.0
1246.944336 216.0
1247.26062 148.0
1247.787842 64.0
1248.343384 44.0
1249.166382 100.0
1249.862915 232.0
1251.151001 132.0
1251.235474 180.0
1251.376221 148.0
1251.862183 216.0
1252.946899 128.0
1254.751221 148.0
1255.978271 180.0
1258.109497 180.0
1258.356567 148.0
1258.554321 180.0
1259.309937 184.0
1261.344971 144.0
1261.663086 332.0
1261.825684 204.0
1262.009521 160.0
1262.476318 220.0
1265.830688 224.0
1266.694824 148.0
1266.978271 200.0
1267.633667 144.0
1268.005737 112.0
1268.374268 184.0
1268.587036 196.0
1269.381104 184.0
1270.991333 196.0
1271.147461 144.0
1271.537842 212.0
1272.176636 192.0
1275.167236 156.0
1275.373413 192.0
1275.671997 152.0
1275.743042 164.0
1275.892334 140.0
1275.999023 148.0
1276.134033 180.0
1276.603394 144.0
1278.026123 164.0
1278.168457 144.0
1279.164917 220.0
1280.688721 172.0
1281.215942 180.0
1281.372681 180.0
1281.807373 200.0
1281.914185 80.0
1285.565552 132.0
1286.344238 216.0
1286.593384 88.0
1288.057373 84.0
1288.186035 132.0
1288.403076 232.0
1288.750366 104.0
1289.35791 136.0
1290.694702 128.0
1290.937866 152.0
1291.037964 220.0
1291.523071 112.0
1291.766235 244.0
1292.09668 200.0
1293.29895 140.0
1294.215332 120.0
1295.117676 112.0
1295.941528 136.0
1297.525635 224.0
1298.113525 136.0
1299.053223 132.0
1299.584106 164.0
1299.971558 60.0
1300.488403 148.0
1301.751953 228.0
1302.427124 252.0
1302.678467 136.0
1303.389771 144.0
1303.806641 196.0
1305.021484 176.0
1305.156494 208.0
1305.366699 224.0
1306.388062 228.0
1306.791016 88.0
1306.877319 172.0
1307.935303 108.0
1308.172852 160.0
1308.381592 244.0
1309.346558 164.0
1309.865112 180.0
1310.527954 176.0
1311.277466 100.0
1311.565796 72.0
1312.200195 184.0
1312.394897 168.0
1312.798706 128.0
1312.993408 228.0
1313.967285 148.0
1314.39917 176.0
1314.645508 176.0
1314.717773 180.0
1315.410645 128.0
1315.624634 168.0
1316.305908 124.0
1317.541138 144.0
1317.757812 152.0
1318.150879 236.0
1318.227539 136.0
1318.596069 208.0
1319.543091 144.0
1320.259033 200.0
1321.503296 168.0
1321.883911 200.0
1322.943481 212.0
1323.747192 164.0
1324.790283 144.0
1325.355347 160.0
1325.580078 100.0
1325.768433 220.0
1325.949707 160.0
1326.109131 156.0
1326.689087 140.0
1326.805054 156.0
1326.89209 264.0
1328.385986 192.0
1328.502075 180.0
1328.814087 180.0
1329.133301 72.0
1330.018799 188.0
1331.420166 212.0
1332.98938 120.0
1333.176025 240.0
1333.439941 156.0
1333.897827 124.0
1334.2323 60.0
1335.846802 164.0
1336.130493 128.0
1336.727173 100.0
1337.877197 100.0
1337.979126 160.0
1338.56897 156.0
1338.7146 268.0
1339.319092 236.0
1339.610474 124.0
1341.374146 84.0
1341.519897 168.0
1342.803223 244.0
1343.656738 92.0
1344.335449 156.0
1344.714966 196.0
1345.389038 108.0
1345.561768 148.0
1347.19043 172.0
1347.942993 116.0
1348.015991 128.0
1350.5896 124.0
1351.130981 176.0
1351.745605 148.0
1352.360352 48.0
1352.42627 152.0
1353.030151 192.0
1353.663574 228.0
1354.162354 200.0
1354.982056 212.0
1356.000732 92.0
1356.249878 88.0
1357.921753 124.0
1357.973022 196.0
1358.545166 64.0
1359.154175 156.0
1359.499146 132.0
1359.726685 96.0
1360.064209 152.0
1360.115601 228.0
1360.629517 336.0
1360.724976 72.0
1360.81311 72.0
1361.260986 228.0
1361.341797 260.0
1361.841187 80.0
1362.171753 172.0
1362.515381 256.0
1362.627319 148.0
1363.134277 56.0
1363.215088 200.0
1363.531128 212.0
1363.744263 240.0
1363.986938 60.0
1364.207397 116.0
1364.589722 100.0
1364.655151 184.0
1364.735962 140.0
1365.391235 196.0
1366.023926 128.0
1366.413818 144.0
1366.678711 220.0
1366.807861 172.0
1366.899414 36.0
1367.046631 176.0
1367.583862 208.0
1367.767944 236.0
1368.739746 132.0
1368.86499 240.0
1369.306885 232.0
1369.502563 204.0
1369.866699 156.0
1370.647705 152.0
1370.78772 260.0
1371.384644 216.0
1373.382935 164.0
1373.530396 148.0
1373.700073 136.0
1374.209229 188.0
1374.290405 108.0
1374.445312 48.0
1374.961914 260.0
1375.094727 116.0
1375.234985 216.0
1375.714844 124.0
1376.438354 208.0
1376.837158 192.0
1377.142944 268.0
1377.332031 148.0
1378.203857 164.0
1378.425537 176.0
1380.236694 140.0
1380.931885 184.0
1381.368286 104.0
1381.775146 128.0
1382.604004 28.0
1382.77417 132.0
1382.966675 184.0
1383.89209 172.0
1384.617798 184.0
1385.432617 160.0
1385.647461 108.0
1385.743774 100.0
1385.906738 120.0
1386.173584 160.0
1387.085205 52.0
1387.693115 184.0
1388.622681 188.0
1388.768433 256.0
1389.324829 148.0
1393.059082 204.0
1395.050781 180.0
1395.221802 248.0
1395.472534 192.0
1395.630737 112.0
1395.846313 128.0
1395.987671 192.0
1396.281372 208.0
1397.066162 216.0
1397.616821 196.0
1397.750732 200.0
1398.075684 144.0
1398.606567 96.0
1398.785278 100.0
1399.172363 128.0
1399.797852 160.0
1400.051025 132.0
1400.177734 176.0
1401.935913 140.0
1402.025391 180.0
1402.383179 256.0
1403.240479 128.0
1403.42688 220.0
1403.78479 156.0
1403.963745 128.0
1404.306885 124.0
1404.612671 252.0
1405.246826 160.0
1405.64978 164.0
1406.463257 204.0
1406.956055 196.0
1407.807251 228.0
1408.031372 204.0
1408.120972 48.0
1408.910034 148.0
1409.263916 152.0
1410.325195 104.0
1410.82605 256.0
1410.900757 156.0
1411.895264 236.0
1411.947632 156.0
1412.613403 44.0
1412.972534 164.0
1413.144531 224.0
1414.1698 100.0
1415.47998 144.0
1415.824463 200.0
1416.431274 84.0
1416.551147 160.0
1417.262817 196.0
1417.46521 264.0
1417.757446 176.0
1417.877319 116.0
1418.304565 120.0
1419.550049 180.0
1420.584351 124.0
1420.846924 160.0
1421.064453 116.0
1421.912476 188.0
1422.197632 196.0
1422.392822 104.0
1422.788574 180.0
1423.121094 156.0
1423.338867 160.0
1423.714355 152.0
1424.1875 120.0
1424.442871 176.0
1424.615723 152.0
1424.88623 120.0
1425.201782 220.0
1425.675171 160.0
1426.6073 96.0
1427.02832 156.0
1427.088501 180.0
1427.359131 140.0
1427.855469 72.0
1428.226318 172.0
1428.502441 160.0
1429.029053 156.0
1429.239746 180.0
1429.540771 108.0
1429.834229 168.0
1429.932129 180.0
1430.6698 204.0
1431.595947 104.0
1431.889648 192.0
1432.356689 112.0
1433.713013 180.0
1433.939087 136.0
1434.074707 224.0
1434.142578 64.0
1434.285767 208.0
1434.888916 124.0
1435.507202 204.0
1435.703247 244.0
1435.786255 112.0
1436.155884 176.0
1436.984619 136.0
1437.076294 116.0
1437.558228 152.0
1437.95166 212.0
1438.421021 216.0
1438.495117 76.0
1439.000977 172.0
1439.642822 200.0
1439.801392 136.0
1440.224365 148.0
1440.93457 152.0
1441.062988 168.0
1441.22168 184.0
1441.454712 120.0
1441.622192 152.0
1441.690186 96.0
1442.060547 180.0
1443.050903 176.0
1443.481812 212.0
1443.678467 120.0
1444.003662 124.0
1444.313843 220.0
1444.465088 200.0
1444.601318 188.0
1444.855591 52.0
1445.123291 160.0
1445.501709 80.0
1445.622803 180.0
1445.993652 188.0
1446.280518 160.0
1446.724976 196.0
1447.074707 192.0
1447.409302 156.0
1447.522949 180.0
1447.931885 112.0
1448.371216 156.0
1448.772705 180.0
1449.189453 112.0
1450.216187 188.0
1450.49292 192.0
1451.114624 168.0
1451.835083 176.0
1452.115723 68.0
1452.35083 104.0
1452.965332 124.0
1453.519165 184.0
1454.080811 52.0
1455.135986 192.0
1455.454834 88.0
1455.568848 240.0
1456.563721 96.0
1457.095581 152.0
1457.612183 136.0
1458.007446 124.0
1458.091064 96.0
1458.288696 216.0
1458.81311 172.0
1458.919556 80.0
1459.109619 76.0
1459.200928 112.0
1459.938477 208.0
1460.075439 116.0
1460.44043 212.0
1460.501343 228.0
1460.592651 168.0
1460.691528 148.0
1460.99585 180.0
1462.274292 108.0
1462.464478 120.0
1462.62439 108.0
1463.088745 124.0
1464.0177 260.0
1464.939331 192.0
1464.992676 168.0
1465.449829 192.0
1466.387207 164.0
1466.455811 188.0
1468.331421 208.0
1468.796753 168.0
1469.033203 44.0
1469.552002 152.0
1470.115479 164.0
1470.25415 172.0
1470.477905 120.0
1470.500977 152.0
1471.147217 116.0
1471.429688 248.0
1471.689209 156.0
1472.124512 152.0
1472.789062 188.0
1472.888306 240.0
1473.094604 184.0
1473.372803 132.0
1473.828003 204.0
1474.88269 76.0
1475.035645 116.0
1475.242065 172.0
1475.670166 188.0
1475.746582 220.0
1476.5802 160.0
1477.062134 148.0
1477.291626 116.0
1477.498169 172.0
1477.643555 132.0
1477.880737 72.0
1478.232666 76.0
1478.645996 164.0
1478.929199 80.0
1479.679443 136.0
1479.855591 124.0
1480.223145 100.0
1481.348999 224.0
1481.571167 156.0
1482.238037 100.0
1482.322021 88.0
1482.529053 128.0
1482.682251 208.0
1482.942871 148.0
1483.939453 180.0
1484.606567 200.0
1484.83667 192.0
1484.890381 156.0
1485.039185 240.0
1485.829224 196.0
1486.010376 112.0
1486.27124 172.0
1486.340332 156.0
1486.486206 152.0
1487.092407 164.0
1487.322754 132.0
1487.54541 140.0
1488.451416 184.0
1488.5896 156.0
1488.827637 152.0
1489.065796 160.0
1489.257812 136.0
1489.50354 144.0
1490.886597 228.0
1491.017334 176.0
1491.885864 180.0
1493.77002 120.0
1496.001831 180.0
1497.403198 144.0
1499.861206 160.0
1501.133423 124.0
1501.241333 148.0
1501.534424 156.0
1502.020386 140.0
1502.159302 196.0
1502.275024 212.0
1502.869019 84.0
1503.270386 148.0
1503.586792 196.0
1504.775513 188.0
1504.953125 176.0
1505.084473 128.0
1505.292969 88.0
