>compound MLS000877035-01!methyl 2-[[3-[(3,3-dimethyloxiran-2-yl)methyl]-4-hydroxyphenyl]methyl]-4-hydroxy-3-(4-hydroxyphenyl)-5-oxofuran-2-carboxylate
>formula C24H24O8
>ionization [M+H]+
>parentmass 441.155
#inchi InChI=1S/C24H24O8/c1-23(2)18(31-23)11-15-10-13(4-9-17(15)26)12-24(22(29)30-3)19(20(27)21(28)32-24)14-5-7-16(25)8-6-14/h4-10,18,25-27H,11-12H2,1-3H3
#inchikey FWHAYHIGJSFGKO
#Ion_Source LC-ESI
#Instrument qTof
#Compound_Source NIH Natural Product Library
#PI Dorrestein
#Data_Collector VVP/LMS
#Scan -1
#Precursor_MZ 441.155
#ExactMass 440.147
#Charge 1
#CAS_Number N/A
#Pubmed_ID N/A
#Smiles COC(=O)C1(Cc2ccc(O)c(CC3OC3(C)C)c2)OC(=O)C(=C1c4ccc(O)cc4)O
#INCHI_AUX N/A
#Library_Class 3
#SpectrumID CCMSLIB00000079530
#IonMode Positive
#UpdateWorkflowName UPDATE-SINGLE-ANNOTATED-BRONZE
#LibraryQualityString Bronze
#TaskID b1d8e8f6646f4e71acdff9ca3d919d08
##Scan# 1988
#SpectrumFile p1-G07_GG7_01_17951.mzXML
#LibraryName NIH_Natural_Products_Library.mgf
#MQScore -1
#Organism NIH_Natural_Products_Library
#TIC_Query 0
#RT_Query -1
#MZErrorPPM -1
#SharedPeaks 0
#MassDiff 0
#LibMZ -1
#SpecMZ 441.155
#SpecCharge 0
#internalFilename spec-00000.mgf

>collision 10
95.358414 144.0
95.589836 132.0
95.807907 192.0
95.862465 160.0
95.971619 144.0
96.139381 172.0
96.790329 228.0
96.811874 124.0
97.483353 68.0
97.622353 156.0
98.043633 172.0
99.02356 136.0
99.128563 252.0
99.487556 124.0
100.038269 148.0
100.291199 108.0
100.329071 140.0
100.84008 104.0
100.904045 208.0
100.966034 180.0
101.116577 224.0
101.478653 180.0
102.173561 84.0
102.213799 148.0
102.256065 152.0
102.499733 168.0
103.052597 204.0
103.323517 220.0
103.400414 164.0
104.065308 240.0
104.294861 164.0
104.648834 144.0
104.71196 60.0
105.03196 472.0
105.067612 280.0
105.724579 204.0
106.222466 128.0
106.426338 248.0
106.464653 40.0
106.680397 120.0
106.728981 192.0
106.783203 152.0
106.912819 144.0
107.048012 1224.0
107.086052 216.0
107.349548 156.0
108.051826 260.0
108.161507 104.0
108.254669 264.0
108.316803 192.0
108.779228 168.0
108.824898 144.0
108.874733 164.0
108.897583 116.0
108.986908 116.0
109.038864 192.0
110.032471 172.0
110.29686 148.0
110.416954 64.0
110.477615 100.0
110.653412 232.0
110.923653 152.0
110.988647 196.0
111.043175 116.0
111.104004 172.0
111.11869 144.0
111.814224 172.0
112.003716 168.0
112.117493 108.0
112.182831 128.0
112.94725 168.0
113.188515 124.0
113.232986 148.0
113.292297 176.0
113.324074 148.0
113.565742 172.0
114.003098 88.0
114.130638 240.0
114.177422 192.0
114.262505 148.0
114.337242 224.0
114.44767 108.0
115.056602 744.0
115.307365 52.0
115.433495 216.0
116.009438 196.0
116.063034 200.0
116.33551 104.0
117.070854 460.0
117.795547 196.0
117.814987 164.0
118.011658 176.0
118.236626 68.0
118.375175 108.0
118.433655 216.0
119.048004 680.0
119.086647 132.0
119.223389 160.0
119.429932 148.0
119.651894 148.0
119.708511 180.0
119.922012 176.0
119.985229 144.0
120.055771 536.0
120.467522 164.0
120.686073 132.0
120.70575 196.0
120.815109 160.0
121.026695 1024.0
121.065712 848.0
121.169769 92.0
121.189491 232.0
121.245079 152.0
121.279343 216.0
121.296875 116.0
121.520569 200.0
121.966362 76.0
122.001534 144.0
122.030731 328.0
122.054306 132.0
122.280891 180.0
122.446014 208.0
122.46804 212.0
122.485657 148.0
122.536331 216.0
122.743515 156.0
123.041382 160.0
123.103203 156.0
123.165047 172.0
123.244576 184.0
124.054596 64.0
124.240883 200.0
124.437294 40.0
125.406075 176.0
125.435051 132.0
125.68261 120.0
125.733932 232.0
126.077858 192.0
126.106911 132.0
126.832115 248.0
127.114693 56.0
127.336945 164.0
127.541412 124.0
128.06163 432.0
128.112976 124.0
128.803253 140.0
128.988541 176.0
129.026978 192.0
129.069916 544.0
129.124207 172.0
129.284836 132.0
129.939682 104.0
130.032715 136.0
130.078506 400.0
130.293854 100.0
130.316574 44.0
131.000839 228.0
131.048752 3184.0
131.079681 244.0
131.277145 196.0
132.051956 428.0
132.090225 152.0
132.362579 132.0
132.435867 84.0
132.488556 156.0
132.928772 200.0
133.029419 216.0
133.058517 348.0
133.146866 48.0
133.192795 184.0
133.466278 56.0
134.034821 176.0
134.071701 272.0
134.122406 168.0
134.223846 104.0
134.893372 160.0
134.946548 184.0
135.042252 204.0
135.083328 196.0
136.042374 172.0
136.728058 136.0
137.055649 172.0
137.501816 132.0
137.819397 184.0
137.985352 128.0
138.429916 164.0
139.640884 184.0
139.800858 236.0
139.86441 44.0
140.434616 128.0
140.78627 132.0
141.036713 112.0
141.072159 176.0
141.230591 112.0
141.884171 88.0
142.04068 40.0
142.520248 64.0
143.024414 136.0
143.045609 204.0
143.082062 224.0
143.245865 200.0
143.546173 144.0
143.593872 168.0
143.942291 136.0
144.055023 548.0
145.03183 260.0
145.063782 1088.0
145.100174 1632.0
145.143509 208.0
145.851074 88.0
146.032059 160.0
146.07193 300.0
146.106171 372.0
146.195663 84.0
146.390656 92.0
146.412323 68.0
146.737625 116.0
147.043076 720.0
147.078293 352.0
147.227463 144.0
147.290253 52.0
147.768921 200.0
147.979477 92.0
148.010956 60.0
148.048279 156.0
148.071503 132.0
148.532013 92.0
148.624207 72.0
148.706711 188.0
148.798965 216.0
149.022751 144.0
149.061279 312.0
149.097733 132.0
151.045853 192.0
152.062378 188.0
152.094604 200.0
152.54657 120.0
152.684265 148.0
153.069763 624.0
153.127274 60.0
153.238129 136.0
153.595581 120.0
153.637512 56.0
153.718933 76.0
154.080307 328.0
154.190628 112.0
154.309265 156.0
154.477448 224.0
154.536819 184.0
154.774429 136.0
155.059311 376.0
155.084503 3988.0
156.029877 152.0
156.089798 696.0
156.121887 240.0
156.462769 92.0
156.756927 180.0
156.916199 132.0
157.064743 440.0
157.096603 176.0
157.415237 140.0
157.882553 148.0
157.987595 180.0
158.072189 3668.0
158.608627 132.0
158.646225 44.0
159.042725 2432.0
159.076935 648.0
159.112854 60.0
159.723511 116.0
160.044724 180.0
160.087387 312.0
160.118668 204.0
160.262253 104.0
160.428589 140.0
160.456329 44.0
160.474884 188.0
160.57988 116.0
160.62529 44.0
161.01973 116.0
161.058868 248.0
161.09581 696.0
161.208511 112.0
161.377869 88.0
161.554901 84.0
161.582733 148.0
161.686478 40.0
162.020706 132.0
162.063583 220.0
162.116989 56.0
162.182892 92.0
162.281754 56.0
162.327393 168.0
162.507492 40.0
162.725769 156.0
162.860352 216.0
162.923859 168.0
163.045822 148.0
163.90596 120.0
165.067612 480.0
165.118546 148.0
165.558731 236.0
166.048233 164.0
166.064575 140.0
166.433151 300.0
167.047394 80.0
167.084808 340.0
167.402573 92.0
167.425751 212.0
167.459244 132.0
167.698853 88.0
167.928314 160.0
168.056061 212.0
168.090851 96.0
168.537567 40.0
168.6306 136.0
168.827072 172.0
169.059021 372.0
169.098724 208.0
169.689346 60.0
170.072144 152.0
170.275787 72.0
170.345917 44.0
170.457642 96.0
170.571991 128.0
170.597992 156.0
171.044601 160.0
171.0802 464.0
171.868958 128.0
172.04805 220.0
172.088211 112.0
172.231842 160.0
172.404266 40.0
173.02681 124.0
173.096054 6464.0
173.201828 24.0
173.229462 104.0
173.280853 108.0
173.650467 28.0
174.062485 128.0
174.099731 952.0
174.456589 180.0
174.680115 220.0
175.037979 940.0
175.07933 168.0
175.106079 284.0
175.185532 88.0
175.364716 80.0
175.523514 236.0
175.604645 120.0
175.755005 76.0
175.826263 44.0
176.040817 296.0
176.066498 196.0
176.846451 144.0
176.923203 116.0
177.063141 196.0
177.132416 132.0
177.728928 56.0
178.074539 184.0
178.954239 100.0
179.08757 752.0
179.159317 116.0
179.215256 128.0
179.353836 84.0
179.761887 200.0
180.094162 384.0
180.114304 148.0
180.255905 88.0
180.285294 156.0
180.402908 52.0
181.064545 392.0
181.100525 180.0
181.653473 108.0
181.74469 168.0
182.069321 168.0
182.123215 32.0
182.623154 192.0
182.655441 108.0
183.046936 156.0
183.08342 348.0
183.776154 188.0
184.048477 224.0
184.086563 192.0
184.862411 124.0
185.023193 320.0
185.058441 188.0
185.089569 144.0
185.417572 172.0
186.025146 164.0
186.100677 156.0
186.375504 196.0
186.50737 152.0
186.598373 60.0
187.039688 388.0
187.075424 432.0
188.077957 280.0
188.255051 128.0
188.361572 136.0
188.637558 48.0
188.812546 192.0
189.085129 516.0
189.559906 136.0
189.595535 64.0
190.077576 156.0
190.196182 260.0
190.599899 52.0
190.663101 180.0
191.106125 4212.0
191.766251 112.0
192.061752 160.0
192.104492 684.0
192.674591 160.0
192.890137 92.0
193.047729 148.0
193.067978 188.0
193.09259 168.0
193.11998 132.0
193.310532 84.0
193.523666 216.0
193.565201 156.0
193.603973 104.0
193.667679 28.0
193.917038 64.0
194.069748 180.0
194.097229 176.0
194.305252 172.0
195.080902 448.0
195.110657 116.0
195.385971 176.0
196.08345 228.0
196.34697 144.0
196.899567 164.0
196.935867 112.0
196.986145 164.0
197.0504 208.0
197.096451 348.0
197.665543 140.0
197.869858 32.0
198.063095 128.0
198.214371 112.0
198.360107 136.0
198.396561 120.0
198.427399 80.0
198.609665 160.0
199.038467 572.0
199.0802 92.0
199.319946 96.0
199.797928 156.0
200.033524 172.0
200.552597 104.0
201.060974 272.0
201.087372 148.0
201.144943 36.0
201.413193 40.0
202.075867 632.0
202.108658 60.0
202.386047 148.0
202.451187 164.0
202.748642 144.0
202.93573 172.0
203.033768 1180.0
203.085464 240.0
203.133224 144.0
203.210846 56.0
203.247726 76.0
203.406662 80.0
203.554291 84.0
203.62529 148.0
203.994675 44.0
204.037491 192.0
204.078156 536.0
204.882553 116.0
205.062683 284.0
205.091537 164.0
205.836838 136.0
205.975128 208.0
206.074585 780.0
206.455292 104.0
207.080078 1144.0
207.110703 72.0
207.434509 168.0
207.850357 92.0
207.916367 92.0
208.034637 216.0
208.081558 408.0
208.120178 180.0
208.689087 88.0
209.093628 792.0
210.069061 636.0
210.086823 396.0
210.851059 112.0
211.068176 304.0
211.608948 180.0
212.069534 152.0
212.228989 68.0
212.31308 68.0
212.452301 148.0
212.745407 264.0
213.021286 176.0
213.093704 188.0
213.361298 104.0
213.459717 132.0
213.538666 144.0
213.826706 40.0
214.001358 68.0
215.031601 212.0
215.067627 344.0
215.483002 168.0
215.520981 100.0
215.883453 108.0
216.085281 164.0
216.193542 140.0
216.981476 72.0
217.063171 136.0
218.06842 972.0
218.106445 92.0
218.160904 188.0
218.617554 52.0
218.782379 64.0
219.026398 560.0
219.079956 900.0
219.132858 228.0
219.572067 88.0
219.961533 200.0
220.040588 216.0
220.084869 752.0
221.060455 420.0
221.091919 744.0
221.204971 68.0
221.72139 64.0
222.064865 576.0
222.264069 64.0
222.750977 168.0
223.026642 176.0
223.07225 520.0
223.107574 128.0
223.5448 80.0
224.079987 272.0
224.384766 100.0
225.031723 228.0
225.055817 740.0
225.089935 716.0
225.169556 76.0
225.41153 52.0
226.055969 220.0
226.084122 160.0
226.092972 156.0
226.189133 40.0
226.231033 76.0
227.034042 132.0
227.074356 180.0
227.117874 168.0
227.466095 176.0
227.772369 188.0
228.081879 140.0
228.157028 176.0
228.262253 40.0
228.445724 160.0
229.059814 144.0
229.10199 156.0
230.027786 116.0
230.048904 200.0
230.302551 176.0
231.025986 320.0
231.077637 424.0
231.112808 192.0
231.143005 32.0
232.079926 196.0
233.059128 156.0
233.094193 336.0
233.305542 176.0
234.020508 128.0
234.062302 1060.0
234.102722 148.0
234.194077 204.0
234.282425 80.0
234.443909 128.0
234.520096 68.0
234.596313 156.0
235.074127 3448.0
235.182739 72.0
235.261337 144.0
235.285767 204.0
235.484344 128.0
235.615601 104.0
235.695038 172.0
236.080978 1132.0
236.191544 192.0
236.29126 68.0
236.869843 48.0
237.050751 172.0
237.089813 2552.0
237.206085 176.0
237.295822 112.0
237.535034 144.0
237.603806 96.0
237.728317 128.0
237.762085 80.0
237.79277 188.0
238.064789 372.0
238.093216 344.0
238.604416 88.0
239.068176 284.0
239.09819 80.0
239.603943 156.0
239.705627 268.0
240.076401 216.0
240.177322 160.0
240.566132 172.0
241.088821 276.0
241.153015 100.0
241.323044 40.0
241.725143 36.0
242.065659 156.0
242.095718 152.0
242.276276 148.0
243.038971 180.0
243.076202 108.0
243.569839 116.0
243.718964 56.0
244.081253 320.0
244.449692 100.0
245.067886 128.0
245.075195 100.0
245.087082 248.0
246.07045 176.0
246.10202 188.0
246.979904 180.0
247.075607 1448.0
247.142578 164.0
247.198898 68.0
247.311569 92.0
248.035126 204.0
248.082687 1132.0
249.059097 204.0
249.089539 1068.0
249.303101 172.0
250.060791 564.0
250.092651 216.0
250.631027 72.0
250.971451 144.0
251.068451 1024.0
251.108871 308.0
251.482513 80.0
251.851929 48.0
251.990921 64.0
252.077225 448.0
252.202652 60.0
253.084702 960.0
253.490738 28.0
253.906021 160.0
254.055099 120.0
254.086761 324.0
254.20105 60.0
254.334351 48.0
254.661392 60.0
254.940964 60.0
255.239777 96.0
255.589676 100.0
255.790176 176.0
256.088379 260.0
256.624847 40.0
257.09375 136.0
257.13205 108.0
257.266113 232.0
257.515167 152.0
258.065948 172.0
258.105408 144.0
258.53183 140.0
259.081635 160.0
259.245972 268.0
259.361359 60.0
259.768585 84.0
260.085358 228.0
260.131195 224.0
261.024384 184.0
261.048187 268.0
261.08725 120.0
261.121674 120.0
262.063324 272.0
262.360565 152.0
263.069885 1972.0
263.170349 60.0
264.013 120.0
264.075562 1440.0
264.169006 116.0
264.269287 44.0
264.366364 48.0
264.670654 52.0
264.923279 40.0
265.007507 108.0
265.084808 2660.0
265.124268 168.0
265.1987 76.0
265.639679 32.0
265.915497 144.0
265.960938 68.0
266.012878 184.0
266.055389 644.0
266.089294 192.0
266.121735 104.0
266.158966 100.0
266.714508 64.0
267.058807 592.0
268.071655 240.0
268.237885 80.0
268.492188 68.0
268.563965 52.0
269.075104 408.0
269.122009 180.0
269.164429 96.0
269.363678 64.0
269.494354 88.0
270.102417 132.0
270.966644 120.0
271.07782 144.0
271.110168 116.0
271.809326 68.0
272.101196 232.0
272.127686 120.0
273.052246 284.0
273.077911 376.0
273.122864 164.0
273.350433 112.0
274.058472 380.0
274.097076 148.0
275.06897 1348.0
275.156677 168.0
275.523285 60.0
275.731445 32.0
276.002533 44.0
276.073486 484.0
276.103424 128.0
277.038086 204.0
277.079926 248.0
277.11795 296.0
277.688141 136.0
277.873901 64.0
278.060333 280.0
279.065033 808.0
279.139343 232.0
279.175964 52.0
279.75824 124.0
279.894745 196.0
280.069427 452.0
280.131226 156.0
280.414429 176.0
280.517761 128.0
281.028015 88.0
281.081512 2208.0
281.194885 36.0
281.375122 32.0
281.939636 168.0
282.082581 148.0
282.128632 200.0
282.825958 192.0
283.091675 180.0
283.509186 56.0
284.082703 140.0
284.109375 104.0
284.1362 104.0
285.093475 304.0
286.067993 572.0
286.091888 404.0
287.066711 312.0
287.100861 400.0
288.076202 336.0
288.120117 280.0
288.58197 64.0
289.092682 184.0
289.120392 516.0
290.013947 88.0
290.058014 200.0
290.087311 276.0
290.126434 308.0
290.237701 128.0
290.312286 112.0
290.390289 20.0
290.536163 88.0
290.746521 168.0
290.834778 48.0
291.064301 1052.0
291.131989 132.0
291.775482 108.0
292.074249 676.0
292.109222 164.0
292.133759 132.0
292.782928 204.0
293.028198 104.0
293.080444 2604.0
293.128296 148.0
293.730469 48.0
294.080658 320.0
294.363556 40.0
295.090881 392.0
296.094208 120.0
296.177887 112.0
296.53421 40.0
297.09314 128.0
297.148041 216.0
297.274994 124.0
299.102905 164.0
299.148163 112.0
299.172272 64.0
300.07196 136.0
300.112823 176.0
301.121948 376.0
302.057159 128.0
302.092316 200.0
302.129822 164.0
302.991852 80.0
303.061096 180.0
303.095917 240.0
304.07373 112.0
304.117035 380.0
305.080139 828.0
305.147095 68.0
305.71756 60.0
306.091766 164.0
307.095306 344.0
307.131256 448.0
307.205322 104.0
308.066528 108.0
308.091125 172.0
308.128723 112.0
308.270233 28.0
308.812134 84.0
308.976532 48.0
309.072144 1052.0
309.151489 216.0
309.659119 92.0
309.844788 92.0
309.914856 108.0
309.974426 40.0
310.080536 636.0
310.142639 168.0
310.209229 132.0
311.094666 108.0
312.067505 172.0
312.078705 120.0
312.092285 112.0
312.102631 160.0
312.140259 56.0
312.787598 48.0
313.075317 128.0
314.106873 208.0
315.058594 212.0
315.415497 160.0
315.440247 64.0
316.071716 176.0
316.537018 44.0
317.04715 176.0
317.11792 804.0
318.079254 60.0
318.115204 596.0
319.054474 404.0
319.130585 396.0
319.639465 80.0
320.124634 164.0
321.084503 140.0
321.114349 144.0
322.499664 68.0
322.792816 68.0
323.090729 124.0
324.081421 144.0
326.112579 84.0
327.100555 304.0
327.206116 104.0
328.301514 108.0
329.11673 264.0
330.110352 152.0
330.116913 136.0
331.095947 128.0
331.301544 52.0
331.812531 132.0
332.661438 116.0
333.108093 136.0
333.249786 160.0
333.991394 136.0
334.020508 84.0
334.07074 152.0
334.136902 100.0
334.315186 128.0
334.402557 88.0
334.551788 88.0
335.047058 160.0
335.125793 2660.0
335.254761 40.0
335.517181 84.0
335.954803 64.0
336.131409 692.0
336.195648 160.0
336.359863 80.0
337.060883 228.0
337.144531 364.0
337.313263 64.0
337.834778 76.0
338.081329 100.0
338.465698 148.0
338.784332 76.0
341.747131 88.0
343.397491 40.0
344.072754 120.0
345.110077 200.0
345.159027 212.0
346.121094 216.0
346.165527 140.0
346.421082 156.0
347.123596 264.0
347.8302 84.0
348.101227 140.0
348.136902 392.0
349.078552 136.0
351.078308 168.0
351.111877 72.0
352.097137 276.0
352.127014 136.0
352.765961 100.0
352.93045 100.0
353.135376 484.0
354.150787 168.0
354.843719 44.0
355.083374 44.0
355.226227 52.0
356.604279 124.0
356.792236 108.0
357.074249 124.0
357.296173 76.0
358.674438 124.0
358.783752 32.0
358.896881 68.0
361.142273 144.0
361.438934 96.0
363.12439 352.0
363.130188 136.0
364.115295 156.0
364.267242 112.0
365.141449 84.0
366.4776 76.0
373.101257 204.0
376.09967 204.0
381.134216 268.0
381.717285 80.0
391.106934 116.0
392.11676 216.0
399.026733 60.0
402.844604 124.0
405.128845 76.0
409.857697 112.0
410.885834 116.0
411.277252 72.0
415.850983 84.0
417.321533 72.0
426.104858 96.0
426.746033 160.0
432.364319 60.0
438.177673 176.0
439.353363 156.0
442.512909 132.0
451.365814 128.0
453.109619 68.0
462.961975 88.0
499.722412 108.0
523.763672 44.0
531.352295 72.0
571.183655 48.0
648.852844 144.0
670.526978 56.0
733.685547 176.0
742.146851 84.0
777.908691 44.0
809.051025 152.0
817.616333 120.0
846.649414 80.0
847.640015 48.0
888.74707 104.0
891.496399 184.0
894.529724 244.0
953.375305 152.0
968.261902 44.0
975.88208 92.0
1013.258789 116.0
1028.648682 260.0
1029.593628 196.0
1035.893799 200.0
1046.484009 172.0
1080.500366 188.0
1080.605103 52.0
1089.922119 180.0
1094.263184 104.0
1097.748901 168.0
1103.427368 220.0
1113.658936 96.0
1125.018921 172.0
1125.619873 156.0
1133.848145 232.0
1149.125977 188.0
1151.441406 36.0
1153.650879 40.0
1174.654785 76.0
1189.572632 72.0
1189.620605 116.0
1197.177002 212.0
1197.562622 48.0
1240.218994 192.0
1245.685181 196.0
1252.797241 192.0
1271.613281 36.0
1274.908569 180.0
1279.418091 56.0
1286.390015 144.0
1292.049927 172.0
1292.729736 128.0
1296.568237 144.0
1311.22229 176.0
1322.692017 212.0
1324.625366 88.0
1325.422363 164.0
1326.147095 124.0
1329.896851 108.0
1332.48938 136.0
1337.383301 224.0
1339.793701 64.0
1343.343872 156.0
1349.690552 148.0
1353.319702 48.0
1354.11792 112.0
1354.418213 148.0
1360.791016 96.0
1363.376587 144.0
1390.5625 152.0
1392.299683 160.0
1396.610474 164.0
1399.028931 216.0
1403.730225 168.0
1409.223999 152.0
1414.915527 116.0
1416.30835 108.0
1416.435791 104.0
1423.981323 80.0
1426.348145 116.0
1428.68689 104.0
1432.970581 132.0
1433.174072 136.0
1442.751587 120.0
1450.533691 148.0
1457.721069 128.0
1461.568726 128.0
1464.918579 184.0
1469.21814 156.0
1477.27002 160.0
1478.172852 216.0
1479.841431 160.0
1481.687256 136.0
1488.029907 136.0
1491.071777 140.0
1503.30127 156.0
1503.910889 88.0
