>compound MLS002473087-01!3,5,7-trihydroxy-2-phenylchromen-4-one
>formula C15H10O5
>ionization [M+H]+
>parentmass 271.058807
#inchi InChI=1S/C15H10O5/c16-9-6-10(17)12-11(7-9)20-15(14(19)13(12)18)8-4-2-1-3-5-8/h1-7,16-17,19H
#inchikey VCCRNZQBSJXYJD
#Ion_Source LC-ESI
#Instrument qTof
#Compound_Source NIH Natural Product Library
#PI Dorrestein
#Data_Collector VVP/LMS
#Scan -1
#Precursor_MZ 271.061
#ExactMass 270.053
#Charge 1
#CAS_Number N/A
#Pubmed_ID N/A
#Smiles Oc1cc(O)c2c(=O)c(O)c(oc2c1)c3ccccc3
#INCHI_AUX N/A
#Library_Class 1
#SpectrumID CCMSLIB00000079480
#IonMode Positive
#UpdateWorkflowName UPDATE-SINGLE-ANNOTATED-GOLD
#LibraryQualityString Gold
#TaskID b1d8e8f6646f4e71acdff9ca3d919d08
##Scan# 2183
#SpectrumFile p1-H06_GH6_01_17962.mzXML
#LibraryName NIH_Natural_Products_Library.mgf
#MQScore -1
#Organism NIH_Natural_Products_Library
#TIC_Query 0
#RT_Query -1
#MZErrorPPM -1
#SharedPeaks 0
#MassDiff 0
#LibMZ -1
#SpecMZ 271.061
#SpecCharge 0
#internalFilename spec-00000.mgf

>collision 10
95.322433 196.0
95.631653 148.0
95.6959 92.0
96.015472 112.0
96.031075 136.0
96.949966 44.0
97.028473 152.0
97.212746 164.0
97.52124 152.0
97.656754 196.0
97.987465 116.0
98.103737 180.0
98.149086 220.0
98.490509 84.0
99.607689 168.0
99.631531 212.0
100.144745 208.0
100.256317 96.0
100.413811 84.0
100.589401 196.0
100.60537 84.0
100.785118 168.0
101.47966 180.0
101.539818 152.0
102.02977 212.0
102.043846 136.0
102.26915 116.0
102.593468 144.0
102.839561 168.0
103.052452 696.0
103.118286 120.0
103.425728 108.0
103.482407 196.0
103.589745 192.0
103.642418 136.0
103.934402 136.0
104.072426 136.0
104.24102 160.0
104.623405 252.0
104.670235 128.0
104.82505 160.0
104.931038 140.0
105.032608 4272.0
105.351448 200.0
105.403061 92.0
105.570152 56.0
106.035782 452.0
106.699959 136.0
106.771927 140.0
106.883011 172.0
107.044296 136.0
107.048225 184.0
107.088875 136.0
107.107414 176.0
107.523903 180.0
108.028732 200.0
108.249535 168.0
108.458786 116.0
109.026878 448.0
109.062805 168.0
109.197952 176.0
109.537231 184.0
110.032768 220.0
110.077408 196.0
110.69429 144.0
111.007248 340.0
111.621796 112.0
112.006935 124.0
112.057495 144.0
112.367424 184.0
112.392746 200.0
112.413841 184.0
112.45816 152.0
112.517273 160.0
112.555275 152.0
113.242584 228.0
114.021225 88.0
114.45945 212.0
114.670357 148.0
115.028702 168.0
115.052582 2132.0
115.240128 140.0
115.257217 84.0
115.323471 96.0
115.349121 88.0
115.398285 52.0
115.565117 64.0
115.766327 36.0
115.972 48.0
116.056587 152.0
116.454765 116.0
116.824486 160.0
117.032265 192.0
117.068611 492.0
117.11293 204.0
117.911232 128.0
118.043098 184.0
118.07338 184.0
118.623344 160.0
118.649361 136.0
118.940048 252.0
119.045601 156.0
119.092041 172.0
119.581245 196.0
119.679207 72.0
119.886147 72.0
120.019119 200.0
120.110718 220.0
120.241631 140.0
120.374802 216.0
120.547371 172.0
120.715698 80.0
120.838188 136.0
121.023308 172.0
121.473503 148.0
121.640282 148.0
122.248344 188.0
122.271103 200.0
122.643318 196.0
122.888107 164.0
123.905128 152.0
124.01371 212.0
124.908554 176.0
125.021873 208.0
125.180077 184.0
125.612457 156.0
125.956955 220.0
126.040909 172.0
126.454834 132.0
126.566772 64.0
126.582443 124.0
126.923042 140.0
126.938744 116.0
127.053886 512.0
127.190018 164.0
127.808044 244.0
128.001633 48.0
128.06337 1064.0
128.141281 112.0
128.217896 208.0
128.249451 112.0
128.443359 148.0
128.639679 128.0
128.912979 216.0
129.029709 812.0
129.069077 668.0
129.442307 192.0
129.53064 148.0
129.854767 140.0
130.040817 212.0
130.088486 172.0
130.741028 212.0
130.92749 128.0
130.963928 156.0
131.04805 784.0
131.08696 316.0
131.641281 140.0
132.013779 148.0
132.050873 144.0
132.709885 84.0
132.769501 136.0
133.026489 132.0
133.29361 104.0
134.022324 84.0
134.661346 60.0
135.008011 160.0
135.045013 156.0
135.350494 140.0
135.614594 208.0
135.772247 128.0
136.115707 100.0
136.208603 108.0
136.717789 192.0
137.021896 1600.0
137.573196 164.0
138.028809 356.0
138.15744 180.0
139.054947 392.0
139.198105 188.0
140.059967 156.0
140.080078 176.0
140.131912 208.0
140.679047 156.0
140.945938 228.0
140.975082 180.0
141.068649 5024.0
141.140411 136.0
141.23909 184.0
141.603592 40.0
141.658066 48.0
141.705719 176.0
141.740997 72.0
141.77417 52.0
141.866608 44.0
141.956711 168.0
142.071548 716.0
142.141739 48.0
142.412384 136.0
143.249664 140.0
143.533295 184.0
144.017746 184.0
144.056076 172.0
144.51738 84.0
144.912445 168.0
145.013687 208.0
145.063904 860.0
145.213821 300.0
146.069595 160.0
146.290985 44.0
146.428223 116.0
146.553497 72.0
146.768021 128.0
146.963394 100.0
147.046951 208.0
147.28447 32.0
147.400436 48.0
147.419769 192.0
148.038116 112.0
148.201355 116.0
148.270096 196.0
149.02388 344.0
149.673309 56.0
150.036728 204.0
150.668442 212.0
150.788177 60.0
151.005768 108.0
151.052399 192.0
151.343475 96.0
151.568298 92.0
151.686462 200.0
151.806595 132.0
151.916977 60.0
152.034744 132.0
152.06044 1036.0
152.128021 40.0
152.267975 188.0
152.486633 160.0
152.60463 236.0
152.730057 184.0
152.857986 144.0
152.909668 108.0
152.964798 252.0
153.018021 14704.0
153.068573 468.0
153.123856 52.0
153.249496 96.0
153.293854 168.0
153.382568 228.0
153.435989 84.0
153.99202 64.0
154.019257 724.0
154.66951 76.0
154.780914 44.0
155.021194 300.0
155.0504 760.0
155.122818 100.0
155.178223 160.0
155.231918 76.0
155.395615 88.0
155.412994 144.0
156.026459 176.0
156.054688 244.0
156.270187 52.0
156.322449 76.0
156.788132 144.0
156.97261 36.0
157.039948 132.0
157.064896 240.0
157.724091 40.0
157.899124 136.0
158.302032 44.0
158.956299 128.0
159.042633 460.0
159.07756 184.0
160.044708 152.0
160.329361 44.0
161.005478 160.0
161.369354 164.0
163.03421 152.0
163.291519 200.0
163.357651 188.0
164.065598 80.0
165.016968 3028.0
165.614151 156.0
166.023849 732.0
167.013046 160.0
167.045792 152.0
167.86293 100.0
168.054031 540.0
168.76152 96.0
168.831345 108.0
168.877884 172.0
169.062943 1848.0
169.239624 92.0
169.380035 216.0
170.06749 204.0
170.480118 152.0
170.727081 208.0
170.99765 128.0
171.036697 76.0
171.067932 104.0
171.409119 68.0
171.534225 156.0
171.664581 92.0
172.056641 172.0
172.340652 164.0
172.366791 248.0
173.05864 448.0
173.896194 68.0
174.066223 224.0
174.297989 36.0
174.337402 128.0
175.060852 124.0
176.192398 72.0
177.14212 96.0
177.404465 48.0
178.118301 140.0
179.046783 444.0
179.881104 164.0
180.058548 172.0
180.260361 164.0
181.017395 568.0
181.065903 556.0
181.448776 136.0
182.012238 196.0
182.071304 148.0
183.039902 232.0
183.438385 232.0
183.478592 168.0
184.040009 156.0
184.112701 48.0
185.064545 140.0
186.065002 172.0
186.586624 200.0
186.686691 200.0
187.049088 152.0
187.077087 360.0
187.245132 92.0
188.256912 68.0
189.041489 96.0
190.884918 132.0
191.438034 212.0
192.149185 132.0
193.276474 160.0
193.991028 36.0
194.157394 60.0
194.998611 172.0
195.043091 108.0
195.115372 144.0
195.262741 144.0
195.496429 120.0
195.838882 40.0
196.050949 408.0
196.337769 132.0
196.424225 88.0
196.555359 76.0
196.736771 172.0
196.879166 180.0
196.907104 140.0
197.058075 2876.0
197.122208 72.0
197.228409 40.0
197.510818 180.0
197.953018 184.0
197.989426 88.0
198.063812 740.0
198.66774 72.0
198.813644 100.0
199.002502 72.0
199.038223 248.0
199.073196 220.0
199.111237 172.0
199.173035 156.0
199.465256 100.0
199.56366 112.0
200.045563 756.0
200.196777 140.0
200.613785 132.0
201.044815 184.0
201.434967 96.0
201.480164 84.0
201.923965 236.0
202.058212 436.0
202.560822 160.0
202.640137 36.0
203.069397 300.0
203.17598 172.0
204.454636 36.0
204.605499 156.0
204.873199 112.0
205.092621 120.0
205.400574 164.0
205.477585 112.0
205.754425 76.0
206.251495 232.0
207.052612 144.0
207.522568 220.0
209.053589 144.0
209.200378 172.0
211.035263 168.0
211.944138 144.0
212.289078 164.0
212.399292 192.0
212.616898 232.0
213.053864 1332.0
213.250046 212.0
213.508789 144.0
214.052017 148.0
214.160736 68.0
214.466675 52.0
214.56871 120.0
215.067673 1788.0
215.286514 168.0
215.771393 140.0
216.07222 288.0
216.465012 136.0
217.036407 80.0
217.227036 104.0
217.946335 208.0
218.763947 172.0
218.899384 156.0
220.9478 176.0
221.196381 128.0
221.382904 80.0
222.186172 200.0
222.64328 180.0
223.407181 136.0
223.841721 160.0
224.046677 324.0
224.255829 136.0
224.947845 176.0
225.051254 852.0
225.100113 68.0
225.51239 164.0
226.032745 228.0
226.060547 380.0
226.412933 248.0
226.634613 128.0
227.066284 232.0
228.042053 128.0
228.478073 140.0
228.517181 148.0
228.631531 124.0
228.676682 156.0
229.048584 688.0
229.072495 352.0
229.116318 88.0
229.239853 52.0
229.325287 92.0
229.830872 72.0
229.948563 48.0
230.051193 144.0
230.404526 224.0
230.567703 108.0
231.04837 112.0
232.439194 132.0
232.973557 172.0
233.420349 168.0
233.806702 48.0
234.565109 36.0
234.592545 168.0
234.92189 128.0
237.699997 124.0
238.000809 112.0
238.329468 136.0
239.079788 80.0
239.532379 176.0
239.584747 160.0
240.361725 172.0
241.045578 416.0
241.950394 120.0
242.009216 108.0
242.053741 1376.0
242.38092 56.0
242.92038 56.0
243.019653 48.0
243.065048 616.0
243.28656 80.0
243.569153 52.0
243.855011 84.0
244.069092 180.0
244.766525 52.0
247.059357 168.0
247.417328 168.0
248.021912 92.0
248.059525 160.0
248.620956 100.0
249.069946 68.0
252.0345 136.0
252.660522 48.0
253.048096 324.0
253.5186 200.0
253.686584 52.0
254.051651 200.0
255.029312 260.0
255.14035 288.0
255.283646 128.0
255.681305 164.0
256.031006 224.0
257.271851 176.0
261.232819 164.0
263.60257 176.0
266.366211 36.0
266.996765 184.0
267.344849 156.0
267.488068 64.0
268.331818 100.0
268.397034 136.0
268.622681 172.0
268.984283 56.0
269.043915 568.0
269.08548 124.0
269.124664 60.0
269.199768 96.0
270.0495 300.0
270.22287 52.0
270.471588 140.0
270.582886 56.0
270.684387 148.0
270.73349 172.0
270.825195 76.0
270.887451 92.0
270.926758 164.0
270.985718 140.0
271.058807 29812.0
271.121521 184.0
271.152435 220.0
271.188904 204.0
271.20929 196.0
271.293793 52.0
271.359375 80.0
271.460999 36.0
271.483978 32.0
271.510193 40.0
271.552826 104.0
271.588928 148.0
271.631561 52.0
271.657806 56.0
271.697174 52.0
271.969543 68.0
272.00235 192.0
272.062378 4392.0
272.225616 48.0
272.311005 48.0
272.373413 60.0
272.430725 108.0
272.465759 72.0
272.527832 56.0
272.570526 40.0
272.810455 40.0
272.840057 76.0
272.913757 56.0
273.061127 720.0
273.165619 44.0
273.330109 92.0
273.402527 72.0
273.432129 88.0
273.644775 100.0
273.67572 124.0
273.718536 60.0
273.744873 112.0
273.883209 52.0
273.909546 92.0
274.001801 104.0
274.028168 84.0
274.107758 156.0
274.235779 60.0
274.572052 72.0
274.624817 68.0
274.713898 40.0
274.986481 144.0
275.050476 64.0
275.116486 52.0
275.724274 56.0
275.988739 60.0
277.631195 100.0
277.966248 64.0
280.390564 92.0
281.564911 92.0
282.447296 100.0
282.674805 88.0
283.21048 108.0
285.375 48.0
289.705078 96.0
292.67688 64.0
295.927399 100.0
313.019531 172.0
326.709137 96.0
329.055298 136.0
335.600739 76.0
351.828033 80.0
365.194519 88.0
370.849243 112.0
372.994904 144.0
374.095062 56.0
384.600159 48.0
397.112671 80.0
416.041809 60.0
451.975159 40.0
459.57251 64.0
464.192169 100.0
472.038086 112.0
525.482971 112.0
532.183716 44.0
533.575806 132.0
573.555908 44.0
578.480835 72.0
610.369019 76.0
637.662964 76.0
672.942627 156.0
707.551147 188.0
784.56427 44.0
818.637817 68.0
853.505371 48.0
859.715088 172.0
869.341736 64.0
872.572327 56.0
883.039246 48.0
931.699158 200.0
949.719421 132.0
952.457031 128.0
954.056152 240.0
962.575867 80.0
963.483826 92.0
997.554688 176.0
1016.464478 148.0
1019.271118 260.0
1022.991821 248.0
1023.895935 224.0
1025.322998 100.0
1026.6427 192.0
1029.01001 188.0
1048.362427 124.0
1059.961914 128.0
1060.571167 76.0
1063.807983 52.0
1066.828735 156.0
1074.272095 208.0
1079.863525 48.0
1080.465332 156.0
1083.247559 64.0
1085.882568 108.0
1092.293213 180.0
1098.703003 128.0
1122.934814 148.0
1123.955566 276.0
1133.122314 156.0
1133.216064 120.0
1136.494873 32.0
1138.06543 196.0
1151.506836 176.0
1175.089478 136.0
1177.157593 108.0
1179.466919 172.0
1181.094238 124.0
1186.195679 136.0
1192.352417 168.0
1198.780151 164.0
1212.442749 152.0
1216.416992 80.0
1223.4104 136.0
1230.074707 128.0
1233.273804 136.0
1233.82605 188.0
1237.492188 172.0
1240.953369 136.0
1242.299927 172.0
1242.629639 196.0
1263.512207 232.0
1270.753052 212.0
1277.829468 76.0
1282.864502 168.0
1288.823975 80.0
1290.146118 64.0
1291.039917 152.0
1299.499512 96.0
1300.870361 152.0
1303.089478 156.0
1307.137573 128.0
1315.194946 180.0
1315.866333 232.0
1320.614014 104.0
1324.471924 156.0
1324.529907 172.0
1325.174683 144.0
1325.529663 204.0
1326.819824 172.0
1328.226685 164.0
1331.768799 168.0
1332.887695 128.0
1340.214966 120.0
1345.933472 152.0
1346.868286 208.0
1349.272583 180.0
1353.904297 68.0
1357.28186 204.0
1358.309326 196.0
1358.536743 116.0
1358.602783 64.0
1361.046753 152.0
1365.198608 176.0
1365.691406 168.0
1389.418701 112.0
1389.619019 116.0
1391.927368 204.0
1395.032959 56.0
1398.156982 120.0
1411.450439 176.0
1416.532227 68.0
1418.847778 140.0
1422.508789 128.0
1428.407593 92.0
1432.570435 184.0
1435.668335 200.0
1438.618408 212.0
1439.380981 160.0
1445.186157 196.0
1445.496338 180.0
1447.297852 108.0
1450.222046 196.0
1457.583496 156.0
1461.248413 172.0
1464.278076 180.0
1465.550171 220.0
1466.944946 36.0
1471.47644 100.0
1475.885132 168.0
1483.47229 164.0
1486.417358 128.0
1488.182861 148.0
1500.469971 188.0
1502.59082 184.0
1503.493652 92.0
