>compound MLS000736839-01!5,6,7,8-tetrahydroxy-2-(4-hydroxyphenyl)chromen-4-one
>formula C15H10O7
>ionization [M+H]+
>parentmass 303.051117
#inchi InChI=1S/C15H10O7/c16-7-3-1-6(2-4-7)9-5-8(17)10-11(18)12(19)13(20)14(21)15(10)22-9/h1-5,16,18-21H
#inchikey SPZXXUUDYMHBSG
#Ion_Source LC-ESI
#Instrument qTof
#Compound_Source NIH Natural Product Library
#PI Dorrestein
#Data_Collector VVP/LMS
#Scan -1
#Precursor_MZ 303.05
#ExactMass 302.043
#Charge 1
#CAS_Number N/A
#Pubmed_ID N/A
#Smiles Oc1ccc(cc1)c2cc(=O)c3c(O)c(O)c(O)c(O)c3o2
#INCHI_AUX N/A
#Library_Class 3
#SpectrumID CCMSLIB00000080537
#IonMode Positive
#UpdateWorkflowName UPDATE-SINGLE-ANNOTATED-BRONZE
#LibraryQualityString Bronze
#TaskID b1d8e8f6646f4e71acdff9ca3d919d08
##Scan# 1537
#SpectrumFile p2-D10_GD10_01_18022.mzXML
#LibraryName NIH_Natural_Products_Library.mgf
#MQScore -1
#Organism NIH_Natural_Products_Library
#TIC_Query 0
#RT_Query -1
#MZErrorPPM -1
#SharedPeaks 0
#MassDiff 0
#LibMZ -1
#SpecMZ 303.05
#SpecCharge 0
#internalFilename spec-00000.mgf

>collision 10
103.054886 180.0
103.069031 220.0
106.623077 192.0
108.203133 80.0
111.007713 172.0
112.655716 208.0
112.826897 180.0
115.057602 228.0
119.050499 256.0
120.057289 180.0
121.029633 160.0
124.096786 196.0
127.710075 100.0
129.015732 164.0
130.01683 144.0
132.880554 168.0
136.021423 108.0
139.003235 352.0
140.012634 188.0
145.061829 164.0
147.991379 148.0
148.073715 128.0
155.049103 220.0
160.988358 140.0
162.106476 196.0
166.022141 152.0
167.00322 216.0
171.044907 244.0
172.00415 176.0
184.807587 96.0
184.904999 96.0
184.95372 180.0
185.008804 1484.0
185.200119 88.0
185.313889 104.0
186.010803 184.0
188.893845 112.0
199.099915 180.0
208.093277 148.0
209.013031 196.0
227.966278 140.0
230.044464 112.0
247.056381 116.0
250.090729 132.0
250.194611 56.0
257.040222 348.0
259.048584 124.0
261.035248 108.0
278.03418 184.0
285.030243 112.0
302.21698 196.0
303.051117 1968.0
304.056335 588.0
304.116028 36.0
304.539612 76.0
304.602112 72.0
305.06778 148.0
305.509399 36.0
305.558105 40.0
306.205566 60.0
343.028778 172.0
359.220947 44.0
363.902283 100.0
367.334961 44.0
376.740082 116.0
982.908752 20.0
1177.46167 292.0
1293.658081 136.0
1362.953369 168.0
