>compound MLS002153274-01!Z-L-Phe chloromethyl ketone26049-94-5
>formula C18H18ClNO3
>ionization [M+H]+
>parentmass 332.104
#inchi InChI=1S/C18H18ClNO3/c19-12-17(21)16(11-14-7-3-1-4-8-14)20-18(22)23-13-15-9-5-2-6-10-15/h1-10,16H,11-13H2,(H,20,22)/t16-/m0/s1
#inchikey OYHLRJGDELITAF
#Ion_Source LC-ESI
#Instrument qTof
#Compound_Source NIH Pharmacologically Active Library
#PI Dorrestein
#Data_Collector VP/LMS
#Scan -1
#Precursor_MZ 332.104
#ExactMass 331.098
#Charge 1
#CAS_Number N/A
#Pubmed_ID N/A
#Smiles ClCC(=O)[C@H](Cc1ccccc1)NC(=O)OCc2ccccc2
#INCHI_AUX N/A
#Library_Class 3
#SpectrumID CCMSLIB00000085913
#IonMode Positive
#UpdateWorkflowName UPDATE-SINGLE-ANNOTATED-BRONZE
#LibraryQualityString Bronze
#TaskID d252d724072548979f1f6f1ced849daf
##Scan# 2314
#SpectrumFile p4-G10_GG10_01_18406.mzXML
#LibraryName Pharm_Active_Library.mgf
#MQScore -1
#Organism Pharm_Active_Library
#TIC_Query 0
#RT_Query -1
#MZErrorPPM -1
#SharedPeaks 0
#MassDiff 0
#LibMZ -1
#SpecMZ 332.104
#SpecCharge 0
#internalFilename spec-00000.mgf

>collision 10
45.537872 192.0
45.868889 100.0
46.762897 128.0
47.724648 176.0
48.247204 100.0
48.309437 136.0
48.562935 64.0
48.907532 220.0
49.141773 248.0
49.744869 228.0
49.778568 32.0
51.880062 156.0
52.276501 156.0
52.602242 164.0
53.188519 212.0
57.877506 268.0
57.892651 156.0
58.404137 188.0
59.604313 192.0
60.109402 164.0
60.251453 140.0
61.026421 136.0
61.060631 44.0
61.684341 128.0
61.983284 44.0
62.72197 132.0
63.184689 196.0
63.664986 228.0
65.264633 192.0
66.552475 100.0
66.700317 184.0
67.852898 168.0
67.969353 140.0
68.307808 128.0
69.367996 224.0
69.513954 144.0
70.054337 144.0
71.185028 128.0
71.45565 172.0
71.624001 120.0
72.010269 188.0
72.180962 156.0
72.321388 164.0
73.693817 108.0
73.960609 172.0
75.363983 156.0
75.415825 240.0
75.697838 176.0
75.779251 148.0
76.221718 184.0
76.282555 152.0
76.433868 192.0
76.866028 140.0
77.709435 120.0
78.300095 188.0
78.437531 84.0
80.06768 120.0
81.541954 216.0
82.978905 120.0
83.242012 180.0
83.416435 92.0
84.170731 112.0
84.37355 80.0
85.984558 156.0
87.883018 188.0
88.110802 184.0
88.743431 164.0
89.677757 116.0
89.728653 136.0
90.391647 116.0
90.992523 144.0
91.031693 172.0
91.053947 4252.0
91.125473 104.0
91.159676 64.0
91.397377 132.0
91.427826 52.0
91.679214 60.0
91.764999 40.0
92.058174 732.0
92.172256 144.0
92.630753 92.0
93.031555 160.0
93.812614 32.0
94.24881 152.0
95.100945 144.0
97.244118 84.0
98.247704 128.0
100.593475 172.0
100.829468 136.0
101.197258 204.0
102.050011 164.0
102.233063 204.0
102.872017 228.0
103.05378 156.0
107.050041 184.0
107.124191 236.0
109.452217 192.0
110.416367 168.0
111.210457 200.0
111.449875 196.0
111.891571 192.0
112.811409 192.0
114.370583 164.0
114.51963 152.0
114.673279 180.0
115.053902 536.0
116.064789 100.0
116.616531 160.0
116.642319 108.0
117.057571 272.0
117.156647 156.0
117.672112 200.0
119.074028 240.0
119.212242 148.0
119.714775 76.0
120.013313 108.0
121.246254 144.0
122.509727 156.0
123.66684 212.0
124.01902 196.0
124.247429 100.0
124.700439 184.0
125.8321 176.0
126.019722 212.0
126.07782 148.0
126.617004 76.0
127.773056 140.0
128.056702 296.0
128.622665 68.0
129.06871 976.0
129.597412 192.0
130.066116 428.0
131.994354 184.0
132.081268 156.0
132.465836 96.0
132.552902 116.0
133.103455 200.0
135.256851 116.0
135.850082 148.0
136.047348 92.0
138.704468 144.0
139.674286 160.0
141.070282 376.0
142.073273 132.0
143.073456 492.0
144.078262 216.0
144.188721 184.0
145.065414 164.0
146.755234 76.0
146.948196 132.0
147.423904 56.0
148.234604 40.0
148.581345 256.0
149.385483 176.0
152.058731 108.0
152.503296 156.0
153.066803 316.0
153.9767 236.0
154.065628 184.0
155.062744 200.0
155.238876 148.0
156.075729 140.0
157.064468 488.0
158.176468 116.0
158.241562 196.0
158.752747 68.0
159.84552 116.0
160.119934 168.0
160.381973 108.0
161.948593 72.0
162.567215 92.0
164.425064 44.0
164.749359 132.0
164.97937 152.0
165.069244 2596.0
165.839478 164.0
165.972794 260.0
166.077621 3248.0
166.129242 72.0
166.696686 48.0
167.082901 328.0
167.115829 36.0
167.226486 92.0
167.641144 124.0
168.048569 72.0
169.382584 48.0
172.855621 248.0
174.361176 224.0
175.762192 56.0
176.224274 48.0
177.073441 216.0
177.211197 160.0
178.077484 812.0
178.131805 140.0
178.179626 28.0
178.80719 180.0
179.047546 488.0
179.085815 1144.0
179.128326 132.0
180.093338 420.0
180.340836 100.0
180.551559 64.0
180.940063 124.0
181.039062 144.0
181.099426 2896.0
181.221298 184.0
181.256134 28.0
181.427673 96.0
181.588562 68.0
181.996475 60.0
182.036758 100.0
182.102631 404.0
182.593063 48.0
184.010498 200.0
187.880783 76.0
190.077927 120.0
190.511749 156.0
190.965317 80.0
191.039581 108.0
191.086349 292.0
191.182663 240.0
193.022705 168.0
193.053116 120.0
193.074066 220.0
193.102249 452.0
194.041107 156.0
195.035522 144.0
195.864746 96.0
196.107162 56.0
200.031601 128.0
201.071701 132.0
202.076706 968.0
202.462708 80.0
203.090988 184.0
204.092102 312.0
204.122879 136.0
205.101654 240.0
207.11821 140.0
208.057419 172.0
210.063293 136.0
210.130386 364.0
211.137787 184.0
214.905563 140.0
215.084564 196.0
216.097687 164.0
216.126938 152.0
216.818054 80.0
217.102203 676.0
217.158157 192.0
217.730484 124.0
218.047791 128.0
218.100479 268.0
219.101257 172.0
219.965332 180.0
220.114899 100.0
220.51474 148.0
221.113434 228.0
222.125565 164.0
228.534149 116.0
232.104538 136.0
232.799454 100.0
234.123001 196.0
234.152832 184.0
235.106689 164.0
235.134567 172.0
241.077408 144.0
252.138382 68.0
253.068665 156.0
254.085831 108.0
257.827393 116.0
260.111145 144.0
270.010376 76.0
273.09021 108.0
288.122528 152.0
290.119293 112.0
295.192688 180.0
300.241058 200.0
302.168579 164.0
314.29715 168.0
334.349884 92.0
338.171265 152.0
338.797455 48.0
387.205017 120.0
395.789581 36.0
403.484802 80.0
467.520081 68.0
562.538147 112.0
739.329285 176.0
766.184937 148.0
781.19928 204.0
783.565369 148.0
792.757385 60.0
817.971497 200.0
848.118774 152.0
849.632324 164.0
856.963989 184.0
876.930298 172.0
886.036682 188.0
941.888794 216.0
944.529541 128.0
952.369507 204.0
954.176208 164.0
957.388306 212.0
984.034668 136.0
986.833862 148.0
990.156738 136.0
997.083313 160.0
1001.771118 228.0
1008.959351 100.0
1010.192566 124.0
1014.613037 64.0
1015.653076 108.0
1026.567261 212.0
1034.771851 68.0
1035.854248 180.0
1045.266724 144.0
1046.708618 212.0
1047.249634 164.0
1056.855957 200.0
1059.173706 248.0
1080.978638 80.0
1098.528442 216.0
1108.12146 168.0
1109.274658 184.0
1112.578491 184.0
1113.249023 120.0
1120.559448 184.0
1124.360474 92.0
1129.331543 172.0
1131.687134 232.0
1135.694824 68.0
1148.866333 56.0
1152.464966 172.0
1157.206421 188.0
1159.848633 144.0
1160.255371 144.0
1162.011963 112.0
1162.412354 136.0
1166.779785 140.0
1170.481323 200.0
1174.168213 208.0
1176.303955 36.0
1196.418091 108.0
1198.312134 180.0
1202.670654 76.0
1202.718872 64.0
1202.787964 116.0
1203.996216 172.0
1209.832275 84.0
1212.298218 80.0
1212.471436 72.0
1215.515869 180.0
1215.703247 236.0
1223.620605 80.0
1238.460571 160.0
1245.566284 104.0
1256.005615 68.0
1256.49939 44.0
1258.630981 156.0
1279.163696 128.0
1287.770386 132.0
1290.478882 52.0
1291.873535 120.0
1296.75 140.0
1307.379639 136.0
1309.964478 84.0
1313.821411 128.0
1314.362549 120.0
1315.79895 220.0
1316.535522 108.0
1317.691284 176.0
1331.505615 108.0
1333.489136 156.0
1335.023071 164.0
1345.070679 152.0
1347.10083 136.0
1349.242065 168.0
1357.875732 176.0
1358.015015 160.0
1360.062256 32.0
1361.758423 248.0
1373.889771 164.0
1383.09021 208.0
1393.160767 272.0
1408.730835 232.0
1411.197266 96.0
1428.890747 152.0
1429.507812 236.0
1430.245361 160.0
1435.067017 108.0
1437.692139 180.0
1438.816895 192.0
1445.120361 152.0
1445.71814 208.0
1446.762695 160.0
1449.534912 140.0
1450.800781 156.0
1454.464844 128.0
1456.3479 144.0
1461.061157 216.0
1476.813965 168.0
1482.188354 176.0
1488.501587 136.0
