>compound Betapar
>formula C22H28O5 
>ionization [M+H]+
>parentmass 373.2009504480905
#inchi InChI=1S/C22H28O5/c1-12-8-16-15-5-4-13-9-14(24)6-7-20(13,2)19(15)17(25)10-21(16,3)22(12,27)18(26)11-23/h6-7,9,12,15-16,19,23,27H,4-5,8,10-11H2,1-3H3/t12-,15-,16?,19?,20-,21-,22-/m0/s1
#inchikey PIDANAQULIKBQS
#Ion_Source LC-ESI
#Instrument qTof
#Compound_Source Isolated
#PI Sirenas
#Data_Collector Ed Esquenazi 
#Scan -1
#Precursor_MZ 373.164
#ExactMass 0.0
#Charge 1
#CAS_Number N/A
#Pubmed_ID N/A
#Smiles N/A
#INCHI_AUX N/A
#Library_Class 3
#SpectrumID CCMSLIB00000005656
#IonMode Positive
#UpdateWorkflowName UPDATE-SINGLE-ANNOTATED-BRONZE
#LibraryQualityString Bronze
#TaskID d19310cd93df49b68e9fcbec27720eb5
##Scan# 2
#SpectrumFile Betapar.mgf
#LibraryName fda_library.mgf
#MQScore -1
#Organism fda_library
#TIC_Query 0
#RT_Query -1
#MZErrorPPM -1
#SharedPeaks 0
#MassDiff 0
#LibMZ -1
#SpecMZ 373.164
#SpecCharge 0
#internalFilename spec-00000.mgf

>collision 10
113.022331 41.52446
119.145905 14.8025
121.062294 80.598473
123.04451 138.992493
123.597458 21.025
135.36171 19.69141
137.282974 15.4
145.062881 18.0625
147.078125 324.964203
147.480911 15.70673
149.060471 35.555679
149.090805 86.516197
151.072403 82.680763
159.078384 33.32
161.098068 101.010902
165.050507 154.248596
167.068008 56.96941
171.078461 37.635139
173.675842 15.64881
175.07283 96.009087
179.071152 64.026176
186.156418 28.50305
187.075012 85.51223
197.098633 33.025002
197.788147 22.148809
199.109406 97.578239
199.663712 13.8288
201.132797 46.24332
203.100418 25.840281
210.098007 59.132809
212.113068 109.135803
225.126755 107.313599
226.059708 28.140369
227.371857 27.44907
237.123459 110.026901
248.120255 63.9328
249.090225 82.822472
249.124237 77.788933
253.158142 18.98214
255.128616 92.623459
259.071869 63.681599
260.123901 22.533331
263.137756 66.816833
264.143677 65.382347
265.120605 69.477943
265.154449 49.863319
267.129822 57.969231
273.126709 45.13921
274.110504 34.74794
277.114502 57.060139
281.15564 62.256359
282.15683 42.029411
291.139893 154.349899
293.150177 44.54546
299.16275 46.64003
301.106445 22.5625
309.143799 210.585495
310.389313 60.612671
319.132599 26.235291
325.412964 26.793631
327.160889 160.875
327.397125 11.28125
337.14505 57.33654
355.149994 154.958603
356.710632 18.910231
