>compound Phenylbutazone (Butazolidin, Butatron)
>formula C19H20N2O2
>ionization [M+H]+
>parentmass 309.160614
#inchi InChI=1S/C19H20N2O2/c1-2-3-14-17-18(22)20(15-10-6-4-7-11-15)21(19(17)23)16-12-8-5-9-13-16/h4-13,17H,2-3,14H2,1H3
#inchikey VYMDGNCVAMGZFE
#Ion_Source LC-ESI
#Instrument qTof
#Compound_Source Commercial
#PI Dorrestein
#Data_Collector Garg_Neha
#Scan -1
#Precursor_MZ 309.16
#ExactMass 308.152
#Charge 1
#CAS_Number 50-33-9
#Pubmed_ID N/A
#Smiles N1(N(C(C(C1=O)CCCC)=O)C2=CC=CC=C2)C3=CC=CC=C3
#INCHI_AUX N/A
#Library_Class 1
#SpectrumID CCMSLIB00000078226
#IonMode Positive
#UpdateWorkflowName UPDATE-SINGLE-ANNOTATED-GOLD
#LibraryQualityString Gold
#TaskID 77f51c88eb8b467eb4a01dd2d0cb90d2
##Scan# 2036
#SpectrumFile Plate3_61_88_GH1_01_16501.mzXML
#LibraryName FDALibrary_2_04302014.mgf
#MQScore -1
#Organism FDALibrary_2_04302014
#TIC_Query 0
#RT_Query -1
#MZErrorPPM -1
#SharedPeaks 0
#MassDiff 0
#LibMZ -1
#SpecMZ 309.16
#SpecCharge 0
#internalFilename spec-00000.mgf

>collision 10
44.960911 168.0
45.521824 140.0
47.429443 156.0
48.006882 140.0
48.862896 212.0
49.01466 212.0
51.473461 148.0
51.819603 164.0
54.154892 180.0
57.381332 168.0
59.103748 160.0
60.122566 184.0
60.724388 148.0
61.636646 208.0
66.708977 160.0
67.158386 172.0
69.909859 172.0
72.663963 200.0
73.673515 168.0
76.460045 180.0
77.224213 172.0
79.036201 180.0
79.624741 232.0
82.743134 176.0
90.720581 188.0
91.052635 144.0
91.958878 156.0
92.048096 336.0
93.03154 208.0
93.056206 216.0
93.211334 244.0
93.732803 176.0
94.043961 184.0
94.068863 440.0
94.694862 164.0
95.065147 344.0
95.946251 148.0
96.164726 240.0
96.524185 192.0
97.115616 204.0
97.229408 140.0
98.234848 168.0
99.078972 160.0
102.165428 212.0
102.284149 236.0
103.157593 144.0
104.053017 200.0
104.384209 144.0
104.636505 164.0
105.219589 160.0
106.066956 708.0
107.681671 140.0
108.043404 152.0
108.835121 164.0
109.177994 168.0
109.356911 172.0
109.811111 248.0
110.780983 152.0
113.886032 184.0
114.277176 156.0
114.809708 152.0
117.06414 168.0
117.417572 156.0
118.0653 160.0
118.838776 144.0
119.079727 164.0
119.516678 164.0
120.04422 2336.0
120.07653 156.0
120.373322 196.0
121.047211 340.0
121.081856 184.0
123.376862 236.0
124.04319 188.0
125.058281 180.0
128.053467 144.0
128.387589 184.0
128.638031 204.0
129.230133 156.0
130.067184 188.0
131.072418 184.0
131.169571 152.0
131.895447 160.0
131.9366 164.0
132.045853 828.0
132.078568 232.0
133.049377 636.0
133.500336 164.0
133.721191 164.0
133.965271 156.0
134.062042 128.0
134.102646 236.0
137.247055 172.0
137.896027 140.0
138.052673 140.0
138.295975 184.0
138.544189 192.0
141.305771 168.0
142.514954 248.0
144.078064 152.0
145.52684 144.0
145.567657 144.0
146.059891 640.0
146.085083 196.0
146.332275 140.0
147.065384 156.0
148.077087 344.0
148.111664 328.0
149.252686 176.0
160.115631 1216.0
161.115158 488.0
161.976868 172.0
162.053696 164.0
162.127136 1456.0
163.055206 152.0
163.12767 136.0
164.573425 172.0
164.703674 192.0
166.075607 208.0
166.309097 140.0
167.069702 212.0
167.839783 164.0
168.082245 144.0
168.779663 192.0
169.087509 184.0
170.246338 152.0
172.113403 160.0
172.155182 256.0
173.083496 160.0
174.053619 312.0
174.08519 196.0
175.748779 152.0
176.678772 140.0
178.078354 144.0
179.156235 144.0
179.230255 144.0
181.344101 212.0
182.081833 356.0
183.089142 184.0
183.9991 196.0
184.078323 152.0
184.099075 152.0
185.091415 192.0
186.097366 144.0
186.434189 164.0
187.751801 156.0
188.106674 2924.0
189.109833 456.0
190.12262 3420.0
191.126419 820.0
192.133804 156.0
193.990692 220.0
194.063522 132.0
195.084427 180.0
196.471268 204.0
196.596832 144.0
197.966629 156.0
200.108047 320.0
201.101318 224.0
203.433731 160.0
206.119492 140.0
206.285248 200.0
207.09462 272.0
207.367218 272.0
207.430267 180.0
208.081482 172.0
208.156128 216.0
209.099045 204.0
211.087265 3792.0
212.013046 140.0
212.090836 804.0
213.082977 180.0
213.106995 148.0
216.102524 956.0
217.106064 320.0
217.126602 188.0
219.570541 228.0
222.090439 172.0
222.832581 184.0
223.120865 160.0
224.095215 156.0
225.111206 200.0
228.934677 148.0
231.115234 188.0
231.601486 152.0
236.078445 192.0
243.074356 172.0
244.354492 164.0
246.737213 176.0
248.726425 164.0
251.004181 156.0
252.094284 156.0
253.100952 308.0
253.16246 304.0
253.663055 148.0
254.11174 112.0
257.870972 204.0
260.893677 140.0
262.877716 236.0
263.155548 760.0
265.176178 184.0
269.953033 140.0
275.302979 164.0
276.42691 164.0
276.671844 204.0
278.253235 156.0
281.162994 296.0
281.195831 204.0
282.639496 180.0
291.149353 476.0
292.153656 148.0
297.155731 164.0
304.470276 208.0
305.767029 144.0
307.115387 160.0
307.18222 172.0
307.694641 160.0
308.150421 224.0
308.193909 140.0
308.265656 124.0
308.309418 160.0
308.340088 180.0
308.578552 180.0
309.082397 156.0
309.160614 22528.0
310.162323 4408.0
311.165283 556.0
311.241425 140.0
312.219513 104.0
313.19281 136.0
1181.442261 144.0
1209.200195 148.0
1346.989258 172.0
1371.836182 176.0
1514.954468 220.0
1524.101562 224.0
1532.068481 212.0
1605.462646 160.0
1664.993652 180.0
1697.095947 144.0
1715.247925 188.0
1717.333984 232.0
1732.99939 148.0
1772.60376 172.0
1785.901855 176.0
1836.536377 184.0
1836.988525 172.0
1843.596924 164.0
1854.114624 220.0
1878.050537 172.0
1879.077026 280.0
1883.263672 156.0
1889.504883 140.0
1901.4021 180.0
1904.188965 156.0
1911.909058 212.0
1922.183228 148.0
1956.127441 204.0
1969.936768 184.0
1975.75354 204.0
1993.984375 144.0
2001.456787 188.0
