>compound MLS001333711-01!
>formula C22H28N4O6
>ionization [M+H]+
>parentmass 445.207336
#inchi InChI=1S/C22H28N4O6/c27-11-9-23-5-7-25-13-1-2-14(26-8-6-24-10-12-28)18-17(13)21(31)19-15(29)3-4-16(30)20(19)22(18)32/h1-4,23-30H,5-12H2
#inchikey KKZJGLLVHKMTCM
#origInchi InChI=1S/C22H28N4O6.ClH/c27-11-9-23-5-7-25-13-1-2-14(26-8-6-24-10-12-28)18-17(13)21(31)19-15(29)3-4-16(30)20(19)22(18)32;/h1-4,23-30H,5-12H2;1H
#Ion_Source LC-ESI
#Instrument qTof
#Compound_Source NIH Pharmacologically Active Library
#PI Dorrestein
#Data_Collector VP/LMS
#Scan -1
#Precursor_MZ 445.212
#ExactMass 444.201
#Charge 1
#CAS_Number N/A
#Pubmed_ID N/A
#Smiles OCCNCCNc1ccc(NCCNCCO)c2C(=O)c3c(O)ccc(O)c3C(=O)c12.Cl
#INCHI_AUX N/A
#Library_Class 1
#SpectrumID CCMSLIB00000085101
#IonMode Positive
#UpdateWorkflowName UPDATE-SINGLE-ANNOTATED-GOLD
#LibraryQualityString Gold
#TaskID d252d724072548979f1f6f1ced849daf
##Scan# 1312
#SpectrumFile p3-E10_GE10_01_18279.mzXML
#LibraryName Pharm_Active_Library.mgf
#MQScore -1
#Organism Pharm_Active_Library
#TIC_Query 0
#RT_Query -1
#MZErrorPPM -1
#SharedPeaks 0
#MassDiff 0
#LibMZ -1
#SpecMZ 445.212
#SpecCharge 0
#internalFilename spec-00000.mgf

>collision 10
44.979309 124.0
51.226898 112.0
51.970375 140.0
52.727879 208.0
53.05938 88.0
53.82037 136.0
53.915325 148.0
53.95187 120.0
54.045479 188.0
55.532005 108.0
56.015114 216.0
58.221813 104.0
58.635651 148.0
60.250008 140.0
61.126083 64.0
62.515778 116.0
63.859039 136.0
64.13929 148.0
65.667427 68.0
66.10202 116.0
68.222511 192.0
69.537422 160.0
71.910912 136.0
71.998711 216.0
72.954399 132.0
73.702637 76.0
79.497337 132.0
80.023506 172.0
80.26049 144.0
81.081047 224.0
81.608826 112.0
82.107658 204.0
83.191551 260.0
83.213333 108.0
85.474472 180.0
85.572029 120.0
85.839211 124.0
85.988647 176.0
86.282364 136.0
87.222275 176.0
87.546021 160.0
88.025299 60.0
88.074272 196.0
88.62764 148.0
88.974632 52.0
90.748199 112.0
91.230446 144.0
92.587151 148.0
92.792191 200.0
93.235619 176.0
94.527733 188.0
94.794975 204.0
95.351967 168.0
97.647385 144.0
98.801376 132.0
99.173676 128.0
99.548653 44.0
100.07959 36.0
100.552055 152.0
100.867653 208.0
100.973633 84.0
101.125694 212.0
101.341972 164.0
103.774872 140.0
103.920914 92.0
104.069084 212.0
105.487091 172.0
107.702324 252.0
107.908981 192.0
108.81234 188.0
109.965614 108.0
110.362541 100.0
110.72039 224.0
110.781136 116.0
110.823036 40.0
112.678818 164.0
113.570068 172.0
115.874588 204.0
116.02462 160.0
118.693993 216.0
118.741699 44.0
120.055328 160.0
120.426361 280.0
120.585861 172.0
122.580818 88.0
124.157082 196.0
124.843323 40.0
125.846092 64.0
125.919792 84.0
126.404922 144.0
126.597443 160.0
127.014336 148.0
127.580238 120.0
128.172195 164.0
128.451767 100.0
128.562317 220.0
128.632294 84.0
129.043472 136.0
130.28775 160.0
131.284744 76.0
131.519745 116.0
132.070435 200.0
134.044907 228.0
134.367722 92.0
134.762543 168.0
134.998322 88.0
138.168793 172.0
138.951324 172.0
139.69371 144.0
140.44516 196.0
140.914948 160.0
141.518097 196.0
142.982788 60.0
143.004211 112.0
144.084961 172.0
144.46698 176.0
144.799698 64.0
145.497513 116.0
146.091125 132.0
146.835434 132.0
147.182953 120.0
147.332703 140.0
147.678391 200.0
148.649902 188.0
148.890244 172.0
149.843811 88.0
150.128998 120.0
150.602493 88.0
151.610519 112.0
151.956284 152.0
153.050064 164.0
153.350616 184.0
153.865173 148.0
153.927917 136.0
154.409836 128.0
154.521149 64.0
155.239502 100.0
157.07756 156.0
158.092575 204.0
158.648041 212.0
159.064484 168.0
159.210114 88.0
159.353287 224.0
159.702728 144.0
160.06514 216.0
160.095352 168.0
161.068192 192.0
161.939072 120.0
161.961868 248.0
162.037857 96.0
162.468872 60.0
163.986984 184.0
164.504807 160.0
165.054123 164.0
166.081116 120.0
166.951797 84.0
167.420197 264.0
167.453674 224.0
168.286636 144.0
168.519089 184.0
170.010651 160.0
170.05217 128.0
170.394958 160.0
173.131317 116.0
173.409027 120.0
174.543152 228.0
174.893066 200.0
175.069473 160.0
175.124771 136.0
175.475266 144.0
178.068634 228.0
178.398132 184.0
179.508438 168.0
179.879303 204.0
180.766663 156.0
181.299576 144.0
184.06778 200.0
185.070984 160.0
185.924896 172.0
186.085052 108.0
187.110062 48.0
187.235321 152.0
187.818604 120.0
190.064758 212.0
191.018127 116.0
192.318741 48.0
192.39328 104.0
193.081329 144.0
193.684723 164.0
194.075485 104.0
196.699051 172.0
199.680405 64.0
199.882965 76.0
201.48732 136.0
202.064087 180.0
202.111267 136.0
202.225388 80.0
204.083572 184.0
204.37085 164.0
204.803589 116.0
205.068573 148.0
205.987381 116.0
206.055954 116.0
207.054291 184.0
207.446838 200.0
208.078506 208.0
208.842407 120.0
209.084091 240.0
209.32016 188.0
210.961884 184.0
211.045731 208.0
213.147278 128.0
213.32457 136.0
213.685196 172.0
215.56012 132.0
215.902145 128.0
219.222519 172.0
220.075012 176.0
221.003143 144.0
221.072723 124.0
221.157028 156.0
221.761276 144.0
221.906525 192.0
223.094498 208.0
223.412308 148.0
224.073257 120.0
224.22821 100.0
225.05455 136.0
225.098526 312.0
225.744827 180.0
226.053696 160.0
226.517029 76.0
227.050568 148.0
227.716858 72.0
228.083679 192.0
228.543579 72.0
228.814468 124.0
228.84758 136.0
229.091537 124.0
229.760818 188.0
230.080734 120.0
231.089996 176.0
232.0746 228.0
232.198929 148.0
233.240402 164.0
233.806137 52.0
235.046448 140.0
235.070862 128.0
236.064972 200.0
237.073822 116.0
237.478622 152.0
237.512375 176.0
237.699524 124.0
238.070969 280.0
239.055405 180.0
239.310211 192.0
239.883255 212.0
240.057266 140.0
240.336624 124.0
241.059128 308.0
241.09938 324.0
242.0522 128.0
244.685257 76.0
244.831619 172.0
246.831985 44.0
247.097855 192.0
247.880661 88.0
248.018555 84.0
248.075348 136.0
249.068283 240.0
249.101166 280.0
249.2771 140.0
250.047607 128.0
250.10112 124.0
250.129456 60.0
250.510483 192.0
251.060837 152.0
251.081573 140.0
251.740601 60.0
252.06282 160.0
252.467453 36.0
252.619278 128.0
252.730011 164.0
253.064819 256.0
254.060013 192.0
254.546341 40.0
255.074524 692.0
255.439453 76.0
255.665359 80.0
255.786316 64.0
255.830887 188.0
255.862717 48.0
256.002808 60.0
256.059998 308.0
256.184387 200.0
256.264038 148.0
256.365997 76.0
256.503052 152.0
257.08194 136.0
257.246338 152.0
257.642334 160.0
258.121765 108.0
258.304077 172.0
258.451233 144.0
259.086182 180.0
260.053619 144.0
260.079285 156.0
260.647766 100.0
261.083679 80.0
261.113892 192.0
261.416321 172.0
262.295593 156.0
263.063354 56.0
263.087402 204.0
263.573669 132.0
263.858093 92.0
264.06601 196.0
264.100616 56.0
264.582794 112.0
264.990875 172.0
265.061493 408.0
265.094391 128.0
265.577667 128.0
265.775543 140.0
266.078156 748.0
266.187805 72.0
266.291748 144.0
266.499634 76.0
266.66864 28.0
267.072815 1488.0
267.585999 140.0
268.065979 216.0
268.292969 92.0
268.854034 76.0
268.968262 128.0
269.057953 244.0
269.094696 136.0
269.817627 132.0
270.069855 552.0
270.265717 48.0
270.318085 108.0
270.439178 52.0
270.920563 156.0
271.035217 144.0
271.070251 500.0
271.782837 40.0
272.07196 220.0
272.226013 96.0
272.75827 204.0
272.781281 144.0
273.126556 120.0
274.022003 96.0
275.076721 324.0
276.075287 196.0
277.066071 428.0
277.090973 256.0
277.313416 172.0
277.359833 44.0
278.03476 152.0
278.076477 416.0
278.149292 76.0
279.02301 64.0
279.075287 1080.0
279.215881 52.0
280.059906 1228.0
280.164551 132.0
280.421143 108.0
281.061859 720.0
281.164215 136.0
282.072296 180.0
282.17038 152.0
282.357635 92.0
282.73233 36.0
282.859528 108.0
283.071869 4780.0
283.20108 96.0
283.338409 64.0
283.369781 64.0
283.499268 84.0
283.536133 32.0
283.579712 112.0
283.640045 60.0
283.811005 52.0
283.871368 220.0
283.982056 184.0
284.032379 144.0
284.076263 2220.0
284.143066 88.0
284.183319 120.0
284.247101 80.0
284.294067 136.0
284.649902 44.0
284.925354 132.0
285.082245 768.0
285.217712 152.0
285.749054 64.0
285.806244 36.0
286.088379 732.0
286.469513 180.0
286.759308 108.0
287.075378 240.0
287.109955 108.0
288.058411 216.0
288.085754 124.0
288.33548 64.0
288.555206 60.0
289.062592 116.0
289.512848 164.0
289.550079 52.0
290.071747 224.0
290.665436 64.0
291.052399 184.0
291.077789 120.0
292.048157 108.0
292.075378 180.0
292.466705 108.0
292.653931 84.0
292.790161 116.0
293.093109 744.0
293.171722 44.0
293.243286 208.0
294.066895 132.0
294.649231 32.0
294.73465 96.0
294.929443 120.0
295.070862 1080.0
295.110718 188.0
295.634003 104.0
295.791443 60.0
295.921539 60.0
296.076019 836.0
296.129669 124.0
296.634155 40.0
297.03537 72.0
297.084747 5664.0
297.137756 204.0
297.440277 64.0
297.526093 72.0
297.598206 40.0
297.697784 56.0
298.089142 1744.0
298.332458 84.0
298.608521 88.0
298.938812 112.0
299.004211 44.0
299.088257 748.0
299.351898 88.0
299.679138 52.0
299.765289 52.0
300.589478 64.0
300.955383 60.0
301.166046 168.0
302.441956 40.0
303.300995 52.0
304.011993 104.0
304.093445 120.0
304.140411 104.0
305.053833 156.0
305.090179 1724.0
305.387848 56.0
306.097198 572.0
306.150055 184.0
306.595978 32.0
307.09259 208.0
307.834442 104.0
307.988098 44.0
308.078949 372.0
309.094177 500.0
310.087585 172.0
310.823944 156.0
310.894135 92.0
311.098816 976.0
312.104095 500.0
313.211182 136.0
314.113586 140.0
314.593506 64.0
314.858337 148.0
315.103516 164.0
315.625183 160.0
318.947174 52.0
322.095062 708.0
322.140076 208.0
322.186493 32.0
322.390167 120.0
322.486664 64.0
323.100739 3932.0
323.141968 408.0
323.242371 160.0
323.33075 132.0
323.362976 148.0
323.48468 52.0
323.549103 96.0
323.792603 36.0
323.835602 40.0
324.103058 1144.0
324.147278 172.0
325.099426 192.0
325.201691 72.0
325.399109 132.0
325.977417 96.0
326.221832 72.0
328.292206 196.0
338.111938 656.0
338.354004 56.0
340.111481 204.0
341.125031 144.0
342.118347 212.0
343.53595 168.0
345.316376 60.0
348.467377 112.0
350.117523 208.0
351.121552 148.0
351.38266 148.0
352.59256 160.0
356.069397 52.0
356.118744 1460.0
356.328583 64.0
357.128815 280.0
357.18573 40.0
358.137421 2532.0
358.202118 232.0
358.232239 52.0
358.888031 104.0
358.974762 32.0
359.008698 52.0
359.143066 1056.0
359.268951 60.0
360.144745 224.0
360.998901 68.0
361.051849 76.0
361.286377 96.0
361.520966 140.0
363.874908 104.0
366.148438 288.0
370.144592 196.0
372.148926 136.0
373.159454 248.0
383.737518 176.0
384.155365 984.0
384.595764 52.0
384.779236 52.0
385.159698 132.0
385.458893 64.0
386.146942 168.0
386.377747 68.0
387.473999 88.0
396.898346 112.0
415.06424 68.0
416.224792 168.0
421.140442 72.0
427.18457 280.0
431.178162 36.0
433.400421 56.0
433.665649 84.0
433.94754 28.0
443.494324 52.0
445.207336 1108.0
446.213959 452.0
446.647797 36.0
447.140076 32.0
447.210876 200.0
448.235016 64.0
449.192108 164.0
450.648621 76.0
452.861145 76.0
457.2258 80.0
460.303802 68.0
472.108978 28.0
473.227051 104.0
487.26123 112.0
489.997833 96.0
515.993469 132.0
525.842041 112.0
529.299622 156.0
536.756226 64.0
542.109375 36.0
572.369324 104.0
572.40741 56.0
607.957642 104.0
646.171509 92.0
653.732178 116.0
665.679321 96.0
739.200867 92.0
842.130859 60.0
913.806946 236.0
942.83606 44.0
1009.351135 180.0
1012.407715 76.0
1014.054993 40.0
1015.950989 44.0
1099.213867 44.0
1165.555176 84.0
1167.071045 84.0
1272.940674 172.0
1277.688721 40.0
1293.710938 72.0
1301.324951 84.0
1408.130737 104.0
