>compound MLS001165746-01!ramipril
>formula C23H32N2O5
>ionization [M+H]+
>parentmass 417.2383985760905
#inchi InChI=1S/C23H32N2O5/c1-3-30-23(29)18(13-12-16-8-5-4-6-9-16)24-15(2)21(26)25-19-11-7-10-17(19)14-20(25)22(27)28/h4-6,8-9,15,17-20,24H,3,7,10-14H2,1-2H3,(H,27,28)/t15-,17+,18-,19+,20+/m1/s1
#inchikey HDACQVRGBOVJII
#Ion_Source LC-ESI
#Instrument qTof
#Compound_Source NIH Pharmacologically Active Library
#PI Dorrestein
#Data_Collector VP/LMS
#Scan -1
#Precursor_MZ 417.234
#ExactMass 416.231
#Charge 1
#CAS_Number N/A
#Pubmed_ID N/A
#Smiles CCOC(=O)[C@@H](CCc1ccccc1)N[C@H](C)C(=O)N2[C@@H](C[C@@H]3CCC[C@@H]32)C(=O)O
#INCHI_AUX N/A
#Library_Class 1
#SpectrumID CCMSLIB00000085269
#IonMode Positive
#UpdateWorkflowName UPDATE-SINGLE-ANNOTATED-GOLD
#LibraryQualityString Gold
#TaskID d252d724072548979f1f6f1ced849daf
##Scan# 1707
#SpectrumFile p3-G08_GG8_01_18301.mzXML
#LibraryName Pharm_Active_Library.mgf
#MQScore -1
#Organism Pharm_Active_Library
#TIC_Query 0
#RT_Query -1
#MZErrorPPM -1
#SharedPeaks 0
#MassDiff 0
#LibMZ -1
#SpecMZ 417.234
#SpecCharge 0
#internalFilename spec-00000.mgf

>collision 10
45.293652 64.0
45.351273 176.0
45.459915 144.0
45.50153 108.0
45.567341 172.0
45.595562 148.0
45.800091 160.0
46.331017 208.0
47.359577 176.0
47.775539 124.0
48.124252 160.0
48.218193 72.0
48.229252 164.0
48.632347 136.0
48.662891 188.0
49.51638 184.0
49.735123 148.0
50.147266 196.0
50.429573 184.0
50.699913 156.0
50.746696 156.0
50.863033 104.0
51.523846 148.0
51.871616 252.0
51.90316 156.0
51.974884 208.0
52.086876 200.0
52.147228 148.0
52.510075 192.0
52.57933 204.0
52.784481 160.0
52.955261 144.0
53.092957 124.0
53.852737 152.0
53.994518 112.0
54.013531 172.0
54.541447 152.0
55.102955 208.0
55.117729 216.0
55.188686 160.0
55.400341 116.0
56.632336 128.0
57.051025 152.0
57.294838 56.0
57.856682 80.0
58.412136 112.0
59.035988 188.0
59.264084 172.0
59.452709 148.0
59.621651 80.0
59.983376 60.0
60.36475 92.0
60.448288 48.0
60.851322 248.0
61.20118 68.0
61.381943 148.0
61.519249 148.0
61.734882 64.0
62.826595 108.0
62.900768 176.0
63.47036 160.0
63.616333 156.0
63.708443 124.0
64.098274 208.0
64.265709 156.0
64.546852 224.0
64.908768 128.0
65.762749 96.0
65.94561 80.0
66.525543 220.0
66.652229 168.0
66.704239 216.0
66.832733 176.0
67.586617 172.0
67.609528 204.0
67.625893 168.0
67.643898 236.0
68.400688 176.0
68.478081 100.0
68.647842 144.0
69.571159 152.0
69.760551 204.0
69.871979 184.0
70.156776 208.0
70.273529 204.0
70.525711 224.0
70.579208 104.0
71.591148 192.0
71.879425 104.0
72.004356 176.0
72.139542 136.0
72.778297 92.0
72.822449 232.0
72.989006 140.0
73.13192 140.0
73.693001 196.0
74.175636 60.0
74.613426 192.0
74.680489 96.0
74.771332 136.0
75.036972 168.0
76.41571 184.0
76.568901 224.0
76.84259 180.0
76.89669 124.0
77.13076 140.0
77.335419 156.0
77.961571 276.0
78.111031 204.0
79.350838 92.0
80.074562 160.0
80.232712 152.0
80.280853 144.0
81.076439 148.0
81.219879 172.0
81.424507 96.0
82.045334 152.0
83.056252 80.0
83.974838 140.0
84.239525 268.0
84.424141 260.0
84.654732 168.0
84.757324 192.0
85.058113 212.0
85.219734 224.0
85.587616 192.0
85.771858 124.0
85.948914 216.0
86.183426 136.0
86.709007 192.0
86.922287 140.0
86.990959 68.0
88.118851 228.0
88.155113 140.0
88.636055 176.0
88.876076 180.0
89.122063 88.0
89.332642 208.0
89.852631 196.0
90.08107 120.0
90.188782 120.0
91.053947 1408.0
91.132591 148.0
91.1763 76.0
91.316994 48.0
91.332214 152.0
91.381676 220.0
91.94384 160.0
92.058266 228.0
92.291527 148.0
92.477104 172.0
92.651367 128.0
92.749687 220.0
93.300072 180.0
93.477036 216.0
93.729301 44.0
93.773628 124.0
93.881599 88.0
93.991554 156.0
94.287033 256.0
94.856117 180.0
94.885193 152.0
94.935608 172.0
95.092766 168.0
95.193726 176.0
95.391907 104.0
95.625336 144.0
96.239433 108.0
96.309738 64.0
96.724297 236.0
96.804573 200.0
96.927994 120.0
97.412621 116.0
97.729164 176.0
97.874825 128.0
98.715485 248.0
98.929176 136.0
99.657074 96.0
100.044922 132.0
100.956818 48.0
101.263039 172.0
101.664024 184.0
101.941162 144.0
102.027596 120.0
102.054283 824.0
102.178444 48.0
102.462326 160.0
102.484489 164.0
102.58728 184.0
102.956543 180.0
102.972702 164.0
103.058594 340.0
104.092674 224.0
104.395477 128.0
104.888206 44.0
105.037071 212.0
105.066391 404.0
105.576302 188.0
106.186638 124.0
106.49929 160.0
106.866631 216.0
107.03688 220.0
107.270302 208.0
107.286797 132.0
107.5364 136.0
107.7677 112.0
107.856567 164.0
108.077866 164.0
108.492111 204.0
108.689156 188.0
109.011917 188.0
109.458298 200.0
109.472878 160.0
109.839714 180.0
110.052322 136.0
110.095581 612.0
110.155602 200.0
110.328392 100.0
110.37648 124.0
110.943909 148.0
111.102806 292.0
111.506477 124.0
111.923027 92.0
112.306602 136.0
112.826096 168.0
113.546074 48.0
113.90905 200.0
114.867004 40.0
115.053276 412.0
115.428734 128.0
116.058296 196.0
116.144081 172.0
116.764999 264.0
116.870255 144.0
116.995888 188.0
117.014038 464.0
117.069344 13084.0
117.104912 68.0
117.13076 104.0
117.175484 132.0
117.193237 164.0
117.260048 64.0
117.352745 88.0
117.387245 128.0
117.500732 236.0
117.557671 52.0
117.644012 192.0
117.976715 48.0
118.071938 1220.0
118.526489 88.0
118.692917 196.0
118.877792 136.0
119.081924 184.0
119.577614 56.0
119.762695 220.0
119.854195 212.0
120.449821 152.0
122.014587 172.0
122.069557 180.0
122.333595 52.0
122.981682 40.0
123.024452 480.0
123.410278 184.0
124.20314 224.0
124.247505 124.0
125.850067 56.0
125.948334 204.0
126.133804 152.0
126.874817 196.0
127.449409 220.0
127.91272 40.0
128.064087 164.0
129.55423 156.0
129.892303 180.0
130.028458 188.0
130.086288 5540.0
130.119263 196.0
130.228256 56.0
130.300949 52.0
130.667007 84.0
130.692047 32.0
130.760315 44.0
130.794449 96.0
130.810394 164.0
131.088181 488.0
131.355042 168.0
131.574127 36.0
131.692871 60.0
131.989975 124.0
132.089554 200.0
132.782379 192.0
132.860367 60.0
133.078415 172.0
134.069885 184.0
134.095673 3420.0
134.132111 128.0
134.166687 180.0
134.819946 132.0
135.097244 664.0
135.148315 84.0
135.201553 180.0
135.734375 72.0
135.922272 172.0
136.269394 120.0
136.435593 160.0
137.078033 192.0
137.126968 108.0
138.090088 356.0
138.212936 216.0
138.325272 160.0
139.691071 84.0
140.074783 136.0
140.553406 188.0
140.995026 160.0
141.231461 144.0
142.077179 136.0
142.875458 152.0
143.082199 304.0
143.23494 228.0
144.08075 336.0
144.165482 60.0
144.454788 92.0
145.079849 160.0
146.220856 72.0
146.536331 180.0
147.074127 148.0
147.165863 184.0
148.084839 136.0
150.019135 216.0
150.03894 920.0
150.138611 156.0
151.052139 136.0
151.211197 88.0
154.083466 80.0
154.105698 36.0
156.101288 2084.0
156.133499 172.0
156.735962 76.0
157.052582 148.0
157.109772 584.0
158.284729 180.0
158.545273 108.0
159.029327 52.0
159.142303 164.0
159.813736 148.0
159.846146 156.0
159.935699 144.0
159.997162 104.0
160.042496 320.0
160.111603 7508.0
160.173447 44.0
160.212875 68.0
160.264145 32.0
160.304474 68.0
160.44899 48.0
160.531357 108.0
160.634766 92.0
160.760925 172.0
160.783646 68.0
160.854324 160.0
161.026031 64.0
161.11412 1608.0
161.240784 40.0
161.288803 88.0
161.331787 204.0
161.435455 168.0
161.78717 80.0
162.083511 84.0
162.126129 220.0
162.146881 84.0
162.182358 44.0
163.078384 64.0
163.480225 104.0
165.076004 216.0
165.294678 80.0
166.073532 92.0
167.992554 196.0
170.135422 36.0
170.228897 208.0
171.079147 188.0
171.102585 140.0
174.233246 192.0
178.036362 284.0
178.095505 100.0
178.12355 204.0
178.863983 204.0
179.394119 60.0
179.546097 216.0
179.714172 164.0
180.027039 176.0
180.882095 132.0
182.115585 104.0
182.72583 184.0
182.924988 176.0
183.046143 136.0
183.253555 76.0
184.038483 64.0
184.122192 176.0
186.479401 188.0
188.109512 288.0
188.310394 132.0
189.314148 52.0
190.903122 132.0
190.941635 96.0
191.026901 152.0
191.057159 144.0
192.098541 180.0
193.782257 204.0
197.96907 160.0
198.591278 112.0
199.065598 124.0
199.617569 220.0
202.112915 208.0
204.280563 144.0
204.462677 304.0
205.297424 152.0
206.117004 804.0
206.147034 492.0
207.124512 184.0
207.470581 80.0
208.6362 188.0
209.594666 144.0
210.684937 148.0
210.78067 84.0
210.80957 68.0
210.850037 88.0
211.526886 80.0
214.428711 68.0
214.516159 136.0
215.578598 56.0
217.230011 116.0
218.069824 176.0
220.208954 100.0
222.03215 164.0
225.435059 176.0
225.868591 132.0
230.571304 180.0
231.142883 180.0
231.9758 20.0
232.73735 216.0
233.50621 200.0
233.891174 116.0
233.965714 152.0
234.0327 296.0
234.10733 164.0
234.147995 14424.0
234.335938 180.0
234.364716 56.0
234.437851 88.0
234.545212 88.0
234.5811 40.0
234.773193 160.0
234.79454 68.0
234.969681 136.0
235.032501 72.0
235.059967 44.0
235.084381 36.0
235.149658 1924.0
235.188889 88.0
235.291946 32.0
235.337738 80.0
235.420197 72.0
235.516434 156.0
235.559814 56.0
235.664566 40.0
235.725693 76.0
235.832657 96.0
236.155457 376.0
236.1996 60.0
236.318909 72.0
236.380112 48.0
236.707657 76.0
237.118179 52.0
239.51796 84.0
239.798355 96.0
240.526306 64.0
246.695953 84.0
253.051346 156.0
259.064545 120.0
260.416901 164.0
260.829529 100.0
262.616669 76.0
263.824402 52.0
267.015198 128.0
267.473969 108.0
269.047913 80.0
272.157623 396.0
273.161499 184.0
278.317444 40.0
279.494171 64.0
280.156738 112.0
284.158752 148.0
293.034454 172.0
297.202545 116.0
299.079041 76.0
312.897064 104.0
313.199921 32.0
315.886261 220.0
323.827911 108.0
336.989441 140.0
340.341003 36.0
341.796631 60.0
342.591949 72.0
343.200043 1376.0
343.301483 72.0
343.491455 88.0
344.202026 680.0
345.210785 272.0
346.278503 116.0
361.891998 176.0
363.829437 88.0
364.000305 156.0
381.149445 180.0
410.43512 200.0
417.160248 92.0
417.257812 152.0
418.247986 160.0
419.150543 144.0
421.006683 112.0
428.385834 92.0
430.906647 80.0
432.04776 76.0
439.77301 48.0
442.854645 200.0
454.168243 116.0
514.053894 84.0
524.467468 88.0
525.785645 136.0
585.894836 40.0
719.945435 60.0
748.223938 96.0
793.30481 180.0
795.863281 212.0
796.138428 44.0
798.150269 180.0
800.660156 156.0
809.776062 64.0
817.548645 20.0
844.643005 152.0
850.112549 108.0
891.572021 44.0
975.548828 156.0
980.915039 180.0
987.233887 68.0
991.278015 148.0
1019.812256 176.0
1021.325623 184.0
1052.047729 248.0
1065.960815 140.0
1078.735962 180.0
1081.836914 216.0
1085.197876 52.0
1096.907104 120.0
1108.897827 192.0
1112.725586 116.0
1115.941406 156.0
1116.02124 44.0
1116.692871 152.0
1143.005859 120.0
1148.065063 176.0
1158.942017 164.0
1165.99292 140.0
1176.933838 136.0
1185.005127 144.0
1193.633423 188.0
1197.74231 140.0
1198.796509 168.0
1200.140747 232.0
1202.548462 128.0
1208.574707 188.0
1210.125244 212.0
1214.539795 180.0
1221.013428 160.0
1221.569824 148.0
1232.586182 212.0
1262.096191 152.0
1271.653198 96.0
1275.453369 120.0
1277.579712 196.0
1278.049316 156.0
1278.889038 148.0
1292.864136 188.0
1294.704102 164.0
1299.004761 184.0
1303.923462 236.0
1309.58606 160.0
1309.881348 48.0
1311.03418 132.0
1314.452515 124.0
1326.089233 192.0
1335.150391 96.0
1340.093262 68.0
1343.279297 192.0
1344.329956 188.0
1346.556763 156.0
1347.024292 192.0
1348.339478 80.0
1351.593872 124.0
1364.429932 108.0
1369.544434 208.0
1370.295898 160.0
1373.901245 160.0
1375.200073 164.0
1376.49939 116.0
1378.553101 212.0
1386.820312 112.0
1389.7052 212.0
1396.220093 80.0
1404.040283 176.0
1407.137207 164.0
1410.132812 76.0
1415.047729 184.0
1421.57666 140.0
1423.588623 116.0
1427.549194 216.0
1431.793823 152.0
1433.775269 160.0
1434.619507 160.0
1445.9729 180.0
1448.198975 60.0
1451.359375 136.0
1458.42749 160.0
1460.891357 244.0
1461.804443 72.0
1464.050293 148.0
1467.128662 208.0
1472.699463 152.0
1475.060669 184.0
1477.867432 128.0
1478.265381 204.0
1480.332397 176.0
1480.960449 240.0
1489.313599 36.0
1490.842651 116.0
1493.872192 156.0
1494.256836 92.0
1494.610718 232.0
1498.591675 248.0
1500.117798 128.0
1502.832642 200.0
