>compound MLS000575003-01!
>formula C16H12N2O3
>ionization [M+H]+
>parentmass 281.090729
#inchi InChI=1S/C16H12N2O3/c1-17-8-7-10-9-5-3-4-6-11(9)18-12(10)13(17)15(21-2)14(19)16(18)20/h3-8H,1-2H3
#inchikey HPAUUBGCMSMJQK
#Ion_Source LC-ESI
#Instrument qTof
#Compound_Source NIH Natural Product Library
#PI Dorrestein
#Data_Collector VVP/LMS
#Scan -1
#Precursor_MZ 281.093
#ExactMass 280.085
#Charge 1
#CAS_Number N/A
#Pubmed_ID N/A
#Smiles COc1c(=O)c(=O)n2c3ccccc3c4ccn(C)c1c42
#INCHI_AUX N/A
#Library_Class 1
#SpectrumID CCMSLIB00000080131
#IonMode Positive
#UpdateWorkflowName UPDATE-SINGLE-ANNOTATED-GOLD
#LibraryQualityString Gold
#TaskID b1d8e8f6646f4e71acdff9ca3d919d08
##Scan# 1446
#SpectrumFile p2-E04_GE4_01_18028.mzXML
#LibraryName NIH_Natural_Products_Library.mgf
#MQScore -1
#Organism NIH_Natural_Products_Library
#TIC_Query 0
#RT_Query -1
#MZErrorPPM -1
#SharedPeaks 0
#MassDiff 0
#LibMZ -1
#SpecMZ 281.093
#SpecCharge 0
#internalFilename spec-00000.mgf

>collision 10
95.428261 196.0
95.47493 160.0
95.696762 160.0
95.875969 136.0
96.020241 156.0
96.715797 164.0
97.221458 172.0
97.323532 40.0
98.084885 192.0
98.688988 168.0
99.330643 216.0
101.996445 144.0
102.556015 92.0
102.830315 72.0
104.829964 136.0
105.072601 208.0
106.489136 132.0
106.680229 216.0
106.770706 172.0
107.064995 184.0
107.283409 60.0
107.706429 236.0
107.896545 180.0
108.514687 148.0
109.298637 92.0
110.504639 144.0
110.550667 76.0
110.68045 108.0
110.697205 196.0
111.160477 144.0
111.383018 128.0
112.009857 152.0
112.528641 204.0
112.902649 36.0
113.854202 168.0
114.087929 124.0
114.124069 172.0
114.185738 176.0
115.054062 436.0
115.296486 160.0
115.884941 304.0
116.052124 176.0
116.307411 44.0
117.057518 700.0
117.499588 148.0
118.059029 192.0
118.915115 132.0
119.023331 100.0
119.54068 188.0
120.310081 172.0
120.390869 196.0
121.01844 68.0
121.138893 160.0
121.209 108.0
121.246254 220.0
121.412872 216.0
122.410561 52.0
122.551537 120.0
122.652908 132.0
122.875641 148.0
123.239937 48.0
123.959076 120.0
124.695854 180.0
124.956024 60.0
125.697998 280.0
125.92347 48.0
127.044907 148.0
127.750298 144.0
128.049667 176.0
129.060638 156.0
129.753464 160.0
129.928085 188.0
130.066116 460.0
130.116455 124.0
131.06575 324.0
131.637451 156.0
131.671707 92.0
132.081024 940.0
132.561615 116.0
133.054749 216.0
133.08493 224.0
133.884827 116.0
133.944717 200.0
134.548904 140.0
134.97171 88.0
135.745117 76.0
136.097824 144.0
136.118729 172.0
136.425415 160.0
136.444016 44.0
136.928009 200.0
137.000214 132.0
137.674301 188.0
138.490524 228.0
139.067322 216.0
140.051773 172.0
140.439041 212.0
140.991501 116.0
141.012772 152.0
141.343857 64.0
141.616104 40.0
142.06398 344.0
142.586487 172.0
142.626892 76.0
142.755264 176.0
142.981277 44.0
143.071716 148.0
143.414749 152.0
143.486252 136.0
143.526794 208.0
143.567322 36.0
143.765335 148.0
144.066177 116.0
146.195343 192.0
147.434906 96.0
147.572678 124.0
149.35025 60.0
150.173523 152.0
150.21254 224.0
151.910217 200.0
152.661789 220.0
152.814285 116.0
153.05304 124.0
153.154007 128.0
153.674164 64.0
153.819778 148.0
153.965439 192.0
153.987671 72.0
154.064438 2132.0
154.098099 188.0
154.829834 192.0
155.071503 2408.0
155.373871 72.0
155.490494 64.0
155.636948 108.0
155.813293 92.0
156.075439 312.0
156.405136 144.0
156.454926 216.0
156.601837 184.0
156.903366 160.0
158.057281 104.0
158.08786 196.0
158.981949 60.0
159.091187 456.0
159.125015 128.0
159.836334 44.0
159.856461 176.0
160.786377 148.0
160.877243 132.0
161.011063 148.0
161.0439 172.0
161.06662 156.0
161.321854 136.0
161.617752 216.0
162.093796 132.0
163.587189 216.0
164.048264 144.0
165.049088 136.0
165.079773 96.0
166.227386 200.0
167.062057 120.0
167.160172 168.0
167.912415 104.0
169.111221 108.0
169.129349 208.0
169.188889 140.0
169.63446 184.0
169.810776 172.0
170.057251 208.0
171.685898 100.0
171.751099 144.0
172.106018 44.0
172.385513 92.0
172.722778 136.0
172.803879 168.0
174.027878 152.0
174.753296 132.0
175.05864 208.0
175.182419 180.0
175.907608 100.0
176.018494 176.0
176.060745 128.0
177.662109 216.0
177.696594 208.0
178.160919 196.0
178.362808 156.0
179.070908 220.0
179.55864 140.0
180.022995 192.0
180.079071 168.0
180.466553 60.0
180.509338 156.0
180.602936 220.0
180.886581 72.0
180.982956 168.0
181.04187 156.0
181.07724 4420.0
181.135605 148.0
181.163544 140.0
181.189178 56.0
181.296356 140.0
181.355331 100.0
181.379456 72.0
181.470596 40.0
181.497406 48.0
181.556396 60.0
181.596634 64.0
181.636871 100.0
181.779068 56.0
181.843475 188.0
182.009903 192.0
182.044937 184.0
182.083725 17544.0
182.164001 32.0
182.212891 28.0
182.243591 56.0
182.262405 112.0
182.351074 80.0
182.36879 68.0
182.455917 76.0
182.477417 112.0
182.611877 104.0
182.633392 148.0
182.763657 116.0
182.789429 52.0
182.891693 60.0
182.937454 64.0
183.087158 3040.0
183.125946 32.0
183.158264 52.0
183.271423 100.0
183.478943 60.0
183.748642 120.0
183.810699 56.0
183.964539 136.0
184.08905 168.0
184.29071 160.0
184.410233 96.0
184.461578 124.0
184.534576 72.0
184.910583 88.0
184.989075 120.0
185.068176 316.0
185.208405 92.0
186.187515 144.0
186.774582 108.0
188.59053 52.0
189.060944 116.0
190.332886 120.0
192.066269 1844.0
192.15773 56.0
193.07251 360.0
193.160538 164.0
193.503693 60.0
193.537933 164.0
194.013458 128.0
194.066132 136.0
194.32962 104.0
194.865479 208.0
195.055328 256.0
195.535629 144.0
195.822403 180.0
196.857056 148.0
196.876602 164.0
197.005081 92.0
197.072159 3096.0
197.178314 108.0
197.706894 76.0
197.83284 200.0
198.073196 752.0
198.648315 52.0
199.128281 104.0
199.153564 52.0
199.76915 172.0
201.884537 200.0
202.325943 76.0
203.309494 180.0
208.064728 180.0
208.090759 216.0
208.1884 72.0
209.044174 92.0
209.065201 108.0
210.073639 96.0
210.411285 124.0
211.07872 128.0
211.347733 196.0
211.900742 72.0
212.846283 76.0
212.924698 216.0
213.060287 176.0
213.09317 116.0
214.070892 632.0
215.079254 136.0
216.599747 160.0
218.799271 56.0
219.002457 196.0
220.064026 804.0
220.096558 148.0
221.066788 116.0
221.181549 56.0
221.412491 72.0
222.055603 100.0
222.860077 48.0
223.731491 120.0
224.744827 120.0
225.106003 168.0
226.038651 128.0
226.323013 96.0
227.897705 168.0
228.366653 176.0
231.266205 156.0
232.363174 76.0
234.458237 60.0
235.049835 108.0
236.057877 116.0
236.914871 112.0
237.066284 520.0
238.072296 136.0
238.151062 72.0
238.430649 176.0
238.907242 200.0
239.078201 160.0
239.979004 132.0
240.065338 36.0
244.106522 148.0
244.682144 108.0
245.20546 164.0
245.376892 236.0
246.634949 124.0
248.052902 176.0
249.616425 84.0
249.7957 44.0
250.412628 128.0
251.043625 404.0
253.104736 148.0
254.641251 176.0
263.049744 176.0
263.078796 180.0
264.232513 72.0
264.61441 88.0
265.016052 124.0
265.061646 740.0
265.129456 64.0
265.304474 76.0
265.375824 88.0
265.398499 100.0
265.599579 188.0
265.81369 148.0
266.06842 11856.0
266.127289 104.0
266.167511 32.0
266.264923 84.0
266.437103 72.0
266.482574 40.0
266.615784 36.0
266.830322 44.0
266.914856 32.0
267.036957 140.0
267.072906 2152.0
267.399597 60.0
267.425629 76.0
267.669769 148.0
267.874969 56.0
268.071259 444.0
268.415985 56.0
268.588837 48.0
268.784576 128.0
268.885742 60.0
269.352631 32.0
269.499664 128.0
276.070679 88.0
276.616577 80.0
279.244507 92.0
279.583832 148.0
281.040039 220.0
281.090729 820.0
281.968353 72.0
282.058624 128.0
282.099396 180.0
284.108002 104.0
286.579102 60.0
296.944153 56.0
314.015594 124.0
337.278412 136.0
339.10849 140.0
373.738708 92.0
382.960754 120.0
430.893188 56.0
441.317108 120.0
441.455078 72.0
445.470306 84.0
459.521606 104.0
476.398346 76.0
482.521362 140.0
690.288269 52.0
842.29425 60.0
853.589722 136.0
890.283569 96.0
1025.85083 220.0
1184.100098 200.0
1242.187256 188.0
1246.743896 40.0
1257.653198 160.0
1269.418213 216.0
1278.73877 140.0
1284.909546 204.0
1306.912109 44.0
1307.192749 160.0
1310.389648 180.0
1318.904907 144.0
1325.490479 192.0
1330.131958 108.0
1343.827881 184.0
1345.411621 192.0
1362.577759 220.0
1370.95105 112.0
1409.194946 164.0
1409.904907 264.0
1412.297241 188.0
1419.291748 164.0
1423.966919 40.0
1424.695435 164.0
1430.583618 180.0
1435.005859 232.0
1443.268677 52.0
1444.407715 108.0
1447.306152 124.0
1455.191406 112.0
1459.681885 100.0
1475.732056 144.0
1480.667603 196.0
1493.030884 200.0
1497.332886 200.0
1497.87207 140.0
1499.944824 80.0
1503.955688 164.0
