>compound MLS002154071-01!Florfenicol73231-34-2
>formula C12H14Cl2FNO4S
>ionization [M+H]+
>parentmass 358.0077389600905
#inchi InChI=1S/C12H14Cl2FNO4S/c1-21(19,20)8-4-2-7(3-5-8)10(17)9(6-15)16-12(18)11(13)14/h2-5,9-11,17H,6H2,1H3,(H,16,18)/t9-,10-/m1/s1
#inchikey AYIRNRDRBQJXIF
#Ion_Source LC-ESI
#Instrument qTof
#Compound_Source NIH Pharmacologically Active Library
#PI Dorrestein
#Data_Collector VP/LMS
#Scan -1
#Precursor_MZ 358.01
#ExactMass 357.0
#Charge 1
#CAS_Number N/A
#Pubmed_ID N/A
#Smiles CS(=O)(=O)c1ccc(cc1)[C@@H](O)[C@@H](CF)NC(=O)C(Cl)Cl
#INCHI_AUX N/A
#Library_Class 3
#SpectrumID CCMSLIB00000086188
#IonMode Positive
#UpdateWorkflowName UPDATE-SINGLE-ANNOTATED-BRONZE
#LibraryQualityString Bronze
#TaskID d252d724072548979f1f6f1ced849daf
##Scan# 1456
#SpectrumFile p5-H04_GH4_01_18479.mzXML
#LibraryName Pharm_Active_Library.mgf
#MQScore -1
#Organism Pharm_Active_Library
#TIC_Query 0
#RT_Query -1
#MZErrorPPM -1
#SharedPeaks 0
#MassDiff 0
#LibMZ -1
#SpecMZ 358.01
#SpecCharge 0
#internalFilename spec-00000.mgf

>collision 10
45.637119 140.0
47.032532 164.0
51.198055 40.0
51.294945 128.0
51.359108 160.0
53.510757 136.0
54.901367 184.0
56.52808 192.0
61.26062 164.0
61.553841 100.0
62.645466 164.0
64.61409 132.0
64.722923 160.0
66.502747 44.0
69.45475 156.0
70.448532 148.0
70.886902 120.0
73.832672 108.0
76.522949 216.0
81.452271 180.0
81.543907 32.0
82.629471 164.0
83.97554 160.0
88.745239 108.0
88.758362 92.0
91.446709 148.0
100.473289 116.0
100.800735 92.0
101.770226 112.0
102.095757 176.0
102.726189 180.0
103.053123 208.0
104.057846 368.0
107.047318 128.0
108.050453 200.0
109.768196 148.0
112.766159 156.0
116.046654 52.0
118.946182 192.0
123.634605 200.0
125.050575 172.0
125.681236 136.0
126.987694 164.0
127.058159 172.0
128.05986 136.0
129.066177 208.0
129.156769 80.0
129.852112 240.0
130.062805 796.0
130.102432 152.0
130.740433 224.0
131.048569 516.0
131.072906 460.0
131.405792 84.0
131.636337 100.0
131.873932 108.0
132.055984 764.0
132.448242 96.0
133.049057 180.0
134.058807 140.0
134.635544 120.0
135.762589 140.0
137.062042 204.0
138.50116 184.0
140.480438 148.0
141.080261 196.0
142.062881 332.0
143.01355 44.0
144.892883 176.0
145.043869 200.0
145.062561 160.0
147.078842 88.0
148.067734 188.0
148.69809 116.0
149.689972 72.0
150.065216 172.0
152.051529 180.0
152.387955 164.0
155.06131 528.0
155.144745 40.0
159.06131 136.0
161.050537 140.0
162.194244 172.0
163.029785 592.0
163.062302 124.0
164.021118 176.0
165.028198 156.0
167.167007 204.0
170.058807 1236.0
171.064926 132.0
172.813507 52.0
177.037308 208.0
178.040863 188.0
181.031113 160.0
185.389191 120.0
189.000046 140.0
190.236099 212.0
193.973984 268.0
197.046356 168.0
198.059036 96.0
202.11351 132.0
205.077957 136.0
205.839676 136.0
206.034592 1304.0
207.038025 164.0
207.310043 224.0
208.033371 332.0
208.501022 68.0
208.834518 108.0
209.030502 168.0
210.054947 168.0
211.055099 204.0
212.480103 60.0
214.921204 168.0
216.122116 136.0
220.468369 112.0
220.976959 100.0
221.089417 48.0
230.069031 168.0
230.099075 64.0
230.34671 68.0
230.428284 64.0
230.594482 52.0
230.69725 28.0
231.084366 180.0
238.682526 44.0
241.003052 1092.0
241.380661 76.0
242.002609 208.0
242.033569 132.0
243.003021 756.0
244.002472 156.0
244.778549 32.0
246.134995 48.0
251.822418 96.0
264.12265 132.0
273.869598 168.0
275.54541 56.0
284.004395 208.0
295.94751 188.0
297.037323 176.0
319.994568 124.0
322.034332 44.0
838.966064 216.0
865.477661 196.0
974.255859 124.0
980.228882 52.0
997.823608 144.0
1079.018311 188.0
1101.368164 176.0
1178.070923 144.0
1207.345337 160.0
1230.631104 132.0
1287.564453 104.0
1324.78833 32.0
1378.901367 132.0
1396.919312 148.0
1410.924438 112.0
1415.090088 72.0
1427.607666 132.0
1480.726318 96.0
1495.813965 196.0
