>compound MLS001158243-01!N-(2-hydroxy-2-phenylethyl)-2-[4-(4-methoxyphenyl)-2-oxochromen-7-yl]oxyacetamide
>formula C26H23NO6
>ionization [M+H]+
>parentmass 446.16
#inchi InChI=1S/C26H23NO6/c1-31-19-9-7-17(8-10-19)22-14-26(30)33-24-13-20(11-12-21(22)24)32-16-25(29)27-15-23(28)18-5-3-2-4-6-18/h2-14,23,28H,15-16H2,1H3,(H,27,29)
#inchikey MLQDWRAQRJVTFL
#Ion_Source LC-ESI
#Instrument qTof
#Compound_Source NIH Natural Product Library
#PI Dorrestein
#Data_Collector VVP/LMS
#Scan -1
#Precursor_MZ 446.16
#ExactMass 445.153
#Charge 1
#CAS_Number N/A
#Pubmed_ID N/A
#Smiles COc1ccc(cc1)c2cc(=O)oc3cc(OCC(=O)NCC(O)c4ccccc4)ccc23
#INCHI_AUX N/A
#Library_Class 1
#SpectrumID CCMSLIB00000079574
#IonMode Positive
#UpdateWorkflowName UPDATE-SINGLE-ANNOTATED-GOLD
#LibraryQualityString Gold
#TaskID b1d8e8f6646f4e71acdff9ca3d919d08
##Scan# 2203
#SpectrumFile p1-C08_GC8_01_17904.mzXML
#LibraryName NIH_Natural_Products_Library.mgf
#MQScore -1
#Organism NIH_Natural_Products_Library
#TIC_Query 0
#RT_Query -1
#MZErrorPPM -1
#SharedPeaks 0
#MassDiff 0
#LibMZ -1
#SpecMZ 446.16
#SpecCharge 0
#internalFilename spec-00000.mgf

>collision 10
95.151314 100.0
95.29892 124.0
95.405807 216.0
95.672325 140.0
95.703476 152.0
95.76384 144.0
95.84761 72.0
95.943108 132.0
96.212326 168.0
96.591423 108.0
96.655983 128.0
96.695122 96.0
96.730354 104.0
96.820419 176.0
96.902687 132.0
96.988907 52.0
97.09478 152.0
97.114395 56.0
97.143814 120.0
97.378372 136.0
97.422569 160.0
97.611244 100.0
97.63681 72.0
97.65451 176.0
97.695816 68.0
97.763863 184.0
97.807976 296.0
97.924141 184.0
98.097534 152.0
98.134995 216.0
98.20401 248.0
98.261215 108.0
98.277 200.0
98.385544 172.0
98.409241 148.0
98.49218 172.0
98.553421 212.0
98.675957 104.0
98.774834 156.0
98.952934 108.0
99.111382 188.0
99.25013 156.0
99.299706 172.0
99.506073 100.0
99.668938 76.0
99.837898 100.0
99.893593 224.0
100.040848 148.0
100.078674 144.0
100.158333 120.0
100.190201 220.0
100.369576 188.0
100.634758 212.0
100.672882 192.0
100.701012 212.0
100.728806 68.0
101.016647 88.0
101.099983 188.0
101.180077 200.0
101.258835 240.0
101.361 200.0
101.521362 160.0
101.605606 164.0
101.708992 184.0
101.842476 120.0
101.874611 124.0
101.915771 184.0
102.045914 200.0
102.077606 196.0
102.093689 184.0
102.1138 216.0
102.145714 180.0
102.313004 136.0
102.349243 92.0
102.363342 112.0
102.536591 196.0
102.599075 68.0
102.657547 124.0
102.746292 196.0
102.766464 160.0
102.869392 312.0
102.893616 180.0
102.940056 196.0
103.054993 2868.0
103.107719 136.0
103.283623 56.0
103.297775 188.0
103.362518 148.0
103.407036 136.0
103.510284 64.0
103.562935 260.0
103.57634 168.0
103.603447 156.0
103.800041 56.0
103.852776 128.0
103.95015 156.0
104.059418 348.0
104.128792 40.0
104.147728 204.0
104.27507 152.0
104.366547 52.0
104.397049 96.0
104.442291 180.0
104.511177 148.0
104.633072 156.0
104.698235 112.0
104.920326 144.0
104.992783 204.0
105.038597 136.0
105.071136 11448.0
105.195152 72.0
105.203728 52.0
105.21769 284.0
105.274208 136.0
105.383606 112.0
105.401993 40.0
105.463303 52.0
105.485786 56.0
105.540985 104.0
105.680069 52.0
105.716896 112.0
105.755783 120.0
105.866333 136.0
106.01178 124.0
106.051453 224.0
106.07328 1860.0
106.274239 240.0
106.288605 116.0
106.424072 80.0
106.498001 184.0
106.555511 136.0
106.693207 112.0
106.771339 160.0
106.828934 84.0
106.855675 120.0
106.880363 120.0
106.940048 52.0
107.053825 188.0
107.070793 332.0
107.216019 64.0
107.568703 44.0
107.702919 172.0
107.808289 188.0
107.870293 228.0
107.897163 164.0
107.979874 168.0
108.053352 176.0
108.279961 196.0
108.356606 188.0
108.599136 200.0
108.814941 184.0
108.837784 168.0
108.883469 44.0
108.906311 80.0
108.983177 120.0
109.022652 168.0
109.082932 156.0
109.168175 148.0
109.203522 116.0
109.236809 52.0
109.255524 44.0
109.342918 156.0
109.465744 120.0
109.542801 60.0
109.607384 136.0
109.820023 200.0
109.87426 192.0
109.993202 52.0
110.007812 172.0
110.076714 72.0
110.149811 72.0
110.181145 200.0
110.217628 140.0
110.297165 200.0
110.408974 120.0
110.459175 144.0
110.590988 136.0
110.715622 188.0
110.907257 188.0
110.957573 216.0
111.144234 220.0
111.171509 176.0
111.221878 184.0
111.278557 152.0
111.364655 324.0
111.45919 156.0
111.596336 128.0
111.846146 160.0
111.966156 136.0
112.389854 176.0
112.546043 176.0
112.776306 232.0
112.808014 212.0
112.90316 96.0
113.021614 136.0
113.110504 96.0
113.176125 92.0
113.566048 100.0
113.695465 204.0
113.746078 132.0
113.769753 80.0
113.830551 220.0
113.878044 44.0
113.96727 188.0
114.103287 140.0
114.188347 168.0
114.307472 172.0
114.409637 224.0
114.441566 116.0
114.492676 180.0
114.646057 172.0
114.740036 176.0
114.822998 160.0
114.89917 192.0
114.931793 168.0
115.023087 236.0
115.028526 184.0
115.055435 3528.0
115.104683 188.0
115.179428 92.0
115.254204 180.0
115.268761 228.0
115.301216 112.0
115.350372 84.0
115.480804 148.0
115.741623 168.0
115.79113 140.0
116.061668 760.0
116.108315 148.0
116.134048 88.0
116.181236 176.0
116.365799 104.0
116.47747 168.0
116.657974 168.0
116.90316 96.0
116.920372 200.0
116.978485 152.0
116.993553 220.0
117.030899 324.0
117.060944 8020.0
117.142143 52.0
117.163681 48.0
117.227242 128.0
117.289551 156.0
117.39431 160.0
117.42881 76.0
117.573204 168.0
117.633789 148.0
117.672653 80.0
117.696404 136.0
117.752548 96.0
117.810867 156.0
117.851913 76.0
117.92971 192.0
117.959969 152.0
117.992393 180.0
118.076096 2096.0
118.118156 232.0
118.180557 132.0
118.195702 48.0
118.210846 52.0
118.256294 44.0
118.306076 68.0
118.656395 48.0
118.735092 92.0
118.76329 136.0
118.902138 128.0
118.937775 124.0
119.006332 80.0
119.025879 128.0
119.043251 156.0
119.072739 1168.0
119.188782 56.0
119.295273 172.0
119.358322 76.0
119.39312 168.0
119.504051 128.0
119.52581 184.0
119.628098 60.0
119.713013 56.0
119.894119 176.0
119.946129 76.0
120.02243 76.0
120.047058 232.0
120.080986 7088.0
120.128204 152.0
120.15329 56.0
120.168564 68.0
120.19693 120.0
120.21875 76.0
120.265427 144.0
120.423965 180.0
120.489494 220.0
120.558586 200.0
120.670891 56.0
120.686195 56.0
120.841484 144.0
120.933388 156.0
120.98407 208.0
121.030037 292.0
121.085442 904.0
121.139214 128.0
121.244385 64.0
121.303558 40.0
121.384674 124.0
121.64576 36.0
121.775307 52.0
121.977448 120.0
122.041199 164.0
122.089203 236.0
122.203957 200.0
122.258965 172.0
122.300781 144.0
122.333801 176.0
122.404251 212.0
122.419662 44.0
122.520981 168.0
122.562843 180.0
122.76564 100.0
122.902397 136.0
122.96682 164.0
123.001709 124.0
123.063522 212.0
123.538666 232.0
123.605042 132.0
123.706848 168.0
124.005867 56.0
124.12558 104.0
124.185699 164.0
124.203201 200.0
124.218727 140.0
124.234253 228.0
124.254219 132.0
124.391808 140.0
124.493858 180.0
124.531693 132.0
124.633881 136.0
124.696098 60.0
124.865067 144.0
125.005211 160.0
125.103142 48.0
125.12986 108.0
125.145439 180.0
125.1922 76.0
125.223381 128.0
125.272385 80.0
125.308029 188.0
125.332535 160.0
125.457344 204.0
126.042084 84.0
126.071136 208.0
126.104652 140.0
126.475937 72.0
126.498322 120.0
126.664024 156.0
126.740189 132.0
127.045097 192.0
127.063042 240.0
127.209114 132.0
127.233604 140.0
127.251564 212.0
127.395294 40.0
127.440224 140.0
127.467186 280.0
127.548615 172.0
127.698738 152.0
127.876472 176.0
127.993538 156.0
128.050644 244.0
128.390137 48.0
128.523224 80.0
128.613495 68.0
128.681213 156.0
128.753464 144.0
128.821228 104.0
129.066696 124.0
129.148987 204.0
129.547363 116.0
129.726379 204.0
129.79213 36.0
129.923676 128.0
130.065445 6080.0
130.100693 52.0
130.116577 56.0
130.270996 380.0
130.384613 152.0
130.470978 76.0
130.509628 48.0
130.652908 172.0
130.850906 124.0
131.071045 1304.0
131.183502 108.0
131.240509 80.0
131.422974 44.0
131.459473 84.0
131.498276 80.0
131.534607 204.0
131.607849 72.0
131.644379 108.0
131.877411 128.0
131.982559 336.0
132.007721 156.0
132.03624 68.0
132.04631 196.0
132.081589 29352.0
132.153931 52.0
132.166687 96.0
132.226028 156.0
132.25708 56.0
132.302856 72.0
132.339493 60.0
132.389877 48.0
132.405899 136.0
132.430939 116.0
132.506683 48.0
132.536636 168.0
132.559387 68.0
132.715256 32.0
132.784042 36.0
132.836792 44.0
132.935455 64.0
132.992203 128.0
133.083847 2060.0
133.150208 80.0
133.219635 276.0
133.263794 88.0
133.32814 164.0
133.360214 172.0
133.422379 96.0
133.492554 84.0
133.610962 80.0
133.689178 372.0
133.714493 184.0
133.753632 128.0
133.875656 144.0
133.944748 96.0
134.088196 184.0
134.110641 112.0
134.170578 64.0
134.235123 108.0
134.352753 184.0
134.391983 184.0
134.585861 148.0
134.687469 112.0
134.900055 144.0
135.044754 2612.0
135.06752 184.0
135.212296 152.0
135.386826 112.0
135.608337 64.0
135.698746 120.0
135.756714 180.0
135.926041 108.0
135.972458 140.0
136.002625 192.0
136.046143 768.0
136.102448 244.0
136.481186 44.0
136.662598 120.0
136.758011 132.0
136.818527 228.0
136.951263 168.0
137.022888 1240.0
137.084045 164.0
137.247223 60.0
137.387146 108.0
137.513153 120.0
137.949936 88.0
138.025665 340.0
138.625946 148.0
138.717728 32.0
139.052338 108.0
139.083649 112.0
139.174072 124.0
139.224518 88.0
139.452408 132.0
139.671066 188.0
139.772232 132.0
139.807526 116.0
139.885193 188.0
139.97702 168.0
140.056656 328.0
140.098969 216.0
140.245575 136.0
140.28801 60.0
140.646545 160.0
140.774033 132.0
140.829727 140.0
140.913391 76.0
140.974823 188.0
141.03627 144.0
141.06691 452.0
141.14502 204.0
141.296387 148.0
141.573318 120.0
141.833939 32.0
142.063614 416.0
142.135117 136.0
142.310959 224.0
142.557785 116.0
142.676636 124.0
143.007263 156.0
143.047729 184.0
143.074402 580.0
143.169159 100.0
143.20488 108.0
143.236893 172.0
143.364502 212.0
143.78183 116.0
143.817642 160.0
143.984756 264.0
144.013412 48.0
144.056763 256.0
144.147202 140.0
144.410172 144.0
144.472366 84.0
144.553711 40.0
144.661407 80.0
144.888901 128.0
144.952515 136.0
145.061295 296.0
145.224503 108.0
145.606094 56.0
145.798294 196.0
146.058411 504.0
146.418961 136.0
146.461212 236.0
146.491226 76.0
146.532181 252.0
146.73703 120.0
146.756317 72.0
146.845551 180.0
146.968567 48.0
147.04097 156.0
147.060272 196.0
147.659439 164.0
147.695724 208.0
147.901382 168.0
147.920746 216.0
148.206528 124.0
148.468307 52.0
148.487717 180.0
148.66481 200.0
148.93187 160.0
149.022247 396.0
149.11409 160.0
149.145676 136.0
149.221039 176.0
149.259949 116.0
149.286697 100.0
149.41803 160.0
149.539703 112.0
149.571335 40.0
149.649246 196.0
149.948868 164.0
150.456223 48.0
150.763977 180.0
151.054916 120.0
151.177246 228.0
151.311874 212.0
151.32901 172.0
151.507782 132.0
151.762604 152.0
151.806808 48.0
151.823975 200.0
151.86322 220.0
152.00795 156.0
152.062531 1840.0
152.12085 68.0
152.172409 164.0
152.27063 184.0
152.400818 184.0
152.585144 208.0
152.617111 196.0
152.929535 116.0
153.068375 584.0
153.254593 100.0
153.41478 140.0
154.078613 168.0
154.108261 172.0
154.575592 28.0
155.060959 176.0
155.086624 180.0
155.145233 124.0
155.384384 168.0
155.54213 148.0
155.594254 132.0
155.902252 140.0
155.976822 60.0
156.062653 156.0
156.081223 156.0
156.128479 196.0
156.2603 128.0
156.365067 196.0
156.389709 144.0
156.481812 140.0
156.90036 136.0
157.099854 136.0
157.228821 180.0
157.277023 192.0
157.869125 188.0
158.061737 144.0
158.184372 160.0
158.562576 136.0
158.635254 172.0
158.667847 44.0
158.687912 168.0
158.843384 116.0
159.051773 160.0
159.918793 128.0
160.075516 392.0
160.228516 96.0
160.283936 176.0
160.346939 136.0
160.465408 148.0
160.886719 140.0
160.99025 152.0
161.025284 188.0
161.085388 840.0
161.202438 204.0
161.326279 80.0
161.401306 148.0
161.789215 172.0
162.088074 128.0
163.006638 140.0
163.049835 344.0
163.10321 80.0
163.138794 100.0
163.189651 144.0
163.240494 156.0
163.706177 92.0
163.726547 148.0
163.820786 124.0
163.950729 140.0
164.056992 156.0
164.241379 108.0
164.506744 168.0
164.971664 228.0
165.040695 208.0
165.070251 2100.0
165.22995 124.0
165.285736 192.0
165.370697 224.0
165.388611 120.0
165.467972 44.0
165.493561 104.0
165.60112 160.0
165.972702 48.0
166.076157 428.0
166.272827 200.0
166.375504 76.0
166.524429 144.0
166.719681 144.0
166.814774 168.0
166.981903 88.0
167.035919 32.0
167.086151 456.0
167.115662 80.0
167.161987 228.0
167.188446 84.0
167.416824 52.0
167.509552 96.0
167.679596 112.0
167.733719 72.0
167.831696 60.0
167.883255 192.0
167.952896 80.0
168.057907 328.0
168.08963 396.0
168.18512 200.0
168.497574 124.0
168.924118 160.0
169.064987 368.0
169.10524 132.0
169.338242 96.0
169.397827 52.0
169.428909 104.0
169.609085 120.0
169.822906 48.0
170.027863 176.0
170.046036 144.0
170.074615 640.0
170.342026 68.0
170.809921 136.0
170.911377 104.0
171.041504 136.0
171.077774 520.0
171.260208 168.0
171.393066 168.0
171.619827 160.0
171.687637 152.0
172.047699 188.0
172.090485 196.0
172.136475 156.0
172.844849 172.0
173.067322 172.0
173.242798 152.0
173.46553 160.0
173.814346 168.0
174.011185 180.0
174.082077 276.0
174.226547 144.0
174.399963 180.0
174.54982 116.0
174.683945 224.0
174.915497 136.0
175.102448 260.0
175.186722 40.0
175.513535 152.0
175.713974 208.0
175.849243 76.0
175.972626 220.0
175.999023 112.0
176.062927 120.0
176.079102 160.0
176.226166 60.0
176.834366 68.0
177.018967 148.0
177.069305 728.0
177.674347 144.0
177.783127 128.0
177.960968 220.0
178.077286 688.0
178.31958 184.0
178.364761 176.0
178.513657 184.0
178.646637 144.0
178.758377 120.0
178.806274 108.0
178.91275 104.0
178.950012 152.0
179.040558 72.0
179.082977 676.0
179.160416 104.0
179.238113 172.0
179.664261 180.0
179.688263 140.0
179.851044 80.0
180.01123 92.0
180.056152 2796.0
180.115387 160.0
180.14743 68.0
180.206207 152.0
180.398621 32.0
180.422684 168.0
180.481506 196.0
180.591141 68.0
180.692795 120.0
180.904205 220.0
181.062927 952.0
181.115753 28.0
181.206833 268.0
181.249695 140.0
181.383698 152.0
181.407822 200.0
181.536514 124.0
181.581192 188.0
181.72963 144.0
181.757614 224.0
181.995346 112.0
182.070068 1144.0
182.143051 56.0
182.18335 64.0
182.242447 40.0
182.323059 128.0
182.363373 96.0
182.454773 72.0
182.524673 40.0
182.721008 172.0
183.000916 116.0
183.077286 740.0
183.122086 52.0
183.21907 216.0
183.669235 176.0
183.763657 184.0
183.806824 124.0
183.847305 164.0
183.917465 132.0
184.057846 120.0
184.087708 460.0
184.241501 168.0
184.319855 132.0
184.598267 64.0
184.914795 100.0
185.056915 428.0
185.095413 308.0
185.188232 172.0
185.602859 204.0
185.696747 244.0
185.933807 156.0
186.031509 112.0
186.066528 120.0
186.10083 308.0
186.148254 152.0
186.251465 44.0
186.572113 148.0
186.833176 228.0
186.884872 144.0
187.072647 168.0
187.282318 56.0
187.306824 76.0
187.364029 144.0
187.898376 108.0
188.037537 48.0
188.228622 124.0
188.382782 192.0
188.7724 160.0
188.794281 104.0
188.887268 112.0
189.319702 160.0
189.404602 192.0
189.516922 68.0
189.95282 132.0
190.07901 112.0
190.367233 156.0
190.526535 228.0
190.691406 192.0
190.738129 196.0
190.947098 136.0
190.982849 168.0
191.048599 160.0
191.081879 208.0
191.147903 68.0
191.263489 112.0
191.58017 140.0
192.056961 492.0
192.286026 140.0
192.308105 56.0
192.401962 52.0
192.459946 172.0
192.941345 168.0
193.065811 576.0
193.109344 120.0
193.167419 136.0
193.355576 124.0
193.773682 144.0
193.845337 124.0
193.968094 132.0
194.012024 168.0
194.073029 1536.0
194.100739 104.0
194.40033 72.0
194.483582 96.0
194.636276 56.0
194.669586 128.0
194.722351 124.0
194.747345 124.0
194.814011 156.0
194.914032 116.0
194.933487 172.0
194.966827 120.0
195.011566 204.0
195.080917 40604.0
195.134445 200.0
195.155029 108.0
195.219803 48.0
195.242996 152.0
195.293701 84.0
195.352997 72.0
195.400604 80.0
195.442337 164.0
195.491028 48.0
195.532089 196.0
195.598175 80.0
195.654648 60.0
195.740738 168.0
195.795853 160.0
195.815353 56.0
195.837631 108.0
195.88826 180.0
195.926773 188.0
195.978989 156.0
196.049149 104.0
196.083984 6268.0
196.145645 88.0
196.171997 52.0
196.283524 60.0
196.33371 104.0
196.367172 88.0
196.392273 100.0
196.411804 160.0
196.434113 88.0
196.481537 80.0
196.515015 124.0
196.568726 48.0
196.609894 96.0
196.685242 44.0
196.747757 184.0
196.774582 100.0
196.805283 76.0
196.880676 196.0
196.939331 188.0
196.984955 84.0
197.013184 164.0
197.057709 228.0
197.096222 2108.0
197.154449 40.0
197.175018 248.0
197.246689 108.0
197.28302 48.0
197.310974 140.0
197.389267 40.0
197.425613 144.0
197.479889 128.0
197.502167 216.0
197.529602 188.0
197.625153 180.0
197.648239 96.0
197.691376 60.0
197.836914 56.0
197.862106 60.0
197.890106 52.0
198.06633 932.0
198.098907 580.0
198.195404 60.0
198.287872 108.0
198.464478 136.0
198.551117 80.0
198.562973 112.0
198.84317 260.0
199.010162 336.0
199.073212 952.0
199.104263 108.0
199.196945 76.0
199.354279 60.0
200.079941 132.0
200.186935 132.0
200.361572 100.0
200.575729 128.0
200.724197 200.0
200.920303 104.0
200.938828 84.0
200.956436 128.0
200.979004 188.0
201.050842 124.0
201.089554 516.0
201.4646 140.0
202.18277 32.0
202.392242 44.0
202.499863 204.0
202.927734 56.0
203.109238 52.0
203.375946 112.0
203.651352 208.0
204.478699 176.0
204.532776 100.0
204.552704 188.0
204.572632 72.0
204.700745 124.0
204.834595 56.0
205.065353 448.0
205.387573 164.0
205.476013 116.0
205.652924 40.0
205.929871 176.0
206.066345 420.0
206.178421 76.0
206.232727 88.0
206.584427 84.0
206.644516 132.0
206.801895 188.0
207.028061 120.0
207.048111 136.0
207.080933 400.0
207.156952 96.0
207.240036 112.0
207.492233 136.0
207.62413 164.0
207.66716 160.0
207.865097 176.0
208.05162 2604.0
208.117691 96.0
208.356064 76.0
208.413788 220.0
208.436523 160.0
208.456635 88.0
208.485367 48.0
208.971313 144.0
209.005844 88.0
209.056503 864.0
209.099411 1088.0
209.456894 196.0
209.800735 248.0
209.930481 40.0
209.976624 32.0
210.068665 1396.0
210.273773 88.0
210.446976 112.0
210.628906 108.0
210.680908 56.0
210.952545 48.0
211.039276 92.0
211.075165 2304.0
211.157837 44.0
211.260651 132.0
211.351639 108.0
211.45871 64.0
211.536865 160.0
211.595505 232.0
212.04985 368.0
212.080276 424.0
212.188675 216.0
212.336548 56.0
212.429367 132.0
212.490295 84.0
212.728256 184.0
212.861801 144.0
212.960541 136.0
213.056396 144.0
213.090714 5544.0
213.155182 168.0
213.364456 48.0
213.451675 108.0
213.518555 76.0
213.568008 36.0
213.666901 176.0
213.713455 88.0
213.818207 88.0
214.030716 112.0
214.05983 104.0
214.098145 704.0
214.733002 64.0
214.893448 80.0
215.094467 176.0
215.35466 48.0
215.576691 84.0
215.82515 128.0
215.983078 36.0
216.108871 152.0
216.258102 120.0
216.644623 148.0
217.060791 96.0
217.225037 196.0
217.318542 160.0
217.521408 48.0
217.78566 124.0
218.077026 212.0
218.935593 232.0
219.096832 200.0
219.805206 108.0
220.054169 304.0
220.233261 116.0
220.289383 160.0
220.519852 104.0
220.688354 124.0
221.060974 652.0
221.20015 60.0
221.297836 56.0
221.39711 172.0
221.469589 192.0
221.768845 316.0
221.825165 184.0
222.020844 212.0
222.065491 536.0
222.139481 208.0
222.70459 104.0
223.0392 168.0
223.075699 10012.0
223.199738 60.0
223.241364 84.0
223.262177 104.0
223.32695 72.0
223.426758 180.0
223.476349 252.0
223.571564 76.0
223.616211 168.0
223.654892 52.0
224.049286 108.0
224.078796 1884.0
224.322113 120.0
224.408569 80.0
224.581528 68.0
224.676987 120.0
224.817215 40.0
224.858994 52.0
224.969437 104.0
225.002274 268.0
225.057693 348.0
225.091019 4096.0
225.143082 76.0
225.339752 84.0
225.429398 124.0
225.575836 68.0
225.6147 136.0
225.684998 124.0
225.764191 160.0
225.838959 56.0
225.880844 188.0
226.062836 516.0
226.088104 492.0
226.123199 152.0
226.1651 192.0
226.251907 56.0
226.272858 128.0
226.611282 68.0
226.698181 136.0
226.782089 208.0
226.853333 172.0
226.984604 160.0
227.024933 116.0
227.070892 3596.0
227.210892 148.0
227.285904 44.0
227.315903 80.0
227.468964 84.0
227.759247 108.0
228.070908 772.0
228.129822 116.0
228.280151 56.0
228.689301 188.0
228.93277 156.0
229.080322 204.0
229.309738 160.0
229.777115 208.0
229.912903 44.0
230.553116 116.0
230.583344 172.0
230.619598 120.0
231.18515 124.0
231.375839 196.0
231.908966 152.0
232.169693 156.0
232.336502 40.0
232.391113 156.0
232.451797 132.0
233.928864 80.0
234.38266 112.0
234.775879 216.0
234.864319 208.0
235.076065 240.0
235.264069 100.0
235.648865 116.0
235.673309 144.0
236.000336 236.0
236.047546 2012.0
236.104309 104.0
237.053192 712.0
237.084717 472.0
237.123779 80.0
237.507019 76.0
237.819992 160.0
237.881378 56.0
237.97348 108.0
238.059616 784.0
238.097015 208.0
238.19458 96.0
238.418869 44.0
238.504929 44.0
238.732437 172.0
238.898514 60.0
238.947739 168.0
239.070099 1692.0
239.461792 176.0
239.729813 156.0
239.883911 72.0
240.044235 88.0
240.077789 1888.0
240.562561 76.0
240.59343 128.0
241.0289 168.0
241.081726 528.0
241.266891 72.0
241.3349 216.0
241.684402 56.0
241.975342 56.0
242.084671 156.0
242.470947 148.0
242.576324 176.0
243.084961 116.0
243.241684 184.0
243.38295 56.0
244.377548 108.0
244.399323 88.0
244.421097 160.0
244.442886 56.0
244.816437 120.0
246.300537 168.0
247.07309 168.0
247.946686 72.0
248.036224 196.0
248.407578 80.0
248.620926 136.0
248.718231 116.0
249.057327 536.0
249.101303 168.0
249.264679 80.0
250.061127 256.0
250.101212 112.0
250.267105 128.0
250.456894 116.0
250.482208 188.0
250.765778 172.0
250.950577 172.0
251.070557 19192.0
251.158676 52.0
251.216675 132.0
251.297516 32.0
251.387207 80.0
251.430313 148.0
251.472244 84.0
251.527069 48.0
251.705856 44.0
251.769012 56.0
251.79744 116.0
251.873245 136.0
251.898514 56.0
251.977478 160.0
252.009079 76.0
252.072754 2480.0
252.27771 36.0
252.363907 88.0
252.511688 56.0
252.568619 76.0
252.590759 60.0
252.644531 56.0
252.666687 60.0
252.805176 136.0
252.983139 56.0
253.026138 96.0
253.086121 8908.0
253.175018 180.0
253.201614 92.0
253.544601 136.0
253.667374 40.0
253.692093 80.0
253.724426 44.0
253.75885 140.0
253.863937 156.0
253.886139 140.0
253.927368 60.0
253.955917 160.0
253.978119 124.0
254.016174 56.0
254.055496 1388.0
254.088531 2180.0
254.139908 64.0
254.238266 76.0
254.262604 80.0
254.463638 48.0
254.533478 84.0
254.565231 48.0
254.631927 76.0
254.66687 52.0
254.768509 204.0
254.933731 48.0
255.064148 144.0
255.097656 336.0
255.178467 76.0
255.455154 56.0
255.770172 72.0
255.79245 40.0
255.82428 100.0
255.900681 128.0
255.967545 72.0
256.228729 100.0
256.757843 72.0
256.828003 208.0
256.952423 76.0
257.083221 104.0
257.63559 36.0
259.357147 68.0
259.395599 68.0
260.104492 80.0
261.004028 84.0
261.087646 128.0
262.265991 116.0
263.069153 300.0
263.566528 76.0
264.074402 148.0
264.20343 80.0
265.048462 96.0
265.098511 124.0
265.641754 96.0
265.810455 192.0
265.891571 212.0
265.953247 184.0
266.056183 140.0
266.921356 60.0
267.063843 132.0
267.10022 136.0
267.855377 48.0
268.072998 228.0
268.125793 172.0
268.563629 164.0
268.58551 144.0
268.686646 152.0
268.774719 136.0
268.815002 140.0
268.846527 80.0
268.893402 140.0
268.91394 152.0
268.996643 140.0
269.081604 16748.0
269.148041 64.0
269.175354 212.0
269.261108 60.0
269.305817 60.0
269.402039 56.0
269.447296 60.0
269.47345 72.0
269.519196 80.0
269.561646 68.0
269.637024 64.0
269.721802 76.0
269.795349 72.0
270.009521 48.0
270.085297 3756.0
270.323578 48.0
270.369202 76.0
270.381195 72.0
270.451202 32.0
270.503571 120.0
270.555939 44.0
270.608337 60.0
270.65744 96.0
271.097809 120.0
271.165192 64.0
271.276642 68.0
271.512695 68.0
271.56189 96.0
271.709503 60.0
271.787292 68.0
271.903107 128.0
272.037689 52.0
272.080353 104.0
272.152588 88.0
272.241241 92.0
272.914856 172.0
272.993774 108.0
273.115448 148.0
273.599182 44.0
274.134705 180.0
275.528412 132.0
276.070465 96.0
276.500519 148.0
278.056458 140.0
279.066223 308.0
279.111206 56.0
279.576904 160.0
280.062988 140.0
280.316162 40.0
280.472809 112.0
280.535553 136.0
280.772888 164.0
280.912964 96.0
280.942993 128.0
280.992462 96.0
281.080719 14960.0
281.137695 92.0
281.206573 48.0
281.306702 56.0
281.336761 108.0
281.36853 68.0
281.41571 80.0
281.550446 32.0
281.666504 80.0
281.720795 40.0
281.937958 20.0
282.014832 208.0
282.082886 2356.0
282.202026 52.0
282.309052 44.0
282.449493 80.0
283.08429 424.0
283.286346 68.0
283.510834 212.0
283.554382 100.0
283.68512 48.0
283.799103 52.0
283.829285 56.0
283.889618 188.0
283.97348 120.0
284.06543 512.0
284.231781 76.0
284.315674 120.0
285.065521 308.0
285.289703 68.0
285.817749 80.0
286.097076 136.0
286.241852 120.0
286.447296 92.0
286.497833 92.0
286.6427 44.0
286.790985 104.0
288.113739 164.0
288.891266 72.0
291.440704 104.0
292.079834 80.0
293.07782 608.0
293.380615 80.0
293.762543 192.0
294.084442 192.0
294.742371 72.0
295.008972 32.0
295.104675 76.0
295.388519 76.0
296.097015 144.0
296.730927 68.0
297.410156 80.0
299.087433 304.0
299.115021 120.0
299.679779 56.0
299.893433 148.0
300.103607 140.0
302.958374 168.0
303.152405 152.0
303.190521 92.0
304.970917 84.0
305.064789 124.0
305.099548 132.0
307.066864 200.0
308.09082 292.0
308.505432 52.0
308.872589 76.0
309.075317 1720.0
309.901825 44.0
310.078857 480.0
311.084717 152.0
311.188995 68.0
311.533173 48.0
312.137665 124.0
313.119293 160.0
315.144623 216.0
315.731018 124.0
316.140198 176.0
316.693665 152.0
318.776154 116.0
319.10672 112.0
322.107971 128.0
322.353821 60.0
322.764862 140.0
323.130768 172.0
323.215576 84.0
326.108734 156.0
326.159882 40.0
326.638092 76.0
326.674072 52.0
326.915131 64.0
327.098694 228.0
327.386719 68.0
328.10321 136.0
328.148224 212.0
329.132935 136.0
334.159119 88.0
336.091095 152.0
336.349243 48.0
338.118195 140.0
341.113892 300.0
342.129364 188.0
343.121063 200.0
344.139343 128.0
346.84726 72.0
348.112396 160.0
348.591583 88.0
350.005066 60.0
350.154022 80.0
354.116577 84.0
355.091034 196.0
355.140381 176.0
356.107086 312.0
358.108978 136.0
359.854919 92.0
363.807312 108.0
365.125763 148.0
369.08783 104.0
369.416718 88.0
370.112762 172.0
370.572876 140.0
371.128418 1848.0
371.876648 52.0
372.125336 744.0
372.844482 56.0
373.134735 132.0
373.825073 52.0
374.337067 92.0
374.475708 64.0
374.664429 52.0
375.038208 68.0
378.840454 176.0
380.678864 100.0
381.164398 68.0
383.133118 420.0
384.15152 156.0
386.126892 152.0
386.365509 72.0
386.510254 100.0
386.921234 160.0
387.128723 112.0
389.866882 116.0
390.259979 144.0
391.889404 52.0
392.942078 48.0
393.105896 152.0
396.59198 80.0
400.856232 76.0
401.892944 112.0
402.012665 176.0
407.036346 76.0
409.497467 84.0
410.085693 64.0
411.136078 116.0
411.727692 96.0
413.223267 60.0
415.037781 68.0
418.690887 32.0
421.436127 68.0
426.83017 108.0
427.562408 44.0
427.998749 196.0
428.147797 1880.0
429.074066 184.0
429.149353 884.0
429.222504 120.0
429.267853 80.0
429.766968 52.0
430.151733 368.0
431.154388 112.0
431.327972 96.0
432.461304 100.0
432.821442 128.0
433.227325 80.0
436.22757 84.0
439.797272 56.0
440.586487 92.0
442.305145 68.0
444.236847 68.0
445.395386 160.0
446.004639 120.0
447.29068 160.0
463.309906 140.0
464.23999 80.0
470.465851 88.0
474.159698 56.0
474.289734 68.0
475.347076 104.0
487.250305 56.0
491.604919 52.0
491.962402 60.0
493.486572 76.0
496.120728 80.0
497.16748 52.0
505.769165 92.0
506.266144 84.0
517.903809 68.0
519.168213 32.0
523.271301 56.0
539.488953 44.0
542.854919 36.0
542.901306 48.0
547.809387 36.0
553.469727 60.0
554.256653 88.0
561.84967 40.0
563.809204 20.0
576.349548 184.0
576.999512 44.0
577.85083 64.0
583.029419 44.0
585.468445 104.0
595.21228 60.0
609.293396 44.0
617.535095 44.0
621.567627 36.0
641.820923 64.0
650.898438 40.0
651.680603 28.0
665.943237 84.0
666.045959 92.0
670.501526 232.0
671.03241 80.0
678.689636 72.0
709.280945 148.0
716.73175 220.0
721.064819 136.0
722.283875 124.0
736.284912 96.0
741.115417 96.0
747.343079 156.0
751.063843 164.0
758.713928 120.0
762.265015 236.0
768.718628 156.0
776.602112 116.0
795.136414 60.0
799.142883 252.0
802.065613 108.0
805.558411 180.0
807.604614 76.0
809.625061 120.0
828.214783 92.0
842.584351 44.0
844.607605 116.0
857.771057 48.0
859.223083 196.0
859.97583 40.0
874.764343 164.0
876.254272 172.0
891.57959 164.0
896.23291 40.0
897.037476 164.0
898.440186 68.0
901.125305 100.0
923.650818 200.0
932.940674 72.0
938.834473 236.0
939.499329 252.0
942.191528 160.0
943.456543 144.0
944.220825 156.0
944.526611 64.0
946.950378 216.0
948.90509 136.0
950.291199 204.0
956.596436 204.0
961.98407 140.0
964.164368 92.0
965.512024 164.0
972.754944 228.0
979.838074 148.0
987.772339 176.0
989.430664 180.0
990.225891 220.0
992.933289 220.0
997.127075 140.0
998.862366 144.0
999.082581 168.0
1001.839844 128.0
1002.539246 184.0
1002.627441 120.0
1005.332825 128.0
1008.863525 240.0
1009.10376 128.0
1014.833557 192.0
1017.301392 92.0
1017.802979 64.0
1018.584106 68.0
1018.8255 152.0
1021.368164 72.0
1023.971313 108.0
1028.702393 172.0
1028.861938 124.0
1029.602661 180.0
1031.704712 148.0
1031.992432 152.0
1035.435059 100.0
1041.412476 196.0
1047.168701 216.0
1049.366089 180.0
1050.210815 156.0
1065.557617 180.0
1065.721436 52.0
1067.938232 112.0
1071.088379 188.0
1072.85437 160.0
1086.253296 200.0
1086.705933 148.0
1088.09729 116.0
1088.222046 108.0
1090.015137 192.0
1090.849854 60.0
1093.915161 64.0
1100.547363 92.0
1100.910522 104.0
1102.621582 140.0
1103.910645 172.0
1104.128906 92.0
1104.241333 40.0
1105.001953 188.0
1106.074097 140.0
1109.154053 160.0
1109.69104 180.0
1111.966309 144.0
1112.829224 128.0
1113.021729 144.0
1114.702271 216.0
1115.360229 136.0
1115.89209 132.0
1116.437256 136.0
1118.459839 172.0
1120.744019 168.0
1121.390381 184.0
1121.82373 180.0
1122.743774 164.0
1122.970581 196.0
1124.144653 128.0
1124.351562 200.0
1124.484985 100.0
1124.63855 176.0
1127.831177 200.0
1128.172119 72.0
1130.466187 216.0
1131.845093 136.0
1132.246826 120.0
1132.488037 176.0
1137.28186 164.0
1138.174805 164.0
1138.544067 152.0
1139.84729 144.0
1143.108521 232.0
1143.532471 152.0
1143.868042 140.0
1146.657471 188.0
1149.415527 164.0
1152.44043 168.0
1153.623169 196.0
1154.099609 204.0
1154.502075 208.0
1154.928223 144.0
1155.73999 220.0
1156.910767 144.0
1157.594604 104.0
1158.996704 212.0
1159.742188 196.0
1160.630249 132.0
1162.074951 220.0
1162.332764 232.0
1162.760254 208.0
1163.459473 116.0
1166.094849 160.0
1166.149292 192.0
1167.298218 136.0
1168.161865 156.0
1168.746948 220.0
1169.216553 212.0
1171.572388 156.0
1172.553589 200.0
1172.703491 172.0
1173.855591 200.0
1174.251099 164.0
1174.373901 228.0
1175.977295 100.0
1176.11377 140.0
1176.516479 52.0
1178.613159 144.0
1179.139404 160.0
1181.984131 144.0
1186.189209 144.0
1187.464478 100.0
1189.969116 88.0
1191.088501 176.0
1200.331177 164.0
1202.041748 132.0
1204.686035 36.0
1204.734375 172.0
1205.287109 164.0
1206.482788 192.0
1208.813599 96.0
1209.429565 140.0
1212.650146 144.0
1213.100708 144.0
1214.697021 204.0
1214.993896 132.0
1217.575928 168.0
1218.90271 176.0
1218.951416 64.0
1219.173706 156.0
1219.368408 224.0
1219.465698 164.0
1219.708862 132.0
1223.019775 136.0
1223.200684 60.0
1223.660156 112.0
1224.091919 208.0
1226.850952 240.0
1227.645752 124.0
1229.787476 252.0
1232.566895 172.0
1232.895386 140.0
1233.964844 148.0
1235.02771 216.0
1235.637085 176.0
1237.588989 152.0
1238.709473 192.0
1239.662354 148.0
1240.692627 152.0
1240.86792 204.0
1241.31665 140.0
1242.172241 156.0
1242.698364 168.0
1245.864624 100.0
1246.433716 156.0
1252.138794 108.0
1252.526123 100.0
1253.308105 88.0
1254.139648 160.0
1255.726074 100.0
1255.909424 140.0
1256.325562 48.0
1257.638062 180.0
1258.343994 116.0
1259.057129 128.0
1260.872681 100.0
1262.067383 148.0
1262.696777 212.0
1263.198853 164.0
1264.012451 128.0
1264.295532 124.0
1265.442261 60.0
1266.589478 164.0
1269.26123 180.0
1270.764893 152.0
1272.183472 180.0
1272.567627 148.0
1274.080322 116.0
1274.755249 84.0
1275.209229 156.0
1275.544189 104.0
1275.657959 148.0
1278.161255 120.0
1278.616699 216.0
1279.164795 192.0
1279.762817 184.0
1280.61731 116.0
1280.938477 168.0
1281.899658 172.0
1284.154175 192.0
1286.457153 212.0
1287.618652 208.0
1288.735229 188.0
1292.825317 152.0
1293.848877 68.0
1294.321411 108.0
1295.05188 76.0
1297.459473 148.0
1298.176514 208.0
1302.037354 48.0
1303.244141 152.0
1305.407715 136.0
1306.26355 56.0
1307.105225 152.0
1307.889771 148.0
1310.381348 124.0
1312.853638 104.0
1313.942749 212.0
1315.580933 172.0
1315.71814 176.0
1316.938477 232.0
1317.133423 172.0
1317.429565 164.0
1318.817017 144.0
1319.236206 276.0
1319.908569 184.0
1320.031494 188.0
1320.624512 140.0
1321.224854 184.0
1323.106445 212.0
1323.381592 128.0
1324.212769 184.0
1325.561768 248.0
1327.468262 196.0
1327.714844 136.0
1330.544556 192.0
1332.280273 188.0
1334.336914 260.0
1334.933105 200.0
1335.034912 188.0
1335.296753 188.0
1337.843384 172.0
1338.090942 124.0
1340.020874 132.0
1342.564819 28.0
1344.687744 60.0
1345.220581 148.0
1346.702759 184.0
1347.016846 132.0
1349.326172 148.0
1349.772095 236.0
1350.028076 156.0
1350.349854 192.0
1350.569214 156.0
1350.737427 224.0
1350.898438 132.0
1351.827637 184.0
1352.710327 52.0
1353.145142 128.0
1353.525757 184.0
1354.653687 216.0
1356.177734 36.0
1359.492676 108.0
1361.151611 168.0
1362.951172 176.0
1364.928467 124.0
1365.348389 188.0
1366.318481 168.0
1366.89978 180.0
1367.606201 272.0
1368.452759 88.0
1368.766479 128.0
1369.014771 252.0
1369.218628 168.0
1370.257202 136.0
1372.409302 160.0
1372.726318 220.0
1374.747559 156.0
1374.85083 208.0
1375.426514 140.0
1375.876831 156.0
1376.511841 196.0
1378.321777 212.0
1378.594849 44.0
1380.117554 212.0
1382.264038 180.0
1384.290894 188.0
1385.194458 128.0
1386.550293 96.0
1389.583862 152.0
1390.451172 196.0
1393.488281 144.0
1395.115723 196.0
1395.628784 168.0
1396.142578 208.0
1396.788818 152.0
1398.038818 152.0
1398.708618 172.0
1400.302002 164.0
1400.46582 196.0
1403.185669 200.0
1405.430664 124.0
1406.064941 184.0
1408.705444 116.0
1409.326904 140.0
1409.903442 136.0
1411.869629 200.0
1412.901855 256.0
1415.13208 196.0
1417.311646 132.0
1418.300781 124.0
1418.420776 132.0
1419.417847 56.0
1419.680298 80.0
1420.047852 240.0
1421.135498 168.0
1421.488159 168.0
1421.758301 116.0
1422.861694 52.0
1423.559937 44.0
1424.626465 192.0
1425.129761 188.0
1427.738159 228.0
1431.109253 160.0
1432.464844 164.0
1432.826416 120.0
1433.022217 176.0
1433.157837 148.0
1434.001831 124.0
1434.160156 148.0
1434.898926 240.0
1436.950195 164.0
1437.199219 136.0
1437.644409 152.0
1441.66333 244.0
1442.057007 176.0
1442.810791 100.0
1443.786133 124.0
1444.580322 128.0
1445.064453 152.0
1446.123901 136.0
1446.911133 176.0
1446.979248 192.0
1447.463745 224.0
1447.940918 188.0
1449.743896 196.0
1451.13855 140.0
1451.221924 140.0
1452.05603 196.0
1452.147095 180.0
1453.019409 116.0
1454.051392 140.0
1454.347412 80.0
1455.645508 180.0
1456.442993 192.0
1456.777222 236.0
1456.898682 160.0
1457.050659 116.0
1457.498901 188.0
1458.912598 180.0
1459.186279 120.0
1459.24707 176.0
1459.726074 204.0
1461.216797 52.0
1464.192993 140.0
1465.45752 160.0
1465.708984 80.0
1466.310913 140.0
1466.669189 52.0
1468.338867 232.0
1469.093994 152.0
1469.475464 132.0
1470.44458 220.0
1471.28418 164.0
1471.803345 64.0
1472.803711 212.0
1473.498901 204.0
1474.087158 228.0
1475.898804 180.0
1476.388184 80.0
1477.543091 176.0
1480.589478 232.0
1480.666138 216.0
1482.872559 204.0
1484.582153 128.0
1484.980957 168.0
1485.525513 72.0
1487.781616 168.0
1488.917969 180.0
1489.593872 176.0
1490.81543 192.0
1493.893799 160.0
1495.845459 152.0
1495.953247 124.0
1496.730835 184.0
1498.562378 200.0
1498.664062 168.0
1499.041626 72.0
1499.897095 152.0
1500.190063 168.0
1500.937866 92.0
