>compound Sulfamethizole (Proklar)
>formula C9H10N4O2S2
>ionization [M+H]+
>parentmass 271.031464
#inchi InChI=1S/C9H10N4O2S2/c1-6-11-12-9(16-6)13-17(14,15)8-4-2-7(10)3-5-8/h2-5H,10H2,1H3,(H,12,13)
#inchikey VACCAVUAMIDAGB
#Ion_Source LC-ESI
#Instrument qTof
#Compound_Source Commercial
#PI Dorrestein
#Data_Collector Garg_Neha
#Scan -1
#Precursor_MZ 271.032
#ExactMass 270.025
#Charge 1
#CAS_Number 144-82-1
#Pubmed_ID N/A
#Smiles C1=C(C=CC(=C1)S(NC2SC(=NN=2)C)(=O)=O)N
#INCHI_AUX N/A
#Library_Class 1
#SpectrumID CCMSLIB00000078357
#IonMode Positive
#UpdateWorkflowName UPDATE-SINGLE-ANNOTATED-GOLD
#LibraryQualityString Gold
#TaskID 77f51c88eb8b467eb4a01dd2d0cb90d2
##Scan# 1067
#SpectrumFile Plate5_61_88_GH9_01_16511.mzXML
#LibraryName FDALibrary_2_04302014.mgf
#MQScore -1
#Organism FDALibrary_2_04302014
#TIC_Query 0
#RT_Query -1
#MZErrorPPM -1
#SharedPeaks 0
#MassDiff 0
#LibMZ -1
#SpecMZ 271.032
#SpecCharge 0
#internalFilename spec-00000.mgf

>collision 10
45.554852 168.0
45.601063 168.0
45.66507 180.0
45.713501 204.0
46.277721 152.0
46.287201 152.0
46.33596 140.0
46.372547 180.0
46.800461 196.0
46.868565 164.0
46.884914 220.0
46.914902 148.0
46.953079 188.0
46.98991 184.0
47.097755 184.0
47.651192 168.0
47.929119 196.0
48.003555 168.0
48.071148 188.0
48.165031 204.0
48.964043 204.0
49.101906 140.0
49.744137 216.0
49.821373 160.0
49.848068 144.0
50.225658 200.0
50.250767 216.0
50.421627 224.0
50.472519 160.0
50.599339 164.0
50.67067 180.0
50.700428 192.0
51.129314 180.0
51.26318 160.0
51.430042 156.0
51.753124 228.0
51.776035 260.0
52.105587 176.0
52.205124 188.0
52.61433 192.0
52.699539 172.0
53.690983 164.0
54.227539 264.0
54.308178 216.0
54.343388 228.0
54.769707 192.0
54.833061 184.0
55.245022 204.0
55.51162 180.0
55.891888 168.0
55.96685 144.0
56.148109 184.0
56.63385 176.0
56.840733 168.0
57.180359 184.0
57.190895 160.0
57.318905 184.0
57.328671 152.0
57.373165 200.0
57.660259 100.0
58.256947 200.0
58.37854 176.0
58.899776 192.0
59.228642 224.0
59.268475 152.0
59.314449 184.0
59.758266 212.0
59.864475 248.0
60.03553 200.0
60.157417 192.0
60.518173 196.0
61.378437 164.0
61.851807 176.0
61.884682 188.0
62.105644 160.0
62.544022 228.0
62.892365 232.0
63.168884 140.0
63.181541 152.0
63.214767 252.0
63.287582 188.0
63.369106 220.0
63.488827 204.0
64.088104 160.0
64.977051 148.0
65.377144 184.0
65.683266 228.0
65.705849 152.0
66.098473 216.0
66.266861 216.0
66.32196 164.0
67.108772 216.0
67.286606 216.0
67.3601 168.0
67.466316 180.0
67.626617 220.0
67.970764 180.0
68.458984 152.0
68.768921 148.0
68.901024 164.0
69.207001 172.0
69.281525 148.0
69.327919 160.0
69.385933 144.0
69.420753 156.0
69.628197 200.0
69.641479 172.0
69.703857 164.0
69.732864 196.0
70.137665 152.0
70.315781 144.0
70.668365 216.0
71.075523 144.0
71.393005 156.0
71.692657 164.0
71.707825 168.0
71.746597 228.0
71.859589 152.0
71.888275 160.0
72.041374 148.0
72.155151 188.0
72.192345 152.0
72.301994 256.0
73.094803 208.0
73.169693 160.0
73.307655 180.0
73.99601 196.0
74.165604 140.0
74.196457 184.0
74.257843 220.0
74.806313 176.0
74.978546 152.0
75.138908 148.0
75.163063 192.0
75.754349 184.0
75.809204 164.0
76.274925 184.0
76.391434 200.0
76.443626 164.0
76.748459 204.0
76.825195 152.0
76.94561 224.0
77.052147 164.0
77.515816 240.0
77.784149 260.0
77.83506 144.0
78.017784 188.0
78.232407 176.0
78.309883 208.0
78.498451 140.0
78.616638 164.0
79.012428 216.0
79.047821 212.0
79.118614 256.0
79.148712 204.0
79.4356 200.0
79.693245 172.0
79.99202 200.0
80.029404 156.0
80.510857 188.0
80.603752 196.0
80.64843 148.0
80.927498 168.0
80.943611 176.0
81.119186 176.0
81.799995 208.0
81.854012 188.0
81.917046 172.0
82.129745 184.0
82.344528 168.0
82.447502 160.0
82.724236 188.0
82.769501 164.0
83.00325 232.0
83.404465 176.0
83.617264 156.0
83.651848 252.0
84.091125 176.0
84.127632 148.0
84.147888 208.0
84.164146 188.0
84.207977 140.0
84.313293 216.0
84.345009 152.0
84.434601 196.0
84.484528 248.0
84.831924 188.0
85.041031 148.0
85.07798 184.0
85.239365 156.0
86.097809 224.0
86.301071 180.0
86.482368 152.0
86.565674 208.0
86.693497 196.0
87.081238 216.0
87.493141 240.0
87.570389 176.0
87.911552 220.0
88.227211 144.0
88.346893 144.0
88.382446 236.0
88.957809 204.0
89.576477 140.0
89.672569 200.0
89.693298 160.0
90.080132 184.0
90.2332 176.0
90.31073 148.0
90.464005 200.0
90.939774 248.0
90.975838 144.0
91.0271 172.0
91.072678 180.0
91.262718 168.0
91.319763 152.0
91.595757 168.0
91.799683 172.0
91.896965 340.0
92.049408 3124.0
92.083313 256.0
92.67897 208.0
92.851494 164.0
92.989632 172.0
93.053856 340.0
93.520103 140.0
93.570908 172.0
93.66066 140.0
93.730011 200.0
93.772408 164.0
93.932442 156.0
93.972954 188.0
94.061729 180.0
94.731659 144.0
94.86644 244.0
95.604515 204.0
95.692108 252.0
95.801163 224.0
95.853767 196.0
95.97657 240.0
96.105301 168.0
96.171654 148.0
96.540901 156.0
96.993164 180.0
97.711899 176.0
97.739449 172.0
97.948128 168.0
98.050583 188.0
98.068321 184.0
98.090347 184.0
98.455009 188.0
98.990921 140.0
99.181114 152.0
99.359589 236.0
99.436974 148.0
99.852203 204.0
100.094986 156.0
100.519569 172.0
100.837097 152.0
100.933052 144.0
100.971046 184.0
101.720406 180.0
101.899139 152.0
102.011681 192.0
102.055908 184.0
102.186638 256.0
102.565231 200.0
102.740669 152.0
102.791107 172.0
102.918274 192.0
103.247658 208.0
103.498581 156.0
103.832939 196.0
103.910019 220.0
103.936394 156.0
104.029121 128.0
104.1455 148.0
104.629463 200.0
105.948746 140.0
106.053253 144.0
106.393768 176.0
106.590942 204.0
106.985832 180.0
107.521744 176.0
107.781937 144.0
107.843933 176.0
107.868744 192.0
107.911278 160.0
108.043915 15216.0
108.072929 164.0
108.560257 184.0
108.695091 204.0
108.898537 176.0
109.046577 1128.0
109.364273 160.0
109.666283 144.0
109.781921 156.0
109.997932 172.0
110.033424 200.0
110.202591 184.0
110.35099 164.0
110.570625 160.0
112.244911 208.0
112.546646 172.0
113.009529 292.0
113.104759 168.0
113.394928 176.0
113.94664 172.0
114.562607 164.0
114.815109 192.0
115.019928 184.0
115.158714 244.0
115.192894 152.0
115.56488 184.0
116.026466 2172.0
117.026527 200.0
117.293655 168.0
117.3993 148.0
117.431648 168.0
117.541672 156.0
118.021858 196.0
118.079582 184.0
118.551529 196.0
118.844261 184.0
119.393837 200.0
121.892494 164.0
122.343376 164.0
122.35878 204.0
122.504128 264.0
123.787346 160.0
124.077599 164.0
124.10199 184.0
124.403709 212.0
124.596916 192.0
126.076439 144.0
126.826195 152.0
126.904655 196.0
127.308556 152.0
127.407387 264.0
127.580429 192.0
127.890846 148.0
127.915604 160.0
128.023682 220.0
128.358017 212.0
128.657013 144.0
129.85437 168.0
130.049133 148.0
130.087967 152.0
130.947723 252.0
131.002975 212.0
131.061371 148.0
131.748093 204.0
131.777802 212.0
131.937775 200.0
132.505341 152.0
132.723083 148.0
133.319916 184.0
133.759201 184.0
134.411423 196.0
134.575302 316.0
134.591461 156.0
135.053665 188.0
135.1138 164.0
135.718292 152.0
135.947937 196.0
136.233521 184.0
136.286957 268.0
136.554291 184.0
136.973251 156.0
137.145676 168.0
137.161987 156.0
137.180649 316.0
138.049179 164.0
138.1521 156.0
138.857132 180.0
139.065247 160.0
139.112885 164.0
139.258469 140.0
139.455826 224.0
139.533401 156.0
139.648621 160.0
139.752136 164.0
139.919235 212.0
139.94278 160.0
139.980453 156.0
140.015778 164.0
140.140625 144.0
140.432938 192.0
140.477753 192.0
140.779861 232.0
140.940491 164.0
141.60759 200.0
141.894882 204.0
141.927505 164.0
141.97731 164.0
141.996277 208.0
142.08168 196.0
142.152847 204.0
142.342758 200.0
142.497147 160.0
142.755844 172.0
143.141724 160.0
143.179825 140.0
143.320374 164.0
143.565903 192.0
144.076691 144.0
144.921234 156.0
145.031464 212.0
145.276047 168.0
145.540054 144.0
145.708176 188.0
147.351257 156.0
147.868729 216.0
148.084213 200.0
148.607819 168.0
148.72673 164.0
148.797119 160.0
149.668472 212.0
149.825851 164.0
150.010941 164.0
150.147598 228.0
150.386703 196.0
150.841019 140.0
151.631592 144.0
151.756622 144.0
152.490601 176.0
152.554504 144.0
153.260849 164.0
153.324265 152.0
153.689926 156.0
153.731812 148.0
154.067612 140.0
154.193634 228.0
154.883743 136.0
154.945862 252.0
155.278015 160.0
155.305298 152.0
155.349945 176.0
155.568329 228.0
155.585693 164.0
155.62294 184.0
155.692474 240.0
155.732864 152.0
155.823471 108.0
155.866364 184.0
155.904663 216.0
155.940231 344.0
156.011658 103884.0
156.101501 100.0
156.173279 96.0
156.24353 100.0
156.298218 172.0
156.343246 108.0
156.420547 620.0
156.483521 104.0
156.655029 160.0
156.824631 120.0
156.896759 192.0
156.971344 140.0
157.013977 7284.0
157.84021 128.0
157.880035 120.0
157.917786 112.0
158.00769 3412.0
158.077103 132.0
158.107361 108.0
158.217484 212.0
158.299454 120.0
158.325134 152.0
158.357056 100.0
158.967758 168.0
159.007843 152.0
159.346893 156.0
161.60173 240.0
162.416611 192.0
163.094559 156.0
164.784103 144.0
168.655869 208.0
168.685242 172.0
168.91539 144.0
169.643036 188.0
170.130737 140.0
171.514206 216.0
174.019348 176.0
177.971832 424.0
179.963211 288.0
181.082779 200.0
183.401489 168.0
184.140762 188.0
184.949188 156.0
185.071014 180.0
191.629044 152.0
192.56694 204.0
196.634369 148.0
203.650787 168.0
205.053467 364.0
206.060745 156.0
207.059052 164.0
209.080154 148.0
211.061935 208.0
212.199814 172.0
212.791672 144.0
212.884583 152.0
213.745026 180.0
214.81134 232.0
215.973892 240.0
220.844727 148.0
221.61145 180.0
222.798172 240.0
223.624817 184.0
224.33493 96.0
224.602112 216.0
233.025467 160.0
233.819122 212.0
234.126602 220.0
234.632401 140.0
235.150955 160.0
235.422668 148.0
236.049118 176.0
238.569351 148.0
239.221512 160.0
240.087311 164.0
243.038361 164.0
243.982529 184.0
244.461517 244.0
247.420456 176.0
247.573883 148.0
248.10968 232.0
248.689987 140.0
249.840073 216.0
250.293274 184.0
253.15419 160.0
253.534332 148.0
254.143158 144.0
254.438324 216.0
254.670135 204.0
257.444092 140.0
258.182312 152.0
260.599213 192.0
261.615509 156.0
263.728302 144.0
266.570526 160.0
266.866333 220.0
267.175903 160.0
267.722107 156.0
269.125092 324.0
269.153656 172.0
269.190643 132.0
269.408386 196.0
269.954224 188.0
270.023438 168.0
270.222443 152.0
270.523529 188.0
270.634827 148.0
270.697052 168.0
270.803925 168.0
271.031464 45596.0
271.12323 104.0
271.146637 224.0
271.200684 120.0
271.526917 120.0
271.74173 152.0
272.03418 4848.0
272.198883 244.0
273.027924 3724.0
273.168884 708.0
273.275879 96.0
273.530396 156.0
273.606659 116.0
273.791473 172.0
273.820129 204.0
273.883423 112.0
274.030151 436.0
274.081909 156.0
274.173309 140.0
275.800873 152.0
276.596893 140.0
304.018768 104.0
316.949707 160.0
363.000793 164.0
1177.397461 148.0
1230.283691 196.0
1348.552856 196.0
1365.805298 220.0
1412.589722 152.0
1412.791748 160.0
1415.126709 224.0
1418.400391 144.0
1424.313232 148.0
1434.267944 256.0
1452.430176 140.0
1453.530151 168.0
1473.195923 236.0
1476.245483 160.0
1506.28894 208.0
1510.501709 204.0
1510.950317 144.0
1517.502441 204.0
1521.800659 208.0
1528.080566 168.0
1530.065063 176.0
1531.92627 144.0
1537.96167 236.0
1542.593628 184.0
1565.196411 164.0
1575.520508 168.0
1576.310547 176.0
1584.095703 184.0
1585.204834 184.0
1586.647339 192.0
1593.083374 160.0
1594.608887 208.0
1595.022217 148.0
1606.297363 184.0
1610.416016 148.0
1611.00708 160.0
1611.678223 184.0
1611.822021 144.0
1613.023926 136.0
1629.448975 144.0
1631.441895 196.0
1640.474121 176.0
1644.708862 160.0
1648.44812 172.0
1655.526367 196.0
1656.34436 140.0
1657.413696 192.0
1668.988281 216.0
1671.753906 160.0
1674.041382 164.0
1680.660156 196.0
1685.281494 164.0
1686.025024 236.0
1687.774414 152.0
1687.937866 180.0
1689.442871 184.0
1691.782837 172.0
1691.922485 160.0
1693.101562 152.0
1694.158081 172.0
1702.803467 152.0
1708.022583 156.0
1710.161865 152.0
1712.56604 224.0
1716.604248 220.0
1719.788696 160.0
1729.177734 144.0
1736.65918 188.0
1742.943481 232.0
1756.530273 208.0
1759.083618 180.0
1771.836548 164.0
1773.847778 208.0
1774.186768 200.0
1774.308838 184.0
1779.099121 168.0
1780.753296 204.0
1794.317749 172.0
1797.008057 228.0
1799.210815 240.0
1802.200562 204.0
1803.721802 144.0
1808.458374 204.0
1808.796997 176.0
1812.421631 180.0
1813.040161 148.0
1827.484009 140.0
1827.917969 236.0
1828.266846 224.0
1828.888062 168.0
1830.658936 248.0
1841.295044 176.0
1847.687012 192.0
1850.990723 156.0
1855.334595 148.0
1855.651733 212.0
1865.232178 216.0
1865.704956 184.0
1865.851074 148.0
1866.091797 160.0
1867.218262 184.0
1870.470581 216.0
1875.992188 168.0
1876.173218 164.0
1886.610229 196.0
1892.467285 172.0
1895.776123 164.0
1905.172729 244.0
1907.206055 196.0
1910.031982 228.0
1912.033081 148.0
1925.432617 168.0
1927.441772 208.0
1930.61499 156.0
1932.218628 152.0
1935.935547 176.0
1936.898926 156.0
1938.011475 228.0
1938.432129 140.0
1938.817749 204.0
1939.185791 156.0
1944.886841 184.0
1945.799683 172.0
1945.975342 156.0
1951.49292 216.0
1955.433716 172.0
1955.557007 188.0
1956.11145 148.0
1956.507568 164.0
1956.89502 172.0
1957.898804 244.0
1958.982178 180.0
1960.797241 144.0
1962.375122 196.0
1966.415161 164.0
1968.631104 148.0
1970.150269 144.0
1970.839355 164.0
1980.632568 160.0
1981.341187 176.0
1985.498291 212.0
1988.230713 188.0
1989.81958 204.0
1991.258057 200.0
1992.553345 140.0
2002.098999 140.0
2003.185669 156.0
