>compound MLS000876998-01!5-hydroxy-2-(4-hydroxyphenyl)-6,7-dimethoxychromen-4-one
>formula C17H14O6
>ionization [M+H]+
>parentmass 315.087524
#inchi InChI=1S/C17H14O6/c1-21-14-8-13-15(16(20)17(14)22-2)11(19)7-12(23-13)9-3-5-10(18)6-4-9/h3-8,18,20H,1-2H3
#inchikey ZIIAJIWLQUVGHB
#Ion_Source LC-ESI
#Instrument qTof
#Compound_Source NIH Natural Product Library
#PI Dorrestein
#Data_Collector VVP/LMS
#Scan -1
#Precursor_MZ 315.087
#ExactMass 314.079
#Charge 1
#CAS_Number N/A
#Pubmed_ID N/A
#Smiles COc1cc2oc(cc(=O)c2c(O)c1OC)c3ccc(O)cc3
#INCHI_AUX N/A
#Library_Class 1
#SpectrumID CCMSLIB00000080576
#IonMode Positive
#UpdateWorkflowName UPDATE-SINGLE-ANNOTATED-GOLD
#LibraryQualityString Gold
#TaskID b1d8e8f6646f4e71acdff9ca3d919d08
##Scan# 2027
#SpectrumFile p2-H10_GH10_01_18070.mzXML
#LibraryName NIH_Natural_Products_Library.mgf
#MQScore -1
#Organism NIH_Natural_Products_Library
#TIC_Query 0
#RT_Query -1
#MZErrorPPM -1
#SharedPeaks 0
#MassDiff 0
#LibMZ -1
#SpecMZ 315.087
#SpecCharge 0
#internalFilename spec-00000.mgf

>collision 10
94.959106 140.0
94.992081 136.0
95.065811 168.0
95.331863 68.0
95.814423 124.0
95.987892 244.0
96.017143 180.0
96.052254 184.0
96.176163 248.0
96.339218 208.0
96.513161 148.0
96.965378 160.0
97.008499 176.0
97.098701 104.0
97.316521 104.0
97.505104 152.0
97.646667 152.0
97.772583 48.0
97.904488 148.0
97.94191 184.0
98.18631 184.0
98.215897 152.0
98.235619 108.0
98.269157 108.0
98.314545 132.0
98.606842 68.0
98.826347 168.0
98.928917 204.0
98.945335 172.0
99.085724 228.0
99.129311 144.0
99.222473 152.0
99.414879 76.0
99.442665 184.0
99.530014 248.0
99.623367 192.0
99.663101 196.0
99.800247 172.0
99.816154 104.0
99.965355 80.0
100.220238 88.0
100.453499 140.0
100.73497 216.0
100.900848 208.0
101.062859 108.0
101.804543 132.0
102.00145 176.0
102.112038 140.0
102.476402 120.0
102.908035 124.0
103.043358 156.0
103.075684 208.0
103.215164 144.0
103.251564 152.0
103.374969 96.0
103.453911 120.0
103.474152 120.0
103.703064 92.0
103.895706 208.0
104.236816 172.0
104.444191 184.0
104.484879 180.0
104.723045 124.0
104.737305 188.0
104.904404 224.0
104.934982 160.0
104.987549 216.0
105.029594 204.0
105.073677 116.0
105.212456 140.0
105.50869 176.0
105.971237 120.0
106.003769 160.0
106.120865 132.0
106.299324 148.0
106.529282 192.0
107.007927 336.0
107.039352 144.0
107.259804 100.0
107.395897 192.0
107.428902 160.0
107.472229 40.0
107.521751 176.0
107.738571 176.0
107.882355 180.0
107.899773 100.0
108.020729 14960.0
108.067818 160.0
108.0942 64.0
108.150078 56.0
108.181129 112.0
108.212189 108.0
108.239105 92.0
108.456642 92.0
108.566528 108.0
108.717972 92.0
108.84668 100.0
109.024025 984.0
109.14798 60.0
109.218697 148.0
109.291504 112.0
109.439293 220.0
109.470528 108.0
109.618431 68.0
109.68721 160.0
109.766441 164.0
109.845695 72.0
109.96254 88.0
110.075279 124.0
110.411736 176.0
110.455658 152.0
110.738235 104.0
110.771751 84.0
111.262482 140.0
111.554497 164.0
111.775337 144.0
112.205017 260.0
112.413841 32.0
112.553162 100.0
113.100723 180.0
113.276482 164.0
113.503258 152.0
113.759987 220.0
113.857658 172.0
114.006371 208.0
114.13179 136.0
114.224152 140.0
114.267921 68.0
114.606461 112.0
114.723679 144.0
114.813232 224.0
115.056389 232.0
115.088516 136.0
115.364128 128.0
115.732124 192.0
115.978493 56.0
116.085686 64.0
116.272331 144.0
116.351753 132.0
116.772934 160.0
116.932144 136.0
117.069931 184.0
117.203491 224.0
117.287544 160.0
117.526932 160.0
117.719048 180.0
117.73632 112.0
117.967522 104.0
118.041817 1552.0
118.250885 96.0
118.452255 132.0
118.679817 180.0
118.862022 248.0
118.883568 168.0
119.049332 5352.0
119.289894 144.0
119.347794 228.0
119.422531 68.0
119.487793 100.0
119.666267 60.0
119.901527 240.0
120.053215 260.0
120.287598 196.0
120.379295 176.0
120.499435 100.0
120.571548 136.0
120.715836 152.0
120.875526 228.0
120.974014 216.0
121.028152 3732.0
121.502174 100.0
121.589951 68.0
121.651413 120.0
121.89521 180.0
121.961143 144.0
122.03196 556.0
122.068871 120.0
122.106255 140.0
122.12825 48.0
122.590599 144.0
122.910347 92.0
123.011139 180.0
123.044983 92.0
123.064857 108.0
123.157608 216.0
123.431656 164.0
123.555519 212.0
123.787926 180.0
123.896461 192.0
123.92083 156.0
124.016747 660.0
124.537552 184.0
125.022659 168.0
125.086784 132.0
125.180298 244.0
125.985489 112.0
126.03688 280.0
126.063698 52.0
126.699158 72.0
126.755173 72.0
126.860512 212.0
126.954689 92.0
127.05114 164.0
127.378891 196.0
127.542931 192.0
127.599129 96.0
127.63736 88.0
128.068024 332.0
128.100998 128.0
128.119019 84.0
128.387253 92.0
128.74382 176.0
128.95845 140.0
129.076019 220.0
129.158646 128.0
129.243286 220.0
129.578506 152.0
129.61702 168.0
129.750763 140.0
129.802902 100.0
129.934464 164.0
130.09787 360.0
130.518188 240.0
130.684235 108.0
130.99614 40.0
131.048599 160.0
131.509201 196.0
131.680435 92.0
131.7444 148.0
131.803802 164.0
131.975235 116.0
132.055283 176.0
132.208572 96.0
132.290298 176.0
132.448975 164.0
132.707947 236.0
132.902908 204.0
133.045212 128.0
133.442673 192.0
133.488663 176.0
133.507065 100.0
133.594467 100.0
133.998535 848.0
134.068787 60.0
134.14946 144.0
134.368546 104.0
134.513947 172.0
134.608612 152.0
134.657104 156.0
134.698685 120.0
134.825958 188.0
134.888123 180.0
135.004105 580.0
135.27449 132.0
135.487549 208.0
135.689178 144.0
135.819046 116.0
135.921127 76.0
135.945862 200.0
136.016113 21176.0
136.051102 176.0
136.077057 164.0
136.118423 36.0
136.246185 48.0
136.269974 164.0
136.332153 64.0
136.353073 48.0
136.480927 64.0
137.019867 940.0
137.06752 184.0
137.086151 72.0
137.153748 76.0
137.40094 72.0
137.900665 44.0
138.016968 320.0
138.057312 132.0
138.078354 68.0
138.155548 256.0
138.230423 84.0
138.616806 204.0
139.003326 516.0
139.182129 80.0
139.370041 192.0
139.593353 60.0
139.692139 140.0
139.722717 136.0
140.010284 196.0
140.111176 140.0
140.299728 136.0
140.545013 152.0
140.809418 164.0
140.958252 120.0
141.069839 592.0
141.241959 156.0
141.346054 52.0
141.424149 180.0
141.603592 148.0
141.675156 140.0
141.748611 148.0
142.080093 304.0
142.227692 136.0
142.931168 108.0
143.069214 148.0
143.393173 148.0
143.452759 168.0
143.629227 100.0
143.724655 92.0
143.762833 152.0
144.055893 820.0
144.238129 52.0
144.336151 168.0
144.494019 116.0
145.028046 136.0
145.063202 120.0
145.390198 80.0
145.731186 196.0
145.805679 156.0
145.935501 144.0
145.961945 168.0
146.040085 164.0
146.106262 28.0
146.142349 56.0
147.041214 208.0
147.164322 132.0
147.311646 40.0
147.384125 212.0
147.635529 136.0
147.698425 124.0
147.846008 108.0
148.560806 188.0
148.611755 188.0
148.924911 124.0
149.019669 56.0
149.058533 236.0
150.173569 136.0
150.200394 60.0
150.754623 68.0
150.964859 240.0
151.006439 156.0
151.038574 228.0
151.060257 84.0
151.974091 224.0
152.01088 1872.0
152.060989 416.0
152.086975 136.0
152.137222 60.0
152.165543 92.0
152.185181 228.0
152.226654 108.0
152.543869 184.0
152.568451 48.0
152.890686 64.0
153.016937 1184.0
153.069351 592.0
153.08963 168.0
153.474503 152.0
153.597824 208.0
153.728592 80.0
153.792755 216.0
153.95076 264.0
154.026535 2180.0
154.150864 68.0
154.254669 132.0
154.898056 216.0
155.020966 172.0
155.048767 156.0
155.16571 148.0
155.359161 116.0
155.376526 84.0
155.537827 116.0
155.736465 168.0
156.031189 132.0
156.049591 180.0
156.069489 204.0
156.432724 224.0
157.025757 52.0
157.063873 344.0
157.77739 184.0
157.959946 152.0
158.06752 180.0
158.723831 184.0
159.012329 112.0
159.399078 176.0
159.819 136.0
159.962463 76.0
160.015335 164.0
160.040253 160.0
160.668091 116.0
161.049271 112.0
161.223602 132.0
161.478943 152.0
161.58519 60.0
162.038391 148.0
162.243683 88.0
162.497299 140.0
162.773972 76.0
163.003265 196.0
163.04068 276.0
163.251709 136.0
163.427231 368.0
163.523941 88.0
163.577393 200.0
164.013443 156.0
164.387894 96.0
164.750458 116.0
164.778564 180.0
165.014084 212.0
165.185059 92.0
165.279709 228.0
165.423035 44.0
165.794434 208.0
166.030304 136.0
166.515366 148.0
166.551331 76.0
167.003708 140.0
167.387177 128.0
168.052216 184.0
168.070267 76.0
168.82457 48.0
168.920273 132.0
168.998703 164.0
169.030991 156.0
169.065918 3860.0
169.173874 96.0
169.329239 172.0
169.497635 40.0
169.761795 168.0
169.912491 180.0
170.022858 380.0
170.072372 3164.0
170.283691 48.0
170.722916 168.0
170.884186 144.0
171.019516 80.0
171.045197 276.0
171.072174 1036.0
171.102814 108.0
171.524841 28.0
171.989151 124.0
172.135345 56.0
172.21109 156.0
172.375687 92.0
172.794037 160.0
173.053162 72.0
173.110764 224.0
173.543121 68.0
173.829041 108.0
174.073929 180.0
174.330612 164.0
174.969788 124.0
175.052872 180.0
176.71701 164.0
177.657547 160.0
177.678772 88.0
177.707962 124.0
177.761032 132.0
177.832687 84.0
177.984009 172.0
178.015869 204.0
178.260269 96.0
178.411774 88.0
178.486221 64.0
178.842712 248.0
179.049088 360.0
179.39679 148.0
179.626816 152.0
180.057358 888.0
180.312332 132.0
180.41124 140.0
180.726837 112.0
181.016144 292.0
181.065735 1396.0
181.195389 32.0
181.385666 236.0
181.538483 168.0
181.592133 216.0
181.621628 124.0
181.950851 188.0
182.020355 576.0
182.062729 256.0
182.459488 176.0
182.819916 136.0
182.978729 208.0
183.04335 184.0
183.105301 132.0
183.444366 104.0
184.052902 228.0
184.124771 44.0
184.546326 116.0
184.800583 164.0
184.971069 152.0
185.060989 188.0
185.618607 148.0
185.637589 160.0
185.797623 84.0
185.911575 96.0
185.976715 232.0
186.034973 168.0
186.060867 172.0
186.07988 164.0
187.035553 476.0
187.388107 144.0
188.028931 108.0
188.053497 124.0
188.280106 220.0
189.527527 256.0
190.112961 84.0
190.204941 92.0
191.051331 60.0
191.254974 112.0
191.527573 240.0
191.899612 124.0
193.38031 220.0
193.815094 160.0
193.959213 140.0
194.847244 248.0
194.941711 144.0
195.219711 156.0
195.481201 64.0
196.056427 116.0
196.353195 160.0
196.456406 136.0
196.528946 188.0
197.058746 3580.0
197.126511 84.0
197.761368 140.0
197.904144 32.0
198.0672 2052.0
198.254288 116.0
198.458923 196.0
198.621582 64.0
199.074051 344.0
199.149292 164.0
199.503357 92.0
199.658005 208.0
200.04454 128.0
200.142014 60.0
200.558975 112.0
200.683014 188.0
200.970718 168.0
201.052551 172.0
201.269913 136.0
201.518478 144.0
201.603256 68.0
201.772842 88.0
202.052841 140.0
202.265091 144.0
204.194519 184.0
204.385117 96.0
206.171555 156.0
206.753677 140.0
207.100113 120.0
207.357986 164.0
207.400986 76.0
208.055191 1232.0
208.230194 96.0
208.428421 84.0
208.793503 40.0
208.882675 156.0
209.058151 320.0
209.274078 164.0
209.547318 132.0
210.020477 48.0
210.060852 128.0
210.340775 60.0
210.378296 148.0
210.499557 144.0
210.600647 140.0
210.982086 140.0
211.044205 168.0
211.135345 88.0
211.740219 216.0
212.05014 148.0
212.111099 48.0
213.057144 148.0
213.577484 132.0
213.865555 152.0
214.022247 180.0
214.056305 168.0
214.38916 72.0
214.430603 132.0
214.573441 200.0
215.032242 200.0
215.244537 148.0
215.343826 92.0
216.004425 140.0
216.071716 148.0
216.098038 140.0
216.200455 112.0
216.244354 148.0
216.285339 152.0
216.384872 124.0
216.67775 172.0
216.877029 64.0
218.045181 120.0
218.239197 232.0
218.512741 168.0
218.95134 84.0
219.337326 68.0
219.717743 160.0
220.104401 68.0
220.213669 172.0
220.346588 60.0
220.565277 80.0
221.168701 132.0
221.796677 48.0
221.879669 180.0
223.043381 144.0
223.18013 84.0
223.424026 116.0
223.613007 212.0
223.757355 144.0
224.050827 268.0
225.054016 804.0
225.102112 140.0
225.25145 156.0
225.547272 136.0
225.61731 168.0
225.849274 220.0
225.909103 68.0
225.959961 100.0
225.983902 180.0
226.004852 88.0
226.062424 6436.0
226.161102 76.0
226.239975 164.0
226.313141 92.0
226.474869 84.0
226.594696 68.0
226.639633 72.0
226.666595 96.0
226.717545 108.0
226.762497 124.0
226.825455 56.0
226.876404 44.0
227.064697 824.0
227.107315 108.0
227.146301 84.0
227.407349 184.0
227.434372 52.0
227.572464 164.0
227.602493 120.0
227.65654 144.0
227.836761 76.0
227.965973 244.0
228.038101 272.0
228.068863 188.0
228.305679 196.0
228.404922 136.0
229.048264 304.0
229.115372 156.0
229.763565 96.0
230.050537 180.0
230.146881 124.0
230.29184 152.0
230.947723 148.0
231.65303 156.0
231.680298 100.0
232.450424 236.0
232.486847 100.0
233.170166 76.0
233.404251 116.0
234.158966 140.0
234.451797 276.0
234.713608 196.0
235.342194 192.0
235.736237 144.0
236.112259 116.0
236.326401 216.0
236.586548 48.0
236.782516 132.0
237.052109 128.0
237.340256 120.0
237.846466 176.0
238.08902 112.0
238.654449 72.0
239.029968 188.0
239.383728 96.0
239.528473 152.0
239.996933 160.0
240.046265 204.0
240.774582 96.0
241.04335 84.0
241.22879 48.0
241.361725 252.0
241.432861 40.0
241.686523 208.0
242.057114 308.0
242.197342 196.0
242.466904 136.0
242.749008 60.0
243.062561 176.0
243.264053 60.0
243.882202 36.0
244.068741 108.0
244.093613 40.0
244.361115 140.0
244.42334 144.0
245.220596 36.0
245.345276 148.0
245.385818 48.0
245.510544 112.0
245.587601 192.0
245.728897 100.0
246.412659 132.0
246.765823 72.0
246.797104 124.0
247.122391 160.0
247.385284 168.0
247.566879 84.0
247.604462 124.0
248.532379 108.0
249.110062 184.0
249.361435 252.0
250.74942 128.0
251.194016 180.0
251.86322 80.0
251.894806 112.0
252.045395 892.0
252.30246 152.0
252.514328 80.0
252.757919 232.0
252.78476 96.0
252.912994 204.0
252.96048 144.0
253.048401 1192.0
253.220123 152.0
253.340851 140.0
253.470398 92.0
253.562302 224.0
253.717621 52.0
253.749329 132.0
253.774689 120.0
253.812744 68.0
253.869827 464.0
253.977661 308.0
253.998795 212.0
254.058563 37348.0
254.115448 120.0
254.167175 224.0
254.207596 152.0
254.266388 60.0
254.306061 88.0
254.485428 112.0
254.580688 48.0
254.628326 92.0
254.680176 148.0
254.769867 64.0
254.796677 132.0
254.836395 36.0
254.86264 176.0
254.926956 160.0
254.971848 92.0
255.003235 124.0
255.062286 5240.0
255.158417 92.0
255.184433 48.0
255.209869 232.0
255.375229 36.0
255.428238 64.0
255.583786 72.0
255.607468 68.0
255.661575 96.0
255.728409 48.0
255.828857 172.0
256.063263 1008.0
256.174194 104.0
256.206482 92.0
256.279327 48.0
256.371735 44.0
256.448242 112.0
256.476929 92.0
256.625824 124.0
256.698853 192.0
256.851166 260.0
256.904236 128.0
256.948486 124.0
257.0448 2776.0
257.149933 48.0
257.175476 204.0
257.242493 76.0
257.389374 100.0
257.497955 60.0
257.600159 28.0
257.632111 72.0
257.657654 80.0
257.686432 44.0
257.906921 80.0
257.994904 84.0
258.042206 312.0
258.434601 44.0
258.54303 72.0
258.773865 44.0
258.975616 56.0
259.055695 124.0
259.32486 76.0
259.452209 44.0
259.478149 172.0
260.027283 40.0
260.101105 108.0
260.133209 20.0
260.756348 132.0
260.894562 188.0
260.933136 64.0
261.039246 72.0
261.126068 64.0
261.531494 76.0
261.937225 116.0
262.652832 192.0
262.823822 76.0
263.146576 84.0
263.375854 104.0
263.795959 132.0
264.394318 204.0
266.511871 56.0
266.573639 80.0
266.84668 200.0
267.298798 112.0
267.666626 140.0
267.689423 76.0
267.767578 44.0
268.041229 164.0
268.083588 56.0
269.048462 348.0
269.088257 144.0
269.336456 88.0
269.548798 132.0
269.79068 120.0
269.901917 212.0
269.973785 272.0
270.053162 1384.0
270.150421 28.0
270.268188 64.0
270.451447 60.0
270.508118 92.0
270.654449 136.0
270.703552 52.0
271.008179 124.0
271.060974 5136.0
271.116333 32.0
271.201538 72.0
271.276947 60.0
271.311371 48.0
271.345795 84.0
271.444153 56.0
271.562225 76.0
271.785309 84.0
271.913269 132.0
272.063782 1048.0
272.100098 228.0
272.422241 72.0
272.464935 36.0
272.520782 144.0
272.842896 72.0
273.064758 304.0
273.125702 32.0
273.270447 48.0
273.428406 64.0
274.02771 80.0
274.617798 80.0
274.944427 64.0
275.331451 212.0
277.66394 236.0
277.813232 104.0
278.075348 124.0
278.204803 144.0
278.384125 204.0
278.825958 76.0
279.887177 160.0
280.156952 136.0
280.423523 124.0
280.613525 100.0
281.04657 804.0
281.367554 172.0
281.614655 96.0
281.845184 56.0
281.878601 64.0
281.908661 204.0
281.941467 176.0
282.053345 15168.0
282.133331 148.0
282.159943 84.0
282.203094 96.0
282.224915 72.0
282.299805 68.0
282.376709 140.0
282.433228 84.0
282.580292 56.0
282.751434 48.0
282.825073 72.0
282.878632 72.0
282.908752 64.0
283.056732 3096.0
283.100555 240.0
283.133087 40.0
283.246979 136.0
283.270416 56.0
283.374268 152.0
283.434601 48.0
283.484863 36.0
283.525085 52.0
283.61557 68.0
284.057098 472.0
284.38031 52.0
284.54425 72.0
284.682465 132.0
284.763092 132.0
284.847046 56.0
284.947845 152.0
285.040619 1612.0
285.129303 100.0
285.159546 92.0
285.344421 72.0
285.660553 80.0
285.690826 64.0
286.049225 468.0
286.074463 172.0
286.104767 80.0
286.273132 52.0
286.306793 48.0
286.42807 44.0
286.6875 128.0
287.638611 72.0
288.043854 156.0
288.219513 68.0
289.075043 112.0
290.854401 160.0
290.996979 44.0
291.139587 144.0
292.274994 92.0
292.591522 204.0
293.538757 212.0
293.845734 76.0
295.913513 164.0
296.27655 60.0
296.711792 120.0
297.044067 508.0
297.065887 168.0
297.212555 200.0
297.524902 36.0
297.823669 92.0
298.050385 120.0
298.115692 152.0
299.055908 2676.0
299.123444 116.0
299.147552 64.0
299.853668 84.0
299.98465 172.0
300.008789 120.0
300.063446 5328.0
300.146698 32.0
300.329468 96.0
300.565063 168.0
300.639984 36.0
300.726257 28.0
300.954102 76.0
301.06839 984.0
302.062836 168.0
302.492584 32.0
302.876953 40.0
303.282379 124.0
303.310089 148.0
303.348236 96.0
304.000305 60.0
305.546539 84.0
306.239258 72.0
309.49054 96.0
310.47525 64.0
312.480988 108.0
314.327332 36.0
314.450867 44.0
314.659119 268.0
315.087524 4588.0
315.20993 68.0
315.733337 40.0
315.899597 128.0
316.088654 976.0
316.189728 64.0
316.41275 60.0
316.529572 68.0
316.756256 48.0
316.972382 44.0
317.090729 252.0
317.447388 76.0
317.557312 96.0
317.645996 132.0
317.685028 36.0
317.763062 56.0
317.791473 72.0
318.330994 120.0
320.846619 52.0
322.1492 80.0
323.970093 108.0
325.250305 64.0
328.030914 148.0
332.044464 116.0
335.261963 172.0
337.452148 48.0
343.106232 72.0
343.655762 52.0
361.026917 148.0
370.512634 56.0
373.587738 104.0
374.515442 28.0
376.382019 60.0
379.973907 80.0
380.338684 68.0
381.053253 52.0
388.000366 152.0
388.784882 88.0
389.232391 148.0
390.167511 136.0
392.380127 52.0
394.883698 64.0
397.716675 64.0
402.178711 76.0
404.645233 80.0
420.655273 56.0
426.558228 84.0
437.812592 88.0
455.219421 96.0
457.783691 96.0
460.197174 120.0
463.863586 44.0
473.41153 108.0
478.866333 76.0
489.222382 44.0
497.444916 52.0
500.187622 64.0
517.268433 108.0
518.373535 76.0
524.677856 88.0
525.115601 36.0
536.08197 80.0
543.708008 76.0
551.224304 52.0
560.74646 108.0
573.224792 76.0
577.693726 48.0
578.708374 116.0
579.987488 68.0
588.859985 112.0
592.691406 44.0
593.050049 60.0
605.214661 36.0
608.308289 76.0
613.340454 72.0
637.384521 108.0
653.758911 96.0
671.155396 48.0
674.966125 104.0
676.264648 76.0
706.279236 76.0
751.602234 64.0
754.194641 76.0
763.575867 88.0
764.467102 48.0
801.494629 20.0
803.078796 152.0
808.247986 124.0
820.157227 204.0
825.312378 120.0
836.839478 80.0
855.953369 164.0
886.400085 64.0
897.509766 188.0
912.742981 148.0
923.677246 184.0
925.02063 180.0
931.399719 164.0
933.873596 88.0
943.049866 80.0
977.109009 204.0
1015.447571 164.0
1016.094604 224.0
1017.382263 176.0
1029.538086 224.0
1035.242432 104.0
1035.921387 104.0
1037.299072 132.0
1047.748413 48.0
1051.165649 152.0
1052.450195 164.0
1058.25 64.0
1061.956665 168.0
1062.079956 60.0
1062.748169 136.0
1093.106934 200.0
1099.189087 184.0
1099.486084 148.0
1107.009155 44.0
1109.427612 196.0
1118.435181 132.0
1123.552979 140.0
1129.291016 88.0
1135.540039 156.0
1139.789429 80.0
1153.416626 192.0
1155.641602 224.0
1161.413452 144.0
1162.254639 84.0
1166.404175 116.0
1168.512329 48.0
1168.920654 184.0
1180.154907 172.0
1183.055786 192.0
1183.849976 160.0
1186.021851 180.0
1190.680542 128.0
1192.535522 140.0
1193.064819 160.0
1198.267822 240.0
1199.115356 164.0
1203.737549 148.0
1204.186401 208.0
1204.787354 228.0
1206.999023 212.0
1210.860596 136.0
1213.327393 140.0
1214.55481 164.0
1218.838257 184.0
1221.04895 160.0
1221.382812 176.0
1227.783569 76.0
1230.400146 72.0
1234.781372 56.0
1238.189819 152.0
1243.216309 88.0
1246.643311 156.0
1246.91748 60.0
1248.00708 136.0
1248.85791 204.0
1254.230347 196.0
1254.420654 96.0
1260.384399 152.0
1263.162842 192.0
1264.747803 88.0
1281.536011 124.0
1282.654907 220.0
1285.586182 148.0
1286.328491 120.0
1286.635498 212.0
1292.803955 116.0
1297.223145 152.0
1298.391846 120.0
1302.152588 148.0
1302.971436 200.0
1308.998901 152.0
1310.064819 224.0
1310.634033 236.0
1310.943848 104.0
1313.546631 156.0
1313.770264 212.0
1323.172485 172.0
1329.769043 124.0
1337.07312 88.0
1340.721802 136.0
1340.918579 188.0
1341.049683 140.0
1341.691162 96.0
1343.937622 196.0
1344.214844 148.0
1344.463013 268.0
1351.675537 160.0
1361.432617 104.0
1363.636597 72.0
1363.702759 88.0
1367.284424 184.0
1371.033081 116.0
1372.057617 156.0
1373.281738 236.0
1373.414429 188.0
1373.901367 136.0
1374.816284 36.0
1375.916016 184.0
1381.909912 128.0
1383.612183 116.0
1384.463745 156.0
1386.27124 180.0
1386.330566 208.0
1386.626953 124.0
1387.294067 68.0
1392.814941 104.0
1394.248901 136.0
1400.565674 184.0
1400.669922 152.0
1401.087036 160.0
1401.65332 180.0
1402.704224 148.0
1404.881592 256.0
1408.307861 196.0
1412.62085 216.0
1413.518677 164.0
1415.944214 132.0
1424.599976 224.0
1425.922485 164.0
1431.828369 164.0
1433.063721 108.0
1434.088623 72.0
1439.309082 48.0
1440.26062 236.0
1443.268433 192.0
1443.97937 104.0
1446.029663 172.0
1446.559448 208.0
1450.240723 196.0
1451.036743 144.0
1451.696411 140.0
1463.009888 144.0
1465.645142 172.0
1466.933105 124.0
1469.266602 128.0
1472.594727 132.0
1473.479248 164.0
1475.987915 208.0
1476.209595 156.0
1481.176758 168.0
1482.548218 132.0
1482.747437 200.0
1486.842773 152.0
1488.708252 152.0
1492.25061 152.0
1493.657959 160.0
1495.412231 156.0
1498.276733 136.0
1499.386353 132.0
1500.542603 168.0
1501.969238 252.0
1503.026123 148.0
