>compound PrednisoloneAcetate
>formula C23H30O6 
>ionization [M+H]+
>parentmass 403.210327
#inchi InChI=1S/C23H30O6/c1-13(24)29-12-19(27)23(28)9-7-17-16-5-4-14-10-15(25)6-8-21(14,2)20(16)18(26)11-22(17,23)3/h6,8,10,16-18,20,26,28H,4-5,7,9,11-12H2,1-3H3/t16-,17-,18-,20+,21-,22-,23-/m0/s1
#inchikey LRJOMUJRLNCICJ
#Ion_Source LC-ESI
#Instrument qTof
#Compound_Source Isolated
#PI Sirenas
#Data_Collector Ed Esquenazi 
#Scan -1
#Precursor_MZ 403.212
#ExactMass 0.0
#Charge 1
#CAS_Number N/A
#Pubmed_ID N/A
#Smiles N/A
#INCHI_AUX N/A
#Library_Class 3
#SpectrumID CCMSLIB00000004750
#IonMode Positive
#UpdateWorkflowName UPDATE-SINGLE-ANNOTATED-BRONZE
#LibraryQualityString Bronze
#TaskID d19310cd93df49b68e9fcbec27720eb5
##Scan# 2
#SpectrumFile PrednisoloneAcetate.mgf
#LibraryName fda_library.mgf
#MQScore -1
#Organism fda_library
#TIC_Query 0
#RT_Query -1
#MZErrorPPM -1
#SharedPeaks 0
#MassDiff 0
#LibMZ -1
#SpecMZ 403.212
#SpecCharge 0
#internalFilename spec-00000.mgf

>collision 10
100.481339 9.369253
101.022995 1299.110962
101.059914 294.480011
101.121376 13.52083
101.152016 19.335369
101.180008 10.48333
101.332794 8.573413
101.415001 29.60606
103.039421 5.786765
105.068184 190.644897
105.097473 4.823718
105.283531 6.333333
107.047653 114.561401
107.085724 215.183105
107.151154 10.34722
107.313004 20.067419
109.0653 53.999069
111.043724 80.583344
111.08062 92.080238
111.171371 9.677381
111.464638 9.68889
112.389893 10.80474
112.643204 5.760417
113.060844 29.767469
115.053925 86.458344
115.074959 152.800507
117.053993 95.968536
117.067192 64.568367
119.084732 229.312805
119.10685 10.80901
119.406845 2.083333
120.385521 3.666667
120.412315 12.81333
120.469574 4.844298
120.844002 17.521641
121.064491 1059.734009
121.101051 53.744862
121.110954 5.041667
121.149399 2.680556
121.411789 19.698231
121.714928 11.29412
122.055504 14.625
122.104698 30.405001
122.524872 3.367424
122.814018 3.490385
123.079399 110.328598
125.057472 180.434494
127.078415 44.699619
129.19043 2.008333
129.435562 3.047619
130.709793 1.777778
131.04451 26.48299
131.084442 257.343811
131.143066 2.333333
131.359009 7.852564
131.841171 5.801667
132.473892 2.14881
132.545151 4.711957
133.064056 212.459503
133.099884 109.182198
133.15834 20.452681
133.295181 6.002451
135.079102 720.942322
135.114136 76.481087
135.331223 8.712037
135.408127 7.472222
135.894196 13.35556
137.059219 91.213341
139.073837 274.769501
139.105881 2.854167
139.125244 4.007576
139.145645 9.742284
139.190323 7.875
139.359238 3.335526
141.051727 36.827221
141.579483 5.721154
143.085266 97.471893
145.063202 76.17881
145.102173 114.085503
145.155533 2.333333
145.260345 5.097222
145.485947 6.296568
145.616745 3.458333
146.235489 29.73366
146.255753 14.40056
146.27681 30.92083
146.339005 4.185606
146.384262 2.761364
146.499634 2.449074
146.613586 13.33333
146.725952 6.816667
146.879089 6.671053
147.063568 40.682468
147.07991 4735.768066
147.126694 44.055439
147.152328 11.82095
147.174362 12.85799
147.190659 14.49074
147.208145 25.11441
147.224899 4.107143
147.25473 30.421881
147.309677 11.02778
147.354767 8.713542
147.42836 12.18413
147.461273 5.688726
147.474625 8.061275
147.483292 1.777778
147.499557 5.061275
147.588257 5.415
147.656296 5.633333
147.884079 16.01754
147.969879 4.555556
148.345352 6.341667
148.570404 4.002778
148.58313 6.805555
148.634018 5.001437
148.646744 4.668651
149.245392 8.024224
151.073288 81.029846
151.857727 8.66793
151.887741 3.678571
151.900604 6.351191
152.942856 82.647293
153.090607 9.005208
155.083054 52.37838
155.672821 5.884804
156.283188 7.639493
157.053284 39.005852
157.100922 126.967201
158.0681 61.863449
159.080307 162.593903
159.114319 147.132095
159.205276 5.42803
159.36557 22.78669
159.382446 12.33333
159.839523 8.843137
160.046326 7.00119
161.096069 540.171875
161.205963 6.564103
161.279221 12.85714
161.409149 10.34543
161.436722 9.160714
161.497559 11.07849
161.884445 18.028851
163.072891 316.661194
163.10817 58.772511
163.448669 6.337963
163.677811 10.375
164.795044 2.816667
165.088486 454.521393
165.122498 20.51882
167.086945 76.160263
167.143066 1.666667
169.069077 11.46377
169.09967 64.26413
170.229538 4.363636
170.269928 7.495968
170.397049 6.361111
170.728729 11.34615
171.079849 1335.624023
171.112793 180.120804
171.132782 1.741667
171.160782 10.43561
171.188141 6.023809
171.243591 5.025641
171.274628 3.028846
171.297394 14.33333
171.359833 2.741667
171.424911 6.020833
171.465912 3.002778
171.525162 10.7451
171.557495 17.085939
171.640335 7.996981
171.684631 8.486112
171.7211 9.33435
171.816086 16.130211
171.825974 11.33418
171.962814 13.1974
171.985504 15.66848
172.054062 12.44048
172.159027 8.745155
172.382767 8.333333
172.451569 15.53289
172.94046 2.671296
173.095871 1272.64502
173.147552 2.482143
173.168915 11.39861
173.191574 7.481482
173.257446 19.028151
173.315079 17.75556
173.384521 10.34069
173.998993 21.75482
174.1642 15.675
174.226456 8.592593
174.283524 4.025
174.333618 2.816667
174.554611 7.015
175.070648 52.34256
175.108307 121.6007
175.145721 2.583333
175.295807 15.82469
175.367584 6.740942
176.934555 13.34981
177.088684 32.570259
177.124939 37.81818
177.151932 2.339286
179.102097 117.089104
179.418503 6.466667
180.092377 33.51572
180.125916 10.16009
181.098557 47.460449
182.187683 6.774123
183.080353 84.706459
183.109558 13.49135
185.095062 233.161301
187.070923 109.821999
187.110641 207.920303
187.227921 5.107456
187.838196 6.380952
189.089783 66.912697
190.421265 5.395833
191.104721 153.042999
191.22348 2.386905
191.632736 12.06349
193.099945 24.688101
193.699677 1.875
195.66156 19.17708
195.709351 8.388514
196.095795 73.625923
196.266495 15.78261
196.971893 10.76136
197.095139 350.842102
197.15274 2.027778
197.177719 8.518678
197.626709 6.468334
197.748245 7.786765
197.954498 10.83
198.05278 6.347222
198.915558 18.46944
199.111008 559.099426
199.150543 6.075
199.229156 9.497093
199.902466 9.881579
200.619507 3.815476
201.089615 6.840517
201.129791 23.79953
201.311722 11.33929
201.899353 6.763889
205.094009 20.04167
205.121353 70.089142
207.100723 114.448997
207.111481 44.238949
207.449219 8.45
207.508957 3.802778
207.825516 6.440476
208.086716 83.270218
209.09697 272.063599
210.323715 5.823718
210.481262 23.20578
210.63768 7.334402
211.082458 15.42857
211.109299 467.798706
211.18869 27.07317
211.507141 4.166667
211.905548 12.48214
211.982864 7.670834
212.080185 34.625
213.091782 163.584702
213.124451 142.194305
213.281525 6.668333
213.449203 6.075617
213.71225 5.414216
214.186829 11.0026
215.105392 111.976997
215.170593 1.671296
215.632126 2.854167
217.122375 91.409523
217.405151 11.27273
220.119217 19.27923
221.096176 241.422607
221.700684 25.831301
222.067017 21.26667
222.287277 33.198971
222.77005 5.222222
223.111679 1648.651001
223.1763 23.171749
223.219818 6.564815
223.273087 4.190476
223.329773 4.69697
223.415558 8.708333
223.434113 6.306159
223.657318 22.66848
223.735199 3.339286
223.777802 16.83675
223.813538 6.775537
223.896805 2.666667
224.34993 5.415
225.08667 17.037359
225.125534 299.354614
225.251968 12.08333
225.269302 7.935
225.680649 5.430555
227.103348 81.002907
227.143372 267.720795
227.293182 8.044118
227.377106 14.03712
229.591766 4.733333
231.089798 41.181931
232.118225 66.227203
233.097977 120.803001
233.671951 6.225
234.10228 100.637802
235.110748 225.309402
235.447357 3.345238
235.730499 3.125
235.762421 9.929607
235.847992 33.98999
236.051102 4.136111
236.238052 8.745155
236.497452 4.833333
237.09436 5.668859
237.128082 942.545288
237.292603 7.028153
237.40416 19.4419
237.421234 10.01961
237.441132 26.49387
237.614243 10.14982
237.667877 13.71204
237.700104 10.5
237.785645 7.388158
238.077698 5.510417
238.102036 13.71429
238.151718 22.729731
238.205673 18.34606
238.709656 29.26894
239.10022 46.124451
239.141724 1500.345947
239.248184 1.680555
239.32106 26.313219
239.416809 3.291667
239.441025 12.35099
239.640671 5.265351
239.742752 2.053571
239.796463 7.724359
239.85585 8.962963
240.373566 2.449074
241.121857 40.16412
242.034851 6.916667
243.143204 20.73571
243.967957 3.666667
245.133148 24.98177
246.102646 18.03141
247.110855 319.620087
247.141983 50.098808
247.181076 6.148809
247.436142 11.42455
247.518204 6.344048
247.682434 7.75
247.748138 5.671875
247.934189 59.498631
248.005554 2.722222
248.306976 12.0
248.383011 14.7037
248.664764 44.33614
249.127014 323.168488
249.296127 7.935
251.106094 37.243649
251.144516 311.274902
251.18782 3.760417
251.342239 11.68056
251.883026 17.7381
252.303879 12.15
253.12175 83.235893
253.48674 9.086538
254.8116 7.240079
255.144608 1.741667
255.167999 12.41667
255.201309 3.041667
255.317963 7.605556
256.135315 37.038582
257.145325 57.31847
259.106567 22.699301
260.11261 81.432663
261.127319 223.594101
261.158539 115.740898
261.227173 6.0
261.2789 5.703947
261.728485 21.574369
261.839355 2.14881
261.890228 9.112655
262.899933 6.337963
263.142609 695.070679
263.208221 3.013889
263.242859 4.115741
263.28363 9.075
263.458649 10.83
263.650665 3.669444
263.831482 15.00287
263.921967 2.6875
265.01944 7.682971
265.044434 16.905609
265.087402 11.00833
265.125244 210.339493
265.157043 1691.993042
265.214233 26.32407
265.383942 8.027778
265.438721 2.020833
265.586121 10.82456
265.941681 50.265381
266.073914 3.010417
266.290771 2.761364
266.503082 6.054487
266.732574 7.68421
267.13501 57.965611
267.175018 219.100006
267.271545 6.027778
267.505829 18.008329
267.631226 9.647059
267.911957 8.2
269.187805 23.61496
271.149506 195.792892
273.104187 11.48522
274.072357 21.123739
274.131439 138.147903
275.138184 164.986694
275.616486 5.891666
276.277893 5.041667
276.513611 1.6875
276.82547 8.189394
277.158997 136.817001
277.556305 12.69444
277.622528 11.45833
277.828339 4.010417
278.124512 23.66667
278.205383 12.33667
278.542023 8.037499
279.136627 244.621704
279.172638 1584.011963
279.233398 11.01667
279.267059 4.083333
279.361206 3.773809
279.424988 4.440476
279.544678 15.41667
279.588104 13.8642
279.617188 7.162634
279.704956 17.70833
279.880463 4.857143
279.928131 10.00595
280.350647 4.061275
280.954163 14.44643
281.003571 12.67262
281.153046 46.639481
281.872223 25.20455
282.166504 28.24017
282.310303 1.777778
283.122223 36.371208
283.169556 280.080811
283.909271 1.666667
285.182709 96.175087
287.466705 13.96429
287.770569 15.73598
288.147552 32.026138
288.233215 12.9685
288.630219 8.388441
289.119232 29.906281
289.158325 2409.115967
289.2323 14.43109
289.279999 8.337963
289.375061 14.6832
289.451324 11.27222
289.519531 10.66667
289.632324 17.013889
289.671295 4.5
289.77243 22.91667
289.919647 5.669872
290.009155 9.291667
290.73764 9.361112
292.141449 92.91581
295.165588 57.4053
295.880585 28.56008
297.146484 18.29167
297.183838 174.3134
298.091766 6.351191
305.239838 2.083333
305.270081 6.75
305.349121 12.72115
305.386139 4.225
305.537567 7.666667
305.65921 4.44079
306.153076 16.627029
306.255554 10.33452
307.027313 6.185606
307.16925 2083.444092
307.23761 21.336821
307.291626 25.438669
307.36084 29.878189
307.412964 38.850319
307.456085 3.680556
307.50354 6.125
307.602844 15.7619
307.620819 22.143259
307.651306 7.00463
307.753967 28.764589
307.925415 11.53333
307.974792 12.87076
308.078613 4.44079
308.481781 15.40064
308.524567 3.388889
308.610229 15.16462
319.157074 45.951641
323.163971 5.678572
323.310303 21.05357
324.260345 4.963235
324.363678 8.747549
325.063141 20.671341
325.143646 13.68889
325.179779 1087.953003
325.329681 33.2868
325.400604 6.015
325.495331 5.633333
325.518555 6.446428
325.670502 5.041667
325.807617 13.49662
326.036896 14.85333
326.135284 8.007576
326.474609 2.016667
328.942566 5.898148
329.208374 2.333333
339.18985 46.436401
341.201385 12.40054
341.290466 6.166667
341.464905 9.960366
343.183441 35.667549
346.516998 4.349638
347.665009 3.185606
347.690735 5.633333
347.975616 4.007576
349.09433 19.253469
349.17865 389.141998
349.274719 6.033602
349.383972 20.13542
349.743011 21.936661
353.408936 3.011905
364.734375 2.449074
365.168213 6.371212
366.164032 4.080128
367.189606 400.522705
367.383087 3.36218
367.403076 7.334402
367.636597 11.80293
368.703491 1.777778
382.614227 18.74225
382.661377 27.714199
382.845612 12.67857
382.89328 9.007353
383.321472 8.494048
383.751495 10.075
384.147491 2.816667
384.672058 2.666667
385.200867 1748.524048
385.283447 5.523809
385.308197 9.060185
385.402466 4.033333
385.450317 4.028846
385.477386 5.337121
385.518158 58.304218
385.616608 28.76552
385.752777 8.680555
385.908112 6.121212
385.976379 11.725
386.056488 14.11485
387.471954 5.761905
388.722443 10.16329
403.210327 7.078432
403.625183 3.080128
483.143372 5.875
1640.728638 9.668478
