>compound NCGC00160228-01!3-(2,3-Dihydro-1,4-benzodioxin-6-yl)-7-hydroxy-chromen-2-one
>formula C17H12O5
>ionization [M+H]+
>parentmass 297.0757499360905
#inchi InChI=1S/C17H12O5/c18-12-3-1-11-7-13(17(19)22-15(11)9-12)10-2-4-14-16(8-10)21-6-5-20-14/h1-4,7-9,18H,5-6H2
#inchikey AQCMDVUFUNXDSX
#Ion_Source LC-ESI
#Instrument qTOF
#Compound_Source Prestwick Phytochem Lib
#PI Dorrestein
#Data_Collector VVP/LMS
#Scan -1
#Precursor_MZ 297.076
#ExactMass 296.068
#Charge 1
#CAS_Number N/A
#Pubmed_ID N/A
#Smiles OC1=CC2=C(C=C1)C=C(C(=O)O2)C3=CC4=C(OCCO4)C=C3
#INCHI_AUX N/A
#Library_Class 1
#SpectrumID CCMSLIB00000078788
#IonMode Positive
#UpdateWorkflowName UPDATE-SINGLE-ANNOTATED-GOLD
#LibraryQualityString Gold
#TaskID 67c915c6594c435cadc1fe2b5358144d
##Scan# 2108
#SpectrumFile p1-A04_GA4_01_17877.mzXML
#LibraryName phytochem_lib.mgf
#MQScore -1
#Organism phytochem_lib
#TIC_Query 0
#RT_Query -1
#MZErrorPPM -1
#SharedPeaks 0
#MassDiff 0
#LibMZ -1
#SpecMZ 297.076
#SpecCharge 0
#internalFilename spec-00000.mgf

>collision 10
95.002419 224.0
95.109138 164.0
95.270309 164.0
95.721519 176.0
95.768257 84.0
95.885155 260.0
96.264809 136.0
96.480469 208.0
96.556725 128.0
96.732819 196.0
97.030579 100.0
97.912811 132.0
97.944328 116.0
98.239998 196.0
98.293266 108.0
98.517944 200.0
98.632942 136.0
98.785255 144.0
98.955391 140.0
99.020729 196.0
99.552208 168.0
99.874161 156.0
100.501663 196.0
100.633392 180.0
100.861122 200.0
101.113129 136.0
101.146248 204.0
101.923256 88.0
102.228683 188.0
102.400009 212.0
102.631744 116.0
102.740654 224.0
103.059631 112.0
103.104088 52.0
103.245598 208.0
103.443878 172.0
104.070297 160.0
104.442184 144.0
104.466591 140.0
105.028778 124.0
105.132828 176.0
105.18589 128.0
105.551254 176.0
105.582253 208.0
105.66407 180.0
106.311531 188.0
106.539436 156.0
106.599014 268.0
106.965096 144.0
107.012436 180.0
107.049728 456.0
107.792091 152.0
108.166412 172.0
108.313431 184.0
108.551758 212.0
108.694885 148.0
108.898323 112.0
109.799469 220.0
109.872475 136.0
110.07283 148.0
110.292191 144.0
110.449005 108.0
110.746216 164.0
111.245247 260.0
111.598183 96.0
111.642342 52.0
111.690712 296.0
111.715958 116.0
111.905357 112.0
112.099136 188.0
112.147606 148.0
112.175003 116.0
112.398552 168.0
112.51252 124.0
112.787132 216.0
112.873802 172.0
112.996277 128.0
113.189079 64.0
113.396683 144.0
113.56205 180.0
113.759377 92.0
113.901642 204.0
114.254509 216.0
114.409859 136.0
114.497154 64.0
114.748589 116.0
115.054161 1748.0
115.40403 56.0
116.055878 272.0
116.07634 356.0
116.162132 140.0
116.914101 76.0
117.004501 56.0
117.058327 180.0
117.116478 128.0
117.131554 216.0
117.778633 88.0
118.635506 84.0
119.019508 180.0
119.186752 184.0
119.338745 112.0
120.002937 160.0
120.055275 160.0
120.223244 188.0
120.282166 48.0
120.966339 92.0
121.021065 124.0
121.036392 60.0
121.29052 152.0
121.343765 124.0
121.358475 192.0
121.626434 132.0
122.105064 232.0
122.289871 220.0
122.311882 188.0
122.333893 168.0
122.540901 240.0
122.739258 160.0
122.959854 152.0
123.131798 176.0
123.202728 236.0
123.246033 240.0
123.600685 240.0
124.114555 120.0
124.311966 172.0
124.369667 56.0
124.760612 188.0
125.261284 96.0
125.283562 196.0
125.892448 180.0
125.946053 148.0
126.058105 128.0
126.637161 136.0
126.79174 148.0
126.991272 112.0
127.05497 376.0
127.557083 192.0
127.660507 60.0
127.824715 144.0
127.912483 120.0
127.939491 128.0
128.040817 148.0
128.060684 928.0
128.119644 68.0
128.13768 60.0
128.182739 156.0
129.068268 708.0
129.225861 44.0
129.314117 44.0
129.520157 44.0
129.941788 60.0
129.964478 52.0
129.98262 152.0
130.073471 140.0
130.377747 152.0
130.721115 120.0
130.866791 156.0
130.935089 136.0
131.046768 252.0
131.404648 148.0
132.044312 212.0
132.770187 160.0
132.944534 180.0
132.98584 112.0
133.057007 176.0
133.178711 144.0
133.337234 188.0
133.378601 128.0
133.587845 120.0
133.845596 196.0
134.530319 172.0
134.80748 236.0
135.226059 60.0
135.939819 164.0
136.469391 132.0
136.501953 108.0
136.548462 144.0
136.888214 148.0
137.09787 140.0
137.170105 136.0
137.307678 216.0
137.508301 140.0
137.741791 120.0
137.825882 216.0
138.038589 136.0
138.675339 200.0
139.052597 800.0
139.637924 104.0
139.807312 172.0
139.859085 52.0
139.960312 112.0
140.054108 120.0
140.066956 140.0
140.188797 156.0
140.3703 48.0
140.606201 208.0
140.858826 40.0
141.069901 4756.0
141.099854 72.0
141.115585 68.0
141.14241 140.0
141.23938 256.0
141.537552 48.0
141.58728 72.0
142.072464 1096.0
142.476746 168.0
142.633575 60.0
142.785736 180.0
142.980804 52.0
143.004608 140.0
143.046906 208.0
143.075287 196.0
143.931931 144.0
144.05513 212.0
144.62999 132.0
144.890991 224.0
145.061081 176.0
145.066376 152.0
145.680222 120.0
146.02153 132.0
146.647491 176.0
146.69812 112.0
146.965805 188.0
147.040222 664.0
147.076813 164.0
147.417328 164.0
148.007538 156.0
148.055969 152.0
148.242188 164.0
149.023956 236.0
149.0578 152.0
149.59285 164.0
150.051544 192.0
150.133728 140.0
150.431381 108.0
150.634064 180.0
151.032471 128.0
151.053391 1000.0
151.078064 112.0
151.196396 284.0
151.269821 156.0
151.382446 128.0
151.620056 108.0
152.063034 1468.0
152.331573 68.0
152.537979 156.0
152.614197 160.0
152.663376 240.0
152.815872 192.0
153.069199 772.0
153.13588 144.0
153.96698 248.0
154.076706 260.0
154.572617 184.0
154.670013 56.0
155.047882 452.0
155.082184 348.0
155.544098 200.0
156.021027 228.0
156.057968 392.0
156.155304 76.0
157.026978 72.0
157.064392 7736.0
157.100739 160.0
157.107162 188.0
157.216568 92.0
157.298935 48.0
157.33139 72.0
157.463715 56.0
157.636093 72.0
157.941086 132.0
157.986115 56.0
158.020645 164.0
158.066498 1244.0
158.096207 132.0
158.153763 84.0
158.213837 40.0
158.288956 148.0
158.424194 184.0
158.461761 176.0
158.821793 168.0
158.852982 132.0
158.943161 120.0
159.067276 404.0
159.128891 80.0
159.24942 100.0
159.336334 140.0
159.357437 64.0
159.432816 108.0
159.4944 144.0
159.518265 48.0
159.880432 72.0
160.366501 212.0
161.113388 144.0
161.257401 148.0
161.808838 140.0
162.242035 168.0
162.422073 164.0
163.003433 132.0
163.048645 224.0
163.133057 168.0
163.166718 172.0
163.230789 172.0
163.369537 188.0
163.570572 240.0
163.616379 156.0
163.67868 192.0
164.067535 164.0
164.10553 184.0
164.240692 128.0
164.7742 132.0
164.996536 164.0
165.071655 724.0
165.239487 44.0
165.705429 60.0
165.756668 96.0
166.046341 200.0
166.075882 248.0
166.372208 176.0
166.562225 168.0
166.97345 204.0
167.048889 884.0
167.085495 436.0
167.406693 168.0
167.465012 84.0
167.686584 120.0
168.056915 2016.0
168.091476 416.0
168.341827 188.0
168.388306 84.0
168.452881 72.0
168.610489 112.0
168.70871 148.0
168.726807 104.0
168.791443 56.0
168.830231 148.0
168.985428 152.0
169.064621 7716.0
169.122574 140.0
169.231293 80.0
169.254593 132.0
169.346298 120.0
169.596542 64.0
169.622467 104.0
169.809143 168.0
169.905121 116.0
170.068253 884.0
170.434753 104.0
171.047501 116.0
171.07457 352.0
171.321899 140.0
171.402664 140.0
171.757217 88.0
171.809387 80.0
172.02597 48.0
172.075577 60.0
172.206131 60.0
172.334137 256.0
172.446503 132.0
172.864914 108.0
173.062134 316.0
173.095261 144.0
173.150253 180.0
173.451553 80.0
173.708527 156.0
174.06282 128.0
175.036194 280.0
175.177917 132.0
175.27803 44.0
175.797501 196.0
176.066757 148.0
176.161835 128.0
176.471039 40.0
176.706421 132.0
176.791092 152.0
177.069458 316.0
177.368439 84.0
178.080734 156.0
178.427597 168.0
178.446213 48.0
178.717484 136.0
178.84256 156.0
178.893829 152.0
179.02359 176.0
179.050659 224.0
179.08873 164.0
179.148773 152.0
180.058289 164.0
180.087799 156.0
180.210541 212.0
180.229248 48.0
180.392273 92.0
180.493866 64.0
180.590134 56.0
181.064346 2840.0
181.093918 224.0
181.110886 120.0
181.160263 60.0
182.065414 1264.0
182.096344 120.0
182.311264 48.0
182.410706 108.0
183.044296 296.0
183.07991 948.0
183.234161 52.0
183.542877 88.0
183.584549 152.0
183.665466 100.0
184.056488 360.0
184.08107 212.0
184.128357 164.0
184.65126 124.0
184.743225 60.0
184.938049 152.0
185.000305 104.0
185.059387 7468.0
185.170883 60.0
185.216919 68.0
185.26297 60.0
185.432098 96.0
185.568863 64.0
185.596313 48.0
185.900116 60.0
185.978821 80.0
186.061981 1340.0
186.105179 188.0
186.220459 52.0
186.2612 148.0
186.367142 108.0
186.872849 80.0
187.011627 184.0
187.033401 60.0
187.064056 176.0
187.221252 220.0
187.278442 56.0
187.501846 148.0
187.545929 160.0
187.572708 60.0
187.760834 136.0
187.962692 156.0
188.445969 100.0
188.664597 76.0
188.823181 48.0
188.924377 44.0
188.946259 192.0
189.003723 196.0
189.121399 128.0
189.178879 236.0
189.233627 176.0
190.654465 228.0
190.758896 240.0
190.91011 148.0
191.328323 104.0
191.44397 128.0
191.49353 168.0
191.529343 232.0
192.83989 112.0
193.070007 284.0
193.715607 40.0
194.073792 172.0
194.299149 156.0
194.376831 168.0
194.687729 140.0
194.779373 104.0
195.043335 252.0
195.079697 968.0
195.251862 160.0
196.051224 348.0
196.095398 156.0
196.22641 128.0
196.435562 168.0
196.647614 204.0
197.059402 12232.0
197.169861 32.0
197.2621 48.0
197.281662 104.0
197.36554 120.0
197.471802 48.0
197.508163 76.0
197.608856 180.0
197.68721 152.0
197.748779 60.0
197.835541 92.0
197.869141 144.0
197.901733 108.0
197.947525 136.0
198.00914 84.0
198.063705 2360.0
198.224838 72.0
198.346481 112.0
198.648178 72.0
198.698669 124.0
198.844589 60.0
199.037277 196.0
199.068359 720.0
199.116898 76.0
199.344452 120.0
199.393051 48.0
199.43718 76.0
199.462479 56.0
199.531586 128.0
199.614288 36.0
199.687408 184.0
199.77742 76.0
199.977188 192.0
200.047562 132.0
200.070084 140.0
200.112305 104.0
200.292542 104.0
200.444656 112.0
200.887283 156.0
201.285233 68.0
202.424759 216.0
202.614517 144.0
204.309311 176.0
204.613815 96.0
204.835922 40.0
205.072418 96.0
205.260559 204.0
206.072815 192.0
207.083771 164.0
207.470596 32.0
208.009888 140.0
208.047195 136.0
208.084518 172.0
208.926544 72.0
209.061111 620.0
209.666519 172.0
209.90773 152.0
210.06601 304.0
210.358734 104.0
210.436676 188.0
210.526184 200.0
210.581055 88.0
210.618591 44.0
211.074524 272.0
211.26358 132.0
211.335526 64.0
211.454163 92.0
211.622055 132.0
212.047562 348.0
212.075348 140.0
212.146408 144.0
212.366776 176.0
212.395782 92.0
212.836884 160.0
212.942566 92.0
213.055313 3404.0
213.162201 112.0
213.398758 52.0
213.41687 52.0
213.612839 92.0
213.685562 80.0
213.740845 80.0
214.05719 652.0
215.068497 1168.0
216.072968 312.0
217.079544 96.0
217.672272 128.0
219.402252 88.0
221.058472 344.0
221.909241 96.0
222.081238 120.0
222.196915 96.0
222.936234 196.0
222.982208 204.0
223.07695 1140.0
223.108627 188.0
223.313797 60.0
224.079422 336.0
224.463272 148.0
224.639236 92.0
225.053711 4660.0
225.144272 76.0
225.18544 64.0
225.367661 48.0
225.514084 36.0
226.06015 564.0
226.097778 140.0
226.369675 80.0
226.519424 180.0
227.067032 300.0
227.1129 56.0
227.217896 72.0
227.313904 88.0
227.767227 100.0
228.202957 124.0
229.081696 144.0
229.190155 80.0
230.898682 180.0
231.74321 160.0
231.994751 240.0
232.483063 160.0
233.832367 148.0
233.963242 224.0
234.07019 124.0
234.103302 28.0
234.261673 164.0
234.749313 180.0
236.487579 60.0
237.051285 452.0
237.25029 228.0
238.069489 188.0
238.353271 52.0
239.072006 448.0
239.139328 136.0
239.360977 100.0
239.490311 104.0
239.521118 60.0
239.659744 132.0
239.742935 148.0
239.808304 96.0
239.937119 128.0
239.966629 168.0
240.043518 100.0
240.074066 356.0
240.396683 204.0
240.615814 96.0
240.699188 112.0
240.726974 196.0
240.940079 320.0
240.995697 72.0
241.049698 844.0
241.08577 25928.0
241.158371 176.0
241.193695 152.0
241.280533 96.0
241.368958 68.0
241.428009 88.0
241.536682 172.0
241.586182 72.0
241.617111 144.0
241.873947 68.0
241.917282 136.0
242.022537 200.0
242.047394 160.0
242.087891 4072.0
242.183578 52.0
242.212997 52.0
242.30748 80.0
242.45311 120.0
242.533691 32.0
242.617386 68.0
242.724777 56.0
242.759995 60.0
243.088272 836.0
243.150879 76.0
243.178802 36.0
243.253296 76.0
243.355743 92.0
243.47995 96.0
243.660095 60.0
243.722229 156.0
243.776718 64.0
243.970871 128.0
244.005066 72.0
244.039261 56.0
244.425613 92.0
244.686371 104.0
244.964706 112.0
245.122421 100.0
245.368637 76.0
245.870819 68.0
246.239197 48.0
249.8564 100.0
249.903595 112.0
251.066238 108.0
252.012833 116.0
252.076035 116.0
253.045837 1080.0
253.094528 204.0
253.23703 52.0
253.547501 56.0
254.056534 140.0
254.09227 168.0
255.070419 152.0
255.996735 104.0
256.05835 156.0
265.058563 128.0
267.053589 196.0
267.435699 64.0
267.585419 76.0
268.07074 152.0
268.341248 84.0
269.047546 660.0
269.080627 1788.0
270.03598 120.0
270.085297 612.0
270.366394 72.0
270.487488 176.0
271.060608 208.0
273.480896 68.0
279.061462 120.0
284.171448 124.0
286.457397 72.0
293.343018 120.0
293.746094 76.0
295.145569 164.0
295.929077 124.0
296.062622 128.0
296.134521 116.0
296.754761 120.0
296.984528 72.0
297.022247 256.0
297.072998 2444.0
297.126862 192.0
297.204071 100.0
297.43399 100.0
297.469727 88.0
297.510468 72.0
297.536957 104.0
297.571289 216.0
297.643402 76.0
297.732666 40.0
298.079102 544.0
298.203339 96.0
298.24115 148.0
299.086304 452.0
299.118225 100.0
299.596893 52.0
300.313843 96.0
300.444916 152.0
300.931519 76.0
307.816803 84.0
308.98764 100.0
321.574097 128.0
333.013214 72.0
334.187347 52.0
338.76532 96.0
346.709045 88.0
353.04129 172.0
360.782928 96.0
376.263214 44.0
388.275055 92.0
416.171356 84.0
452.667145 72.0
476.095154 52.0
479.797852 44.0
480.888336 124.0
502.640991 64.0
505.205444 56.0
538.933838 52.0
545.305481 120.0
555.882935 56.0
570.163208 76.0
589.321045 172.0
591.158447 136.0
601.803284 72.0
604.770508 76.0
614.031616 104.0
634.352844 76.0
666.577271 80.0
672.499512 112.0
673.382385 108.0
678.225098 60.0
684.958984 20.0
706.296204 176.0
711.181274 108.0
733.329529 156.0
862.72583 176.0
871.839905 92.0
896.827026 80.0
905.597839 48.0
934.336853 108.0
967.612671 48.0
1007.728333 136.0
1030.262573 176.0
1044.113525 52.0
1063.443604 132.0
1063.625366 168.0
1070.262695 140.0
1073.103394 144.0
1078.534546 212.0
1118.313965 112.0
1120.571289 64.0
1125.286499 144.0
1128.921265 40.0
1129.38269 276.0
1147.924805 200.0
1165.856689 76.0
1169.032471 164.0
1169.685791 116.0
1174.093872 216.0
1176.352173 52.0
1177.902222 216.0
1203.766479 36.0
1207.020996 256.0
1207.491211 152.0
1207.892334 176.0
1219.916138 220.0
1236.824341 144.0
1241.553345 140.0
1250.236206 144.0
1251.468018 216.0
1254.102539 96.0
1257.318481 192.0
1264.399658 116.0
1273.325073 196.0
1286.233276 100.0
1288.75415 124.0
1296.532227 172.0
1297.442505 172.0
1297.815308 168.0
1304.570801 156.0
1305.376099 84.0
1306.591553 180.0
1312.439697 152.0
1317.917847 160.0
1318.387451 104.0
1327.385254 252.0
1329.329224 220.0
1336.988403 144.0
1338.021973 216.0
1352.914429 136.0
1353.602539 192.0
1354.15918 128.0
1360.457642 148.0
1368.765381 188.0
1369.652344 36.0
1370.06897 100.0
1375.193604 184.0
1382.495117 228.0
1383.664551 132.0
1387.650391 176.0
1396.248779 148.0
1407.418701 192.0
1411.07959 172.0
1416.684814 220.0
1418.05603 156.0
1418.108398 152.0
1418.932983 232.0
1419.225342 180.0
1422.173462 96.0
1423.307007 160.0
1423.502319 188.0
1433.084839 168.0
1435.210205 184.0
1436.763794 108.0
1436.85437 88.0
1443.629395 160.0
1447.46582 96.0
1454.425171 96.0
1455.472778 124.0
1456.930908 248.0
1458.085815 104.0
1470.522461 92.0
1471.493164 176.0
1475.755005 204.0
1479.450073 160.0
1485.381104 180.0
1486.516602 200.0
1490.171265 220.0
1490.324951 192.0
1492.254028 144.0
1492.630859 104.0
1494.469116 224.0
1498.233765 164.0
1499.959839 204.0
