>compound MLS001158241-01!N-(2-hydroxy-2-phenylethyl)-2-(8-methyl-2-oxo-4-phenylchromen-7-yl)oxyacetamide
>formula C26H23NO5
>ionization [M+H]+
>parentmass 430.165
#inchi InChI=1S/C26H23NO5/c1-17-23(31-16-24(29)27-15-22(28)19-10-6-3-7-11-19)13-12-20-21(14-25(30)32-26(17)20)18-8-4-2-5-9-18/h2-14,22,28H,15-16H2,1H3,(H,27,29)
#inchikey ZQRCQEQCXIFPQX
#Ion_Source LC-ESI
#Instrument qTof
#Compound_Source NIH Natural Product Library
#PI Dorrestein
#Data_Collector VVP/LMS
#Scan -1
#Precursor_MZ 430.165
#ExactMass 429.158
#Charge 1
#CAS_Number N/A
#Pubmed_ID N/A
#Smiles Cc1c(OCC(=O)NCC(O)c2ccccc2)ccc3c(cc(=O)oc13)c4ccccc4
#INCHI_AUX N/A
#Library_Class 1
#SpectrumID CCMSLIB00000080232
#IonMode Positive
#UpdateWorkflowName UPDATE-SINGLE-ANNOTATED-GOLD
#LibraryQualityString Gold
#TaskID b1d8e8f6646f4e71acdff9ca3d919d08
##Scan# 2211
#SpectrumFile p2-H05_GH5_01_18065.mzXML
#LibraryName NIH_Natural_Products_Library.mgf
#MQScore -1
#Organism NIH_Natural_Products_Library
#TIC_Query 0
#RT_Query -1
#MZErrorPPM -1
#SharedPeaks 0
#MassDiff 0
#LibMZ -1
#SpecMZ 430.165
#SpecCharge 0
#internalFilename spec-00000.mgf

>collision 10
94.981926 176.0
95.009087 168.0
95.627022 188.0
95.669846 116.0
95.884117 172.0
96.272346 140.0
96.745529 148.0
96.962959 232.0
97.398544 144.0
97.961143 108.0
99.027802 152.0
99.180374 136.0
99.196228 96.0
99.726219 212.0
99.74411 208.0
99.911156 180.0
100.305458 104.0
100.361282 156.0
100.419113 212.0
100.962357 184.0
101.142426 124.0
101.266571 184.0
101.493027 76.0
102.043182 140.0
102.234276 92.0
103.055191 1124.0
103.81002 184.0
103.990585 72.0
104.053673 200.0
104.409119 236.0
104.547462 204.0
104.907982 172.0
104.936523 132.0
105.030334 136.0
105.069511 2396.0
105.33857 160.0
105.403946 176.0
105.608391 108.0
105.923615 100.0
106.030167 176.0
106.072624 540.0
106.161369 80.0
106.543152 132.0
106.849487 72.0
106.937973 200.0
107.047081 144.0
107.418076 188.0
107.622398 120.0
107.696739 172.0
108.052307 196.0
108.414673 144.0
108.659355 144.0
108.76104 144.0
109.776344 140.0
110.158295 148.0
110.593239 220.0
110.67907 164.0
110.714676 224.0
112.419487 168.0
113.121361 264.0
113.286537 160.0
113.708504 112.0
113.742462 48.0
113.763687 192.0
113.782799 144.0
113.857117 160.0
114.399323 204.0
114.514313 252.0
115.05336 1412.0
115.201164 60.0
115.361443 160.0
116.059853 172.0
116.080849 164.0
116.265343 172.0
116.379112 112.0
116.978943 180.0
117.005753 124.0
117.065742 3068.0
117.170616 100.0
117.254654 172.0
117.472435 276.0
117.670982 76.0
117.694733 144.0
117.811363 32.0
118.027496 176.0
118.075653 1324.0
118.22435 68.0
118.570862 148.0
118.614212 60.0
118.783356 192.0
118.798538 128.0
118.902695 96.0
119.073784 348.0
119.191521 140.0
119.252373 172.0
119.274109 36.0
119.628685 208.0
119.652634 104.0
119.683113 264.0
119.813797 44.0
119.948914 64.0
120.079826 1472.0
120.398384 68.0
120.958115 244.0
120.99971 180.0
121.082649 148.0
121.229706 232.0
121.560844 76.0
121.617905 124.0
122.026512 124.0
122.519508 168.0
123.139359 140.0
123.685501 44.0
123.785126 96.0
124.048782 152.0
124.164085 188.0
124.410385 164.0
124.75695 176.0
124.903717 180.0
125.291069 144.0
125.632164 220.0
125.658936 404.0
126.582085 140.0
126.68959 152.0
126.790428 136.0
127.209869 52.0
128.045914 176.0
128.515213 148.0
128.770309 140.0
128.820007 40.0
128.9375 96.0
129.682129 252.0
129.895279 184.0
130.06308 1164.0
130.606262 140.0
130.87709 128.0
131.072067 444.0
131.216583 228.0
131.310074 76.0
131.919739 116.0
132.045502 228.0
132.080887 6800.0
132.468964 152.0
132.700439 40.0
132.854095 156.0
133.049164 180.0
133.083969 600.0
133.407547 72.0
133.44664 164.0
133.557022 156.0
134.056625 172.0
134.091629 152.0
134.116547 84.0
134.217987 68.0
136.110825 60.0
136.333832 72.0
136.962021 148.0
137.006287 132.0
137.330307 64.0
137.507629 224.0
138.002869 112.0
138.136169 220.0
138.419373 152.0
140.05162 84.0
141.069031 168.0
141.693436 44.0
142.063278 76.0
142.666489 152.0
143.066162 140.0
143.287643 64.0
144.33786 164.0
145.070496 172.0
145.58638 168.0
145.81221 176.0
146.0634 160.0
146.156097 172.0
146.370331 180.0
146.647369 208.0
146.883682 120.0
147.062241 188.0
147.818695 128.0
148.21582 284.0
148.361237 168.0
150.773453 216.0
151.036758 500.0
151.56633 168.0
152.061829 172.0
152.211472 72.0
152.302338 76.0
153.069138 148.0
153.454056 160.0
153.964859 148.0
154.076004 192.0
154.162491 60.0
154.919617 112.0
155.045822 352.0
155.142654 152.0
155.692245 156.0
155.862427 120.0
157.079895 108.0
157.471771 184.0
157.671646 152.0
157.784134 184.0
158.262024 176.0
158.582687 152.0
160.075394 360.0
160.27652 144.0
160.548767 216.0
161.083313 652.0
161.268326 172.0
161.926163 68.0
162.084137 304.0
162.308823 216.0
162.458679 248.0
162.826523 184.0
163.393387 192.0
163.439178 84.0
164.226379 128.0
165.071198 296.0
165.207291 76.0
165.532349 56.0
165.72702 44.0
165.934631 40.0
166.076569 440.0
166.512009 136.0
166.750946 128.0
167.090378 148.0
167.852798 176.0
168.053986 184.0
168.090118 108.0
168.492905 76.0
169.068237 256.0
169.098007 104.0
169.53569 48.0
169.82608 156.0
170.062195 116.0
170.225754 156.0
170.462143 148.0
170.781921 180.0
171.148865 108.0
171.310349 60.0
172.476791 140.0
174.114365 152.0
174.22731 152.0
174.647919 176.0
175.575012 124.0
176.063248 168.0
177.066864 84.0
177.667313 176.0
177.963242 128.0
178.03096 72.0
178.077698 3496.0
178.389664 264.0
178.527924 44.0
178.865814 64.0
178.890533 128.0
179.035599 188.0
179.084778 5600.0
179.238678 84.0
179.347946 44.0
179.40126 64.0
179.465256 28.0
179.513245 64.0
179.543915 40.0
180.088684 352.0
180.351578 72.0
181.066895 564.0
181.098602 472.0
181.119522 148.0
181.299026 52.0
181.443542 136.0
181.548355 124.0
181.76564 100.0
182.070694 864.0
182.101425 156.0
182.122711 52.0
182.402161 88.0
183.037109 156.0
183.075104 156.0
183.252594 112.0
186.728455 80.0
188.82309 168.0
189.068298 316.0
189.545807 52.0
190.074295 588.0
190.256195 44.0
191.083878 728.0
191.421997 64.0
192.050369 204.0
192.090912 172.0
192.180038 80.0
192.384262 132.0
193.062622 132.0
193.083344 180.0
193.846451 136.0
194.072525 748.0
195.077682 112.0
195.452454 56.0
196.098602 204.0
196.952347 124.0
197.05777 272.0
197.097366 896.0
197.589722 160.0
197.640091 80.0
197.866806 80.0
198.046021 176.0
198.095535 628.0
198.362656 52.0
198.965805 56.0
199.139908 100.0
199.778 188.0
201.147552 208.0
201.226608 52.0
202.3349 168.0
202.776794 168.0
203.111374 124.0
204.956482 300.0
205.064697 140.0
205.093277 188.0
205.113235 72.0
205.464005 100.0
205.755112 88.0
206.072601 812.0
206.641098 200.0
206.967392 176.0
207.0802 7008.0
207.132996 180.0
207.222321 80.0
207.359863 160.0
207.529007 444.0
207.597824 48.0
207.626495 60.0
207.663788 36.0
207.815826 212.0
208.042557 104.0
208.083832 1520.0
208.28952 44.0
208.6577 156.0
208.96611 92.0
209.067993 212.0
209.093964 516.0
209.319153 44.0
209.494843 128.0
209.555344 84.0
209.62738 112.0
209.690781 68.0
209.73114 136.0
210.098801 436.0
210.426376 32.0
210.761429 68.0
210.908813 36.0
211.08873 156.0
211.464157 180.0
211.53363 48.0
211.623383 116.0
212.521912 80.0
213.823792 148.0
214.0858 112.0
214.289703 176.0
214.648224 188.0
217.078293 140.0
219.247849 172.0
220.95459 96.0
221.093933 172.0
222.068405 120.0
222.694672 172.0
223.073257 152.0
223.232605 80.0
224.082367 696.0
225.077148 112.0
225.160767 148.0
226.087173 212.0
228.85527 60.0
230.456894 108.0
231.067642 136.0
232.076233 152.0
234.965652 100.0
235.035828 68.0
235.076141 432.0
235.304428 132.0
235.548737 56.0
236.081726 328.0
236.729324 32.0
237.089935 548.0
237.326859 160.0
237.587555 100.0
238.075607 100.0
238.410461 60.0
239.73378 140.0
240.264114 188.0
246.170959 92.0
246.749023 104.0
247.07428 196.0
249.008362 192.0
249.074326 156.0
250.096252 196.0
251.070297 448.0
251.214905 144.0
251.353729 56.0
251.726212 40.0
252.07933 260.0
252.364502 72.0
252.554245 176.0
252.835831 208.0
253.086258 8904.0
253.139221 148.0
253.174591 44.0
253.317123 56.0
253.339294 96.0
253.466019 64.0
253.901978 92.0
253.970108 52.0
254.090149 1980.0
254.20488 44.0
254.242966 56.0
254.363571 76.0
254.522308 104.0
255.012314 100.0
255.092285 464.0
255.316772 52.0
255.666718 76.0
255.774933 140.0
255.934113 100.0
256.086975 80.0
256.370544 72.0
257.023895 72.0
258.929565 124.0
260.067749 104.0
263.936951 72.0
264.603485 100.0
264.891693 60.0
265.043976 164.0
265.086578 10620.0
265.140411 164.0
265.178772 64.0
265.220856 76.0
265.292969 92.0
265.358215 76.0
265.426483 44.0
265.533478 64.0
265.605957 68.0
265.673157 72.0
266.029938 80.0
266.089966 1340.0
266.150085 56.0
266.215027 144.0
266.299469 88.0
266.354675 32.0
266.426147 84.0
266.458618 36.0
266.562622 36.0
266.838898 52.0
266.894165 108.0
267.050262 112.0
267.091431 348.0
267.629547 124.0
267.844482 80.0
268.013885 128.0
268.099518 128.0
268.310486 80.0
268.343079 68.0
268.76712 200.0
269.12616 168.0
269.851501 28.0
270.279999 32.0
271.072449 92.0
271.895569 44.0
272.486633 52.0
274.636292 52.0
277.075592 172.0
278.080688 116.0
279.077271 40.0
280.568848 80.0
280.872314 96.0
281.242706 136.0
281.563232 196.0
289.727142 56.0
291.447327 116.0
292.095947 148.0
293.083282 372.0
293.871643 140.0
294.0849 124.0
294.11734 108.0
295.970306 128.0
299.159882 116.0
300.096985 196.0
301.087372 32.0
301.270416 92.0
302.930939 72.0
310.109161 112.0
311.014099 36.0
311.105377 124.0
311.252838 172.0
311.568939 84.0
314.001282 108.0
320.681091 128.0
324.093964 120.0
325.126709 132.0
326.125183 196.0
332.05014 88.0
334.102478 152.0
353.134644 156.0
353.819458 52.0
355.131592 348.0
356.151947 124.0
361.482941 112.0
365.113464 96.0
367.135712 188.0
369.132965 164.0
370.576019 68.0
379.339966 140.0
381.902771 124.0
394.145538 148.0
396.409973 72.0
412.126404 184.0
412.159546 140.0
413.153198 180.0
413.32132 104.0
439.177551 48.0
456.181732 72.0
499.526672 76.0
518.937622 56.0
522.68042 96.0
526.299622 64.0
531.274597 92.0
534.389526 72.0
544.945251 48.0
548.193176 44.0
588.528809 100.0
598.147461 112.0
631.258423 20.0
679.054077 120.0
706.064331 200.0
754.185547 148.0
792.16449 48.0
808.198853 184.0
849.115173 44.0
869.2948 76.0
879.051514 80.0
884.932861 152.0
891.43988 40.0
895.4198 136.0
900.793945 120.0
910.629272 168.0
963.409485 156.0
965.733704 92.0
977.701721 64.0
982.805298 232.0
987.959656 260.0
993.729736 192.0
1003.560486 152.0
1005.131042 68.0
1017.632019 200.0
1031.040894 128.0
1033.816406 160.0
1042.717896 176.0
1044.865601 32.0
1048.052612 108.0
1050.483154 168.0
1074.375977 108.0
1077.947388 152.0
1126.444946 116.0
1137.393188 192.0
1145.347778 180.0
1147.106445 168.0
1161.353638 192.0
1161.6521 48.0
1180.142456 164.0
1181.886475 184.0
1189.185059 156.0
1196.416382 96.0
1207.263062 144.0
1209.276245 92.0
1209.366211 252.0
1211.145752 148.0
1212.441284 176.0
1213.758423 156.0
1213.876343 164.0
1230.296631 120.0
1234.775513 208.0
1236.685547 156.0
1237.889771 240.0
1240.180664 144.0
1248.943481 168.0
1250.343628 180.0
1254.146851 56.0
1259.290405 144.0
1270.481567 56.0
1279.47168 204.0
1279.841919 192.0
1283.197754 124.0
1294.107788 196.0
1299.820435 144.0
1304.89856 204.0
1308.539062 200.0
1308.841431 60.0
1314.189697 132.0
1318.572998 140.0
1326.041992 144.0
1326.150757 168.0
1328.986206 196.0
1333.757446 76.0
1338.682983 172.0
1341.167236 56.0
1351.786255 124.0
1358.006104 132.0
1362.402954 80.0
1365.600586 144.0
1366.240479 140.0
1366.976318 68.0
1367.911011 112.0
1372.338623 108.0
1375.680664 148.0
1377.689331 52.0
1392.635132 264.0
1393.543823 144.0
1395.037598 156.0
1397.96814 108.0
1398.020142 136.0
1403.360962 128.0
1405.584351 244.0
1408.741943 216.0
1412.539307 140.0
1429.111694 168.0
1429.337402 228.0
1433.539185 212.0
1440.601318 68.0
1448.491089 188.0
1458.560425 168.0
1459.320679 140.0
1462.873535 92.0
1468.031616 184.0
1471.259155 196.0
1472.23645 148.0
1473.527344 172.0
1473.863525 168.0
1478.650635 164.0
1480.204712 136.0
1487.165771 160.0
1488.017822 208.0
1491.820679 184.0
1496.667603 148.0
1499.386841 172.0
1501.337402 148.0
1503.929688 172.0
