>compound Cilostazol
>formula C20H27N5O2 
>ionization [M+H]+
>parentmass 370.224579
#inchi InChI=1S/C20H27N5O2/c26-20-12-9-15-14-17(10-11-18(15)21-20)27-13-5-4-8-19-22-23-24-25(19)16-6-2-1-3-7-16/h10-11,14,16H,1-9,12-13H2,(H,21,26)
#inchikey RRGUKTPIGVIEKM
#Ion_Source LC-ESI
#Instrument qTof
#Compound_Source Isolated
#PI Sirenas
#Data_Collector Ed Esquenazi 
#Scan -1
#Precursor_MZ 370.225
#ExactMass 0.0
#Charge 1
#CAS_Number N/A
#Pubmed_ID N/A
#Smiles N/A
#INCHI_AUX N/A
#Library_Class 3
#SpectrumID CCMSLIB00000006416
#IonMode Positive
#UpdateWorkflowName UPDATE-SINGLE-ANNOTATED-BRONZE
#LibraryQualityString Bronze
#TaskID d19310cd93df49b68e9fcbec27720eb5
##Scan# 1
#SpectrumFile Cilostazol.mgf
#LibraryName fda_library.mgf
#MQScore -1
#Organism fda_library
#TIC_Query 0
#RT_Query -1
#MZErrorPPM -1
#SharedPeaks 0
#MassDiff 0
#LibMZ -1
#SpecMZ 370.225
#SpecCharge 0
#internalFilename spec-00000.mgf

>collision 10
117.04277 57.11153
119.661583 18.054489
120.082497 13.30616
122.059967 85.492821
122.145042 11.92064
124.196388 7.2
124.372391 26.133329
124.412338 10.39701
124.418892 9.408334
124.433456 18.993219
124.4823 8.333333
124.500847 6.075
124.540062 17.72003
124.561943 2.0
124.585266 23.031481
124.621742 17.68421
124.808495 8.284091
124.833183 9.523809
124.952293 3.666667
124.983406 5.801667
125.06266 82.003517
125.082367 14787.919922
125.130074 191.995499
125.15831 36.12064
125.177811 71.687134
125.192177 69.307983
125.203842 32.47628
125.228584 49.9944
125.255569 20.763439
125.267487 10.36004
125.275711 64.541412
125.302269 35.088348
125.319595 27.527
125.339401 6.387821
125.34967 46.35083
125.364166 35.143688
125.407692 12.14286
125.416161 19.72024
125.426399 24.297621
125.43515 7.333333
125.442757 12.96429
125.464798 13.37255
125.497215 42.962101
125.518723 21.376101
125.546692 17.629761
125.590866 10.34041
125.746902 14.71204
125.776962 13.51868
125.902954 11.73848
126.086563 74.670624
126.520416 6.535
126.611618 5.414216
126.872894 7.810714
126.939438 5.774123
128.051193 9.025407
128.311142 7.408951
139.401657 9.125
141.062134 53.705151
146.062897 53.05455
146.202225 4.166667
146.459702 11.45581
147.065231 29.652781
148.074844 83.849403
155.273468 27.682289
160.071945 6.625
161.181854 20.11364
161.432907 4.898148
162.055588 225.214203
162.150635 11.82315
162.469589 23.61603
163.063843 78.85302
163.227768 5.349638
163.512177 8.444445
164.070206 1407.593018
164.100754 67.750687
164.180313 17.67864
164.40799 6.691667
164.715668 6.0
165.140106 5.742284
173.069946 61.630291
173.104813 17.94697
174.09285 72.481583
175.227798 14.04938
175.98735 6.963235
176.026154 47.344051
176.070557 2118.762939
176.127945 10.15278
176.147217 10.57341
176.210922 22.40906
176.725784 11.46387
177.070969 6.075
178.062698 46.884369
178.07605 6.672222
184.068359 55.611591
186.090363 20.539101
186.349945 14.04025
189.05719 8.284091
189.069641 154.193207
189.635803 10.45455
190.086838 104.105202
198.091721 137.130096
200.067169 160.6595
200.225342 8.680555
200.292923 5.703703
201.064316 543.5625
201.093445 69.001984
201.324005 7.111111
201.372635 10.00417
201.85643 10.375
202.085358 585.655518
202.797363 10.5307
203.228134 4.083333
206.044876 3.342592
206.05986 5.692308
206.477905 30.57209
207.159714 2736.454102
207.195129 16.004379
207.220383 7.833333
207.242599 7.125
207.305206 12.33418
207.330276 9.226851
207.350464 5.013889
207.380554 25.34627
207.400391 6.364899
207.44548 6.070402
207.52565 9.445371
207.580872 12.88469
207.595428 9.716269
207.636566 12.74242
207.726166 14.35299
207.831482 7.044117
207.958435 19.555559
208.072693 16.532801
208.624649 5.349638
209.108032 6.673611
215.079163 38.18816
215.650085 29.83432
216.103882 160.174103
216.744553 5.208333
217.003174 10.06888
217.054428 10.3555
218.11705 2112.768066
218.167221 2.583333
218.183472 8.371913
218.220566 2.075
218.281113 13.40221
218.306808 9.704166
218.337616 15.3555
218.463043 5.884804
218.486755 6.338235
218.543365 8.962963
218.619003 9.013888
218.723358 6.354167
218.743942 10.3447
218.932129 10.00134
219.047913 23.06127
219.171341 6.741667
220.806778 18.346149
223.253677 15.08003
226.085693 88.043022
228.083252 43.102322
228.104843 56.77552
230.118652 53.276661
238.093567 14.36149
240.067841 11.75212
242.126312 13.88158
243.112244 860.185486
243.246063 32.208328
243.438522 16.627451
243.698853 14.5
244.524658 9.724638
245.126862 275.222504
246.147675 169.032104
258.128052 43.587399
260.14032 351.308807
261.038269 8.881579
261.229401 5.335
263.043152 11.82456
285.076263 4.375
286.219879 6.666667
286.358765 103.806702
286.37735 19.723869
286.393707 61.400249
286.423431 25.42222
286.454803 43.905991
286.474274 30.273729
286.489044 81.333687
286.531647 11.79066
286.559814 30.512211
286.581451 30.907129
286.612671 66.338318
286.64624 64.534569
286.672607 14.35833
286.694794 18.148529
286.76532 12.49425
286.785065 7.35307
286.804901 52.202419
286.843597 19.97887
287.187988 40.525421
287.421875 103.869698
287.535858 25.56008
287.675476 11.70076
287.763977 6.403736
287.874542 9.966666
288.017883 3.802778
288.065033 3.333333
288.086365 72.565071
288.145935 31293.380859
288.213135 7.672619
288.254028 5.375
288.277588 12.67188
288.305389 21.84194
288.33316 30.607759
288.387238 36.307072
288.447266 49.171829
288.467529 40.014851
288.521942 123.333199
288.565613 71.199738
288.594757 139.762695
288.616364 133.663101
288.643982 12.52006
288.661713 17.73049
288.683105 135.374207
288.713593 62.714039
288.734192 44.355949
288.763611 37.936871
288.787659 33.89587
288.834442 49.915699
288.863007 59.98814
288.906464 24.66173
288.950409 72.042671
288.984314 42.2323
289.048553 53.681911
289.075134 47.769051
289.215118 47.662819
289.311523 41.375778
289.435181 49.58551
289.496613 17.597799
289.880676 6.564103
289.970093 14.08333
290.123474 10.0
290.341064 5.787037
290.37738 9.75
290.579926 6.335
290.989258 5.734848
291.084229 13.28736
291.10202 5.720238
291.155457 22.66667
291.422638 4.666667
292.392456 17.9401
292.48642 11.42222
292.943604 25.64031
293.159485 5.88587
293.189148 9.391305
293.474915 10.49597
294.151001 7.280303
296.888123 85.958344
300.195862 24.494949
327.200409 20.346519
343.082977 2.0
361.007507 7.703947
361.579681 5.733334
366.366455 10.36925
366.867401 17.40749
367.24585 5.801667
367.639984 10.22685
367.784088 45.685631
367.837006 39.900761
367.861633 176.287003
367.904114 120.0298
367.948425 193.279694
367.991058 191.632004
368.048096 117.711502
368.070831 34.589539
368.090393 34.89547
368.116455 117.671303
368.171509 75.458733
368.214203 144.938995
368.251984 119.196404
368.281036 78.226227
368.326508 127.715401
368.38446 35.57518
368.468018 27.54669
368.520294 16.33412
368.652283 94.346413
369.028046 14.66748
369.192993 9.779761
369.442932 28.701811
369.494904 37.101372
369.535614 17.46184
369.675354 16.29167
369.749939 51.24651
369.829315 13.72222
369.924652 14.24242
370.03006 27.954861
370.091644 18.452681
370.142517 268.94339
370.224579 93990.21875
370.355927 17.58621
370.378387 21.0744
370.472809 36.010719
370.518707 59.779758
370.605896 111.617897
370.666016 23.786169
370.727539 11.70833
370.798767 150.214798
370.822449 192.291
370.88208 291.808289
370.935791 32.385422
370.960083 127.063904
370.986969 114.119003
371.011505 85.570778
371.062012 278.918793
371.096344 104.974098
371.172272 31.05781
371.276123 25.204359
371.427429 120.014397
371.504028 15.14258
371.542511 10.33611
371.671631 63.625801
371.706085 14.1408
371.806396 25.0931
371.841705 53.994991
372.075226 62.321739
372.117767 38.82935
372.150604 100.382401
372.236755 10.34722
372.365143 44.657959
372.397339 29.439301
372.46283 4.669445
372.4823 40.3717
372.709534 17.671881
372.732971 13.44048
372.78894 36.12067
373.228058 30.601101
373.373627 20.05747
373.43866 14.37346
373.710602 15.85368
373.903015 6.306159
374.299683 11.74167
374.404999 7.816667
374.440918 17.04891
374.817993 4.083333
374.902527 29.58964
374.980927 5.458333
375.518768 5.335145
375.62674 8.102564
375.704529 11.80278
375.844727 4.013889
376.353241 14.78333
377.328918 13.55648
378.003754 4.033333
383.615051 11.17361
385.268799 4.335526
391.507782 2.336539
391.707397 15.47368
442.440033 9.671569
482.946106 18.14822
609.830322 4.8
1323.315308 27.52137
1617.866943 28.44628
