>compound MLS001159058-01!1-[2-(7-methyl-2-oxo-4-propylchromen-5-yl)oxyacetyl]piperidine-4-carboxamide
>formula C21H26N2O5
>ionization [M+H]+
>parentmass 387.191833
#inchi InChI=1S/C21H26N2O5/c1-3-4-15-11-19(25)28-17-10-13(2)9-16(20(15)17)27-12-18(24)23-7-5-14(6-8-23)21(22)26/h9-11,14H,3-8,12H2,1-2H3,(H2,22,26)
#inchikey XPFXBPDMMJFGSV
#Ion_Source LC-ESI
#Instrument qTof
#Compound_Source NIH Natural Product Library
#PI Dorrestein
#Data_Collector VVP/LMS
#Scan -1
#Precursor_MZ 387.192
#ExactMass 386.184
#Charge 1
#CAS_Number N/A
#Pubmed_ID N/A
#Smiles CCCc1cc(=O)oc2cc(C)cc(OCC(=O)N3CCC(CC3)C(=O)N)c12
#INCHI_AUX N/A
#Library_Class 1
#SpectrumID CCMSLIB00000080031
#IonMode Positive
#UpdateWorkflowName UPDATE-SINGLE-ANNOTATED-GOLD
#LibraryQualityString Gold
#TaskID b1d8e8f6646f4e71acdff9ca3d919d08
##Scan# 1828
#SpectrumFile p2-B03_GB3_01_17991.mzXML
#LibraryName NIH_Natural_Products_Library.mgf
#MQScore -1
#Organism NIH_Natural_Products_Library
#TIC_Query 0
#RT_Query -1
#MZErrorPPM -1
#SharedPeaks 0
#MassDiff 0
#LibMZ -1
#SpecMZ 387.192
#SpecCharge 0
#internalFilename spec-00000.mgf

>collision 10
95.048447 200.0
95.069992 172.0
95.427399 120.0
95.649178 172.0
95.721214 76.0
95.884857 60.0
96.036934 212.0
96.082123 552.0
96.101311 56.0
96.260849 240.0
96.531036 244.0
97.089508 200.0
97.440521 64.0
98.040665 176.0
98.060944 1544.0
98.09256 204.0
98.316765 144.0
98.79097 148.0
98.826584 192.0
99.066139 304.0
99.641464 272.0
100.041199 136.0
100.2882 180.0
100.346016 104.0
100.788307 256.0
101.019035 160.0
101.501213 192.0
101.752518 152.0
101.834854 236.0
101.866989 104.0
101.895119 120.0
102.249023 104.0
102.488663 196.0
102.649918 180.0
102.779015 44.0
102.825432 136.0
103.581635 180.0
103.857307 148.0
103.989807 236.0
105.024834 144.0
105.069092 208.0
105.239113 100.0
105.53743 72.0
105.668327 156.0
105.957001 108.0
106.104568 168.0
106.441055 104.0
107.086807 208.0
107.117706 180.0
107.163025 144.0
107.383598 264.0
107.596146 152.0
107.794426 172.0
108.079781 160.0
108.154289 132.0
108.605988 160.0
109.028618 216.0
109.051285 200.0
109.069031 260.0
109.555962 208.0
110.000145 160.0
110.06057 1300.0
110.083656 176.0
110.447319 88.0
110.700554 180.0
111.060364 176.0
111.074768 176.0
111.817421 140.0
111.937416 196.0
112.076515 3708.0
112.437042 52.0
112.76017 176.0
112.842613 204.0
112.963158 224.0
113.076118 260.0
113.253151 124.0
113.397232 144.0
114.155136 92.0
114.685257 140.0
114.717224 96.0
115.05397 316.0
115.09272 140.0
115.494499 132.0
116.059555 240.0
116.450447 208.0
116.577194 132.0
116.809402 192.0
117.072296 164.0
117.56134 416.0
117.677902 128.0
118.690521 152.0
118.987778 208.0
119.022514 148.0
119.057259 200.0
119.08651 556.0
119.918808 172.0
120.080147 176.0
120.21759 180.0
121.06826 160.0
121.216949 172.0
121.293655 140.0
121.486633 68.0
121.811523 64.0
121.909012 268.0
121.947754 128.0
122.059875 272.0
122.218246 120.0
122.440582 204.0
122.729256 204.0
122.960884 188.0
123.093704 172.0
123.230286 120.0
123.495567 204.0
124.038048 56.0
124.075417 944.0
124.108994 140.0
124.488441 36.0
124.870689 188.0
125.055359 180.0
125.083412 332.0
125.142181 272.0
125.197845 176.0
125.25576 120.0
125.525429 116.0
125.77977 112.0
126.092033 444.0
126.257904 120.0
126.844528 48.0
126.875908 160.0
126.929718 168.0
127.064301 192.0
127.086708 5824.0
127.145081 40.0
127.587578 76.0
127.630302 52.0
127.733749 148.0
127.907021 204.0
128.062225 144.0
128.093491 704.0
128.285461 156.0
128.788666 160.0
128.813507 212.0
129.068771 652.0
129.101913 440.0
130.038483 180.0
130.075684 216.0
130.65657 164.0
130.881882 164.0
131.049805 244.0
131.089172 112.0
131.207703 132.0
131.225937 84.0
132.057159 144.0
132.091476 160.0
132.327194 68.0
133.062485 668.0
133.097931 80.0
133.237701 184.0
133.430756 180.0
133.515823 152.0
133.653854 216.0
133.71138 264.0
133.729797 192.0
134.103104 152.0
134.213577 48.0
135.049561 172.0
135.080338 276.0
136.055252 192.0
136.077515 216.0
137.064682 324.0
137.241821 76.0
137.279144 156.0
137.713226 64.0
137.869766 200.0
138.060822 336.0
138.426529 52.0
139.091156 388.0
139.411789 228.0
139.705688 140.0
139.722168 216.0
139.78569 176.0
139.971649 60.0
140.513763 60.0
141.069504 304.0
141.1026 9488.0
141.305237 108.0
141.513519 56.0
141.66745 112.0
141.705368 44.0
141.771713 176.0
141.797775 44.0
141.876007 80.0
142.077698 976.0
142.105545 468.0
142.657028 56.0
142.813965 116.0
142.856796 44.0
142.951965 128.0
143.084549 372.0
143.109055 176.0
143.259109 160.0
143.301987 192.0
143.724014 108.0
143.824768 92.0
144.003326 116.0
144.053482 136.0
144.070206 156.0
144.08931 176.0
144.113205 192.0
144.388107 96.0
144.929123 140.0
144.955475 184.0
145.063034 352.0
145.102203 284.0
145.615204 240.0
145.65123 112.0
145.720901 140.0
146.070999 140.0
146.160904 120.0
146.845078 184.0
146.929504 152.0
147.013947 180.0
147.043671 252.0
147.080933 940.0
147.124985 204.0
147.31134 144.0
147.581619 144.0
147.862228 184.0
148.058319 172.0
148.10817 76.0
148.603729 164.0
148.657104 240.0
148.81488 168.0
149.059113 312.0
149.120972 168.0
149.242523 28.0
149.824203 116.0
149.882675 84.0
150.019165 160.0
150.058167 88.0
150.131317 232.0
150.397263 40.0
150.551071 52.0
150.856491 204.0
151.032547 148.0
151.07663 180.0
151.113281 148.0
151.149979 160.0
151.862885 36.0
151.985962 208.0
152.061615 84.0
152.080276 80.0
153.068893 228.0
153.121262 188.0
153.774628 152.0
153.791901 172.0
154.076492 176.0
155.050797 148.0
155.086456 104.0
155.11525 148.0
155.271454 204.0
156.095184 360.0
156.957504 208.0
156.97496 180.0
157.062469 132.0
157.099319 568.0
158.074249 476.0
158.12413 132.0
158.794281 168.0
159.078705 480.0
159.116791 280.0
159.830597 152.0
159.946365 188.0
159.979095 164.0
160.049057 168.0
160.087173 184.0
160.256119 84.0
160.959854 128.0
160.98764 272.0
161.060455 1376.0
161.096573 608.0
161.303452 120.0
161.579102 40.0
161.933487 256.0
162.061127 308.0
162.097885 204.0
162.118439 124.0
162.40239 188.0
162.607895 112.0
162.930389 148.0
163.038681 188.0
163.077286 200.0
163.115906 164.0
163.167023 72.0
163.270996 40.0
163.385452 184.0
163.527954 68.0
164.116425 40.0
164.755753 20.0
164.879684 124.0
165.055374 544.0
165.493607 96.0
165.65239 180.0
166.062515 240.0
166.940842 116.0
167.084885 132.0
167.180084 212.0
167.21611 152.0
167.321655 160.0
167.388596 180.0
168.092331 108.0
168.639832 200.0
168.789764 40.0
168.85701 96.0
169.097763 1172.0
169.206345 52.0
169.242584 96.0
169.548248 140.0
169.763428 152.0
169.828262 144.0
170.025452 224.0
170.072159 120.0
170.104767 728.0
170.435745 192.0
170.695679 84.0
171.023483 120.0
171.077271 428.0
171.101242 128.0
171.1875 172.0
171.641159 212.0
171.789566 72.0
171.873062 128.0
172.088577 1380.0
173.095795 604.0
173.98259 132.0
174.021973 80.0
174.070358 540.0
174.429184 52.0
174.902649 136.0
174.939514 60.0
175.075974 2676.0
175.111969 1880.0
175.144897 148.0
175.181778 56.0
175.226562 32.0
175.246979 80.0
175.302979 48.0
175.334595 120.0
175.387314 56.0
175.537598 68.0
175.798752 148.0
175.867371 68.0
176.042236 208.0
176.07515 364.0
176.11795 336.0
177.055023 2400.0
177.133942 72.0
177.534149 76.0
178.05806 144.0
178.086182 148.0
178.118057 48.0
178.266846 184.0
178.519379 132.0
178.631088 72.0
179.798111 120.0
179.891541 116.0
180.337616 148.0
180.682571 176.0
181.129623 168.0
181.57724 156.0
182.079117 180.0
183.076859 108.0
184.050323 80.0
184.250183 40.0
185.058853 124.0
185.099579 236.0
185.679413 128.0
186.063461 152.0
186.556442 100.0
186.841995 164.0
187.037918 156.0
187.0784 140.0
187.111298 576.0
188.049149 208.0
188.084229 2052.0
188.120117 228.0
188.150146 44.0
188.357681 32.0
188.47789 108.0
189.056488 852.0
189.090988 2792.0
189.391632 60.0
189.454636 144.0
189.547791 52.0
189.728683 76.0
190.062134 708.0
190.094162 580.0
190.126419 64.0
190.284561 52.0
190.30484 48.0
190.444901 156.0
191.067551 572.0
191.103088 308.0
192.068878 220.0
192.101974 96.0
192.121292 152.0
192.388977 116.0
192.587799 112.0
193.248489 168.0
194.367905 120.0
195.077301 236.0
195.660324 144.0
195.832977 144.0
197.065994 148.0
198.069962 416.0
199.07605 744.0
200.080994 292.0
201.057251 1016.0
201.093857 384.0
201.132477 140.0
201.691742 204.0
202.058395 364.0
202.092819 268.0
202.319748 164.0
202.537796 192.0
202.591614 104.0
202.693604 180.0
202.730453 148.0
202.823975 108.0
202.979446 124.0
203.008255 160.0
203.071198 5056.0
203.107529 5076.0
203.155746 212.0
203.203979 80.0
203.379929 92.0
203.444122 188.0
203.557312 100.0
203.660248 108.0
203.697952 96.0
203.928101 72.0
204.036118 156.0
204.076004 320.0
204.110794 484.0
204.329056 56.0
204.482712 52.0
204.727554 108.0
204.981079 40.0
205.077209 132.0
205.121536 128.0
205.414444 72.0
205.49147 52.0
206.088211 184.0
206.44838 76.0
206.846069 88.0
206.960587 124.0
209.413055 192.0
211.11293 108.0
212.004562 44.0
212.062531 132.0
212.352463 144.0
212.38147 48.0
213.094635 340.0
213.126755 144.0
215.071625 372.0
215.11235 224.0
216.080795 1160.0
216.148422 200.0
216.217056 176.0
217.052139 512.0
217.086121 860.0
217.38208 44.0
217.423172 68.0
217.569931 80.0
218.050278 280.0
218.091537 340.0
218.114182 220.0
219.075439 60.0
219.09845 508.0
219.806824 100.0
220.09906 124.0
220.234909 76.0
221.560135 140.0
222.488388 76.0
223.136047 64.0
223.558426 168.0
223.61795 160.0
223.677475 60.0
224.151016 120.0
224.466995 132.0
226.78093 56.0
229.09494 148.0
229.166992 160.0
229.643295 48.0
230.083862 116.0
230.135193 112.0
230.455353 76.0
230.485565 128.0
230.960205 132.0
231.064178 216.0
231.102036 8364.0
231.183075 72.0
231.201462 184.0
231.274887 72.0
231.35965 76.0
231.497345 100.0
231.568573 80.0
231.62915 68.0
231.656418 60.0
231.747314 60.0
232.106613 1080.0
232.371887 72.0
232.499329 56.0
232.672348 76.0
233.116837 516.0
233.304245 60.0
233.754395 104.0
233.784821 88.0
234.08316 172.0
234.123779 216.0
234.649887 44.0
235.064713 204.0
235.965775 84.0
237.122864 136.0
240.441345 84.0
240.515427 60.0
240.987915 72.0
241.117706 112.0
241.25679 124.0
242.095306 192.0
242.123169 36.0
243.107178 176.0
243.150848 224.0
244.199493 100.0
245.417099 32.0
246.078552 108.0
246.122269 156.0
246.750275 104.0
247.081802 172.0
248.127823 248.0
249.127075 148.0
249.26091 84.0
249.597244 136.0
254.152084 216.0
254.850616 32.0
257.114716 120.0
258.080109 188.0
258.760925 88.0
259.098602 2464.0
259.132446 152.0
260.099304 544.0
260.134827 156.0
260.939392 44.0
261.108398 184.0
261.618195 48.0
261.74054 92.0
262.397827 52.0
265.019043 72.0
266.112091 132.0
268.598419 40.0
269.11731 120.0
271.133484 292.0
271.820984 80.0
272.126251 148.0
273.128571 120.0
274.136017 144.0
275.128815 80.0
276.11853 168.0
277.105408 152.0
277.18277 212.0
277.268921 200.0
279.114655 172.0
280.712982 184.0
283.131012 192.0
284.10788 128.0
284.134705 124.0
285.353851 60.0
286.127655 124.0
287.179016 128.0
288.110687 156.0
291.131775 164.0
293.158264 156.0
294.121307 96.0
294.462769 56.0
295.14621 76.0
295.2146 108.0
295.597748 84.0
296.121521 156.0
297.167053 144.0
298.431 44.0
299.126801 176.0
300.124298 576.0
301.143066 128.0
301.723602 96.0
303.135681 124.0
303.284821 56.0
304.165833 148.0
305.135071 96.0
306.147614 184.0
309.457886 64.0
313.58902 104.0
314.175934 348.0
314.926239 140.0
315.177826 156.0
316.54599 76.0
317.141174 152.0
318.159241 104.0
322.147766 120.0
323.188171 172.0
324.180023 204.0
324.402252 76.0
325.159088 168.0
326.94165 116.0
328.110229 132.0
328.187988 140.0
333.847778 144.0
335.096283 124.0
336.456665 116.0
337.567413 80.0
339.930145 48.0
341.189972 128.0
342.172302 1740.0
342.2901 80.0
342.378479 32.0
342.411621 104.0
343.170593 160.0
344.17392 152.0
344.536255 56.0
344.972351 72.0
345.13501 184.0
345.177063 324.0
345.205261 148.0
352.140076 128.0
352.296967 128.0
353.164185 220.0
355.715912 72.0
359.199402 264.0
359.928802 44.0
360.249847 76.0
361.323486 124.0
363.638763 56.0
369.165497 164.0
369.194855 176.0
370.167664 616.0
370.801392 112.0
371.175354 324.0
372.174713 120.0
373.408264 100.0
387.191833 940.0
387.245178 64.0
387.605591 36.0
387.703552 32.0
387.789764 124.0
387.970093 44.0
388.200592 268.0
389.243958 224.0
401.345764 92.0
411.456604 84.0
414.299652 44.0
435.085114 168.0
448.9646 128.0
469.116272 76.0
476.051941 52.0
489.336029 108.0
507.091919 36.0
509.142212 92.0
549.210083 44.0
612.075867 52.0
673.271606 196.0
718.219604 48.0
767.942078 72.0
807.148499 176.0
819.505188 156.0
842.806396 192.0
855.23999 176.0
859.12085 48.0
884.779419 128.0
913.406189 48.0
933.351868 156.0
979.238403 56.0
1016.97644 180.0
1018.824219 136.0
1045.77063 124.0
1050.32605 140.0
1050.932495 212.0
1078.212524 176.0
1081.842651 160.0
1084.036743 140.0
1087.84082 148.0
1098.322998 148.0
1099.497437 44.0
1105.219971 160.0
1105.961182 216.0
1107.199341 196.0
1109.706177 204.0
1113.227417 156.0
1113.743042 104.0
1116.723022 196.0
1117.14209 208.0
1132.039185 164.0
1147.345093 188.0
1150.650879 128.0
1155.449219 180.0
1155.733398 136.0
1160.833862 204.0
1173.958252 172.0
1184.682129 200.0
1186.90271 176.0
1191.068359 92.0
1205.370728 156.0
1225.70874 184.0
1227.660522 132.0
1228.40686 76.0
1237.67395 176.0
1240.77771 172.0
1244.327637 228.0
1244.383789 196.0
1246.89856 120.0
1251.970825 164.0
1253.147217 156.0
1253.323364 144.0
1255.536743 172.0
1262.846436 204.0
1266.066528 188.0
1267.143188 104.0
1268.234497 160.0
1271.262817 36.0
1271.844849 196.0
1280.832397 92.0
1281.30249 140.0
1290.81665 200.0
1295.003174 216.0
1295.55481 128.0
1297.375 172.0
1299.210815 144.0
1308.366455 168.0
1309.475952 224.0
1313.843384 132.0
1316.145752 184.0
1319.078857 64.0
1319.302979 84.0
1319.707886 152.0
1321.783691 220.0
1324.868042 188.0
1328.514404 176.0
1330.510132 148.0
1331.918823 128.0
1333.226562 176.0
1334.658569 112.0
1339.913452 148.0
1340.365234 148.0
1341.458374 112.0
1343.288696 176.0
1346.003662 216.0
1347.194092 124.0
1349.744873 220.0
1352.78833 152.0
1353.864624 156.0
1361.293213 204.0
1370.539307 172.0
1373.111938 152.0
1378.124146 164.0
1380.149414 32.0
1380.36377 160.0
1386.515503 160.0
1396.009399 180.0
1408.098022 248.0
1413.031494 160.0
1416.220337 148.0
1417.726196 32.0
1420.852905 160.0
1423.5625 192.0
1424.065674 192.0
1424.411133 164.0
1427.146729 176.0
1427.289551 40.0
1430.056885 152.0
1434.878906 108.0
1435.911865 44.0
1440.606812 32.0
1444.983887 176.0
1451.634155 184.0
1454.099609 148.0
1454.243896 160.0
1472.187988 256.0
1478.99231 208.0
1480.201904 192.0
1482.446289 76.0
1483.756958 224.0
1483.89502 36.0
1487.16748 184.0
1488.498657 76.0
1489.381836 176.0
1492.786377 192.0
1495.68689 100.0
1501.102905 128.0
