>compound MLS001201824-01!1-(6-Methoxy-benzothiazol-2-yl)-3-phenyl-urea
>formula C15H13N3O2S
>ionization [M+H]+
>parentmass 300.08012410809056
#inchi InChI=1S/C15H13N3O2S/c1-20-11-7-8-12-13(9-11)21-15(17-12)18-14(19)16-10-5-3-2-4-6-10/h2-9H,1H3,(H2,16,17,18,19)
#inchikey JHBWYQRKOUBPCA
#Ion_Source LC-ESI
#Instrument qTof
#Compound_Source NIH Pharmacologically Active Library
#PI Dorrestein
#Data_Collector VP/LMS
#Scan -1
#Precursor_MZ 300.084
#ExactMass 299.073
#Charge 1
#CAS_Number N/A
#Pubmed_ID N/A
#Smiles COc1ccc2nc(NC(=O)Nc3ccccc3)sc2c1
#INCHI_AUX N/A
#Library_Class 1
#SpectrumID CCMSLIB00000085142
#IonMode Positive
#UpdateWorkflowName UPDATE-SINGLE-ANNOTATED-GOLD
#LibraryQualityString Gold
#TaskID d252d724072548979f1f6f1ced849daf
##Scan# 2210
#SpectrumFile p3-F04_GF4_01_18285.mzXML
#LibraryName Pharm_Active_Library.mgf
#MQScore -1
#Organism Pharm_Active_Library
#TIC_Query 0
#RT_Query -1
#MZErrorPPM -1
#SharedPeaks 0
#MassDiff 0
#LibMZ -1
#SpecMZ 300.084
#SpecCharge 0
#internalFilename spec-00000.mgf

>collision 10
44.910686 128.0
44.921356 164.0
44.945374 128.0
44.983688 244.0
44.98877 172.0
44.994694 160.0
45.009838 96.0
45.032391 180.0
45.052193 172.0
45.07357 168.0
45.090805 192.0
45.112335 164.0
45.127815 132.0
45.144424 176.0
45.153786 160.0
45.168503 208.0
45.191246 40.0
45.219761 296.0
45.244785 160.0
45.273819 292.0
45.283009 180.0
45.297565 216.0
45.307175 192.0
45.353245 196.0
45.372066 172.0
45.406357 140.0
45.421688 176.0
45.441292 252.0
45.465969 68.0
45.494156 32.0
45.512955 256.0
45.542645 152.0
45.555935 116.0
45.615067 44.0
45.637924 236.0
45.676926 284.0
45.702492 156.0
45.724022 176.0
45.732559 140.0
45.751854 196.0
45.764412 208.0
45.776848 136.0
45.802269 180.0
45.829918 152.0
45.832939 116.0
45.838615 140.0
45.862759 224.0
45.873543 160.0
45.892422 84.0
45.933529 284.0
45.951771 168.0
45.996307 164.0
46.018791 276.0
46.032692 156.0
46.037838 148.0
46.042667 120.0
46.051121 216.0
46.063229 284.0
46.120586 132.0
46.140865 108.0
46.155739 140.0
46.189224 132.0
46.21661 60.0
46.269398 220.0
46.299191 296.0
46.310028 152.0
46.327637 156.0
46.35067 188.0
46.376423 156.0
46.400826 120.0
46.423878 312.0
46.434727 112.0
46.444221 172.0
46.483498 148.0
46.494019 196.0
46.507568 188.0
46.533794 216.0
46.578613 132.0
46.631607 184.0
46.665596 92.0
46.685993 156.0
46.7052 164.0
46.719276 344.0
46.738022 228.0
46.760826 188.0
46.812271 132.0
46.846615 164.0
46.860237 48.0
46.894596 228.0
46.937935 184.0
46.957031 228.0
46.970673 112.0
46.988407 144.0
47.027985 188.0
47.041634 180.0
47.101379 160.0
47.10614 120.0
47.111778 188.0
47.126316 112.0
47.1469 184.0
47.175518 132.0
47.192463 216.0
47.201496 180.0
47.219036 228.0
47.244328 204.0
47.273663 176.0
47.370209 168.0
47.391773 160.0
47.406845 88.0
47.419182 136.0
47.452084 152.0
47.474026 84.0
47.498302 160.0
47.518631 188.0
47.531143 44.0
47.54945 152.0
47.564583 160.0
47.597534 156.0
47.668037 136.0
47.677216 152.0
47.697834 148.0
47.7691 136.0
47.781727 152.0
47.818958 144.0
47.838154 104.0
47.868164 156.0
47.902882 160.0
47.953907 136.0
48.017292 64.0
48.03474 148.0
48.050404 152.0
48.060062 144.0
48.075241 56.0
48.107624 200.0
48.129082 52.0
48.159466 160.0
48.170517 52.0
48.189522 164.0
48.225792 168.0
48.238232 224.0
48.271416 72.0
48.286362 208.0
48.291946 128.0
48.319832 156.0
48.362732 100.0
48.383499 232.0
48.408421 128.0
48.440281 132.0
48.466606 160.0
48.506798 248.0
48.533848 112.0
48.545624 132.0
48.560879 216.0
48.571976 176.0
48.58585 160.0
48.610825 156.0
48.629436 156.0
48.646915 88.0
48.65802 176.0
48.670341 156.0
48.69146 152.0
48.704803 140.0
48.725544 236.0
48.76144 204.0
48.779327 128.0
48.806183 196.0
48.820606 104.0
48.83218 168.0
48.841469 132.0
48.881817 112.0
48.89991 208.0
48.929146 108.0
48.951424 120.0
49.014568 184.0
49.035881 136.0
49.072113 96.0
49.07439 116.0
49.112408 232.0
49.146587 124.0
49.160542 76.0
49.179958 136.0
49.194042 112.0
49.216381 136.0
49.240124 124.0
49.284714 144.0
49.302998 164.0
49.312778 156.0
49.354374 192.0
49.392292 204.0
49.412071 48.0
49.449177 140.0
49.466175 184.0
49.479694 192.0
49.499096 140.0
49.561863 172.0
49.581516 184.0
49.594128 212.0
49.619366 80.0
49.644604 104.0
49.661434 128.0
49.695107 100.0
49.706333 108.0
49.738613 152.0
49.74844 80.0
49.762936 176.0
49.786594 140.0
49.80843 212.0
49.83271 72.0
49.863628 176.0
49.873466 180.0
49.911427 196.0
49.921272 164.0
49.932526 120.0
49.964878 112.0
49.98317 108.0
50.011848 128.0
50.016216 92.0
50.08736 144.0
50.109051 188.0
50.121281 160.0
50.13245 300.0
50.144909 200.0
50.194477 196.0
50.232006 336.0
50.244789 192.0
50.265011 144.0
50.292202 432.0
50.328537 152.0
50.338421 136.0
50.362587 324.0
50.385036 232.0
50.419945 216.0
50.462772 176.0
50.510345 132.0
50.522175 136.0
50.534912 164.0
50.560383 220.0
50.57864 180.0
50.590111 132.0
50.600021 152.0
50.609932 116.0
50.632591 40.0
50.658314 180.0
50.719025 144.0
50.736034 140.0
50.760139 156.0
50.81826 144.0
50.821465 140.0
50.825687 176.0
50.847675 252.0
50.890247 204.0
50.934719 188.0
50.95956 132.0
50.980186 120.0
51.001507 140.0
51.091099 104.0
51.167957 208.0
51.215588 200.0
51.226814 184.0
51.260548 132.0
51.280499 148.0
51.311863 160.0
51.322262 204.0
51.340382 140.0
51.356102 180.0
51.376484 220.0
51.401726 180.0
51.437408 132.0
51.461681 176.0
51.481674 208.0
51.504528 104.0
51.515957 136.0
51.528427 192.0
51.574547 232.0
51.58884 120.0
51.60886 124.0
51.630089 208.0
51.661777 128.0
51.672985 144.0
51.70583 204.0
51.708893 160.0
51.713535 192.0
51.761974 184.0
51.783455 120.0
51.797783 120.0
51.813541 160.0
51.886635 248.0
51.918186 156.0
51.928223 108.0
51.949741 152.0
51.979874 72.0
52.004272 184.0
52.0215 236.0
52.038727 200.0
52.145035 140.0
52.155098 128.0
52.198063 136.0
52.226997 184.0
52.25433 188.0
52.274475 220.0
52.316219 124.0
52.353657 168.0
52.405518 204.0
52.417011 168.0
52.464611 268.0
52.480473 176.0
52.494892 256.0
52.506432 192.0
52.54105 148.0
52.580437 164.0
52.592609 176.0
52.646427 176.0
52.671444 200.0
52.696987 152.0
52.708546 140.0
52.744797 200.0
52.780827 384.0
52.790947 112.0
52.812645 120.0
52.835793 128.0
52.860844 128.0
52.911053 72.0
52.931324 128.0
52.95015 116.0
52.983841 172.0
53.020084 224.0
53.053036 188.0
53.083488 108.0
53.132805 128.0
53.151669 248.0
53.218441 244.0
53.228607 188.0
53.240223 152.0
53.266369 164.0
53.292522 156.0
53.334671 68.0
53.362293 92.0
53.372471 284.0
53.408829 172.0
53.420467 124.0
53.465939 176.0
53.484497 132.0
53.518131 196.0
53.544712 192.0
53.558765 88.0
53.58427 284.0
53.630165 100.0
53.673904 188.0
53.687027 176.0
53.697239 180.0
53.711674 208.0
53.735168 208.0
53.752678 152.0
53.77895 172.0
53.79454 136.0
53.819828 148.0
53.843193 268.0
53.885559 56.0
53.897247 116.0
53.913322 52.0
53.934662 140.0
53.952026 168.0
53.99081 188.0
54.018604 176.0
54.043476 88.0
54.053719 164.0
54.081528 196.0
54.118126 208.0
54.164993 160.0
54.214813 124.0
54.235332 152.0
54.272606 208.0
54.319805 192.0
54.322865 116.0
54.328098 156.0
54.341843 128.0
54.38055 108.0
54.394409 172.0
54.415783 132.0
54.440411 176.0
54.461308 112.0
54.474529 188.0
54.486282 168.0
54.505386 248.0
54.518612 128.0
54.531837 344.0
54.605358 52.0
54.633308 52.0
54.653904 124.0
54.674507 140.0
54.728977 84.0
54.751068 112.0
54.767429 148.0
54.824734 152.0
54.86306 244.0
54.874855 160.0
54.901398 100.0
54.982544 100.0
55.013542 120.0
55.05341 192.0
55.078518 168.0
55.096291 296.0
55.162514 124.0
55.173687 172.0
55.215984 164.0
55.236568 468.0
55.269917 176.0
55.295303 112.0
55.344246 240.0
55.373413 220.0
55.396576 236.0
55.435101 168.0
55.472878 132.0
55.500328 140.0
55.524055 124.0
55.543339 148.0
55.602692 236.0
55.619576 140.0
55.630894 156.0
55.645741 128.0
55.680161 384.0
55.69178 292.0
55.774994 220.0
55.815136 144.0
55.830009 160.0
55.896954 80.0
55.926723 184.0
55.960964 168.0
55.975853 144.0
56.004154 244.0
56.020538 120.0
56.032459 180.0
56.053318 116.0
56.070847 168.0
56.092316 196.0
56.104618 192.0
56.147438 152.0
56.169617 140.0
56.191994 164.0
56.203934 124.0
56.226318 184.0
56.23811 200.0
56.250202 156.0
56.263638 96.0
56.281555 156.0
56.312916 136.0
56.327248 216.0
56.342793 228.0
56.357735 164.0
56.377338 240.0
56.441444 124.0
56.454906 236.0
56.46986 140.0
56.480202 136.0
56.518681 144.0
56.555344 248.0
56.639008 32.0
56.688892 252.0
56.733418 176.0
56.764908 48.0
56.776905 64.0
56.793404 180.0
56.871433 172.0
56.892448 236.0
56.918976 332.0
56.945969 144.0
56.972401 136.0
56.985569 160.0
57.009453 188.0
57.078766 240.0
57.09531 72.0
57.110352 180.0
57.135059 248.0
57.169266 228.0
57.181957 204.0
57.212681 216.0
57.223221 176.0
57.250328 220.0
57.271416 180.0
57.287983 44.0
57.301544 108.0
57.368633 144.0
57.390709 128.0
57.443264 172.0
57.453823 300.0
57.473541 176.0
57.502731 144.0
57.582138 160.0
57.59444 164.0
57.64257 272.0
57.653591 136.0
57.701519 124.0
57.724255 232.0
57.754452 68.0
57.78017 176.0
57.805893 168.0
57.837509 208.0
57.890671 100.0
57.919449 164.0
58.038124 204.0
58.049797 180.0
58.091114 200.0
58.103962 164.0
58.11771 172.0
58.145378 80.0
58.225845 32.0
58.252701 212.0
58.26302 144.0
58.278694 176.0
58.313282 212.0
58.324612 132.0
58.348312 144.0
58.373264 100.0
58.459675 100.0
58.560127 140.0
58.570114 104.0
58.586365 140.0
58.615314 152.0
58.64016 132.0
58.670189 140.0
58.688484 208.0
58.722034 156.0
58.752071 168.0
58.786526 148.0
58.815113 160.0
58.879196 124.0
58.914745 184.0
58.943241 144.0
58.948521 128.0
58.956245 188.0
58.972446 224.0
59.02137 136.0
59.035572 180.0
59.05196 172.0
59.092457 212.0
59.13195 200.0
59.168961 184.0
59.185711 116.0
59.221863 124.0
59.242695 40.0
59.2565 504.0
59.28101 132.0
59.317287 176.0
59.334206 284.0
59.354294 176.0
59.368999 156.0
59.393543 104.0
59.419128 232.0
59.458229 432.0
59.51479 196.0
59.525192 152.0
59.545502 176.0
59.565472 152.0
59.593227 180.0
59.606956 56.0
59.619251 128.0
59.633083 152.0
59.643845 52.0
59.671516 124.0
59.713036 448.0
59.785534 168.0
59.808437 164.0
59.824081 148.0
59.858528 128.0
59.875759 244.0
59.9147 184.0
59.934002 288.0
59.948952 140.0
59.968002 516.0
59.984428 228.0
60.001007 120.0
60.014538 344.0
60.043354 252.0
60.15683 80.0
60.187454 168.0
60.234997 104.0
60.268036 64.0
60.323677 176.0
60.351505 76.0
60.373158 156.0
60.385529 236.0
60.399082 168.0
60.41647 176.0
60.433578 192.0
60.464977 196.0
60.49649 272.0
60.527912 140.0
60.582607 128.0
60.596069 224.0
60.613113 168.0
60.672012 180.0
60.691757 196.0
60.698029 144.0
60.700977 112.0
60.734047 104.0
60.75111 108.0
60.761971 152.0
60.783695 44.0
60.814735 168.0
60.827152 152.0
60.855099 172.0
60.889263 164.0
60.949638 204.0
60.965393 144.0
60.979382 144.0
61.027889 276.0
61.06324 248.0
61.076797 160.0
61.183167 148.0
61.195621 172.0
61.212025 120.0
61.229591 172.0
61.270386 40.0
61.292198 152.0
61.307022 148.0
61.324928 152.0
61.340515 200.0
61.371696 128.0
61.388851 152.0
61.454369 204.0
61.513676 220.0
61.538658 168.0
61.575703 244.0
61.616753 176.0
61.665195 148.0
61.688644 236.0
61.702473 128.0
61.712418 136.0
61.734467 144.0
61.760578 176.0
61.780914 220.0
61.79969 196.0
61.828964 144.0
61.843513 164.0
61.854469 184.0
61.877953 152.0
61.927216 232.0
61.960964 108.0
61.973774 204.0
62.002163 316.0
62.028637 156.0
62.045601 108.0
62.069118 128.0
62.084801 212.0
62.136452 216.0
62.160103 128.0
62.218182 104.0
62.239517 136.0
62.298344 200.0
62.344009 116.0
62.364281 180.0
62.435036 160.0
62.450764 116.0
62.462589 216.0
62.471596 148.0
62.483799 100.0
62.527863 164.0
62.553047 72.0
62.596123 156.0
62.621586 304.0
62.690083 152.0
62.721645 156.0
62.734215 152.0
62.764172 116.0
62.802025 144.0
62.847778 144.0
62.866714 176.0
62.931252 136.0
62.955124 124.0
62.967758 220.0
62.989872 152.0
63.079746 188.0
63.098919 164.0
63.119476 168.0
63.162182 160.0
63.18169 168.0
63.236549 152.0
63.249214 52.0
63.260296 80.0
63.282501 152.0
63.294292 148.0
63.347397 148.0
63.369579 176.0
63.407001 128.0
63.442249 160.0
63.447613 136.0
63.450874 192.0
63.468647 80.0
63.49831 176.0
63.550053 156.0
63.592869 180.0
63.656693 184.0
63.669399 132.0
63.683826 192.0
63.724831 152.0
63.736122 192.0
63.772095 244.0
63.78857 168.0
63.807652 188.0
63.82832 104.0
63.850586 260.0
63.869675 128.0
63.946651 184.0
63.958115 200.0
63.961475 116.0
63.967209 164.0
63.979481 196.0
64.00177 176.0
64.027252 172.0
64.075043 152.0
64.096336 208.0
64.138786 32.0
64.177055 48.0
64.212273 188.0
64.228088 148.0
64.25042 168.0
64.263184 156.0
64.29351 216.0
64.318245 104.0
64.334106 148.0
64.35257 156.0
64.392494 396.0
64.424446 172.0
64.437096 148.0
64.47718 188.0
64.510742 164.0
64.523537 176.0
64.534729 116.0
64.555565 136.0
64.582703 172.0
64.593903 184.0
64.606705 196.0
64.647652 216.0
64.668167 244.0
64.713402 280.0
64.736359 152.0
64.752884 164.0
64.766785 180.0
64.782806 168.0
64.798203 144.0
64.810043 116.0
64.858894 100.0
64.908981 184.0
64.922264 216.0
64.961662 284.0
65.007286 172.0
65.023338 180.0
65.053841 196.0
65.074707 304.0
65.100403 172.0
65.204102 176.0
65.230553 92.0
65.25145 116.0
65.278786 148.0
65.32222 112.0
65.344017 324.0
65.365662 156.0
65.407524 236.0
65.430046 36.0
65.45742 136.0
65.479202 212.0
65.492851 156.0
65.511841 208.0
65.52668 176.0
65.540321 176.0
65.560524 216.0
65.5718 52.0
65.586311 124.0
65.70565 164.0
65.742767 180.0
65.776794 140.0
65.817024 132.0
65.860626 72.0
65.871941 228.0
65.911354 152.0
65.944656 180.0
65.968903 272.0
65.982475 132.0
65.992516 132.0
66.004471 72.0
66.022652 148.0
66.036819 152.0
66.154945 140.0
66.192184 180.0
66.213242 136.0
66.229439 108.0
66.269897 144.0
66.300728 32.0
66.328011 188.0
66.383415 180.0
66.43856 180.0
66.455872 180.0
66.477509 156.0
66.505096 116.0
66.56279 188.0
66.584656 124.0
66.602524 80.0
66.618774 108.0
66.635017 284.0
66.656754 140.0
66.669144 164.0
66.697273 156.0
66.715973 212.0
66.734169 172.0
66.745552 172.0
66.769463 244.0
66.786209 184.0
66.849663 196.0
66.864311 120.0
66.8871 36.0
66.905891 220.0
66.919662 144.0
67.001099 172.0
67.063026 184.0
67.1446 132.0
67.190224 180.0
67.204712 164.0
67.216713 188.0
67.247337 168.0
67.281624 160.0
67.32283 200.0
67.348579 188.0
67.392685 104.0
67.422867 128.0
67.444687 216.0
67.478554 196.0
67.490761 156.0
67.506943 148.0
67.542702 164.0
67.565308 140.0
67.614235 152.0
67.636375 136.0
67.657471 164.0
67.735588 176.0
67.759201 244.0
67.800819 252.0
67.82148 176.0
67.859825 124.0
67.89666 276.0
67.92971 164.0
67.963463 188.0
67.975647 180.0
68.028175 152.0
68.057091 144.0
68.084 176.0
68.169754 144.0
68.226959 180.0
68.239983 148.0
68.254913 244.0
68.2911 140.0
68.366783 132.0
68.389824 176.0
68.419456 180.0
68.439217 144.0
68.455681 140.0
68.505096 84.0
68.620468 116.0
68.633659 244.0
68.697121 148.0
68.759346 148.0
68.803604 212.0
68.825073 184.0
68.844887 160.0
68.886185 140.0
68.900406 204.0
68.922333 136.0
68.955582 180.0
68.995255 148.0
69.027504 196.0
69.069458 184.0
69.134209 180.0
69.14579 80.0
69.159035 124.0
69.183861 148.0
69.197113 160.0
69.208702 136.0
69.276604 136.0
69.293175 120.0
69.327972 104.0
69.339577 176.0
69.368752 180.0
69.427444 48.0
69.464836 140.0
69.493675 160.0
69.525688 204.0
69.561852 164.0
69.596718 128.0
69.631592 84.0
69.71965 152.0
69.7612 136.0
69.787331 408.0
69.804436 68.0
69.849228 176.0
69.870972 236.0
69.909241 208.0
69.945862 208.0
69.970833 188.0
69.992477 152.0
70.055771 168.0
70.069099 180.0
70.082428 108.0
70.109818 128.0
70.14193 188.0
70.177277 164.0
70.192444 132.0
70.204117 168.0
70.227104 312.0
70.24691 116.0
70.278076 72.0
70.299622 148.0
70.324249 128.0
70.390442 124.0
70.441139 100.0
70.521347 188.0
70.588226 36.0
70.621674 224.0
70.636726 232.0
70.672523 152.0
70.690269 200.0
70.700851 112.0
70.707375 36.0
70.713196 120.0
70.743797 172.0
70.76664 148.0
70.835938 184.0
70.865601 188.0
70.891235 132.0
70.915474 252.0
70.934814 156.0
70.952988 276.0
71.001724 168.0
71.007133 152.0
71.01223 188.0
71.019936 184.0
71.045494 164.0
71.056404 88.0
71.072342 160.0
71.084091 124.0
71.138382 120.0
71.161308 156.0
71.184814 128.0
71.198021 176.0
71.231842 176.0
71.248642 184.0
71.260406 84.0
71.280746 380.0
71.295692 104.0
71.308395 220.0
71.331863 108.0
71.338173 148.0
71.35215 232.0
71.384796 180.0
71.398254 224.0
71.438622 144.0
71.45208 192.0
71.495834 168.0
71.507614 192.0
71.519394 216.0
71.544647 96.0
71.56736 220.0
71.655807 196.0
71.674179 204.0
71.73674 180.0
71.789398 368.0
71.804153 136.0
71.841263 164.0
71.880074 120.0
71.920578 140.0
71.934082 184.0
72.001625 52.0
72.033722 120.0
72.092834 212.0
72.109756 128.0
72.128357 192.0
72.14019 108.0
72.167236 160.0
72.181442 220.0
72.245041 160.0
72.256882 152.0
72.270416 140.0
72.294113 172.0
72.339813 168.0
72.351662 120.0
72.454979 228.0
72.592308 188.0
72.629593 176.0
72.645569 268.0
72.665215 140.0
72.679176 160.0
72.690193 128.0
72.736328 160.0
72.751778 212.0
72.785736 128.0
72.799316 240.0
72.812492 116.0
72.831589 148.0
72.882889 164.0
72.908051 180.0
72.959045 164.0
72.981201 132.0
73.008354 132.0
73.035049 156.0
73.054153 156.0
73.093613 176.0
73.108757 160.0
73.130859 172.0
73.152992 116.0
73.186188 112.0
73.200935 176.0
73.2211 84.0
73.279984 212.0
73.338669 152.0
73.367653 180.0
73.45121 180.0
73.476807 208.0
73.488747 108.0
73.516052 240.0
73.596283 156.0
73.616776 108.0
73.68602 208.0
73.72187 132.0
73.837906 260.0
73.890274 108.0
73.922783 132.0
73.946747 104.0
74.014336 104.0
74.032356 144.0
74.098457 184.0
74.111153 120.0
74.141998 204.0
74.169571 140.0
74.188087 176.0
74.256752 116.0
74.279175 184.0
74.316956 176.0
74.334076 160.0
74.364967 228.0
74.381424 148.0
74.411324 108.0
74.428619 164.0
74.45018 204.0
74.486885 112.0
74.543587 216.0
74.569366 216.0
74.58638 192.0
74.753395 64.0
74.768539 180.0
74.805031 168.0
74.818802 76.0
74.835777 172.0
74.846275 188.0
74.875626 168.0
74.906631 212.0
74.921906 136.0
74.954132 204.0
74.979004 224.0
75.010033 112.0
75.037613 136.0
75.058304 152.0
75.093521 172.0
75.107506 152.0
75.130745 100.0
75.163528 144.0
75.190086 228.0
75.217033 172.0
75.23085 180.0
75.246384 128.0
75.294739 156.0
75.31028 152.0
75.329285 200.0
75.374207 136.0
75.409874 176.0
75.426056 180.0
75.445076 144.0
75.473953 176.0
75.59037 136.0
75.633636 104.0
75.678757 260.0
75.701164 116.0
75.791245 124.0
75.81897 136.0
75.836304 200.0
75.86924 116.0
75.88578 156.0
75.90789 220.0
75.954559 284.0
76.018066 240.0
76.039589 216.0
76.060066 116.0
76.077431 96.0
76.104179 192.0
76.117363 168.0
76.162521 168.0
76.209427 132.0
76.227211 204.0
76.240707 196.0
76.265045 176.0
76.316216 192.0
76.365891 148.0
76.378067 384.0
76.400681 108.0
76.423302 172.0
76.480736 208.0
76.496399 152.0
76.518402 176.0
76.52948 240.0
76.541672 196.0
76.5765 188.0
76.590439 164.0
76.639961 152.0
76.675819 192.0
76.700218 176.0
76.714165 224.0
76.761246 120.0
76.774521 320.0
76.804848 164.0
76.825783 120.0
76.858932 176.0
76.906052 160.0
76.948349 140.0
76.988113 240.0
77.055527 228.0
77.080704 108.0
77.101677 96.0
77.12291 216.0
77.138382 160.0
77.204826 184.0
77.217072 168.0
77.294044 156.0
77.31855 176.0
77.351807 120.0
77.369347 192.0
77.397324 192.0
77.423592 152.0
77.443733 176.0
77.469139 132.0
77.502052 188.0
77.540985 136.0
77.556503 168.0
77.562943 144.0
77.584808 152.0
77.607597 140.0
77.626884 116.0
77.653099 148.0
77.760864 168.0
77.788307 140.0
77.82518 152.0
77.86557 152.0
77.903297 168.0
77.946388 108.0
77.969666 196.0
78.015938 112.0
78.078239 120.0
78.10537 320.0
78.225807 148.0
78.236557 148.0
78.254211 184.0
78.270172 128.0
78.347565 144.0
78.359894 128.0
78.380989 144.0
78.393112 224.0
78.432152 148.0
78.468605 212.0
78.509071 224.0
78.539513 204.0
78.557358 176.0
78.57103 160.0
78.589119 212.0
78.659714 336.0
78.751534 56.0
78.801003 56.0
78.81337 128.0
78.873459 156.0
78.907051 160.0
78.938148 136.0
78.953026 120.0
78.967209 216.0
78.988403 172.0
79.030861 152.0
79.046791 140.0
79.105484 124.0
79.14238 144.0
79.167725 192.0
79.223854 412.0
79.235519 180.0
79.250427 140.0
79.296509 216.0
79.31559 132.0
79.333733 148.0
79.362099 172.0
79.39402 192.0
79.422401 160.0
79.458084 176.0
79.472076 88.0
79.484497 136.0
79.528801 104.0
79.563538 196.0
79.630074 92.0
79.654945 208.0
79.667381 148.0
79.694031 40.0
79.716469 140.0
79.764076 136.0
79.80336 204.0
79.843361 152.0
79.873596 176.0
79.912735 144.0
79.970215 312.0
79.998169 352.0
80.040398 172.0
80.129959 56.0
80.170944 44.0
80.186989 64.0
80.199463 40.0
80.221931 192.0
80.258293 160.0
80.283264 124.0
80.304665 192.0
80.322777 104.0
80.342125 144.0
80.370674 124.0
80.39566 128.0
80.432098 96.0
80.448494 140.0
80.467064 320.0
80.522049 172.0
80.545639 308.0
80.567078 120.0
80.584946 188.0
80.608177 188.0
80.631966 312.0
80.661797 192.0
80.692184 172.0
80.72113 152.0
80.749413 148.0
80.785187 132.0
80.797714 116.0
80.813812 92.0
80.84066 160.0
80.856766 148.0
80.880035 176.0
80.928375 128.0
80.942696 136.0
80.964188 328.0
80.994759 120.0
81.0233 64.0
81.089607 92.0
81.116493 112.0
81.143387 188.0
81.163109 156.0
81.180885 188.0
81.197182 196.0
81.242027 180.0
81.26535 124.0
81.32637 392.0
81.340729 112.0
81.390251 140.0
81.412552 112.0
81.436066 132.0
81.468239 56.0
81.498779 120.0
81.543709 264.0
81.55809 124.0
81.579659 132.0
81.59404 208.0
81.633598 144.0
81.697289 88.0
81.723541 108.0
81.80304 184.0
81.82074 180.0
81.837845 176.0
81.870789 156.0
81.90667 144.0
82.006607 160.0
82.029724 176.0
82.045944 200.0
82.065781 212.0
82.087418 164.0
82.142433 144.0
82.168587 76.0
82.211899 160.0
82.252518 324.0
82.278687 196.0
82.28981 188.0
82.347305 124.0
82.410538 96.0
82.481026 100.0
82.50016 192.0
82.531647 148.0
82.550865 184.0
82.576859 88.0
82.663696 172.0
82.722862 140.0
82.75602 60.0
82.770508 48.0
82.788612 188.0
82.815781 136.0
82.852013 204.0
82.871941 160.0
82.928658 176.0
82.976021 152.0
83.024216 96.0
83.065102 208.0
83.084076 180.0
83.105324 180.0
83.145775 136.0
83.158478 136.0
83.17218 156.0
83.185707 188.0
83.202843 192.0
83.228584 52.0
83.247177 164.0
83.270782 188.0
83.292122 160.0
83.308517 192.0
83.333504 276.0
83.376434 180.0
83.401878 148.0
83.429146 128.0
83.465515 124.0
83.521889 164.0
83.549179 196.0
83.562622 144.0
83.639954 132.0
83.657532 184.0
83.693962 388.0
83.738503 56.0
83.774933 116.0
83.798615 48.0
83.847816 116.0
83.906151 144.0
83.924385 148.0
83.963997 172.0
83.988609 204.0
84.002808 144.0
84.048424 120.0
84.078651 228.0
84.106827 160.0
84.145424 184.0
84.159355 140.0
84.201775 164.0
84.238304 152.0
84.280594 192.0
84.30098 188.0
84.320534 200.0
84.345612 244.0
84.369995 156.0
84.393661 152.0
84.408287 212.0
84.515022 172.0
84.538177 168.0
84.563797 128.0
84.580269 220.0
84.592369 92.0
84.613228 92.0
84.69014 176.0
84.708458 252.0
84.768028 172.0
84.820946 104.0
84.827057 128.0
84.83326 156.0
84.841164 136.0
84.866074 228.0
84.908714 160.0
84.932098 140.0
84.958153 200.0
84.972458 124.0
84.996925 180.0
85.055046 116.0
85.106453 120.0
85.12114 124.0
85.187263 92.0
85.201965 72.0
85.24575 132.0
85.314072 104.0
85.367393 124.0
85.386246 188.0
85.460175 184.0
85.486977 144.0
85.531151 176.0
85.564285 168.0
85.577171 148.0
85.590065 32.0
85.606636 156.0
85.623444 192.0
85.658211 232.0
85.672211 220.0
85.687683 160.0
85.720192 200.0
85.74057 212.0
85.765091 184.0
85.779839 148.0
85.822243 176.0
85.849899 108.0
85.894165 384.0
85.923813 172.0
85.955467 196.0
85.995659 124.0
86.065224 328.0
86.11515 140.0
86.143387 196.0
86.15844 216.0
86.198814 144.0
86.218613 140.0
86.240677 196.0
86.267204 168.0
86.28569 120.0
86.301559 240.0
86.363358 104.0
86.405907 76.0
86.457726 152.0
86.472527 136.0
86.49865 144.0
86.548431 148.0
86.605843 160.0
86.650307 160.0
86.702194 132.0
86.724434 184.0
86.759659 192.0
86.79303 184.0
86.811577 120.0
86.838264 144.0
86.870163 164.0
86.889572 168.0
86.922882 236.0
86.956291 92.0
86.974731 124.0
87.023117 168.0
87.073784 128.0
87.098274 180.0
87.128654 180.0
87.158714 180.0
87.184738 200.0
87.198639 160.0
87.220047 120.0
87.236015 136.0
87.255371 116.0
87.318596 128.0
87.374405 168.0
87.391151 100.0
87.406036 140.0
87.426506 188.0
87.520119 320.0
87.540596 228.0
87.554161 148.0
87.573593 140.0
87.61644 176.0
87.684601 76.0
87.752502 168.0
87.780472 88.0
87.86441 148.0
87.914787 176.0
87.955856 176.0
87.985725 176.0
88.002525 116.0
88.03054 288.0
88.04361 144.0
88.056686 44.0
88.108986 120.0
88.12394 180.0
88.214867 172.0
88.251038 184.0
88.28096 128.0
88.31691 144.0
88.361397 92.0
88.374489 120.0
88.393204 164.0
88.455559 140.0
88.471817 180.0
88.492599 204.0
88.557961 192.0
88.572945 104.0
88.65596 84.0
88.683502 104.0
88.788498 172.0
88.805756 180.0
88.824135 116.0
88.90641 168.0
88.944237 120.0
88.976151 116.0
88.99868 236.0
89.022408 356.0
89.056511 192.0
89.081055 172.0
89.126411 308.0
89.16172 132.0
89.209114 216.0
89.226028 172.0
89.26017 220.0
89.293732 180.0
89.309479 332.0
89.329422 296.0
89.344345 296.0
89.374626 104.0
89.39344 224.0
89.446144 152.0
89.521454 64.0
89.55159 156.0
89.619415 332.0
89.696686 168.0
89.738159 172.0
89.762672 176.0
89.779648 124.0
89.811714 200.0
89.833565 152.0
89.903648 160.0
89.930588 144.0
89.952492 172.0
89.995537 196.0
90.045761 96.0
90.104324 144.0
90.14325 220.0
90.170464 172.0
90.190903 184.0
90.21566 196.0
90.242302 208.0
90.300926 164.0
90.327408 188.0
90.367142 204.0
90.392242 164.0
90.472801 172.0
90.520462 140.0
90.549393 88.0
90.567444 284.0
90.600021 168.0
90.642632 176.0
90.664665 136.0
90.772507 176.0
90.835098 264.0
90.874939 144.0
90.901505 160.0
90.937561 128.0
90.964142 132.0
91.008713 176.0
91.032494 192.0
91.085678 100.0
91.218819 184.0
91.256721 152.0
91.271935 192.0
91.306168 336.0
91.330894 204.0
91.374649 120.0
91.38987 128.0
91.404137 200.0
91.43364 152.0
91.483131 132.0
91.52121 220.0
91.557388 128.0
91.580246 176.0
91.629776 148.0
91.681229 120.0
91.793709 148.0
91.863441 228.0
91.941788 52.0
91.980682 44.0
92.028152 160.0
92.048538 412.0
92.09066 176.0
92.099075 72.0
92.105545 176.0
92.124748 128.0
92.160217 116.0
92.20417 180.0
92.234749 116.0
92.271072 168.0
92.287163 232.0
92.338005 124.0
92.384766 152.0
92.41835 200.0
92.469978 160.0
92.54277 108.0
92.562386 312.0
92.651939 180.0
92.676849 52.0
92.692184 148.0
92.709427 88.0
92.738174 116.0
92.772003 136.0
92.784409 188.0
92.805275 336.0
92.844208 120.0
92.883911 172.0
92.899254 116.0
92.92028 184.0
92.978195 232.0
92.994476 148.0
93.02784 192.0
93.055595 568.0
93.073914 180.0
93.096962 156.0
93.123848 100.0
93.237213 152.0
93.273727 140.0
93.291695 204.0
93.332748 204.0
93.343483 164.0
93.384293 128.0
93.410263 108.0
93.456383 140.0
93.518021 308.0
93.550751 352.0
93.58976 288.0
93.626564 300.0
93.645103 208.0
93.716385 176.0
93.731796 140.0
93.75383 244.0
93.789619 144.0
93.812752 160.0
93.833961 236.0
93.86763 156.0
93.891808 176.0
93.916885 104.0
93.968971 184.0
93.985497 276.0
93.990547 156.0
94.016228 172.0
94.030724 124.0
94.062531 1160.0
94.108437 156.0
94.127373 132.0
94.226166 192.0
94.232285 160.0
94.240639 92.0
94.249535 132.0
94.269707 208.0
94.333992 136.0
94.368958 180.0
94.384262 60.0
94.420219 108.0
94.45507 164.0
94.480972 252.0
94.494514 136.0
94.54071 124.0
94.55838 116.0
94.59034 164.0
94.60955 304.0
94.624199 132.0
94.646683 228.0
94.672028 120.0
94.683716 140.0
94.724495 132.0
94.757843 128.0
94.802406 136.0
94.817528 140.0
94.83342 140.0
94.859344 184.0
94.923676 232.0
94.967209 92.0
94.995987 520.0
95.048233 1904.0
95.064743 148.0
95.087509 148.0
95.123878 184.0
95.145744 176.0
95.158386 148.0
95.178749 120.0
95.233131 128.0
95.29496 152.0
95.34388 140.0
95.371094 180.0
95.396362 152.0
95.427467 208.0
95.445145 136.0
95.503311 60.0
95.58503 120.0
95.639526 172.0
95.660934 112.0
95.71006 140.0
95.732185 180.0
95.787933 176.0
95.817696 188.0
95.834274 148.0
95.849861 220.0
95.941475 132.0
95.970528 280.0
96.001411 2112.0
96.022316 192.0
96.053612 180.0
96.093605 196.0
96.10881 116.0
96.159355 144.0
96.185326 212.0
96.232185 76.0
96.263145 56.0
96.297951 160.0
96.317253 200.0
96.365005 344.0
96.390404 104.0
96.527245 64.0
96.550713 136.0
96.56636 192.0
96.593742 172.0
96.619179 176.0
96.636787 144.0
96.673965 108.0
96.744431 124.0
96.774704 200.0
96.799255 116.0
96.83725 176.0
96.850182 184.0
96.883484 168.0
96.932465 200.0
96.959175 136.0
96.97863 108.0
97.006973 180.0
97.086357 304.0
97.114799 156.0
97.128532 220.0
97.173653 148.0
97.195557 216.0
97.228783 148.0
97.279633 248.0
97.296051 220.0
97.311462 208.0
97.350319 60.0
97.406639 184.0
97.424965 56.0
97.480637 120.0
97.512321 192.0
97.574326 112.0
97.590057 160.0
97.669624 148.0
97.715942 180.0
97.753326 40.0
97.780884 188.0
97.800568 140.0
97.830093 176.0
97.859627 180.0
97.873405 144.0
97.895073 132.0
97.932487 208.0
97.956131 392.0
97.99807 376.0
98.02903 172.0
98.06591 148.0
98.12365 116.0
98.172943 144.0
98.206474 144.0
98.234146 288.0
98.309853 232.0
98.33078 212.0
98.352493 44.0
98.376053 60.0
98.44529 188.0
98.459114 132.0
98.478867 356.0
98.494667 196.0
98.508499 164.0
98.538132 340.0
98.562393 228.0
98.595436 148.0
98.638924 132.0
98.669983 124.0
98.70488 100.0
98.797134 184.0
98.822853 168.0
98.905975 156.0
98.96537 160.0
98.999031 180.0
99.020813 252.0
99.039864 188.0
99.061096 144.0
99.098076 152.0
99.111946 160.0
99.135727 160.0
99.153564 28.0
99.187263 168.0
99.203117 68.0
99.2425 144.0
99.289085 220.0
99.316154 116.0
99.345909 144.0
99.422409 128.0
99.461006 96.0
99.474899 68.0
99.502693 100.0
99.522552 288.0
99.544395 108.0
99.570213 144.0
99.60994 152.0
99.637756 112.0
99.672371 220.0
99.704041 100.0
99.742065 328.0
99.792786 172.0
99.812668 132.0
99.83979 144.0
99.86438 216.0
99.902176 204.0
99.932693 272.0
99.995697 192.0
100.018402 236.0
100.037498 140.0
100.051437 128.0
100.099228 140.0
100.118065 136.0
100.158974 144.0
100.175507 360.0
100.224724 112.0
100.290489 176.0
100.338333 64.0
100.386192 192.0
100.418098 260.0
100.438049 168.0
100.471962 172.0
100.505882 236.0
100.572289 160.0
100.587708 224.0
100.611664 72.0
100.669571 200.0
100.695534 160.0
100.73349 148.0
100.757462 180.0
100.782211 228.0
100.807419 172.0
100.867378 196.0
100.923363 68.0
101.003357 144.0
101.020111 184.0
101.04937 192.0
101.077385 124.0
101.129417 112.0
101.205498 116.0
101.265579 180.0
101.3377 300.0
101.36351 172.0
101.451935 148.0
101.469978 164.0
101.543839 312.0
101.566246 136.0
101.596336 92.0
101.614395 80.0
101.636467 132.0
101.686203 160.0
101.708527 212.0
101.740005 136.0
101.751854 156.0
101.793037 196.0
101.811119 180.0
101.837227 148.0
101.861328 180.0
101.891205 216.0
101.971848 172.0
102.012047 108.0
102.0784 148.0
102.126289 164.0
102.174904 168.0
102.257454 80.0
102.28405 132.0
102.329926 88.0
102.356102 164.0
102.3843 60.0
102.409225 232.0
102.43264 84.0
102.52533 112.0
102.54554 148.0
102.577736 156.0
102.591843 176.0
102.644569 188.0
102.669395 256.0
102.740646 128.0
102.767319 96.0
102.878326 128.0
102.892456 152.0
102.908607 136.0
102.967918 212.0
103.00959 100.0
103.037872 116.0
103.096474 164.0
103.151047 120.0
103.170563 172.0
103.177765 112.0
103.184265 196.0
103.205444 124.0
103.242035 168.0
103.31678 188.0
103.352478 128.0
103.38163 148.0
103.395798 232.0
103.416039 124.0
103.434258 240.0
103.464569 152.0
103.545876 64.0
103.560905 144.0
103.611557 168.0
103.665154 116.0
103.691498 124.0
103.730659 128.0
103.762451 64.0
103.788811 164.0
103.818115 196.0
103.881721 172.0
103.949066 316.0
103.971207 136.0
104.009651 216.0
104.026314 140.0
104.042435 60.0
104.091164 200.0
104.11554 168.0
104.158188 132.0
104.24556 136.0
104.283653 204.0
104.302467 176.0
104.326866 180.0
104.349228 120.0
104.36895 224.0
104.434639 56.0
104.450668 168.0
104.477364 40.0
104.501778 168.0
104.540436 120.0
104.564857 168.0
104.601501 116.0
104.615753 300.0
104.664619 120.0
104.711456 164.0
104.776642 232.0
104.790901 188.0
104.839813 60.0
104.870384 172.0
104.905937 200.0
104.990677 148.0
105.042229 1332.0
105.066154 288.0
105.091118 136.0
105.109001 152.0
105.149818 228.0
105.184517 104.0
105.215141 176.0
105.276146 132.0
105.327461 76.0
105.343803 112.0
105.374123 224.0
105.464371 116.0
105.48481 244.0
105.540009 96.0
105.558418 152.0
105.611588 188.0
105.642273 208.0
105.668869 56.0
105.709801 68.0
105.739235 188.0
105.770241 180.0
105.798058 168.0
105.828041 184.0
105.867432 156.0
105.892006 48.0
105.914543 156.0
105.939125 104.0
105.958534 336.0
106.004868 188.0
106.026833 144.0
106.041992 180.0
106.090775 88.0
106.13768 224.0
106.145508 196.0
106.17485 144.0
106.20562 92.0
106.22818 64.0
106.249672 252.0
106.283577 112.0
106.299995 200.0
106.329918 200.0
106.374191 132.0
106.425064 164.0
106.436386 272.0
106.451904 160.0
106.486824 156.0
106.521744 40.0
106.538177 184.0
106.556435 140.0
106.599098 160.0
106.630646 112.0
106.649147 64.0
106.696877 236.0
106.840393 220.0
106.871254 188.0
106.887718 256.0
107.007103 144.0
107.036346 448.0
107.077362 136.0
107.104858 64.0
107.143013 344.0
107.169823 120.0
107.200737 92.0
107.227524 164.0
107.258446 148.0
107.287209 172.0
107.355354 188.0
107.379944 160.0
107.38662 148.0
107.392876 184.0
107.413101 192.0
107.433617 216.0
107.446991 188.0
107.54631 180.0
107.574066 180.0
107.592644 96.0
107.609161 92.0
107.624451 124.0
107.667915 124.0
107.723633 272.0
107.747543 108.0
107.778442 168.0
107.842606 212.0
107.861214 160.0
107.896568 196.0
107.946045 132.0
107.964592 176.0
108.022507 160.0
108.04184 588.0
108.107346 184.0
108.128487 148.0
108.143387 96.0
108.167366 188.0
108.192207 144.0
108.221199 192.0
108.241905 80.0
108.299896 152.0
108.3228 136.0
108.347847 136.0
108.382767 200.0
108.427025 56.0
108.442551 132.0
108.477211 176.0
108.509201 96.0
108.536552 148.0
108.575775 156.0
108.633636 60.0
108.656464 188.0
108.679283 160.0
108.695885 212.0
108.722099 152.0
108.727501 256.0
108.756615 168.0
108.795815 224.0
108.866112 116.0
108.903496 116.0
108.928429 132.0
108.957512 140.0
108.999268 568.0
109.007439 656.0
109.051064 204.0
109.08844 108.0
109.102997 152.0
109.150818 76.0
109.198647 120.0
109.228378 192.0
109.24649 176.0
109.276253 144.0
109.313072 128.0
109.331802 128.0
109.363029 84.0
109.377594 176.0
109.394249 180.0
109.419281 184.0
109.468307 176.0
109.481979 188.0
109.546272 176.0
109.595093 176.0
109.623367 140.0
109.640038 116.0
109.666595 108.0
109.719254 112.0
109.773468 104.0
109.794319 96.0
109.812569 176.0
109.837891 368.0
109.927841 248.0
109.974297 124.0
110.004478 1568.0
110.059502 1624.0
110.092766 136.0
110.163704 104.0
110.207657 92.0
110.222282 136.0
110.259903 220.0
110.284981 164.0
110.33316 176.0
110.362335 220.0
110.391617 72.0
110.454361 164.0
110.481552 176.0
110.50666 172.0
110.533867 196.0
110.557289 188.0
110.62043 224.0
110.680397 148.0
110.764175 68.0
110.847443 156.0
110.871033 164.0
110.887115 184.0
110.92392 172.0
110.947418 484.0
111.013176 6680.0
111.066025 156.0
111.110313 72.0
111.13736 172.0
111.15834 152.0
111.177231 400.0
111.238098 148.0
111.258202 156.0
111.298988 136.0
111.349388 116.0
111.396072 196.0
111.430359 88.0
111.45443 156.0
111.47419 148.0
111.553215 80.0
111.572136 156.0
111.591057 160.0
111.647835 60.0
111.700607 180.0
111.738289 132.0
111.758842 156.0
111.776161 160.0
111.830879 144.0
111.85614 316.0
111.872986 164.0
111.93615 124.0
111.967743 96.0
111.995399 184.0
112.014175 292.0
112.033607 220.0
112.042938 344.0
112.085609 164.0
112.202522 144.0
112.250137 64.0
112.279251 224.0
112.302864 140.0
112.330521 148.0
112.359825 152.0
112.376701 192.0
112.393585 184.0
112.427353 160.0
112.455139 144.0
112.490669 128.0
112.510887 188.0
112.532417 372.0
112.560997 156.0
112.59745 148.0
112.623711 148.0
112.667618 188.0
112.693108 160.0
112.721672 124.0
112.758934 168.0
112.788528 120.0
112.809669 152.0
112.837898 88.0
112.861618 208.0
112.878502 216.0
112.927132 160.0
112.974823 208.0
113.006897 512.0
113.071495 164.0
113.093124 52.0
113.152405 192.0
113.183044 136.0
113.216484 168.0
113.286293 204.0
113.307083 128.0
113.344009 156.0
113.385422 148.0
113.409721 172.0
113.459419 224.0
113.498398 164.0
113.571358 312.0
113.616554 188.0
113.640915 200.0
113.663239 140.0
113.688698 180.0
113.712044 116.0
113.737518 48.0
113.756622 244.0
113.810097 216.0
113.826691 196.0
113.850639 144.0
113.871292 104.0
113.903938 232.0
113.937309 200.0
113.981766 212.0
114.020699 124.0
114.039146 164.0
114.166878 204.0
114.194359 324.0
114.219887 160.0
114.234779 84.0
114.270943 132.0
114.296478 104.0
114.3284 188.0
114.351814 164.0
114.446571 212.0
114.513634 140.0
114.598846 116.0
114.620155 140.0
114.65921 172.0
114.688354 52.0
114.7118 92.0
114.733124 132.0
114.777901 80.0
114.81842 32.0
114.839745 64.0
114.885841 236.0
114.928017 224.0
114.959221 56.0
114.997643 168.0
115.093712 124.0
115.14283 164.0
115.198364 216.0
115.287575 128.0
115.313759 196.0
115.332993 144.0
115.403397 160.0
115.454865 148.0
115.471977 152.0
115.497643 80.0
115.523315 140.0
115.538292 52.0
115.563965 164.0
115.587997 172.0
115.634583 176.0
115.664497 184.0
115.730507 208.0
115.784454 176.0
115.844437 204.0
115.889755 156.0
115.955055 100.0
115.973007 148.0
116.007309 176.0
116.039467 184.0
116.082497 172.0
116.116165 188.0
116.166 192.0
116.234322 176.0
116.24968 216.0
116.280609 136.0
116.305489 180.0
116.351295 212.0
116.41069 84.0
116.437698 188.0
116.522385 172.0
116.546631 212.0
116.598152 172.0
116.614792 108.0
116.666382 44.0
116.683586 108.0
116.72229 124.0
116.745941 248.0
116.829834 140.0
116.849197 160.0
116.868561 144.0
116.905144 252.0
116.958954 144.0
117.019234 164.0
117.08271 100.0
117.128441 192.0
117.193703 120.0
117.2174 160.0
117.256195 76.0
117.286453 108.0
117.407616 172.0
117.452408 112.0
117.508499 148.0
117.541542 180.0
117.575394 108.0
117.594818 232.0
117.639381 112.0
117.672539 176.0
117.713562 144.0
117.73732 100.0
117.754601 148.0
117.771881 172.0
117.825272 212.0
117.842697 92.0
117.874893 200.0
117.879463 136.0
117.887039 172.0
117.909286 128.0
117.966362 48.0
117.981499 204.0
118.033386 160.0
118.052849 444.0
118.102592 148.0
118.119904 68.0
118.16317 160.0
118.212936 48.0
118.234581 184.0
118.353645 132.0
118.38829 120.0
118.429443 176.0
118.457428 144.0
118.494438 92.0
118.536476 200.0
118.568115 164.0
118.649979 204.0
118.678673 140.0
118.718895 204.0
118.761086 132.0
118.823997 228.0
118.854156 160.0
118.868217 160.0
118.925995 140.0
119.000336 260.0
119.03672 152.0
119.051918 128.0
119.066772 100.0
119.072395 84.0
119.081367 136.0
119.10231 240.0
119.167053 208.0
119.195831 180.0
119.2883 340.0
119.317024 144.0
119.33876 140.0
119.404945 332.0
119.46032 144.0
119.484123 188.0
119.517128 140.0
119.541748 152.0
119.603203 196.0
119.653557 224.0
119.754425 164.0
119.771225 108.0
119.799446 144.0
119.832855 172.0
119.856819 160.0
119.994141 216.0
120.043655 2508.0
120.068527 244.0
120.092842 124.0
120.129364 92.0
120.157127 180.0
120.175179 244.0
120.194817 200.0
120.214455 136.0
120.240646 172.0
120.258743 192.0
120.279472 188.0
120.393471 316.0
120.424049 140.0
120.451157 244.0
120.476479 84.0
120.546402 116.0
120.594482 168.0
120.636963 176.0
120.655693 132.0
120.67318 124.0
120.708168 196.0
120.742775 136.0
120.748001 112.0
120.754753 160.0
120.77597 164.0
120.808784 136.0
120.841599 200.0
120.880989 236.0
120.896309 184.0
120.937889 68.0
120.975105 380.0
120.997879 1124.0
121.04731 172.0
121.051117 76.0
121.073639 164.0
121.207848 224.0
121.249329 208.0
121.270828 204.0
121.290558 160.0
121.383827 128.0
121.419922 228.0
121.457214 172.0
121.474762 180.0
121.516853 108.0
121.674469 152.0
121.720146 164.0
121.728081 184.0
121.762512 184.0
121.830406 140.0
121.878738 148.0
121.920494 144.0
121.975388 144.0
122.004379 2808.0
122.059212 3172.0
122.105179 120.0
122.175568 96.0
122.190971 100.0
122.226173 136.0
122.252335 108.0
122.298805 204.0
122.331314 240.0
122.364845 204.0
122.394928 260.0
122.450729 124.0
122.505798 80.0
122.530037 116.0
122.624794 124.0
122.655647 128.0
122.703049 184.0
122.748253 88.0
122.873978 128.0
122.898254 156.0
122.96225 156.0
122.978775 164.0
123.009804 572.0
123.043358 156.0
123.066322 200.0
123.143303 156.0
123.212303 220.0
123.247131 204.0
123.283661 144.0
123.366486 116.0
123.384171 144.0
123.415123 212.0
123.459351 176.0
123.501373 156.0
123.516861 44.0
123.572166 160.0
123.609787 128.0
123.648415 176.0
123.685249 168.0
123.718246 144.0
123.739098 172.0
123.78688 104.0
123.818161 196.0
123.857758 160.0
123.890984 188.0
123.941208 188.0
123.956352 120.0
123.996529 2732.0
124.019081 472.0
124.068069 164.0
124.109192 400.0
124.130371 184.0
124.154762 52.0
124.191704 208.0
124.212433 72.0
124.227966 92.0
124.276772 104.0
124.383301 48.0
124.398842 140.0
124.429924 140.0
124.445465 160.0
124.511063 208.0
124.563171 268.0
124.601341 156.0
124.638718 148.0
124.733917 120.0
124.744751 96.0
124.748711 188.0
124.776024 232.0
124.803207 120.0
124.826675 144.0
124.876595 200.0
124.909958 164.0
124.932205 128.0
124.97448 148.0
124.995399 300.0
125.042091 196.0
125.101341 196.0
125.141418 152.0
125.17482 108.0
125.199318 264.0
125.232727 272.0
125.286194 216.0
125.308472 104.0
125.424355 108.0
125.450432 156.0
125.578209 92.0
125.647369 172.0
125.694221 96.0
125.71743 120.0
125.813286 328.0
125.837082 176.0
125.950981 88.0
125.996666 192.0
126.034729 612.0
126.049812 216.0
126.09845 304.0
126.163277 132.0
126.184616 124.0
126.216942 144.0
126.256073 208.0
126.284035 136.0
126.337723 164.0
126.407082 52.0
126.427223 204.0
126.445129 144.0
126.478706 172.0
126.536911 160.0
126.561539 128.0
126.583931 160.0
126.613045 120.0
126.63768 372.0
126.686966 76.0
126.774353 224.0
126.809944 168.0
126.869171 260.0
126.930153 152.0
126.958183 144.0
126.973885 192.0
127.018921 272.0
127.052399 204.0
127.095718 208.0
127.128685 212.0
127.157867 68.0
127.173576 188.0
127.199867 180.0
127.229698 180.0
127.303207 168.0
127.35321 144.0
127.382408 240.0
127.444038 232.0
127.472282 164.0
127.521729 148.0
127.545166 128.0
127.612366 128.0
127.654442 128.0
127.684425 144.0
127.710602 168.0
127.85453 148.0
127.878944 232.0
127.896484 180.0
127.915375 36.0
127.946892 104.0
127.988297 116.0
128.030212 212.0
128.048096 136.0
128.075256 216.0
128.104538 92.0
128.160538 168.0
128.210434 204.0
128.361984 180.0
128.4133 168.0
128.419357 164.0
128.478775 136.0
128.571671 216.0
128.614182 108.0
128.649521 220.0
128.668854 184.0
128.709 64.0
128.737549 156.0
128.757523 192.0
128.775116 188.0
128.791824 160.0
128.812897 200.0
128.839859 128.0
128.885193 192.0
128.904739 148.0
128.950729 132.0
128.980118 124.0
129.000458 184.0
129.027588 144.0
129.080902 228.0
129.208527 92.0
129.224365 140.0
129.253784 100.0
129.311615 280.0
129.330734 52.0
129.377533 236.0
129.398636 208.0
129.443924 216.0
129.469528 200.0
129.515656 168.0
129.550934 196.0
129.580948 248.0
129.600235 156.0
129.641022 116.0
129.667603 192.0
129.709015 240.0
129.765701 132.0
129.922867 176.0
129.944885 108.0
130.006149 204.0
130.045959 184.0
130.065155 180.0
130.083313 180.0
130.103745 192.0
130.151016 152.0
130.187759 112.0
130.21048 156.0
130.271805 124.0
130.408157 188.0
130.480896 132.0
130.515442 144.0
130.542297 184.0
130.585495 120.0
130.601425 60.0
130.62645 180.0
130.660568 196.0
130.692429 112.0
130.728836 196.0
130.78801 140.0
130.812271 176.0
130.831268 212.0
130.859344 156.0
130.897293 136.0
130.926895 112.0
130.949677 40.0
130.96698 204.0
131.006363 104.0
131.029404 124.0
131.088654 128.0
131.1707 128.0
131.211777 224.0
131.245941 152.0
131.32576 204.0
131.448959 188.0
131.512863 144.0
131.588196 140.0
131.628326 176.0
131.656708 124.0
131.736649 128.0
131.773209 172.0
131.800629 52.0
131.878326 120.0
131.901947 156.0
131.940048 188.0
131.967484 128.0
132.029236 112.0
132.061249 124.0
132.095566 176.0
132.126877 228.0
132.166489 184.0
132.187088 164.0
132.256592 140.0
132.35878 200.0
132.397705 220.0
132.467636 160.0
132.605713 76.0
132.62616 208.0
132.693314 116.0
132.713943 96.0
132.785034 128.0
132.833038 112.0
132.83844 156.0
132.887878 160.0
132.937073 192.0
132.9617 176.0
132.986603 132.0
133.037659 1184.0
133.065414 176.0
133.099442 152.0
133.116013 148.0
133.137772 104.0
133.175323 196.0
133.202805 136.0
133.257935 196.0
133.308487 160.0
133.341385 180.0
133.391235 132.0
133.416519 132.0
133.439758 152.0
133.542999 188.0
133.584412 168.0
133.64653 44.0
133.731674 168.0
133.778488 120.0
133.853699 144.0
133.873779 284.0
134.005341 156.0
134.039856 312.0
134.072556 180.0
134.153229 144.0
134.208557 176.0
134.291367 168.0
134.330795 176.0
134.353867 176.0
134.436539 212.0
134.471558 216.0
134.522339 136.0
134.547729 56.0
134.649124 168.0
134.657974 168.0
134.679367 168.0
134.723434 108.0
134.761887 100.0
134.792633 272.0
134.834167 188.0
134.990707 124.0
135.009888 196.0
135.026077 184.0
135.053833 592.0
135.109344 32.0
135.150208 176.0
135.273666 224.0
135.303635 156.0
135.375534 188.0
135.391754 116.0
135.412598 124.0
135.50766 100.0
135.551605 204.0
135.604904 60.0
135.621124 172.0
135.718506 132.0
135.750778 144.0
135.785751 144.0
135.822861 312.0
135.883316 140.0
135.913422 132.0
135.936554 208.0
136.008575 1572.0
136.036835 1064.0
136.138641 172.0
136.203552 144.0
136.247696 140.0
136.315079 248.0
136.34761 228.0
136.386841 220.0
136.419113 220.0
136.447571 200.0
136.46608 288.0
136.502731 260.0
136.521988 180.0
136.584778 220.0
136.620682 204.0
136.68483 168.0
136.715073 184.0
136.748672 204.0
136.784363 120.0
136.831467 124.0
136.866577 196.0
136.912704 144.0
136.950241 284.0
136.971924 116.0
136.992172 152.0
137.014557 1376.0
137.064392 100.0
137.090027 180.0
137.122894 156.0
137.143631 84.0
137.19577 152.0
137.203903 56.0
137.212662 144.0
137.274658 120.0
137.306839 180.0
137.3255 140.0
137.346603 176.0
137.372162 240.0
137.421036 152.0
137.446823 180.0
137.495834 220.0
137.530838 176.0
137.614883 112.0
137.637512 156.0
137.659256 124.0
137.675598 72.0
137.701096 140.0
137.760895 280.0
137.812531 188.0
137.821228 140.0
137.830505 264.0
137.861816 136.0
137.880463 256.0
137.902222 172.0
137.944046 108.0
137.949478 208.0
137.997864 364.0
138.024185 85768.0
138.114944 140.0
138.143188 124.0
138.167694 100.0
138.212723 68.0
138.240067 308.0
138.294525 172.0
138.322678 140.0
138.363068 144.0
138.390305 316.0
138.408493 696.0
138.449234 216.0
138.477814 36.0
138.504242 144.0
138.527008 92.0
138.550873 152.0
138.571518 128.0
138.619232 356.0
138.643524 168.0
138.695908 100.0
138.714478 28.0
138.747086 180.0
138.796249 188.0
138.802216 324.0
138.836945 216.0
138.865112 200.0
138.869644 240.0
138.901352 64.0
138.923203 144.0
138.952332 208.0
138.960342 164.0
139.022278 9220.0
139.078079 84.0
139.095581 184.0
139.143814 164.0
139.169205 64.0
139.183167 532.0
139.203827 100.0
139.235077 64.0
139.26358 40.0
139.289078 212.0
139.364594 160.0
139.392792 144.0
139.41629 144.0
139.458603 152.0
139.476669 152.0
139.502853 68.0
139.550293 172.0
139.597321 216.0
139.634949 120.0
139.682938 220.0
139.71167 188.0
139.774857 136.0
139.77977 64.0
139.788818 108.0
139.804337 152.0
139.835876 192.0
139.854507 168.0
139.874954 56.0
139.898331 64.0
139.933426 304.0
139.950287 116.0
139.991745 232.0
140.01947 2912.0
140.080811 192.0
140.113358 204.0
140.161163 156.0
140.178787 96.0
140.196686 148.0
140.256561 180.0
140.298874 76.0
140.314621 192.0
140.346573 156.0
140.376801 72.0
140.413895 188.0
140.453812 188.0
140.488403 168.0
140.546646 112.0
140.57843 184.0
140.609863 204.0
140.652084 148.0
140.695343 160.0
140.716599 176.0
140.733124 152.0
140.772049 124.0
140.793152 152.0
140.841766 84.0
140.858292 216.0
140.875839 180.0
140.893875 108.0
140.91835 152.0
140.948898 196.0
140.983521 52.0
141.019577 524.0
141.056015 108.0
141.110733 108.0
141.181671 148.0
141.190079 120.0
141.197189 192.0
141.231781 200.0
141.31459 32.0
141.338257 144.0
141.357178 160.0
141.418716 120.0
141.449371 164.0
141.45787 156.0
141.482635 192.0
141.545898 216.0
141.631973 124.0
141.683945 180.0
141.700531 64.0
141.721848 548.0
141.757401 168.0
141.783463 188.0
141.807159 116.0
141.866425 136.0
141.894882 176.0
141.929779 344.0
141.966019 96.0
142.025314 164.0
142.077667 108.0
142.127319 88.0
142.146637 140.0
142.217514 52.0
142.26973 164.0
142.337555 184.0
142.386856 148.0
142.421341 300.0
142.454971 220.0
142.483475 220.0
142.552383 184.0
142.576157 156.0
142.619263 144.0
142.644791 196.0
142.695007 112.0
142.728302 160.0
142.753418 248.0
142.813919 136.0
142.835327 160.0
142.859116 148.0
142.878143 112.0
142.935257 192.0
142.966187 212.0
143.0336 224.0
143.056503 72.0
143.151886 164.0
143.170929 76.0
143.192368 48.0
143.228104 176.0
143.26622 144.0
143.399658 136.0
143.421112 104.0
143.46701 152.0
143.535553 140.0
143.552246 212.0
143.578476 140.0
143.604706 180.0
143.6362 100.0
143.675522 152.0
143.743088 112.0
143.836166 180.0
143.929276 128.0
143.950775 144.0
144.013947 200.0
144.082153 92.0
144.103653 148.0
144.150803 120.0
144.160233 88.0
144.169388 180.0
144.371384 176.0
144.414429 156.0
144.44075 216.0
144.464661 148.0
144.485565 168.0
144.546021 124.0
144.585098 36.0
144.61499 264.0
144.72554 116.0
144.743759 184.0
144.760132 200.0
144.826126 152.0
144.842896 192.0
144.862061 148.0
144.962692 156.0
144.991302 196.0
145.050873 172.0
145.103912 92.0
145.202438 188.0
145.228821 120.0
145.257889 204.0
145.305405 104.0
145.365585 112.0
145.398773 144.0
145.424194 188.0
145.444778 80.0
145.492798 164.0
145.533615 160.0
145.581635 164.0
145.600845 164.0
145.677155 188.0
145.713867 176.0
145.803741 116.0
145.855072 220.0
145.884399 156.0
145.91954 168.0
145.973358 120.0
146.011078 192.0
146.049561 140.0
146.069565 140.0
146.086395 188.0
146.163391 160.0
146.191925 168.0
146.209671 140.0
146.250031 144.0
146.288559 144.0
146.333084 180.0
146.368011 132.0
146.396912 152.0
146.423401 128.0
146.486343 180.0
146.516144 192.0
146.541992 132.0
146.560715 200.0
146.584183 152.0
146.650101 172.0
146.683624 208.0
146.708237 116.0
146.713379 212.0
146.743011 248.0
146.893433 240.0
146.917557 156.0
146.953217 204.0
147.001419 164.0
147.032104 164.0
147.105789 296.0
147.131241 156.0
147.180634 136.0
147.214447 100.0
147.29657 220.0
147.377899 48.0
147.402878 136.0
147.436707 152.0
147.463303 128.0
147.521317 148.0
147.559998 140.0
147.618027 208.0
147.644623 152.0
147.782516 180.0
147.847336 148.0
147.911774 236.0
147.961624 48.0
148.005203 152.0
148.030411 144.0
148.062286 4384.0
148.144333 180.0
148.309296 208.0
148.331421 136.0
148.365341 120.0
148.383194 180.0
148.426193 136.0
148.465637 96.0
148.603912 132.0
148.642731 208.0
148.669434 128.0
148.697495 192.0
148.73497 160.0
148.766525 192.0
148.795654 104.0
148.822784 208.0
148.914795 192.0
149.015335 2608.0
149.067856 788.0
149.109024 112.0
149.172226 108.0
149.272018 332.0
149.361893 60.0
149.378922 36.0
149.413467 160.0
149.445251 152.0
149.452301 180.0
149.512756 76.0
149.537094 156.0
149.613678 96.0
149.638947 124.0
149.804352 180.0
149.826874 128.0
149.897537 48.0
149.917038 220.0
149.940842 176.0
149.965775 116.0
149.99527 244.0
150.023697 16416.0
150.092911 84.0
150.120773 28.0
150.130966 64.0
150.180466 164.0
150.219376 116.0
150.251099 48.0
150.282516 168.0
150.319412 128.0
150.33992 180.0
150.393509 56.0
150.412155 104.0
150.499146 212.0
150.531799 68.0
150.608597 144.0
150.645905 156.0
150.649994 112.0
150.659882 200.0
150.684875 132.0
150.754105 132.0
150.774933 108.0
150.795654 196.0
150.812759 144.0
150.842102 56.0
150.879501 132.0
150.911255 140.0
151.028336 1008.0
151.081757 128.0
151.101334 76.0
151.142929 68.0
151.162506 152.0
151.180771 120.0
151.187836 160.0
151.262238 376.0
151.292175 180.0
151.370453 152.0
151.500397 56.0
151.540314 204.0
151.569 72.0
151.646042 68.0
151.689102 160.0
151.730774 128.0
151.751205 192.0
151.791092 120.0
151.810364 132.0
151.838669 156.0
151.877914 180.0
151.930374 104.0
151.953964 104.0
151.990768 200.0
152.016937 660.0
152.056808 220.0
152.07489 188.0
152.090164 104.0
152.115952 128.0
152.133133 132.0
152.169113 128.0
152.216553 156.0
152.258942 184.0
152.294037 212.0
152.324677 120.0
152.351822 176.0
152.398392 188.0
152.48439 204.0
152.572891 124.0
152.603607 100.0
152.696457 120.0
152.80072 164.0
152.823761 68.0
152.96524 216.0
152.987198 148.0
153.004318 112.0
153.014618 156.0
153.04628 448.0
153.088257 116.0
153.096436 52.0
153.105637 104.0
153.137238 204.0
153.205505 176.0
153.234833 152.0
153.244125 144.0
153.284241 176.0
153.301483 160.0
153.354721 140.0
153.380356 208.0
153.459244 180.0
153.478119 116.0
153.545486 192.0
153.605713 72.0
153.641769 216.0
153.757736 100.0
153.779953 168.0
153.801727 204.0
153.821915 224.0
153.841675 172.0
153.866364 128.0
153.932251 160.0
153.965134 196.0
153.997238 120.0
154.030899 6668.0
154.108414 84.0
154.194901 180.0
154.21962 168.0
154.348175 100.0
154.410782 280.0
154.472443 148.0
154.636642 348.0
154.659912 152.0
154.712616 136.0
154.741608 128.0
154.862946 144.0
154.889069 220.0
154.933746 172.0
154.971954 272.0
155.034546 872.0
155.18512 128.0
155.23912 144.0
155.242767 192.0
155.264465 136.0
155.299194 160.0
155.363693 108.0
155.413315 204.0
155.482803 144.0
155.510834 380.0
155.5672 168.0
155.587051 168.0
155.614365 132.0
155.656586 156.0
155.728607 272.0
155.81752 156.0
155.86319 116.0
155.947144 268.0
155.972107 124.0
155.989517 116.0
156.026764 824.0
156.101395 120.0
156.128754 188.0
156.171997 136.0
156.217834 172.0
156.235718 64.0
156.292938 176.0
156.312851 100.0
156.330276 140.0
156.372574 244.0
156.389999 136.0
156.432907 188.0
156.511993 216.0
156.629044 176.0
156.681366 152.0
156.72229 292.0
156.746155 176.0
156.797867 308.0
156.889465 160.0
156.933105 88.0
156.965515 152.0
157.038864 184.0
157.097702 64.0
157.147614 140.0
157.254913 120.0
157.334793 184.0
157.379745 116.0
157.401001 140.0
157.432175 120.0
157.499619 204.0
157.577057 52.0
157.774506 132.0
157.807007 48.0
157.834137 132.0
157.879532 188.0
157.904541 120.0
157.95015 68.0
158.054642 108.0
158.104691 120.0
158.24794 180.0
158.285446 200.0
158.30748 176.0
158.32428 144.0
158.349136 152.0
158.427704 104.0
158.463989 172.0
158.542969 140.0
158.563019 148.0
158.593094 176.0
158.615662 124.0
158.668304 88.0
158.696671 204.0
158.825806 356.0
158.863922 136.0
158.899048 140.0
158.920273 200.0
158.940445 184.0
158.976837 200.0
159.000931 172.0
159.042099 64.0
159.06218 132.0
159.114899 108.0
159.14502 148.0
159.165115 204.0
159.198929 172.0
159.343445 56.0
159.366058 232.0
159.432587 152.0
159.461563 180.0
159.478546 148.0
159.506805 168.0
159.557083 116.0
159.609894 144.0
159.689178 144.0
159.727341 164.0
159.764221 156.0
159.798538 136.0
159.891647 176.0
159.927078 216.0
159.967163 104.0
160.009964 204.0
160.036835 320.0
160.166931 144.0
160.221527 108.0
160.248184 164.0
160.279907 232.0
160.30719 132.0
160.339951 196.0
160.357605 168.0
160.375244 112.0
160.400452 108.0
160.450867 128.0
160.483643 120.0
160.518875 128.0
160.547714 200.0
160.624878 184.0
160.710663 136.0
160.758606 192.0
160.821701 152.0
160.839371 176.0
160.867142 176.0
160.915115 180.0
160.97319 88.0
161.009689 228.0
161.040298 132.0
161.064102 224.0
161.099091 188.0
161.134689 128.0
161.192963 44.0
161.213181 224.0
161.283951 88.0
161.301636 120.0
161.359787 236.0
161.42865 188.0
161.51152 160.0
161.587418 220.0
161.658279 184.0
161.688492 196.0
161.722992 216.0
161.825348 168.0
161.906372 152.0
161.930176 200.0
162.012222 56.0
162.063431 128.0
162.081177 116.0
162.149597 148.0
162.172409 232.0
162.240234 148.0
162.249725 112.0
162.25975 204.0
162.339737 176.0
162.499557 140.0
162.58075 220.0
162.631516 204.0
162.715286 56.0
162.738144 120.0
162.799774 196.0
162.818741 124.0
162.893066 124.0
162.926086 52.0
162.951492 188.0
162.979446 144.0
162.997238 148.0
163.036896 272.0
163.076019 140.0
163.093811 192.0
163.124374 180.0
163.180252 108.0
163.222168 144.0
163.241272 40.0
163.40152 120.0
163.447479 132.0
163.513489 304.0
163.591171 216.0
163.620407 140.0
163.650726 160.0
163.71463 232.0
163.791031 160.0
163.837662 132.0
163.892944 140.0
163.966843 128.0
164.002991 5344.0
164.035675 128.0
164.117004 196.0
164.150406 436.0
164.178452 148.0
164.214783 148.0
164.252853 356.0
164.30925 296.0
164.344269 72.0
164.382553 196.0
164.408905 412.0
164.45401 132.0
164.479538 160.0
164.515747 176.0
164.590897 200.0
164.609741 200.0
164.645493 136.0
164.663376 220.0
164.69165 176.0
164.719574 136.0
164.763 140.0
164.861908 176.0
164.870163 124.0
164.878662 168.0
164.913773 116.0
164.942215 124.0
164.977676 164.0
165.010971 2008.0
165.051834 188.0
165.071533 256.0
165.108093 132.0
165.143661 216.0
165.168823 184.0
165.205292 84.0
165.279495 152.0
165.307632 228.0
165.363403 188.0
165.398621 204.0
165.451996 212.0
165.471466 196.0
165.503067 168.0
165.532913 48.0
165.555634 212.0
165.593689 88.0
165.641113 260.0
165.666534 192.0
165.691345 184.0
165.725586 484.0
165.748016 224.0
165.771561 176.0
165.802979 196.0
165.835953 300.0
165.859009 536.0
165.924561 352.0
165.943634 432.0
165.978088 668.0
165.987106 412.0
166.019363 251804.0
166.059006 476.0
166.073242 208.0
166.080429 216.0
166.100143 244.0
166.142517 372.0
166.18721 92.0
166.247162 248.0
166.27356 408.0
166.291016 400.0
166.308731 144.0
166.33905 224.0
166.364182 40.0
166.381943 156.0
166.411942 380.0
166.441238 3644.0
166.477264 312.0
166.553055 80.0
166.57753 128.0
166.606079 308.0
166.634857 128.0
166.654495 112.0
166.693771 280.0
166.730423 92.0
166.752136 156.0
166.759064 104.0
166.771484 224.0
166.81517 160.0
166.824219 220.0
166.865326 172.0
166.886078 96.0
166.912079 108.0
166.93306 88.0
166.959259 208.0
167.021576 28444.0
167.0793 208.0
167.111496 228.0
167.12674 144.0
167.147415 164.0
167.185394 64.0
167.210327 92.0
167.230591 80.0
167.27095 56.0
167.276779 84.0
167.307251 244.0
167.333755 200.0
167.383347 180.0
167.425629 252.0
167.462219 132.0
167.472473 64.0
167.480881 128.0
167.536392 64.0
167.57608 208.0
167.597794 48.0
167.651794 76.0
167.687637 120.0
167.706345 176.0
167.736221 148.0
167.800507 204.0
167.851364 100.0
167.885284 168.0
167.894272 148.0
167.90242 200.0
167.923767 196.0
167.960358 164.0
168.014587 14048.0
168.059631 68.0
168.079391 164.0
168.088486 64.0
168.09407 192.0
168.125916 164.0
168.14801 196.0
168.19017 124.0
168.220276 276.0
168.243423 156.0
168.263168 60.0
168.294617 232.0
168.330841 348.0
168.355606 268.0
168.398972 156.0
168.423294 80.0
168.441025 96.0
168.461334 72.0
168.521973 100.0
168.570786 144.0
168.597961 108.0
168.616898 164.0
168.640472 164.0
168.677032 68.0
168.744263 88.0
168.76236 48.0
168.798553 36.0
168.816666 240.0
168.836166 96.0
168.914398 76.0
168.956345 84.0
168.989975 240.0
169.0159 720.0
169.065018 76.0
169.085724 156.0
169.124542 200.0
169.153717 252.0
169.191849 116.0
169.233276 80.0
169.289703 192.0
169.334274 60.0
169.35759 48.0
169.385117 176.0
169.404358 144.0
169.500076 120.0
169.53244 156.0
169.555618 84.0
169.580429 180.0
169.601166 148.0
169.659988 144.0
169.710052 76.0
169.728195 112.0
169.773453 80.0
169.882858 172.0
169.942444 168.0
169.950439 100.0
169.961121 136.0
170.003174 136.0
170.026535 88.0
170.075851 44.0
170.095337 136.0
170.143341 192.0
170.179688 140.0
170.208252 200.0
170.238571 108.0
170.291367 160.0
170.371887 140.0
170.447235 64.0
170.473221 72.0
170.642181 96.0
170.76004 212.0
170.860657 108.0
170.915298 88.0
171.042831 128.0
171.079269 140.0
171.102707 180.0
171.131348 44.0
171.175354 164.0
171.277191 52.0
171.3414 160.0
171.39183 72.0
171.428299 140.0
171.496063 44.0
171.62381 208.0
171.764648 144.0
171.809006 108.0
171.844818 88.0
171.871613 160.0
172.038666 148.0
172.071472 176.0
172.093842 176.0
172.148331 144.0
172.297211 152.0
172.430481 420.0
172.485367 48.0
172.510208 144.0
172.579498 180.0
172.634415 160.0
172.657944 136.0
172.676254 236.0
172.765198 148.0
172.788742 224.0
172.827988 84.0
172.848923 132.0
172.882935 80.0
172.916962 212.0
172.935287 88.0
172.993286 192.0
173.024292 180.0
173.105133 252.0
173.134369 204.0
173.199753 152.0
173.254761 128.0
173.30455 156.0
173.373474 132.0
173.404129 180.0
173.514221 232.0
173.692551 124.0
173.77388 168.0
173.873611 296.0
173.99855 340.0
174.050369 228.0
174.107269 100.0
174.195831 196.0
174.280655 44.0
174.320068 112.0
174.388397 208.0
174.422577 140.0
174.519852 160.0
174.559296 48.0
174.588211 208.0
174.656601 176.0
174.70636 92.0
174.753937 80.0
174.8013 172.0
174.827621 100.0
174.861832 200.0
174.898682 84.0
174.919739 60.0
174.961868 180.0
174.991806 164.0
175.02243 108.0
175.046127 44.0
175.162018 80.0
175.214706 108.0
175.246323 200.0
175.264771 144.0
175.388626 64.0
175.422897 72.0
175.465317 140.0
175.528366 160.0
175.596939 92.0
175.68663 148.0
175.728836 124.0
175.781616 224.0
175.813278 88.0
175.852875 68.0
175.953186 204.0
176.001358 424.0
176.042969 256.0
176.074646 160.0
176.315079 60.0
176.399658 188.0
176.442841 156.0
176.518646 156.0
176.548599 136.0
176.626007 148.0
176.690567 140.0
176.770828 192.0
176.802261 208.0
176.854645 60.0
176.875824 192.0
176.895035 200.0
176.952591 136.0
177.001236 112.0
177.024094 184.0
177.047928 116.0
177.206863 148.0
177.267807 100.0
177.294312 112.0
177.315521 216.0
177.456009 112.0
177.562088 164.0
177.592636 124.0
177.644318 56.0
177.710648 76.0
177.800873 60.0
177.851303 132.0
177.891113 152.0
177.958206 108.0
177.998199 108.0
178.037155 104.0
178.087616 192.0
178.127457 144.0
178.207962 160.0
178.300171 248.0
178.318787 176.0
178.401245 160.0
178.457733 128.0
178.491592 132.0
178.579346 204.0
178.59935 224.0
178.640533 72.0
178.661819 148.0
178.712372 112.0
178.754944 176.0
178.773575 88.0
178.821472 92.0
178.840103 236.0
178.928787 216.0
179.027023 5092.0
179.082413 92.0
179.125031 64.0
179.15799 140.0
179.200424 148.0
179.230713 96.0
179.314224 108.0
179.370193 164.0
179.419785 176.0
179.455505 76.0
179.491409 124.0
179.599518 112.0
179.653702 116.0
179.675735 132.0
179.708893 212.0
179.73558 160.0
179.754257 168.0
179.788284 192.0
179.824936 116.0
179.853546 160.0
179.922424 64.0
180.009186 2916.0
180.033096 1336.0
180.125381 48.0
180.159958 240.0
180.17186 172.0
180.184784 136.0
180.193634 204.0
180.212662 120.0
180.261642 84.0
180.288376 184.0
180.314423 144.0
180.347168 128.0
180.370865 116.0
180.399979 148.0
180.422028 368.0
180.453217 156.0
180.482483 176.0
180.535751 184.0
180.5578 280.0
180.62059 160.0
180.66124 224.0
180.688522 236.0
180.729935 412.0
180.785995 276.0
180.82222 184.0
180.840851 352.0
180.864792 204.0
180.893265 476.0
180.990585 948.0
181.012299 944.0
181.042892 300404.0
181.099884 104.0
181.123322 136.0
181.133774 252.0
181.144012 180.0
181.221313 180.0
181.25058 212.0
181.274872 284.0
181.299698 272.0
181.32988 140.0
181.359085 128.0
181.402283 100.0
181.435196 92.0
181.483292 2672.0
181.528549 160.0
181.559326 88.0
181.576645 152.0
181.598145 80.0
181.625824 172.0
181.633347 136.0
181.644806 200.0
181.652634 128.0
181.662689 136.0
181.71846 100.0
181.745163 176.0
181.77829 128.0
181.838058 132.0
181.868607 92.0
181.877899 80.0
181.908173 76.0
181.929962 60.0
181.948898 88.0
181.968796 204.0
182.009552 288.0
182.04454 28852.0
182.101135 40.0
182.131317 124.0
182.147583 72.0
182.188171 52.0
182.224976 116.0
182.23497 76.0
182.269577 108.0
182.298141 104.0
182.317154 72.0
182.339157 196.0
182.383835 84.0
182.420746 100.0
182.466492 96.0
182.502884 48.0
182.543427 104.0
182.6129 68.0
182.633987 128.0
182.719955 180.0
182.759598 60.0
182.787567 140.0
182.796143 76.0
182.804626 228.0
182.840103 72.0
182.858551 200.0
182.881958 116.0
182.904312 80.0
182.955475 68.0
182.984268 216.0
183.037628 12296.0
183.078644 264.0
183.113937 52.0
183.152252 104.0
183.247635 100.0
183.280151 176.0
183.301666 96.0
183.340805 384.0
183.383163 84.0
183.407394 256.0
183.430069 192.0
183.442032 92.0
183.451111 296.0
183.479187 220.0
183.508606 276.0
183.536636 124.0
183.570129 104.0
183.610138 196.0
183.679565 88.0
183.696884 72.0
183.717346 112.0
183.752411 160.0
183.81633 116.0
183.864487 60.0
183.946732 48.0
184.036896 560.0
184.114136 56.0
184.160355 36.0
184.182587 88.0
184.278915 80.0
184.303238 92.0
184.327545 188.0
184.349167 76.0
184.387909 104.0
184.430252 56.0
184.482666 92.0
184.507294 72.0
184.546509 88.0
184.691605 116.0
184.783173 104.0
184.862991 52.0
184.881943 76.0
184.909012 124.0
184.957733 60.0
185.014572 76.0
185.032486 76.0
185.049774 140.0
185.112045 104.0
185.258316 100.0
185.3125 48.0
185.353149 96.0
185.431732 88.0
185.507645 44.0
185.567276 52.0
185.687805 72.0
185.75441 100.0
185.853836 68.0
185.914505 100.0
185.957932 52.0
186.023071 52.0
186.077377 76.0
186.120819 36.0
186.175125 60.0
186.499649 180.0
186.634384 132.0
186.732285 60.0
186.968994 88.0
187.012543 68.0
187.27121 120.0
187.431946 116.0
187.532776 92.0
187.854553 76.0
188.123505 180.0
188.493454 72.0
188.61644 40.0
188.682053 112.0
188.769547 52.0
188.788696 152.0
188.843399 140.0
188.922729 196.0
188.974701 88.0
189.097855 108.0
189.303192 100.0
189.396317 68.0
189.522339 108.0
189.673065 164.0
189.749832 88.0
190.265625 48.0
190.501816 80.0
190.810486 204.0
190.852997 88.0
190.874786 80.0
190.897614 84.0
190.936111 116.0
191.22226 44.0
191.291077 192.0
191.364899 236.0
191.40947 96.0
191.525146 52.0
191.549927 88.0
191.668396 124.0
191.775879 56.0
191.8255 176.0
191.897186 104.0
191.997772 15144.0
192.08197 76.0
192.139893 52.0
192.208878 28.0
192.230957 64.0
192.322037 76.0
192.518066 52.0
192.570541 36.0
192.619278 56.0
192.714188 68.0
192.733536 104.0
192.849609 56.0
192.965027 48.0
193.000198 1380.0
193.09845 80.0
193.267212 52.0
193.341919 40.0
193.447113 88.0
193.544006 56.0
193.607697 84.0
193.671402 164.0
193.80162 80.0
193.890289 84.0
193.991852 528.0
194.051071 96.0
194.095444 64.0
194.186951 140.0
194.231339 44.0
194.392258 84.0
194.439438 72.0
194.458862 56.0
194.606003 84.0
194.728195 64.0
194.897659 48.0
195.227188 96.0
195.281311 104.0
196.414993 108.0
196.861557 64.0
196.892288 56.0
197.160492 92.0
197.339401 136.0
197.983017 156.0
198.386505 92.0
198.456589 72.0
199.045868 124.0
199.765396 152.0
199.889191 176.0
200.043991 228.0
200.243912 124.0
200.393219 52.0
200.878143 88.0
201.038971 144.0
201.070023 36.0
201.129288 32.0
201.764908 92.0
201.996811 28.0
202.146774 32.0
202.58847 136.0
202.645142 80.0
202.945587 68.0
203.507401 52.0
204.536575 128.0
204.949539 84.0
205.006531 104.0
205.057831 100.0
205.177551 180.0
205.554062 56.0
205.742447 96.0
205.930923 52.0
206.05661 128.0
206.193771 96.0
206.296677 172.0
206.442505 248.0
206.528305 28.0
206.548325 144.0
206.679932 100.0
206.7798 116.0
206.883148 152.0
206.914642 128.0
206.954727 136.0
207.02095 29084.0
207.074707 76.0
207.101303 64.0
207.132294 68.0
207.167969 48.0
207.192459 56.0
207.230042 100.0
207.252625 36.0
207.27269 56.0
207.293503 180.0
207.350891 108.0
207.372986 36.0
207.418854 44.0
207.461853 72.0
207.481918 68.0
207.533524 76.0
207.563263 76.0
207.599487 48.0
207.63295 60.0
207.826111 36.0
207.851929 76.0
207.949509 136.0
207.97821 92.0
208.024078 1976.0
208.236633 64.0
208.44635 60.0
208.477966 96.0
208.51532 116.0
208.552689 56.0
208.592941 72.0
208.684937 52.0
208.722321 36.0
208.759705 72.0
209.016907 836.0
209.116455 104.0
209.410141 128.0
209.574341 88.0
209.611801 100.0
209.656265 84.0
209.689621 112.0
209.798767 88.0
209.825104 56.0
210.024094 140.0
210.168335 116.0
210.936584 100.0
211.946671 88.0
212.039413 160.0
212.091583 100.0
212.135056 204.0
213.397995 44.0
213.805252 68.0
214.31778 84.0
214.865936 116.0
215.064377 28.0
215.493668 60.0
215.622253 52.0
215.815186 68.0
216.792908 96.0
217.31488 32.0
217.402908 108.0
217.981445 96.0
218.013763 64.0
218.034332 136.0
218.457764 128.0
218.713776 100.0
218.7491 116.0
219.176163 84.0
219.305832 44.0
220.217575 156.0
220.578079 100.0
221.436172 88.0
221.637634 80.0
222.206924 56.0
224.497375 36.0
224.739014 108.0
225.043457 72.0
226.110687 160.0
226.134628 40.0
227.726761 140.0
228.382019 40.0
228.996048 88.0
229.074356 136.0
230.855179 64.0
231.287842 52.0
233.101532 128.0
234.09021 80.0
236.272659 64.0
237.98291 88.0
239.050659 220.0
239.35434 92.0
239.748657 56.0
240.535172 44.0
240.862503 68.0
242.050156 176.0
242.610962 60.0
243.34317 96.0
245.437256 68.0
246.498596 112.0
247.869232 112.0
250.587234 52.0
251.239868 52.0
252.301025 40.0
253.360718 96.0
253.49115 68.0
254.080933 48.0
254.360199 148.0
255.227554 92.0
255.481995 84.0
257.072266 128.0
257.70105 80.0
258.119781 108.0
259.38446 92.0
265.226685 100.0
266.650452 100.0
267.045563 176.0
267.724091 48.0
269.038147 160.0
269.123047 164.0
269.31897 100.0
270.250702 76.0
270.39798 124.0
272.299622 68.0
274.359558 56.0
274.448578 76.0
274.950012 96.0
275.58075 84.0
281.116302 76.0
281.854309 64.0
282.06427 180.0
282.844269 104.0
282.867706 96.0
283.07196 136.0
283.980194 64.0
285.36377 56.0
285.720306 84.0
287.17218 56.0
287.752625 104.0
287.833679 88.0
288.117401 40.0
288.282959 48.0
288.658203 60.0
288.752899 96.0
289.128448 28.0
289.355255 56.0
289.815887 68.0
290.297241 44.0
290.517731 76.0
290.721313 48.0
292.740662 60.0
294.917389 68.0
295.878662 52.0
296.652924 48.0
297.847137 108.0
299.281281 56.0
299.319153 168.0
300.082397 204.0
300.142731 132.0
300.218597 176.0
300.263428 152.0
300.901825 96.0
301.071014 148.0
301.603119 64.0
301.793243 68.0
302.956177 104.0
304.815918 80.0
304.906281 48.0
305.246979 48.0
308.583984 136.0
308.954712 76.0
311.74231 64.0
311.812592 72.0
312.255585 76.0
314.0625 120.0
314.454163 128.0
314.485931 108.0
314.570648 48.0
315.386658 52.0
317.617462 104.0
321.562744 72.0
321.569641 56.0
321.813416 84.0
322.209869 108.0
322.78894 76.0
323.075073 116.0
323.823212 64.0
324.346344 120.0
324.776642 40.0
325.257477 76.0
327.018799 84.0
328.272552 44.0
329.257812 120.0
329.56485 64.0
331.334137 60.0
331.468201 60.0
332.480011 96.0
333.297089 80.0
333.584229 76.0
333.682373 108.0
335.160156 128.0
336.181213 100.0
337.470703 120.0
338.7883 64.0
339.140076 56.0
341.997803 40.0
342.74173 100.0
345.063416 92.0
345.181763 36.0
346.177216 104.0
348.391602 88.0
349.693115 108.0
350.765869 100.0
351.892548 56.0
352.542511 40.0
354.717163 68.0
355.699982 52.0
356.755615 28.0
358.19693 116.0
358.381531 108.0
358.475739 92.0
361.213104 120.0
361.746674 60.0
365.100922 56.0
365.294922 124.0
366.505646 72.0
366.585663 84.0
369.575653 64.0
370.743622 44.0
370.827942 32.0
371.475952 132.0
371.545013 64.0
372.389557 124.0
372.71994 92.0
373.46579 52.0
374.077606 84.0
376.201782 36.0
376.707672 44.0
376.958801 72.0
377.577362 52.0
383.249054 140.0
384.059967 40.0
385.258392 44.0
386.591736 44.0
386.783539 48.0
386.897064 72.0
388.237152 72.0
391.191956 76.0
391.660553 88.0
391.75116 44.0
395.530334 88.0
398.139282 104.0
401.97702 80.0
402.313354 76.0
403.350952 56.0
404.635162 56.0
406.029663 48.0
406.575287 96.0
409.828583 104.0
414.009583 116.0
414.669983 84.0
415.533752 100.0
418.162994 48.0
419.609131 80.0
421.151733 104.0
422.275757 36.0
423.233398 88.0
423.348053 112.0
426.010071 60.0
426.338776 76.0
426.737518 128.0
430.132263 44.0
430.974762 100.0
432.087006 36.0
434.797089 28.0
435.670807 68.0
439.178345 36.0
440.042175 144.0
441.120056 88.0
442.140656 92.0
442.86499 40.0
448.65155 76.0
450.795776 116.0
451.539856 72.0
452.022156 36.0
456.289276 100.0
458.196014 112.0
458.366425 56.0
458.460205 44.0
460.811432 44.0
461.486755 92.0
464.926605 60.0
466.44281 48.0
467.238403 84.0
468.956604 40.0
471.961365 92.0
473.008362 44.0
475.782867 76.0
479.12735 76.0
480.108124 60.0
483.524628 96.0
483.647186 132.0
484.273346 100.0
489.235474 72.0
489.583344 72.0
492.048279 76.0
492.657776 64.0
493.904388 96.0
503.313171 76.0
504.014465 56.0
506.210876 68.0
510.43811 108.0
512.157349 40.0
512.779175 44.0
513.401306 92.0
514.669373 108.0
525.221375 88.0
526.207092 92.0
530.031006 52.0
530.255615 80.0
534.724548 80.0
537.605042 68.0
537.665039 68.0
539.716125 72.0
540.919067 108.0
541.942566 68.0
545.144409 88.0
546.125427 84.0
546.855957 120.0
547.885071 116.0
553.747559 40.0
561.672546 112.0
577.892273 76.0
578.150696 76.0
587.385681 92.0
587.651001 52.0
588.572937 80.0
590.733398 68.0
599.482971 76.0
599.702271 80.0
602.224915 44.0
610.099792 60.0
610.19812 60.0
617.83783 144.0
622.720642 104.0
633.164734 140.0
635.455627 96.0
636.585022 68.0
640.689453 128.0
644.791931 76.0
658.781067 116.0
659.486206 116.0
669.614746 88.0
673.219788 100.0
675.312988 160.0
676.151184 144.0
677.932739 44.0
678.938477 64.0
683.286316 92.0
683.437195 40.0
685.223145 84.0
702.10791 56.0
704.303589 176.0
711.410217 28.0
713.971375 48.0
715.833984 96.0
717.523132 100.0
721.949829 140.0
722.18512 96.0
724.754883 64.0
728.284973 164.0
731.877502 84.0
733.213501 272.0
733.28894 76.0
735.208984 60.0
741.168396 192.0
750.332458 60.0
761.561951 144.0
762.908264 88.0
764.626587 52.0
764.806091 144.0
765.885376 144.0
768.509583 144.0
770.270752 64.0
771.016663 80.0
773.217896 60.0
774.69635 148.0
775.771423 64.0
777.552002 108.0
781.236084 36.0
782.638672 116.0
785.877197 168.0
786.105957 52.0
797.565247 152.0
799.4776 44.0
799.809631 136.0
804.793457 84.0
807.17804 136.0
809.101807 64.0
813.819153 208.0
815.119934 184.0
815.625793 140.0
815.898621 108.0
816.717529 52.0
817.912476 44.0
821.519714 144.0
821.565369 48.0
821.941956 192.0
826.845276 92.0
827.549377 136.0
831.791931 92.0
835.866882 80.0
839.069397 172.0
839.703735 140.0
843.081238 132.0
850.239502 144.0
851.377441 104.0
856.006592 156.0
859.778503 60.0
860.811829 96.0
861.220642 184.0
869.112427 176.0
871.531677 72.0
872.236938 156.0
875.054932 148.0
875.520142 136.0
875.950134 148.0
879.157654 36.0
881.212646 136.0
882.802734 132.0
884.790894 48.0
891.475891 92.0
892.126892 184.0
894.509338 128.0
895.289307 104.0
895.330994 108.0
896.141174 32.0
900.776794 168.0
903.209717 176.0
904.496277 144.0
905.364502 172.0
908.25946 140.0
909.351501 136.0
915.496033 36.0
917.448303 128.0
920.229675 180.0
923.626099 116.0
930.401306 196.0
932.624695 176.0
933.427185 176.0
939.926941 172.0
939.975769 124.0
941.007385 164.0
941.147827 164.0
941.227173 132.0
943.102783 224.0
944.105469 224.0
946.039062 144.0
946.498291 72.0
946.939209 148.0
947.674316 60.0
948.041992 144.0
950.967529 188.0
951.256042 180.0
952.883545 84.0
953.442749 120.0
954.555481 184.0
955.6073 168.0
959.231628 140.0
959.789673 116.0
961.10376 132.0
963.103882 192.0
965.854553 224.0
966.844543 152.0
966.906433 116.0
967.246887 188.0
969.061462 124.0
970.47467 132.0
971.541443 164.0
972.223999 140.0
973.540161 184.0
976.622925 168.0
981.200134 68.0
981.474487 196.0
981.736389 112.0
982.72821 184.0
983.508301 128.0
983.9328 44.0
986.763123 56.0
988.633484 164.0
988.858765 128.0
989.071594 208.0
989.309448 156.0
992.015808 120.0
992.76825 116.0
994.292786 180.0
996.107422 132.0
997.345337 208.0
999.697632 184.0
1002.430725 140.0
1002.972778 212.0
1004.151855 144.0
1007.459595 184.0
1009.45697 88.0
1012.767029 132.0
1012.836731 112.0
1014.112 120.0
1016.279236 132.0
1019.15564 52.0
1020.821899 168.0
1023.952332 104.0
1025.099121 184.0
1025.156372 152.0
1027.57959 160.0
1028.345337 100.0
1028.460205 128.0
1030.363281 144.0
1030.887207 132.0
1031.321899 60.0
1031.481689 168.0
1033.233887 164.0
1033.406738 180.0
1033.976196 164.0
1034.866089 212.0
1036.339233 176.0
1037.473755 156.0
1038.198242 148.0
1040.05896 128.0
1040.662476 80.0
1041.88916 140.0
1043.187378 172.0
1043.515259 140.0
1044.750122 232.0
1046.036499 180.0
1046.249634 172.0
1046.69397 168.0
1047.724487 176.0
1047.943481 192.0
1048.884521 136.0
1049.561401 132.0
1050.928955 104.0
1054.073608 92.0
1054.829834 68.0
1057.384766 120.0
1059.469849 176.0
1059.703125 80.0
1061.161499 148.0
1061.557007 112.0
1062.192627 144.0
1062.419678 88.0
1062.549438 212.0
1063.516357 88.0
1064.022827 68.0
1064.620117 120.0
1066.595337 128.0
1066.822876 220.0
1068.500854 48.0
1070.173584 148.0
1070.870361 176.0
1071.945312 72.0
1072.095215 216.0
1072.916626 124.0
1073.796875 160.0
1074.618896 112.0
1075.108276 108.0
1075.793701 112.0
1076.942993 140.0
1077.067017 140.0
1077.955566 168.0
1078.158203 176.0
1078.576538 224.0
1079.701172 216.0
1080.401001 64.0
1080.832886 96.0
1082.430176 72.0
1082.88855 200.0
1083.622314 128.0
1085.647827 48.0
1086.671143 152.0
1088.128174 204.0
1088.331787 36.0
1088.443359 144.0
1089.073975 184.0
1092.479004 176.0
1092.597412 100.0
1093.169922 132.0
1093.314697 192.0
1093.768799 248.0
1094.743286 120.0
1094.822388 80.0
1096.759399 224.0
1098.473877 200.0
1098.849976 128.0
1099.410889 136.0
1099.602295 180.0
1101.02832 184.0
1101.233154 132.0
1101.365234 88.0
1102.528076 76.0
1102.995728 184.0
1103.367554 148.0
1104.161133 112.0
1104.703491 120.0
1106.331543 160.0
1106.483765 96.0
1106.616211 48.0
1106.980469 180.0
1108.470947 32.0
1110.48645 128.0
1111.22937 244.0
1111.926147 96.0
1112.151855 128.0
1112.331055 36.0
1112.450562 128.0
1112.716064 120.0
1113.008301 152.0
1113.825195 116.0
1114.423096 132.0
1114.80188 120.0
1115.247192 144.0
1115.612793 152.0
1116.337524 160.0
1117.60144 176.0
1118.553223 172.0
1118.850952 172.0
1118.965942 60.0
1120.885376 200.0
1121.070923 48.0
1121.457397 140.0
1121.770752 144.0
1123.217773 192.0
1125.326782 56.0
1125.974487 176.0
1127.758423 224.0
1128.045898 64.0
1131.022705 48.0
1132.388672 148.0
1134.412354 132.0
1135.552246 156.0
1136.311279 132.0
1136.860596 160.0
1137.833862 280.0
1137.901001 148.0
1138.740479 228.0
1139.566772 164.0
1140.366455 160.0
1141.065552 132.0
1141.980103 112.0
1142.078491 180.0
1142.417358 180.0
1142.720093 68.0
1142.794189 40.0
1143.709473 148.0
1143.77002 124.0
1143.897949 72.0
1145.177368 204.0
1146.450684 96.0
1146.53833 112.0
1146.673096 208.0
1146.962891 156.0
1147.879883 164.0
1147.947266 188.0
1148.095703 168.0
1148.196899 204.0
1149.775635 176.0
1149.849854 164.0
1149.957153 176.0
1150.848999 148.0
1152.26062 140.0
1152.449829 140.0
1153.091797 192.0
1154.349243 120.0
1154.694214 132.0
1155.154175 332.0
1156.10144 152.0
1156.93396 160.0
1157.245483 48.0
1158.281616 152.0
1158.681274 228.0
1158.782959 108.0
1159.433472 132.0
1159.537842 224.0
1159.69104 68.0
1160.802979 40.0
1161.338745 116.0
1161.772827 216.0
1162.186768 196.0
1162.403931 144.0
1163.931274 120.0
1164.72583 168.0
1165.01123 84.0
1165.106323 208.0
1165.384888 172.0
1166.907349 120.0
1167.512573 136.0
1169.240723 112.0
1169.540161 52.0
1170.098389 236.0
1170.377563 200.0
1171.542236 148.0
1171.658081 216.0
1172.114624 148.0
1172.278076 188.0
1173.191528 152.0
1173.43689 116.0
1173.614258 136.0
1174.20752 124.0
1174.657715 48.0
1174.957886 164.0
1176.653076 224.0
1177.344116 84.0
1177.579224 76.0
1177.845581 180.0
1178.358032 100.0
1179.301025 144.0
1179.779541 144.0
1180.107788 148.0
1180.559082 116.0
1180.647949 176.0
1181.181519 156.0
1181.256714 60.0
1181.427734 224.0
1181.550903 212.0
1183.056641 184.0
1183.60437 124.0
1184.008423 128.0
1184.618042 164.0
1184.796143 124.0
1185.316895 156.0
1186.487671 204.0
1187.382202 188.0
1188.06958 196.0
1188.244751 184.0
1189.212402 136.0
1189.603638 180.0
1190.145996 256.0
1190.352051 156.0
1191.634277 220.0
1192.40625 156.0
1193.437378 64.0
1193.938965 148.0
1194.083862 168.0
1194.423218 236.0
1195.16394 144.0
1195.501099 40.0
1195.673096 136.0
1196.967407 112.0
1197.229126 148.0
1197.380615 180.0
1197.545898 152.0
1197.635498 156.0
1198.117676 156.0
1198.661987 84.0
1198.999756 128.0
1199.171997 164.0
1199.296021 92.0
1199.544189 152.0
1199.695923 44.0
1199.81311 132.0
1201.371704 80.0
1202.058228 152.0
1203.518188 116.0
1203.621826 136.0
1204.250244 180.0
1204.298584 240.0
1204.459473 184.0
1204.706177 128.0
1204.84436 168.0
1205.113892 140.0
1205.78418 132.0
1206.648315 180.0
1207.471191 260.0
1207.678711 116.0
1208.512817 228.0
1208.703613 184.0
1208.82019 204.0
1209.740845 224.0
1211.35437 200.0
1212.407593 156.0
1212.587769 184.0
1212.813477 220.0
1213.225464 216.0
1213.274048 180.0
1213.447388 132.0
1213.620728 132.0
1214.223999 184.0
1214.515381 116.0
1217.187378 128.0
1217.423462 52.0
1217.861084 164.0
1218.342407 236.0
1218.395996 148.0
1218.514038 100.0
1218.653076 136.0
1220.133423 176.0
1220.244751 220.0
1220.314209 156.0
1220.613281 216.0
1220.717529 160.0
1220.780151 32.0
1221.239136 156.0
1221.87915 212.0
1222.665527 136.0
1223.22229 96.0
1223.312866 80.0
1224.064819 192.0
1224.252808 136.0
1224.385132 152.0
1224.733398 124.0
1225.555542 148.0
1225.820312 140.0
1226.008423 164.0
1226.085083 180.0
1227.256226 144.0
1228.281494 204.0
1228.476807 76.0
1228.651245 140.0
1230.395996 212.0
1230.528687 120.0
1231.450562 180.0
1231.639038 160.0
1232.211914 156.0
1232.547363 116.0
1234.099121 168.0
1234.385864 160.0
1234.70752 188.0
1235.232178 152.0
1235.463013 152.0
1235.68689 168.0
1235.749878 32.0
1235.833862 140.0
1236.043701 116.0
1237.100586 108.0
1238.024902 84.0
1238.164917 172.0
1238.459106 144.0
1239.706299 204.0
1240.939941 140.0
1242.139282 184.0
1242.826782 116.0
1243.037354 88.0
1243.086426 176.0
1243.626831 132.0
1243.682983 96.0
1244.209473 140.0
1244.733398 204.0
1244.946777 72.0
1245.831055 136.0
1245.937256 156.0
1246.372803 140.0
1246.618774 144.0
1246.759399 92.0
1247.223267 76.0
1247.307617 84.0
1247.92627 144.0
1247.997803 120.0
1248.706909 112.0
1249.276611 212.0
1249.987305 196.0
1250.212524 160.0
1251.254272 84.0
1252.845947 164.0
1253.966431 76.0
1254.459839 140.0
1254.614868 168.0
1255.073242 204.0
1255.722046 160.0
1256.074707 104.0
1257.260132 124.0
1257.411011 188.0
1257.52832 108.0
1258.142456 140.0
1258.431885 204.0
1258.509644 200.0
1259.039185 200.0
1259.378296 64.0
1259.936279 112.0
1260.543945 152.0
1260.593506 116.0
1260.890259 188.0
1260.968018 184.0
1262.021362 156.0
1262.473999 112.0
1263.018555 152.0
1264.078735 188.0
1264.242554 220.0
1264.426636 152.0
1264.653076 184.0
1264.879639 188.0
1265.02124 168.0
1265.162842 104.0
1265.577026 148.0
1265.686768 248.0
1265.763794 160.0
1265.90625 128.0
1266.097534 116.0
1266.94043 120.0
1267.157959 212.0
1267.804932 152.0
1268.379028 144.0
1268.520752 56.0
1268.839844 104.0
1268.974487 240.0
1269.960327 172.0
1270.04541 64.0
1270.350464 152.0
1270.811523 140.0
1271.038696 48.0
1271.105957 160.0
1271.549561 96.0
1272.032349 72.0
1272.266602 52.0
1272.671265 180.0
1272.891357 180.0
1273.09729 148.0
1273.281982 64.0
1273.731201 176.0
1274.766846 148.0
1275.015503 168.0
1275.10083 148.0
1276.039185 132.0
1276.992065 116.0
1277.113037 112.0
1277.184204 168.0
1277.639404 152.0
1277.710571 176.0
1278.30835 120.0
1278.706909 172.0
1279.31189 116.0
1279.553955 112.0
1279.682129 60.0
1279.78186 68.0
1279.87439 96.0
1280.156616 196.0
1280.543823 132.0
1280.928467 176.0
1281.142212 172.0
1281.924316 200.0
1282.232422 136.0
1282.375 40.0
1282.845459 116.0
1283.708252 188.0
1283.800903 168.0
1284.87085 108.0
1285.44165 156.0
1286.148315 240.0
1286.348145 172.0
1286.512329 168.0
1286.58374 144.0
1286.947876 148.0
1287.183472 72.0
1287.697754 132.0
1287.783447 176.0
1288.362061 176.0
1288.740723 104.0
1288.930542 180.0
1289.162354 232.0
1289.233765 288.0
1289.891357 136.0
1289.984375 92.0
1291.071167 208.0
1291.121216 244.0
1291.393066 208.0
1291.75061 104.0
1292.043945 112.0
1292.301514 148.0
1292.487549 140.0
1292.716553 116.0
1292.773804 136.0
1293.103027 240.0
1293.940674 196.0
1294.241333 148.0
1294.721191 56.0
1295.236816 176.0
1295.559204 160.0
1295.686157 128.0
1295.781372 160.0
1296.347412 156.0
1296.460449 108.0
1296.698608 156.0
1296.806152 144.0
1297.272095 140.0
1297.802612 96.0
1298.419312 68.0
1298.734863 180.0
1298.97168 232.0
1299.143799 184.0
1299.19397 60.0
1299.437988 104.0
1299.839844 180.0
1300.29187 192.0
1300.578979 128.0
1301.167725 156.0
1301.842651 152.0
1302.244873 28.0
1302.302368 176.0
1302.352661 140.0
1302.51062 172.0
1302.783569 44.0
1303.006348 196.0
1303.056641 92.0
1303.195923 104.0
1303.265015 116.0
1303.622314 192.0
1304.105835 72.0
1304.292725 176.0
1304.724121 164.0
1305.615723 120.0
1306.133545 36.0
1306.327881 100.0
1306.464478 188.0
1306.650513 196.0
1307.212769 152.0
1307.615845 140.0
1307.753296 196.0
1308.040527 120.0
1308.342896 204.0
1308.918945 64.0
1309.077393 168.0
1309.127808 196.0
1309.221436 168.0
1309.502319 68.0
1310.228516 248.0
1310.618896 116.0
1311.411621 132.0
1311.46936 88.0
1312.565186 132.0
1312.810425 140.0
1313.106079 156.0
1313.307983 128.0
1313.978882 208.0
1314.671631 172.0
1314.72937 204.0
1314.877686 156.0
1315.501709 152.0
1315.723389 228.0
1316.028809 108.0
1316.483765 184.0
1316.902588 136.0
1317.596069 212.0
1317.690063 160.0
1318.889648 196.0
1318.94751 160.0
1319.207764 184.0
1319.518677 68.0
1319.923584 220.0
1319.981445 68.0
1320.343018 208.0
1320.465942 224.0
1320.81311 180.0
1321.493164 152.0
1321.818848 64.0
1322.384399 168.0
1322.441284 152.0
1322.846436 172.0
1323.020386 128.0
1323.490967 200.0
1323.925537 32.0
1324.135498 80.0
1324.265869 144.0
1324.316528 152.0
1324.699707 208.0
1324.845459 172.0
1325.139038 172.0
1325.200439 144.0
1325.765625 172.0
1326.349243 160.0
1326.425171 132.0
1326.526733 180.0
1326.659912 172.0
1327.259033 160.0
1327.404053 208.0
1327.500854 204.0
1327.958374 164.0
1328.585327 148.0
1328.658813 152.0
1328.912842 172.0
1328.992676 124.0
1329.233276 144.0
1329.436157 204.0
1329.80542 148.0
1329.892578 136.0
1330.255493 160.0
1330.536133 104.0
1331.155762 156.0
1331.235718 136.0
1331.773193 104.0
1331.969238 132.0
1332.136353 140.0
1332.623169 160.0
1332.957397 168.0
1333.175415 96.0
1333.887695 120.0
1334.345703 88.0
1334.756592 204.0
1334.916992 172.0
1335.029297 132.0
1335.14563 280.0
1335.705688 232.0
1336.717041 184.0
1336.826172 176.0
1337.20459 140.0
1337.685059 160.0
1337.932617 208.0
1338.311157 156.0
1339.003052 156.0
1339.359863 48.0
1339.47644 236.0
1339.549316 184.0
1339.951416 164.0
1340.409058 136.0
1340.511108 116.0
1341.188843 140.0
1341.371094 172.0
1341.764771 140.0
1342.303467 180.0
1342.610718 96.0
1342.778442 244.0
1342.865967 96.0
1342.931641 136.0
1343.259888 188.0
1343.310913 116.0
1343.427612 196.0
1343.551636 184.0
1343.63916 208.0
1343.996704 200.0
1344.113525 132.0
1344.347046 52.0
1344.463745 148.0
1345.024658 184.0
1345.113403 128.0
1345.208252 148.0
1345.332397 148.0
1345.573364 340.0
1345.938477 188.0
1346.099121 216.0
1346.186646 128.0
1346.303589 132.0
1346.42041 140.0
1346.720215 188.0
1346.997437 180.0
1347.253174 76.0
1347.355469 144.0
1347.565063 236.0
1347.728027 36.0
1347.815674 184.0
1348.955933 228.0
1349.570068 112.0
1349.760132 88.0
1350.096558 164.0
1350.447632 204.0
1350.791382 156.0
1350.908447 192.0
1351.010864 192.0
1351.435303 192.0
1351.552368 180.0
1351.762939 184.0
1352.437866 124.0
1353.067505 212.0
1353.462891 208.0
1353.645874 136.0
1353.948608 144.0
1354.593628 264.0
1355.054199 204.0
1355.552246 196.0
1355.704468 176.0
1356.139771 144.0
1356.88855 120.0
1357.786621 108.0
1357.86731 160.0
1357.940674 156.0
1358.028687 112.0
1358.784302 216.0
1358.93103 164.0
1359.173096 204.0
1359.415283 176.0
1359.481323 124.0
1360.03186 168.0
1360.369507 80.0
1360.450195 152.0
1360.501587 212.0
1360.685181 128.0
1360.751221 48.0
1360.86145 132.0
1361.099976 352.0
1361.1698 132.0
1361.529663 68.0
1362.014404 136.0
1362.139282 152.0
1362.234741 144.0
1362.381714 144.0
1363.050415 148.0
1363.403076 136.0
1363.469238 200.0
1364.108765 136.0
1364.66748 192.0
1365.08667 212.0
1365.189575 196.0
1365.277832 52.0
1365.520508 172.0
1365.777954 212.0
1365.969238 160.0
1366.157227 216.0
1366.491577 164.0
1366.675537 96.0
1366.844849 128.0
1367.735352 44.0
1368.081299 64.0
1368.132812 120.0
1368.316895 156.0
1368.55249 204.0
1368.817627 156.0
1369.178467 228.0
1369.561523 88.0
1369.870361 104.0
1369.951904 184.0
1370.261353 148.0
1370.401367 168.0
1370.578247 132.0
1370.644531 120.0
1370.696045 116.0
1370.851074 136.0
1371.182495 144.0
1371.241455 72.0
1371.39502 140.0
1371.4552 148.0
1371.609985 200.0
1371.698486 76.0
1372.325073 152.0
1372.450439 148.0
1373.025635 144.0
1373.593628 140.0
1373.65271 192.0
1374.205933 112.0
1374.914429 148.0
1375.157959 252.0
1375.394165 156.0
1375.947876 120.0
1376.826538 236.0
1376.88208 180.0
1377.105835 260.0
1377.225464 156.0
1377.927246 192.0
1378.281982 144.0
1378.473999 172.0
1378.880493 72.0
1379.383179 164.0
1379.597534 188.0
1379.649292 128.0
1379.863647 160.0
1379.930298 180.0
1380.477417 204.0
1380.551392 184.0
1380.728882 168.0
1380.995117 160.0
1381.067749 176.0
1381.172729 120.0
1381.291016 128.0
1381.475952 184.0
1381.631348 120.0
1381.697876 128.0
1381.749756 88.0
1381.845947 120.0
1382.186279 124.0
1382.533325 196.0
1382.822754 136.0
1382.896729 176.0
1383.140991 136.0
1383.303833 60.0
1383.703613 132.0
1383.781982 84.0
1383.970215 144.0
1384.022095 184.0
1384.3479 196.0
1384.540405 156.0
1384.784912 196.0
1384.858887 148.0
1385.021851 164.0
1385.170044 192.0
1385.251465 104.0
1385.407104 156.0
1385.506958 148.0
1385.651611 92.0
1385.876709 208.0
1386.148071 108.0
1386.407471 140.0
1386.518555 200.0
1386.77063 28.0
1386.829834 128.0
1387.156006 108.0
1387.215332 224.0
1387.319092 152.0
1387.771362 144.0
1387.971436 172.0
1388.09021 156.0
1388.431396 220.0
1388.498169 192.0
1388.572266 128.0
1388.733521 176.0
1388.980225 196.0
1389.054443 92.0
1389.217651 168.0
1389.484741 192.0
1389.781494 120.0
1390.174805 164.0
1390.323242 132.0
1390.427124 136.0
1390.81311 100.0
1391.75415 144.0
1391.963867 84.0
1392.194092 172.0
1392.468994 36.0
1392.877441 148.0
1393.15979 216.0
1393.258179 196.0
1393.345459 180.0
1393.656006 152.0
1393.813599 112.0
1393.954834 188.0
1394.100464 224.0
1394.291504 192.0
1394.541992 156.0
1394.675781 52.0
1394.987915 144.0
1395.210938 48.0
1395.329956 124.0
1395.441406 104.0
1395.81604 232.0
1395.877441 124.0
1396.564453 124.0
1396.728027 116.0
1396.973511 64.0
1397.040527 92.0
1397.114868 124.0
1397.181885 120.0
1397.330688 136.0
1397.687744 124.0
1398.44751 148.0
1398.504761 188.0
1398.685059 144.0
1398.988281 164.0
1399.072266 88.0
1399.150513 140.0
1399.347656 140.0
1399.414673 172.0
1399.883789 192.0
1400.241333 76.0
1400.710571 124.0
1400.829712 160.0
1400.986206 124.0
1401.112915 112.0
1401.209717 384.0
1401.276733 260.0
1401.440674 152.0
1401.746216 204.0
1402.528809 104.0
1402.744995 92.0
1403.095337 176.0
1404.072266 124.0
1404.228882 296.0
1404.631592 160.0
1404.691284 96.0
1405.109131 88.0
1405.221069 208.0
1405.362793 124.0
1405.549316 124.0
1406.265747 44.0
1406.773438 100.0
1407.554565 152.0
1407.684326 148.0
1408.072632 244.0
1408.233276 204.0
1408.44519 160.0
1409.215454 188.0
1409.439819 168.0
1409.670166 156.0
1409.768555 184.0
1410.299316 152.0
1410.396484 32.0
1411.21875 60.0
1411.435669 160.0
1411.532837 128.0
1411.654663 168.0
1411.749756 64.0
1412.123657 200.0
1412.240112 216.0
1412.536743 176.0
1412.6698 60.0
1413.013916 176.0
1413.769653 56.0
1413.876953 140.0
1414.278564 156.0
1414.338501 224.0
1414.682861 88.0
1414.975708 172.0
1415.192017 148.0
1415.476562 156.0
1416.057373 144.0
1416.352783 160.0
1416.540039 124.0
1416.802612 108.0
1416.959595 220.0
1417.109497 216.0
1417.22937 120.0
1417.588989 224.0
1418.286133 176.0
1418.585938 112.0
1418.696655 172.0
1418.818359 220.0
1418.900757 80.0
1419.155518 164.0
1419.374512 88.0
1419.433228 144.0
1419.515625 204.0
1419.58313 108.0
1419.658203 112.0
1419.755615 84.0
1419.898193 156.0
1420.20813 232.0
1420.329834 144.0
1420.430664 188.0
1420.745728 112.0
1420.888306 48.0
1421.075928 140.0
1421.232544 156.0
1421.436035 192.0
1421.571167 148.0
1421.752808 156.0
1421.97644 156.0
1422.05896 172.0
1422.134033 200.0
1422.689575 196.0
1422.892212 228.0
1423.019409 128.0
1423.109985 148.0
1423.266479 120.0
1423.568115 184.0
1423.77832 132.0
1423.936035 172.0
1424.32666 152.0
1424.383057 120.0
1424.514526 260.0
1424.597046 92.0
1424.727539 196.0
1425.423584 228.0
1425.536377 56.0
1425.664062 116.0
1425.776855 116.0
1426.09729 200.0
1426.160156 228.0
1427.077271 100.0
1427.130005 52.0
1428.223389 164.0
1428.378418 124.0
1428.483765 244.0
1428.543945 120.0
1428.96521 148.0
1429.183472 164.0
1429.28125 232.0
1429.59729 172.0
1430.04895 176.0
1430.267212 120.0
1430.410156 272.0
1430.545654 156.0
1430.688721 120.0
1430.831787 220.0
1430.952271 268.0
1431.11792 112.0
1431.298584 164.0
1431.391724 188.0
1431.810669 164.0
1431.908691 228.0
1432.096924 84.0
1432.17981 104.0
1432.496216 148.0
1432.668091 172.0
1432.895508 52.0
1433.038574 144.0
1433.166748 256.0
1433.279785 144.0
1433.355103 128.0
1433.611328 220.0
1433.762085 124.0
1434.870117 164.0
1435.164185 200.0
1435.247192 148.0
1435.420654 204.0
1435.533691 140.0
1436.235107 132.0
1436.423706 128.0
1436.589722 188.0
1436.823364 168.0
1437.102783 68.0
1437.238525 116.0
1437.366821 152.0
1437.94104 204.0
1438.159302 184.0
1438.212158 168.0
1438.344482 128.0
1438.650024 144.0
1438.785889 140.0
1438.982178 208.0
1439.261597 212.0
1439.456299 96.0
1439.608887 76.0
1439.692017 44.0
1440.039429 176.0
1440.167847 204.0
1440.501587 192.0
1441.157471 116.0
1441.369019 164.0
1441.588257 172.0
1441.837646 232.0
1442.109375 160.0
1442.336426 68.0
1442.661499 176.0
1442.790039 128.0
1442.901978 164.0
1442.986694 132.0
1443.115234 56.0
1443.773071 160.0
1443.848755 76.0
1444.015137 168.0
1444.771606 116.0
1445.270874 224.0
1445.399536 176.0
1445.47522 140.0
1445.853638 28.0
1445.95752 148.0
1446.080688 180.0
1446.44397 140.0
1446.783081 228.0
1446.989136 212.0
1447.356689 140.0
1447.534302 152.0
1447.746338 56.0
1447.82312 204.0
1448.14624 124.0
1448.306763 28.0
1448.488647 164.0
1448.776489 176.0
1448.875 348.0
1448.927979 144.0
1449.132568 128.0
1449.496338 96.0
1449.708496 112.0
1450.428589 168.0
1450.511963 164.0
1450.656006 240.0
1450.815186 212.0
1450.926514 196.0
1451.065308 104.0
1451.398926 188.0
1451.626465 160.0
1452.187744 136.0
1452.369751 200.0
1452.878052 136.0
1453.014526 68.0
1453.075317 120.0
1453.735474 152.0
1454.562744 196.0
1454.770142 176.0
1454.904785 156.0
1455.018311 200.0
1455.509644 156.0
1455.686523 80.0
1455.739624 104.0
1455.82251 132.0
1455.959839 228.0
1456.119385 56.0
1456.66626 184.0
1456.780273 44.0
1457.091675 152.0
1457.162598 160.0
1457.243652 324.0
1457.357666 172.0
1457.739868 212.0
1457.87439 160.0
1458.040283 160.0
1458.261963 248.0
1458.573608 244.0
1459.026489 128.0
1459.364258 216.0
1459.440308 144.0
1459.919434 88.0
1460.018311 220.0
1460.17041 164.0
1460.390991 152.0
1460.444214 144.0
1460.619141 40.0
1461.098511 128.0
1461.258179 176.0
1461.364746 136.0
1461.547363 128.0
1461.684326 164.0
1461.918335 208.0
1462.407349 156.0
1462.620483 40.0
1462.9021 52.0
1463.054443 212.0
1463.412231 120.0
1463.884399 132.0
1464.257568 132.0
1464.615601 188.0
1464.699341 156.0
1464.912598 192.0
1465.034546 136.0
1465.087891 92.0
1465.247803 64.0
1465.346924 28.0
1465.545044 68.0
1465.613525 124.0
1466.08606 112.0
1466.146973 232.0
1466.566284 104.0
1466.718628 100.0
1466.962646 140.0
1467.298096 152.0
1467.47644 152.0
1467.747925 172.0
1468.175049 156.0
1468.525879 156.0
1468.842896 148.0
1469.212402 148.0
1469.448853 108.0
1469.532837 240.0
1469.700684 140.0
1469.807495 144.0
1469.876221 168.0
1470.876465 128.0
1470.954712 348.0
1471.4104 144.0
1471.540283 236.0
1471.754028 180.0
1472.480835 160.0
1472.639893 184.0
1473.220459 204.0
1473.503174 224.0
1474.657104 228.0
1474.77478 216.0
1474.909302 104.0
1475.132812 100.0
1475.260986 156.0
1475.329834 120.0
1475.497925 260.0
1475.849731 128.0
1476.006592 200.0
1476.239746 196.0
1476.507324 172.0
1476.9552 256.0
1477.157471 152.0
1477.333496 116.0
1477.401123 124.0
1477.471191 188.0
1477.894043 164.0
1478.282227 144.0
1478.481201 108.0
1479.101196 80.0
1479.705811 132.0
1479.866821 160.0
1480.203735 176.0
1480.310913 76.0
1480.402832 212.0
1480.755127 168.0
1480.947388 196.0
1481.053833 160.0
1481.283691 204.0
1481.37561 144.0
1481.720337 160.0
1481.850586 152.0
1482.386963 220.0
1482.609253 140.0
1482.800903 176.0
1482.923462 84.0
1483.334961 200.0
1483.383423 228.0
1483.788818 212.0
1483.950806 192.0
1484.157837 96.0
1484.295776 132.0
1484.615234 192.0
1485.055054 192.0
1485.124146 116.0
1485.223877 144.0
1485.315918 32.0
1485.422974 212.0
1485.575317 220.0
1485.789917 180.0
1485.837524 340.0
1485.952637 112.0
1486.789062 120.0
1487.050049 164.0
1487.280273 192.0
1487.456787 240.0
1487.54126 128.0
1488.101685 144.0
1488.293701 156.0
1488.87561 180.0
1488.938721 196.0
1489.015625 172.0
1489.207642 132.0
1489.425049 208.0
1489.645386 144.0
1489.845215 156.0
1489.921997 160.0
1489.983521 132.0
1490.22937 120.0
1490.336914 52.0
1490.859497 180.0
1491.223511 44.0
1491.420532 152.0
1491.541382 204.0
1491.628052 176.0
1491.689575 52.0
1491.788574 156.0
1492.058594 136.0
1492.367432 120.0
1492.528076 184.0
1492.935181 212.0
1492.989014 88.0
1493.320557 196.0
1493.396729 68.0
1493.633789 180.0
1493.735107 144.0
1493.973633 84.0
1494.142822 108.0
1494.24292 388.0
1494.373657 112.0
1494.435303 160.0
1494.512207 124.0
1494.719971 152.0
1495.712769 196.0
1495.774414 112.0
1495.889893 176.0
1496.005371 160.0
1496.310181 160.0
1496.367188 156.0
1496.505737 112.0
1496.729126 212.0
1496.901123 156.0
1497.089722 188.0
1497.221924 132.0
1497.407593 200.0
1497.530029 144.0
1497.599365 52.0
1498.210938 164.0
1498.508423 144.0
1498.793457 220.0
1499.163452 44.0
1499.280396 216.0
1499.476685 204.0
1499.957275 60.0
1500.096069 112.0
1500.335083 172.0
1500.435303 156.0
1500.728271 164.0
1500.81604 180.0
1500.897827 220.0
1501.232056 240.0
1501.36792 156.0
1502.185913 104.0
1502.553345 168.0
1502.725952 148.0
1502.803101 152.0
1502.880249 108.0
1503.150391 220.0
1503.235229 108.0
1503.41272 152.0
1503.513062 204.0
1503.891235 88.0
1504.524292 48.0
1504.918091 156.0
1505.060791 168.0
