>compound MLS002153409-01!
>formula C18H19Cl2NO4
>ionization [M+H]+
>parentmass 384.075
#inchi InChI=1S/C18H19Cl2NO4/c1-5-25-18(23)14-10(3)21-9(2)13(17(22)24-4)15(14)11-7-6-8-12(19)16(11)20/h6-8,15,23H,5H2,1-4H3/b18-14+
#inchikey FFVFHTOPUHZSGD
#Ion_Source LC-ESI
#Instrument qTof
#Compound_Source NIH Pharmacologically Active Library
#PI Dorrestein
#Data_Collector VP/LMS
#Scan -1
#Precursor_MZ 384.075
#ExactMass 383.069
#Charge 1
#CAS_Number N/A
#Pubmed_ID N/A
#Smiles CCO/C(=C\1/C(C(=C(C)N=C1C)C(=O)OC)c2cccc(Cl)c2Cl)/O
#INCHI_AUX N/A
#Library_Class 1
#SpectrumID CCMSLIB00000085215
#IonMode Positive
#UpdateWorkflowName UPDATE-SINGLE-ANNOTATED-GOLD
#LibraryQualityString Gold
#TaskID d252d724072548979f1f6f1ced849daf
##Scan# 2470
#SpectrumFile p3-G02_GG2_01_18295.mzXML
#LibraryName Pharm_Active_Library.mgf
#MQScore -1
#Organism Pharm_Active_Library
#TIC_Query 0
#RT_Query -1
#MZErrorPPM -1
#SharedPeaks 0
#MassDiff 0
#LibMZ -1
#SpecMZ 384.075
#SpecCharge 0
#internalFilename spec-00000.mgf

>collision 10
45.062435 188.0
45.141304 144.0
45.642857 220.0
46.022865 60.0
46.055279 88.0
46.079597 208.0
46.889782 188.0
46.922497 148.0
47.10265 192.0
47.248936 172.0
47.284515 136.0
47.597099 148.0
47.876278 204.0
48.027897 204.0
48.449547 64.0
48.502209 220.0
48.796535 36.0
48.829914 196.0
48.948212 212.0
49.102913 220.0
49.204784 184.0
49.52084 148.0
49.597912 140.0
49.724152 152.0
50.033421 192.0
50.068691 180.0
50.150349 168.0
50.352123 136.0
50.482151 160.0
50.70018 108.0
50.772488 216.0
50.975506 160.0
51.01815 148.0
51.267258 140.0
51.33997 200.0
51.367069 128.0
51.377056 204.0
51.41375 196.0
51.692844 100.0
51.847519 144.0
51.932117 256.0
51.957939 92.0
51.978027 108.0
52.058422 192.0
52.239532 176.0
52.295654 164.0
52.350368 132.0
52.380615 144.0
52.454113 192.0
52.890381 160.0
52.920784 168.0
52.959885 232.0
53.006248 168.0
53.235466 164.0
53.263947 204.0
53.510303 144.0
53.870548 128.0
53.926079 116.0
54.022369 236.0
54.103088 184.0
54.220276 152.0
54.240799 180.0
54.403641 196.0
54.463852 132.0
54.669701 164.0
54.684418 148.0
54.733002 180.0
54.977722 216.0
55.033821 144.0
55.160885 192.0
55.479179 172.0
55.591915 56.0
55.826649 236.0
56.16774 148.0
56.236382 196.0
56.499397 100.0
56.512863 124.0
56.749531 164.0
57.012241 220.0
57.195744 264.0
57.373512 164.0
57.510792 156.0
57.734413 48.0
57.876667 68.0
58.442871 244.0
58.593613 156.0
58.619518 132.0
59.167896 140.0
59.209244 96.0
59.229156 196.0
59.330303 152.0
59.575222 144.0
59.601982 144.0
59.752674 196.0
59.900471 180.0
59.975983 152.0
60.01144 244.0
60.31559 132.0
60.348057 116.0
60.377438 168.0
60.484203 172.0
60.680962 172.0
60.823692 116.0
61.116261 200.0
61.450897 156.0
61.527378 160.0
61.614841 128.0
61.66954 172.0
61.738335 152.0
61.766491 108.0
62.123672 160.0
62.183304 184.0
62.225689 188.0
62.316792 132.0
62.469299 144.0
62.588917 80.0
62.612541 188.0
63.484962 132.0
63.619839 184.0
63.681774 204.0
63.719898 68.0
63.820038 76.0
63.932987 152.0
64.028511 192.0
64.093834 96.0
64.258072 128.0
65.040672 132.0
65.284897 116.0
65.516693 192.0
65.747284 208.0
65.786026 60.0
65.899086 180.0
65.945953 168.0
65.991219 48.0
66.021942 168.0
66.101219 96.0
66.246941 132.0
66.428513 188.0
66.478813 124.0
66.584351 116.0
66.678581 152.0
66.800537 188.0
66.901443 156.0
66.930748 208.0
67.023598 124.0
67.039894 224.0
67.253563 200.0
67.300911 128.0
67.327042 244.0
67.411995 132.0
67.604973 248.0
67.652443 184.0
67.821175 160.0
68.09848 100.0
68.226662 208.0
68.453735 124.0
68.570709 140.0
68.593788 140.0
68.818169 136.0
68.8545 184.0
68.871017 184.0
69.013153 60.0
69.037956 184.0
69.071037 88.0
69.155426 104.0
69.304482 116.0
69.317566 192.0
69.342598 72.0
69.463646 56.0
69.551598 92.0
69.677483 120.0
69.787521 64.0
70.022171 148.0
70.132141 208.0
70.19883 116.0
70.766991 204.0
70.780388 60.0
70.962608 156.0
70.977264 132.0
70.987007 200.0
71.025085 108.0
71.322311 164.0
71.578049 224.0
71.628578 88.0
71.731377 136.0
71.878113 136.0
71.893303 152.0
71.974335 72.0
72.226166 196.0
72.305687 124.0
72.610664 96.0
72.634415 76.0
72.771889 184.0
72.909485 188.0
73.106773 120.0
73.186783 212.0
73.205513 132.0
73.294098 84.0
73.367393 124.0
73.826729 128.0
73.913979 132.0
73.975594 120.0
74.011551 64.0
74.148605 156.0
74.241188 184.0
74.335541 192.0
74.694641 112.0
74.837494 76.0
74.97876 192.0
75.215065 212.0
75.277222 160.0
75.501892 48.0
75.607437 48.0
75.882874 204.0
75.960915 76.0
76.063301 192.0
76.186607 204.0
76.395233 100.0
76.463097 132.0
76.572784 200.0
76.881386 208.0
76.905823 168.0
77.020905 168.0
77.061256 108.0
77.197601 180.0
77.523232 156.0
77.600365 296.0
77.688766 188.0
77.784576 176.0
77.877647 152.0
77.974487 176.0
78.016472 120.0
78.151909 92.0
78.229347 168.0
78.338104 180.0
78.687744 188.0
78.848503 76.0
78.920982 104.0
79.108528 136.0
79.22364 52.0
79.248451 52.0
79.454124 228.0
79.518005 220.0
79.78447 148.0
79.976601 108.0
79.989059 56.0
80.038918 160.0
80.163612 156.0
80.38118 96.0
80.407951 176.0
80.481148 84.0
80.557945 216.0
80.649086 112.0
80.666962 244.0
80.810043 88.0
80.845833 116.0
81.051773 104.0
81.211342 132.0
81.315407 216.0
81.584862 136.0
81.759346 148.0
81.800751 84.0
82.065598 184.0
82.20269 136.0
82.240593 128.0
82.256836 128.0
82.311005 116.0
82.634567 180.0
82.810165 144.0
82.904381 160.0
83.299942 188.0
83.374443 68.0
83.416245 108.0
83.459885 104.0
83.694618 152.0
83.707367 220.0
83.805733 44.0
84.536179 192.0
84.744942 128.0
84.867752 60.0
85.031021 180.0
85.120979 192.0
85.5494 152.0
85.853439 216.0
86.254112 180.0
86.337318 136.0
86.385414 144.0
86.48719 108.0
86.542732 56.0
86.566742 124.0
86.705757 104.0
86.726143 116.0
86.85038 76.0
86.952431 220.0
87.02298 172.0
87.186455 176.0
87.402176 80.0
87.538071 76.0
87.784065 184.0
88.108856 192.0
88.739616 200.0
89.325584 128.0
89.871971 144.0
89.898384 184.0
90.160904 96.0
90.179802 48.0
90.287575 192.0
90.423798 104.0
90.43705 140.0
90.579071 180.0
90.685188 164.0
90.965935 160.0
91.022896 88.0
91.210991 52.0
91.257675 140.0
91.285141 64.0
91.740219 84.0
91.776443 136.0
92.152473 160.0
92.221275 136.0
92.615456 136.0
92.816696 184.0
92.891495 104.0
93.227516 80.0
93.290947 72.0
93.437119 140.0
93.481369 184.0
93.629616 136.0
93.739426 172.0
94.260475 168.0
94.469803 168.0
94.689964 216.0
95.095207 100.0
95.31855 172.0
95.339928 76.0
95.446854 152.0
95.89463 184.0
96.021362 144.0
96.062332 164.0
96.093544 188.0
96.154037 120.0
96.376671 92.0
96.495903 60.0
96.605431 84.0
96.68174 100.0
97.120636 68.0
97.146141 160.0
97.189301 192.0
97.226593 76.0
97.281548 212.0
97.390846 268.0
97.619514 176.0
97.704094 160.0
97.904877 76.0
98.1315 128.0
98.200523 72.0
98.237999 180.0
98.41761 164.0
98.494637 100.0
98.717979 208.0
98.96138 228.0
99.04306 148.0
99.264557 76.0
99.361755 140.0
100.009613 168.0
100.446014 192.0
100.551765 56.0
100.992844 80.0
101.049362 192.0
101.359734 96.0
101.75087 252.0
101.875389 180.0
102.090469 52.0
102.193336 148.0
102.231293 148.0
102.317848 132.0
102.539444 200.0
102.779434 168.0
102.888428 152.0
103.005562 124.0
103.021721 356.0
103.126801 212.0
103.335098 124.0
103.362442 176.0
103.391762 132.0
103.786804 216.0
103.871986 156.0
104.044487 176.0
104.062759 132.0
104.209007 256.0
104.233391 120.0
104.365517 152.0
104.391953 120.0
104.509941 168.0
104.570992 92.0
104.674828 188.0
104.847992 148.0
104.86837 132.0
105.052643 340.0
105.111069 172.0
105.262131 92.0
105.718018 228.0
105.832657 120.0
106.064865 484.0
106.14003 88.0
106.158485 108.0
106.359558 104.0
106.398567 112.0
106.725342 192.0
106.815758 144.0
106.908348 184.0
107.071243 164.0
107.318283 160.0
107.42141 140.0
107.512199 140.0
107.679436 152.0
107.729012 124.0
108.04554 192.0
108.081909 168.0
108.442932 152.0
108.702179 192.0
108.816345 244.0
108.886948 212.0
109.017838 212.0
109.259048 108.0
109.281937 116.0
109.346451 84.0
109.463036 144.0
109.654709 96.0
109.685974 204.0
109.712936 176.0
109.786057 120.0
109.938354 172.0
109.952965 148.0
110.053169 132.0
110.099113 324.0
110.705612 112.0
110.828163 152.0
110.883698 208.0
110.965454 272.0
111.036751 200.0
111.124863 140.0
111.26339 192.0
111.338982 72.0
111.561722 88.0
111.679482 132.0
111.89624 136.0
112.184883 120.0
112.243919 164.0
112.265007 216.0
112.290314 152.0
112.364151 68.0
112.505554 204.0
112.585793 152.0
112.737907 192.0
112.786522 160.0
113.072479 208.0
113.302895 176.0
113.400375 120.0
113.495773 160.0
113.824684 240.0
114.094536 200.0
114.861206 76.0
114.964218 172.0
115.046867 188.0
115.339539 132.0
115.420784 212.0
115.467834 212.0
115.521309 84.0
115.589783 156.0
115.632584 124.0
115.928139 180.0
116.520386 120.0
116.728889 100.0
117.060295 184.0
117.219711 144.0
117.588509 244.0
117.655426 148.0
117.700768 72.0
117.921127 168.0
117.951393 160.0
118.098434 124.0
118.230415 164.0
118.245567 192.0
118.285736 216.0
118.325661 176.0
118.386299 108.0
118.438278 92.0
118.608459 224.0
118.806808 112.0
119.054268 160.0
119.178093 192.0
119.267197 196.0
119.375908 108.0
119.517303 176.0
119.828682 160.0
119.94767 200.0
119.979065 100.0
120.170998 104.0
120.273575 104.0
120.631836 192.0
120.734604 108.0
120.964355 172.0
121.038795 176.0
121.1045 120.0
121.488121 208.0
121.518837 168.0
121.685654 100.0
121.722984 152.0
122.056679 216.0
122.129578 164.0
122.299011 196.0
122.523636 96.0
122.554482 188.0
122.905083 168.0
123.069969 184.0
123.114807 48.0
123.218628 40.0
123.366707 148.0
123.769394 104.0
124.174957 188.0
124.223755 104.0
124.690063 108.0
124.81234 60.0
124.927803 140.0
125.063744 124.0
125.157249 124.0
125.221832 112.0
125.585152 172.0
125.683311 48.0
125.821701 140.0
125.944527 192.0
126.054176 152.0
126.217194 72.0
126.934608 204.0
126.992088 136.0
127.023491 140.0
127.115486 112.0
127.137924 112.0
127.220978 188.0
127.314178 180.0
127.378181 112.0
127.485092 172.0
127.506256 140.0
127.816612 148.0
127.848114 216.0
127.935905 64.0
127.978683 172.0
128.03273 164.0
128.345978 140.0
128.75444 76.0
128.858353 168.0
128.960052 168.0
129.104752 140.0
129.204285 100.0
129.455536 100.0
129.496307 136.0
129.521225 120.0
129.702499 132.0
129.765991 144.0
129.992828 156.0
130.485733 168.0
130.503937 160.0
130.84523 116.0
131.038818 48.0
131.168732 200.0
131.241684 152.0
131.405914 148.0
131.77124 132.0
132.043488 380.0
132.228592 120.0
132.485626 196.0
132.562973 164.0
133.053177 460.0
133.492737 152.0
133.669861 136.0
133.69519 140.0
133.911606 128.0
134.060196 736.0
134.098236 144.0
134.118988 132.0
134.832199 96.0
134.857635 192.0
135.056488 88.0
135.181427 184.0
135.211517 88.0
135.294846 64.0
135.646988 204.0
135.674805 144.0
135.974045 120.0
136.034225 384.0
136.080826 116.0
136.117981 124.0
136.261993 164.0
136.413071 172.0
136.599106 140.0
136.622375 168.0
136.717773 48.0
136.77829 180.0
136.859772 240.0
136.890045 128.0
137.073914 164.0
137.18364 224.0
137.486862 164.0
137.771744 164.0
137.812241 168.0
137.993774 172.0
138.159836 180.0
138.536774 168.0
138.988327 204.0
139.052353 340.0
139.127777 80.0
139.184128 208.0
139.36499 200.0
139.887131 152.0
140.052124 176.0
140.071243 160.0
140.186264 36.0
140.773682 96.0
140.797302 168.0
141.06752 300.0
141.670151 124.0
141.85025 160.0
141.883453 148.0
142.053864 140.0
142.073181 164.0
142.177795 184.0
142.248795 168.0
142.362762 232.0
142.417404 140.0
142.445908 200.0
142.816727 180.0
143.002335 180.0
143.047562 148.0
143.085648 148.0
143.569382 164.0
143.672546 192.0
143.786484 28.0
143.910629 172.0
144.013321 140.0
144.061096 156.0
144.331177 44.0
144.371826 60.0
144.426849 128.0
144.45076 80.0
144.510574 176.0
144.65657 132.0
144.67572 212.0
144.69487 104.0
144.766708 124.0
144.876892 212.0
145.042664 212.0
145.18132 144.0
145.356445 176.0
145.382843 80.0
145.534073 188.0
145.658966 172.0
145.690201 176.0
145.858414 168.0
145.901688 88.0
145.969025 116.0
145.985855 188.0
146.28421 108.0
146.317917 144.0
146.606979 144.0
146.814316 40.0
147.640289 92.0
147.703171 192.0
147.872543 196.0
147.908859 232.0
148.068665 128.0
148.085617 184.0
148.218872 156.0
148.315811 140.0
148.403091 176.0
148.446747 148.0
148.672363 164.0
148.691772 164.0
148.982666 212.0
149.046219 360.0
149.065781 200.0
149.250534 188.0
149.485199 120.0
149.654465 104.0
149.863937 108.0
149.946793 240.0
150.053268 1156.0
150.083313 36.0
150.112579 52.0
150.360306 104.0
150.612915 36.0
150.68132 160.0
150.842621 116.0
150.937973 176.0
151.011063 148.0
151.061401 628.0
151.084732 140.0
151.118988 188.0
151.192398 72.0
151.27562 180.0
151.291565 164.0
151.334381 228.0
151.383362 192.0
151.956955 132.0
152.066528 300.0
152.106674 48.0
152.308029 240.0
152.436234 148.0
152.829239 156.0
152.885834 152.0
152.954758 160.0
152.999069 32.0
153.065277 332.0
153.188705 200.0
153.299194 188.0
153.368591 140.0
153.410492 220.0
153.654663 136.0
153.820007 116.0
153.906433 132.0
153.953339 160.0
154.072998 216.0
154.089203 212.0
154.153458 156.0
154.333908 204.0
154.667908 164.0
154.759506 120.0
155.049347 364.0
155.071793 140.0
155.265045 116.0
155.488983 204.0
155.530548 80.0
155.609985 188.0
155.816132 80.0
155.908081 80.0
156.049774 144.0
156.091934 192.0
156.228851 128.0
156.410507 184.0
156.530014 168.0
156.791611 168.0
156.863892 192.0
156.96611 132.0
157.068375 64.0
157.098312 128.0
157.220581 148.0
157.405319 196.0
157.432785 88.0
157.56517 220.0
157.73262 76.0
157.987701 140.0
158.100296 276.0
158.137848 48.0
158.217957 148.0
158.318115 236.0
158.571167 196.0
158.666412 200.0
158.716568 168.0
158.829422 148.0
158.858017 200.0
158.874588 160.0
158.939819 116.0
158.973068 160.0
159.517487 148.0
159.570282 92.0
159.914932 156.0
159.982208 264.0
160.00766 240.0
160.037674 488.0
160.200745 116.0
160.340591 60.0
160.461594 148.0
160.842545 168.0
160.89592 336.0
160.978271 200.0
161.004227 192.0
161.029099 140.0
161.264374 176.0
161.355392 184.0
161.479294 232.0
161.767761 188.0
161.810806 212.0
161.912094 120.0
161.990616 112.0
162.021317 524.0
162.094498 152.0
162.231369 156.0
162.545883 152.0
162.644867 160.0
162.774353 160.0
162.888657 76.0
163.008911 96.0
163.033478 104.0
163.113968 200.0
163.264832 200.0
163.285187 128.0
163.442917 36.0
163.964981 132.0
164.039215 192.0
164.050964 180.0
164.068832 468.0
164.11235 188.0
164.250565 124.0
164.272858 252.0
164.319443 160.0
164.564255 192.0
164.87822 156.0
165.071823 324.0
165.139481 144.0
165.198318 160.0
166.020538 160.0
166.052628 196.0
166.083267 464.0
166.148788 136.0
166.446533 108.0
166.539001 144.0
166.587799 176.0
166.675156 124.0
166.842239 180.0
167.047897 144.0
167.068558 140.0
167.138031 160.0
167.217804 84.0
167.418625 176.0
167.658218 184.0
167.828369 112.0
167.941833 56.0
168.022202 156.0
168.065781 96.0
168.383209 204.0
168.602814 216.0
168.770859 224.0
169.057999 108.0
169.135651 112.0
169.23143 56.0
169.315643 108.0
169.350571 232.0
169.464554 196.0
169.635605 128.0
169.83609 128.0
169.887161 100.0
169.988358 176.0
170.050644 36.0
170.390839 56.0
170.871841 188.0
170.939484 116.0
170.973099 540.0
170.99234 224.0
171.072235 176.0
171.109238 152.0
171.212845 108.0
171.559845 96.0
171.650665 192.0
171.783691 188.0
171.867172 124.0
171.92981 152.0
171.976791 124.0
172.556747 56.0
172.816269 108.0
172.867416 104.0
172.894196 60.0
172.955399 2144.0
173.016281 220.0
173.038177 168.0
173.407547 64.0
173.44162 88.0
173.583206 216.0
173.61467 124.0
173.715363 176.0
173.745819 148.0
173.811417 156.0
173.965927 272.0
173.996414 200.0
174.022278 772.0
174.092316 172.0
174.21051 132.0
174.42601 156.0
174.662674 200.0
174.951416 2116.0
175.028702 244.0
175.157562 160.0
175.191803 168.0
175.53183 148.0
175.552917 152.0
175.57666 180.0
175.676895 156.0
175.78508 56.0
175.848419 140.0
175.882736 128.0
175.9552 160.0
176.033646 176.0
176.331772 116.0
176.395203 176.0
176.889893 40.0
176.974609 140.0
177.003738 240.0
177.033218 592.0
177.528458 172.0
177.679657 156.0
177.767212 76.0
178.049606 2332.0
178.209412 152.0
178.269135 160.0
178.348877 116.0
178.449905 72.0
178.851624 32.0
179.019348 144.0
179.049545 144.0
179.071838 380.0
179.259125 56.0
179.29834 140.0
179.325745 100.0
179.419052 212.0
179.57048 132.0
179.603058 52.0
179.68576 132.0
179.771149 40.0
179.896591 172.0
179.964706 208.0
180.080048 1008.0
180.69838 136.0
180.853607 60.0
180.883041 72.0
181.085541 496.0
181.201752 248.0
181.306259 124.0
181.394714 144.0
181.467102 208.0
181.762161 116.0
181.80777 196.0
181.944672 104.0
182.049393 292.0
182.084305 156.0
182.463211 200.0
182.514297 84.0
182.573456 108.0
182.931595 204.0
182.970886 232.0
182.998642 228.0
183.055298 256.0
183.095581 156.0
183.346146 156.0
183.674072 200.0
184.017853 152.0
184.071854 148.0
184.1371 172.0
184.385239 100.0
184.5177 212.0
184.539322 216.0
184.698883 120.0
184.965866 360.0
185.007385 124.0
185.048004 176.0
185.134659 156.0
185.15361 176.0
185.264679 136.0
185.570938 104.0
185.633301 72.0
186.02034 372.0
186.059311 108.0
186.14621 96.0
186.170654 68.0
186.303741 140.0
186.322769 152.0
186.969955 148.0
187.032166 320.0
187.383865 212.0
187.730057 180.0
187.972855 108.0
188.011063 48.0
188.032196 196.0
188.062912 68.0
188.150269 120.0
188.325043 124.0
188.366013 124.0
188.962021 100.0
188.990295 180.0
189.013092 180.0
189.018829 168.0
189.047302 144.0
189.13443 156.0
189.649399 108.0
189.764542 132.0
189.802933 192.0
189.986694 140.0
190.022369 128.0
190.063568 276.0
190.126648 28.0
190.354507 72.0
190.904129 180.0
190.97908 144.0
191.071625 236.0
191.228775 48.0
191.472824 148.0
191.731628 140.0
191.989212 160.0
192.027084 148.0
192.06369 656.0
192.245789 232.0
192.444534 132.0
192.610245 184.0
192.814713 232.0
193.053207 204.0
193.091202 48.0
193.25441 124.0
193.431534 164.0
193.597672 160.0
193.762955 96.0
194.052124 200.0
194.091919 136.0
194.132538 192.0
194.196335 132.0
194.298981 116.0
194.448822 140.0
194.490463 168.0
194.598724 144.0
194.85704 412.0
194.971588 480.0
195.051575 148.0
195.079376 188.0
195.571747 128.0
195.596802 172.0
195.752716 84.0
195.794495 120.0
195.830704 56.0
195.984894 484.0
196.078323 156.0
196.126068 76.0
196.388168 164.0
196.524872 224.0
196.759338 148.0
196.817963 120.0
196.859848 44.0
196.99057 200.0
197.066116 196.0
197.181137 64.0
197.463531 144.0
197.936508 132.0
197.97699 220.0
198.056931 180.0
198.317535 48.0
198.569885 104.0
198.971542 776.0
199.027328 144.0
199.273529 172.0
199.821304 156.0
199.974747 156.0
200.02713 288.0
200.03949 296.0
200.064819 268.0
200.163376 68.0
200.368988 116.0
200.741074 144.0
200.966324 384.0
201.006683 184.0
201.034851 176.0
201.136078 168.0
201.158661 160.0
201.607773 36.0
201.958359 104.0
201.983826 184.0
202.017471 1252.0
202.299622 128.0
202.462173 180.0
202.569809 200.0
202.93541 84.0
202.955261 188.0
203.024811 320.0
203.111252 48.0
203.363785 128.0
203.63353 136.0
203.857986 156.0
204.021759 1012.0
204.176392 108.0
204.199142 140.0
204.317047 144.0
204.543442 40.0
204.62886 48.0
204.802582 192.0
205.026855 192.0
205.061874 120.0
205.309921 216.0
205.683701 56.0
205.887573 168.0
205.937836 132.0
206.015198 144.0
206.062714 340.0
206.306458 48.0
206.335052 116.0
206.455154 140.0
206.480896 96.0
206.535233 152.0
206.626785 176.0
206.812805 256.0
207.004623 124.0
207.067062 1900.0
207.122055 172.0
207.185074 44.0
207.265305 180.0
207.477417 120.0
207.910553 108.0
207.982315 184.0
208.008148 168.0
208.039719 112.0
208.077499 664.0
208.151703 220.0
208.246475 52.0
208.525177 64.0
208.749435 140.0
208.990494 1452.0
209.080597 752.0
209.454193 200.0
209.61882 48.0
209.731232 224.0
209.757172 168.0
209.817703 84.0
209.843658 104.0
209.884033 28.0
209.912857 112.0
209.994217 212.0
210.038284 132.0
210.074265 5108.0
210.259064 112.0
210.302765 224.0
210.423599 68.0
210.508469 72.0
210.570236 108.0
210.680649 80.0
210.719177 96.0
210.882935 184.0
210.94075 112.0
210.987869 1056.0
211.078918 1456.0
211.13736 64.0
211.198105 112.0
211.262558 200.0
211.29068 44.0
211.374588 40.0
211.513519 252.0
211.571411 184.0
211.805984 124.0
211.843643 40.0
211.866821 44.0
211.924774 144.0
211.996719 340.0
212.026199 76.0
212.073975 272.0
212.327728 88.0
212.408936 148.0
212.612045 148.0
212.945938 168.0
212.98909 164.0
213.030792 172.0
213.085373 128.0
213.192902 152.0
213.713425 156.0
213.812378 160.0
213.876404 160.0
213.911331 188.0
213.994522 188.0
214.041641 1088.0
214.186462 192.0
214.33075 168.0
214.362793 84.0
214.447311 220.0
214.648483 60.0
214.770981 216.0
214.820572 216.0
214.846817 160.0
214.899338 160.0
214.987671 180.0
215.048767 2396.0
215.138672 44.0
215.191223 44.0
215.290512 36.0
215.325562 112.0
215.421661 164.0
215.45993 356.0
215.752197 188.0
215.830719 140.0
216.041046 656.0
216.284622 152.0
216.376099 64.0
216.422226 80.0
216.55986 68.0
216.592087 92.0
216.612595 120.0
216.79425 176.0
216.841141 200.0
216.873383 124.0
216.896835 80.0
216.970123 112.0
216.996521 156.0
217.033722 272.0
217.1754 80.0
217.322098 56.0
217.371979 120.0
217.501114 168.0
218.013062 352.0
218.048035 288.0
218.185608 212.0
218.570923 44.0
218.762238 56.0
218.841736 128.0
219.009598 168.0
219.051712 164.0
219.077362 120.0
219.244339 144.0
219.655167 224.0
219.846954 144.0
220.077209 124.0
220.310532 160.0
220.632675 220.0
220.662247 96.0
220.709549 116.0
220.771652 36.0
220.792358 100.0
220.952103 108.0
220.999435 152.0
221.108932 168.0
221.461273 184.0
221.677551 36.0
221.982895 188.0
222.030624 172.0
222.166794 172.0
222.238007 144.0
222.573425 64.0
222.606094 272.0
222.828873 96.0
222.970795 1624.0
223.10231 228.0
223.134003 140.0
223.185562 108.0
223.23909 112.0
223.301544 212.0
223.515747 48.0
223.611542 148.0
223.709213 36.0
223.970474 628.0
224.024887 148.0
224.061523 108.0
224.087463 188.0
224.150024 172.0
224.182816 244.0
224.433212 116.0
224.558472 32.0
224.967682 1592.0
225.040237 156.0
225.071411 508.0
225.140472 76.0
225.181717 104.0
225.370499 68.0
225.561768 84.0
225.684357 28.0
225.732193 128.0
225.780045 212.0
225.964554 236.0
225.9944 208.0
226.017151 428.0
226.041809 312.0
226.078003 108.0
226.306732 192.0
226.953156 172.0
226.986938 88.0
227.022263 272.0
227.045822 300.0
227.198944 176.0
227.352936 92.0
227.445984 176.0
227.671173 144.0
227.75827 60.0
227.814148 20.0
227.842392 144.0
227.953568 136.0
228.014084 280.0
228.057312 108.0
228.284256 60.0
228.371475 116.0
228.416595 52.0
228.473755 128.0
228.564026 52.0
228.70903 88.0
228.753632 184.0
228.958389 160.0
228.994537 160.0
229.029968 220.0
229.072845 224.0
229.362137 76.0
229.473694 176.0
229.533997 148.0
229.603363 148.0
229.648605 216.0
229.745132 36.0
229.814529 148.0
230.017334 488.0
230.070663 176.0
230.101273 64.0
230.672272 104.0
230.89299 124.0
231.009918 324.0
231.035385 276.0
231.06543 220.0
231.731537 132.0
232.014725 128.0
232.047821 192.0
232.060699 100.0
232.071396 132.0
232.192307 92.0
232.556412 232.0
232.732498 196.0
232.75679 156.0
232.990051 140.0
233.069656 80.0
233.836044 96.0
233.933441 120.0
233.989517 288.0
234.041229 120.0
234.292816 116.0
234.4086 184.0
234.564041 36.0
234.960495 168.0
234.992661 476.0
235.02153 336.0
235.060623 300.0
235.097809 120.0
235.393936 52.0
235.534439 84.0
235.580261 132.0
235.919479 196.0
236.000778 496.0
236.067978 528.0
236.10907 196.0
236.479279 48.0
236.580307 48.0
236.748718 300.0
236.819153 104.0
236.852859 132.0
236.98938 1116.0
237.183792 104.0
237.46283 68.0
237.768112 120.0
237.953827 132.0
237.992447 112.0
238.027527 148.0
238.07933 152.0
238.106766 1648.0
238.217957 56.0
238.635941 100.0
238.984711 1136.0
239.045059 72.0
239.105865 296.0
239.278992 48.0
239.343658 124.0
239.368286 56.0
239.660934 120.0
239.799606 176.0
239.875793 212.0
239.944366 188.0
239.994675 692.0
240.105545 160.0
240.262161 104.0
240.444229 152.0
240.675766 76.0
240.725174 196.0
240.780762 124.0
240.851807 184.0
241.002319 292.0
241.031586 396.0
241.179352 144.0
241.25354 204.0
241.494736 76.0
241.550415 144.0
241.58754 64.0
241.915588 216.0
241.992325 712.0
242.034698 6900.0
242.093674 160.0
242.132339 272.0
242.172607 120.0
242.203583 72.0
242.257034 156.0
242.33371 152.0
242.401871 40.0
242.433838 204.0
242.553741 128.0
242.664505 204.0
242.718063 176.0
242.758377 224.0
242.973221 160.0
243.042831 9752.0
243.143524 56.0
243.245438 240.0
243.292084 52.0
243.354172 44.0
243.413177 60.0
243.484604 124.0
243.515656 232.0
243.623352 216.0
243.74556 64.0
243.779739 120.0
243.936478 264.0
243.960022 188.0
243.983429 212.0
244.043686 2668.0
244.177689 164.0
244.199463 64.0
244.283447 48.0
244.323898 48.0
244.395462 140.0
244.510605 164.0
244.72229 32.0
244.818832 196.0
244.899811 72.0
244.965225 184.0
245.04277 2992.0
245.096085 196.0
245.195801 76.0
245.325714 160.0
245.396988 164.0
245.451447 144.0
245.523163 48.0
245.713455 132.0
245.735291 68.0
245.778976 36.0
245.89444 60.0
245.992218 124.0
246.042358 776.0
246.125473 192.0
246.197296 92.0
246.266006 224.0
246.287872 68.0
246.600342 116.0
246.625336 140.0
246.731628 36.0
246.834808 60.0
246.972092 148.0
247.04805 456.0
247.097565 192.0
247.203949 92.0
247.241501 40.0
247.263412 48.0
247.29158 84.0
247.329147 64.0
247.366714 192.0
247.451248 120.0
247.603195 84.0
247.71431 128.0
247.786377 100.0
247.836502 148.0
247.979095 144.0
248.029419 144.0
248.225204 176.0
248.322433 96.0
248.400848 92.0
248.510666 156.0
248.591858 96.0
248.698959 80.0
248.959549 144.0
249.000381 188.0
249.050049 192.0
249.113464 216.0
249.135452 88.0
249.168976 156.0
249.588058 56.0
249.691849 160.0
249.792496 92.0
249.974152 212.0
250.017242 2560.0
250.192169 196.0
250.466156 48.0
250.604767 204.0
250.693008 132.0
250.78125 100.0
250.812775 128.0
250.942841 140.0
251.002914 288.0
251.487808 120.0
251.607758 84.0
252.013077 1776.0
252.067154 236.0
252.323776 128.0
252.574799 164.0
252.621384 116.0
252.676041 188.0
253.01561 468.0
253.071991 928.0
253.112839 72.0
253.166672 160.0
253.477142 68.0
253.886093 120.0
254.021713 304.0
254.077728 1540.0
254.111313 132.0
254.250717 112.0
254.460449 72.0
254.514435 112.0
254.574768 208.0
254.609695 124.0
254.75264 100.0
254.825714 216.0
254.886093 124.0
255.020233 228.0
255.08223 396.0
255.149902 160.0
255.242111 164.0
255.452042 120.0
255.627029 140.0
255.792542 44.0
255.822693 112.0
255.958099 88.0
256.018951 156.0
256.083466 188.0
256.356293 36.0
256.499725 48.0
256.582611 108.0
257.029175 220.0
257.124908 52.0
257.220673 136.0
257.24942 68.0
257.412231 216.0
257.543182 60.0
257.86911 76.0
258.059448 164.0
258.355164 208.0
258.991974 160.0
259.039825 324.0
259.309418 72.0
259.351105 64.0
259.415192 124.0
259.697388 160.0
259.886688 120.0
260.044678 732.0
260.342529 160.0
260.986603 412.0
261.00885 196.0
261.021454 240.0
261.847687 88.0
261.971954 148.0
262.016754 1436.0
262.118317 148.0
262.434204 40.0
262.769653 144.0
262.982452 688.0
262.993347 384.0
263.006287 540.0
263.017059 600.0
263.379822 164.0
263.506958 88.0
263.619781 224.0
263.693237 72.0
263.847748 216.0
263.890442 104.0
264.000061 2836.0
264.191223 96.0
264.25592 104.0
264.28183 96.0
264.340057 52.0
264.676727 208.0
264.884003 156.0
264.906677 92.0
264.999634 1284.0
265.178864 120.0
265.344208 148.0
265.396088 68.0
265.655548 120.0
265.687988 132.0
265.762634 108.0
265.801575 92.0
265.840515 72.0
265.994873 1212.0
266.072266 260.0
266.351349 128.0
266.728821 152.0
266.909271 36.0
267.000885 572.0
267.082428 332.0
267.205261 64.0
267.377747 52.0
267.602783 156.0
267.989471 164.0
268.038849 160.0
268.094543 1668.0
268.441925 80.0
268.560486 152.0
268.814972 184.0
268.988617 116.0
268.999084 88.0
269.035675 168.0
269.069366 172.0
269.101166 224.0
269.232849 148.0
269.265503 36.0
269.474579 124.0
269.530121 152.0
269.703339 232.0
269.778534 68.0
269.961517 132.0
269.991058 164.0
270.03006 4076.0
270.121887 200.0
270.193878 196.0
270.311676 60.0
270.33786 40.0
270.504791 160.0
270.61145 96.0
270.724152 80.0
270.809326 136.0
270.990967 124.0
271.035004 596.0
271.199249 148.0
271.226959 76.0
271.343475 52.0
271.415619 280.0
271.441833 112.0
272.027863 1276.0
272.084656 160.0
272.137512 136.0
272.416656 184.0
272.584229 164.0
272.643402 148.0
272.820892 108.0
273.03714 280.0
273.078491 156.0
273.785004 208.0
274.025574 416.0
274.070587 136.0
274.097992 164.0
274.144104 128.0
274.252869 116.0
274.315521 148.0
274.493561 64.0
274.945526 124.0
275.017761 140.0
275.071686 212.0
275.282257 128.0
275.493652 156.0
275.602692 60.0
275.682007 128.0
275.918579 172.0
276.010162 532.0
276.05188 364.0
276.240814 204.0
276.313599 128.0
276.598206 188.0
276.932648 156.0
276.969086 100.0
277.008209 688.0
277.075073 140.0
277.365143 212.0
277.658661 164.0
277.761322 52.0
277.824371 32.0
277.903992 128.0
277.955078 380.0
278.011444 14136.0
278.096466 36.0
278.142944 32.0
278.24585 32.0
278.305634 76.0
278.34729 152.0
278.386505 68.0
278.460297 132.0
278.55365 124.0
278.575714 88.0
278.617828 88.0
278.667664 48.0
278.745117 128.0
278.884979 96.0
278.960144 156.0
279.014404 2416.0
279.073181 104.0
279.126373 48.0
279.16629 76.0
279.246124 36.0
279.296021 68.0
279.374542 72.0
279.419098 136.0
279.485657 136.0
279.572174 92.0
279.811829 68.0
279.860107 120.0
279.885101 140.0
279.935364 128.0
280.010742 5944.0
280.090027 188.0
280.113586 68.0
280.191528 212.0
280.221527 100.0
280.31131 72.0
280.37146 80.0
280.404785 56.0
280.664825 52.0
280.748199 44.0
280.801575 60.0
280.835297 72.0
280.884949 56.0
281.016113 1408.0
281.099274 140.0
281.144592 192.0
281.282043 88.0
281.33548 60.0
281.372192 48.0
281.515778 212.0
281.579224 68.0
281.759613 60.0
281.940063 128.0
282.015778 648.0
282.108246 456.0
282.334564 76.0
282.662415 48.0
282.716309 116.0
282.796295 84.0
282.974548 196.0
283.014343 180.0
283.054474 108.0
283.110779 172.0
283.439331 80.0
283.462769 56.0
283.523102 44.0
283.875122 60.0
284.023651 340.0
284.180359 76.0
284.512634 108.0
284.613373 168.0
284.643585 124.0
284.979492 96.0
285.06015 108.0
285.38623 168.0
285.426575 108.0
285.746124 136.0
285.957428 176.0
285.968903 140.0
285.976013 204.0
286.026459 92.0
286.263763 160.0
286.412689 84.0
286.523865 204.0
286.577759 184.0
286.678864 176.0
286.742889 68.0
287.033783 468.0
287.107025 52.0
287.365845 116.0
287.491638 132.0
287.744812 148.0
287.815704 56.0
287.839355 112.0
287.88324 92.0
287.936005 180.0
288.040619 10336.0
288.089783 80.0
288.162415 124.0
288.254852 72.0
288.334808 152.0
288.359619 184.0
288.423828 48.0
288.501587 44.0
288.704468 64.0
288.754181 120.0
288.792419 112.0
289.043457 1952.0
289.12738 176.0
289.208618 48.0
289.279694 88.0
289.330475 52.0
289.408356 192.0
289.509949 44.0
289.645416 80.0
289.872437 68.0
289.994446 572.0
290.038971 3828.0
290.102905 76.0
290.360626 124.0
290.635406 44.0
290.798309 68.0
290.822052 92.0
290.9375 88.0
290.979095 340.0
291.036652 488.0
291.127625 212.0
291.171783 120.0
291.273682 36.0
291.531921 100.0
291.572693 48.0
291.769867 144.0
291.844666 112.0
292.021362 184.0
292.045959 296.0
292.480865 92.0
292.79071 176.0
292.982452 244.0
293.045074 180.0
293.093903 32.0
293.305206 104.0
293.992035 156.0
294.076111 64.0
294.140961 136.0
294.205811 160.0
294.547333 80.0
294.93689 176.0
294.988007 180.0
295.031464 260.0
295.25827 36.0
295.401947 148.0
295.658569 148.0
295.688446 132.0
295.996704 368.0
296.021942 864.0
296.179016 128.0
296.240692 144.0
296.980377 132.0
297.029144 132.0
297.427185 96.0
298.033875 156.0
298.313477 248.0
298.499146 52.0
298.653931 36.0
298.712402 156.0
298.92572 92.0
298.994537 188.0
299.022095 108.0
299.194855 108.0
299.259613 120.0
299.63504 160.0
300.062439 208.0
300.272797 72.0
300.390076 112.0
301.042206 144.0
301.550293 96.0
301.598694 112.0
301.692017 88.0
301.806122 128.0
301.91333 80.0
302.012268 164.0
302.056305 9700.0
302.1091 192.0
302.183136 28.0
302.27655 128.0
302.325012 72.0
302.408081 56.0
302.446167 56.0
302.601929 104.0
302.719666 36.0
303.007172 84.0
303.057983 1816.0
303.100739 52.0
303.125 80.0
303.26709 140.0
303.485504 48.0
303.560822 188.0
303.649811 136.0
303.846222 84.0
303.994659 532.0
304.053802 2160.0
304.304382 76.0
304.387695 144.0
304.450226 120.0
304.484955 28.0
304.675995 96.0
304.828888 160.0
304.865631 56.0
304.964417 84.0
304.999908 152.0
305.056152 400.0
305.395599 52.0
305.548645 88.0
305.670441 132.0
305.712219 172.0
305.750488 224.0
305.774841 112.0
305.927704 136.0
306.00647 11940.0
306.103516 88.0
306.175232 136.0
306.207977 120.0
306.251862 44.0
306.314575 132.0
306.356384 44.0
306.440002 52.0
306.586334 136.0
306.656067 48.0
306.812927 156.0
307.009399 1968.0
307.067474 40.0
307.147705 92.0
307.175629 40.0
307.201538 88.0
307.262848 88.0
307.311676 28.0
307.398926 68.0
307.665009 52.0
307.716553 100.0
307.756134 40.0
307.870209 56.0
307.943542 180.0
308.005005 6528.0
308.191589 48.0
308.338379 164.0
308.443237 28.0
308.471191 60.0
308.813873 148.0
309.006744 1236.0
309.058777 36.0
309.09726 36.0
309.137329 160.0
309.170746 108.0
309.244263 52.0
309.273743 124.0
309.384277 48.0
309.544098 124.0
309.59787 48.0
309.759003 152.0
309.871124 40.0
310.002106 280.0
310.039795 368.0
310.21106 32.0
310.603821 96.0
310.866974 44.0
310.986725 136.0
311.016602 276.0
311.123199 36.0
311.147797 84.0
311.242584 100.0
311.319855 76.0
311.43927 208.0
311.614929 156.0
312.018036 132.0
312.0578 120.0
312.170319 116.0
312.282867 188.0
312.349701 184.0
312.439178 64.0
312.884613 116.0
312.955017 60.0
312.999695 132.0
313.800659 52.0
313.860626 164.0
314.014069 396.0
314.103973 76.0
314.820496 40.0
314.891113 100.0
315.67218 192.0
315.84549 132.0
316.074646 1324.0
317.038696 176.0
317.072662 312.0
317.41803 180.0
317.751434 128.0
317.889832 156.0
317.999847 156.0
318.06839 356.0
318.263641 52.0
319.083344 160.0
319.200684 200.0
319.399841 136.0
319.784149 196.0
319.955017 84.0
320.026215 120.0
320.129486 124.0
320.282654 136.0
320.496399 64.0
320.678162 176.0
321.033264 160.0
321.059204 156.0
321.384277 68.0
321.623413 80.0
322.003082 1120.0
322.334137 48.0
322.609375 160.0
322.701935 112.0
323.007385 400.0
323.260345 76.0
323.43338 160.0
323.518066 80.0
323.618317 64.0
323.736481 180.0
323.897644 204.0
323.957489 352.0
324.017212 22404.0
324.119781 180.0
324.148071 36.0
324.175537 72.0
324.25238 64.0
324.338409 56.0
324.456726 68.0
324.546356 44.0
324.664703 236.0
324.858398 64.0
324.887085 76.0
325.017731 1860.0
325.15979 48.0
325.245941 56.0
325.286072 136.0
325.350861 88.0
325.448792 80.0
325.551392 108.0
325.579865 196.0
325.655304 56.0
325.748688 44.0
325.824127 68.0
325.878876 156.0
325.917542 56.0
325.964264 156.0
326.01532 12352.0
326.093292 40.0
326.133179 96.0
326.259003 56.0
326.440948 60.0
326.514313 80.0
326.557465 112.0
326.63385 52.0
326.676178 140.0
326.712158 84.0
326.839813 92.0
326.884857 60.0
326.929688 132.0
327.016632 2080.0
327.115234 48.0
327.14624 156.0
327.212433 136.0
327.248444 56.0
327.47171 72.0
327.532959 76.0
327.632935 216.0
327.66983 64.0
327.73111 116.0
327.813965 220.0
328.012115 708.0
328.221344 80.0
328.351166 64.0
328.412476 212.0
328.715546 68.0
328.918335 124.0
328.968201 108.0
329.013641 168.0
329.226227 112.0
329.251648 104.0
329.332916 148.0
329.477417 88.0
329.802643 116.0
329.835175 56.0
329.901978 92.0
330.25827 56.0
330.587494 128.0
331.112457 80.0
331.344299 44.0
333.009399 40.0
334.027191 152.0
334.351013 44.0
334.569427 92.0
334.911743 116.0
335.228729 120.0
335.88501 60.0
336.018066 1384.0
336.238953 48.0
336.523682 136.0
336.779327 100.0
336.881622 76.0
337.004822 220.0
337.038727 208.0
337.082581 44.0
337.111816 228.0
337.473694 112.0
337.627289 52.0
337.671173 348.0
337.843109 240.0
337.93457 192.0
337.966431 152.0
338.032684 18852.0
338.124878 32.0
338.179779 72.0
338.417725 104.0
338.46167 100.0
338.543793 48.0
338.569916 108.0
338.59375 188.0
338.699738 140.0
338.756042 140.0
338.827942 40.0
338.966614 104.0
339.035522 2008.0
339.100616 80.0
339.140228 188.0
339.326416 76.0
339.385071 32.0
339.458405 80.0
339.619781 64.0
339.744507 192.0
339.814209 44.0
339.88028 52.0
339.968994 196.0
340.029083 7812.0
340.118835 220.0
340.144531 52.0
340.291382 48.0
340.519073 72.0
340.550201 92.0
340.640289 124.0
340.669678 88.0
340.699066 80.0
340.915863 96.0
340.972412 124.0
341.032593 1588.0
341.136383 136.0
341.184174 112.0
341.20993 160.0
341.243011 84.0
341.27243 72.0
341.305511 36.0
341.36084 92.0
341.434235 44.0
341.529877 120.0
341.603424 40.0
341.665985 68.0
341.748566 80.0
341.855042 84.0
342.027954 744.0
342.195984 92.0
342.343262 132.0
342.575317 120.0
342.752747 196.0
343.00647 128.0
343.054413 56.0
343.305145 96.0
343.341278 140.0
343.707245 100.0
344.405029 48.0
346.165527 60.0
347.923096 80.0
348.342743 64.0
348.714325 92.0
349.037781 164.0
349.759552 48.0
350.027954 440.0
350.590149 72.0
351.044952 112.0
351.246368 112.0
351.787476 36.0
352.0466 2692.0
352.220673 144.0
352.321533 44.0
352.399994 52.0
352.859711 40.0
352.889648 68.0
353.052582 724.0
353.267395 64.0
353.544281 84.0
353.577942 112.0
353.839996 212.0
354.043427 2120.0
354.091309 140.0
354.180786 36.0
354.233246 72.0
354.668182 60.0
354.986603 100.0
355.049561 288.0
355.091614 188.0
356.024475 304.0
356.800232 96.0
357.03714 108.0
357.104828 72.0
358.023193 124.0
358.064606 208.0
360.097565 76.0
361.068909 52.0
361.261841 132.0
362.007477 72.0
362.155212 84.0
365.420044 108.0
366.345215 132.0
368.317444 104.0
368.447327 80.0
368.978607 108.0
371.176453 132.0
373.04245 112.0
377.488129 80.0
380.196106 80.0
381.104828 88.0
382.719055 92.0
384.071442 168.0
385.316772 148.0
389.650116 88.0
394.351471 120.0
396.980347 80.0
397.631012 60.0
398.925964 40.0
398.99353 84.0
399.594116 52.0
405.744934 52.0
405.77301 80.0
414.467407 112.0
424.946899 64.0
427.655121 116.0
428.318054 56.0
433.014526 40.0
433.980103 68.0
436.479858 100.0
438.557343 100.0
440.518616 116.0
445.025146 72.0
446.062866 76.0
451.50647 104.0
451.646027 40.0
452.318848 68.0
453.331146 92.0
455.975189 88.0
458.371216 28.0
459.889526 64.0
460.141388 32.0
468.388458 88.0
474.395264 92.0
474.798523 20.0
480.811279 44.0
481.391937 60.0
484.243469 92.0
487.674683 96.0
491.643036 96.0
492.473114 44.0
498.116516 104.0
505.849213 64.0
506.780792 44.0
507.372406 64.0
511.622559 64.0
513.92572 112.0
516.007935 96.0
521.993408 104.0
525.742737 44.0
527.437256 68.0
530.981262 88.0
536.531616 68.0
539.592651 56.0
541.073242 56.0
541.448303 48.0
544.267883 84.0
564.205444 124.0
569.84552 76.0
594.349792 144.0
595.116699 68.0
595.315796 120.0
596.647217 52.0
598.160217 80.0
600.772278 64.0
603.54657 64.0
617.34552 80.0
625.895935 72.0
629.056946 96.0
629.136841 76.0
634.590393 104.0
638.778992 68.0
640.883484 72.0
642.491882 108.0
647.749573 60.0
650.767212 72.0
656.507263 96.0
675.212524 68.0
683.341431 68.0
694.909607 72.0
701.599731 76.0
703.166443 76.0
713.868408 92.0
722.648743 56.0
732.322754 56.0
751.525391 100.0
760.703796 76.0
767.388428 104.0
770.64502 44.0
780.678589 76.0
785.156311 60.0
785.630432 56.0
787.243591 64.0
788.679504 52.0
801.441772 120.0
806.645508 60.0
811.27063 72.0
823.556702 52.0
830.22467 76.0
841.688232 104.0
853.178162 76.0
885.412354 52.0
951.845825 124.0
958.101257 112.0
970.388367 88.0
971.74054 44.0
1010.40033 104.0
1022.132629 200.0
1022.890015 196.0
1027.701904 132.0
1037.109497 112.0
1065.498535 148.0
1076.924927 80.0
1082.143677 116.0
1107.730835 156.0
1115.289062 160.0
1122.953125 76.0
1137.245361 76.0
1161.66687 144.0
1188.625 96.0
1193.557129 92.0
1208.235107 208.0
1214.719604 164.0
1217.51001 140.0
1221.65979 120.0
1235.396362 68.0
1254.766602 84.0
1258.95105 68.0
1269.013672 144.0
1270.155518 132.0
1281.559326 164.0
1284.61084 248.0
1286.844727 172.0
1307.996216 124.0
1314.286255 128.0
1321.056152 176.0
1324.664307 116.0
1326.864624 92.0
1329.759033 44.0
1335.761108 184.0
1346.724487 188.0
1348.624268 128.0
1350.825317 128.0
1353.313843 200.0
1355.562622 48.0
1359.941162 60.0
1371.725464 188.0
1372.064575 164.0
1382.798218 172.0
1384.390015 200.0
1385.189941 132.0
1387.872925 124.0
1392.533569 64.0
1393.633057 104.0
1408.15271 232.0
1412.158936 132.0
1417.122437 132.0
1419.581177 132.0
1432.765503 112.0
1434.106934 144.0
1440.453003 184.0
1447.222046 100.0
1451.05603 204.0
1454.545898 60.0
1458.199463 164.0
1458.769653 192.0
1467.387939 180.0
1470.378296 144.0
1476.674194 56.0
1478.80127 136.0
1479.268188 124.0
1481.519775 160.0
1481.604004 84.0
1484.900269 172.0
1490.77356 176.0
1491.726685 152.0
1493.32019 108.0
1498.237427 108.0
1500.056274 236.0
1501.852905 140.0
