>compound MLS001142777-01!
>formula C26H28N4O4
>ionization [M+H]+
>parentmass 461.2183318280905
#inchi InChI=1S/C26H28N4O4/c1-16(23(31)27-14-12-17-8-10-18(34-3)11-9-17)30-24(32)26(2)22-20(13-15-29(26)25(30)33)19-6-4-5-7-21(19)28-22/h4-11,16,28H,12-15H2,1-3H3,(H,27,31)/t16-,26-/m0/s1
#inchikey VOZWTVJISAVWFI
#Ion_Source LC-ESI
#Instrument qTof
#Compound_Source NIH Natural Product Library
#PI Dorrestein
#Data_Collector VVP/LMS
#Scan -1
#Precursor_MZ 461.219
#ExactMass 460.211
#Charge 1
#CAS_Number N/A
#Pubmed_ID N/A
#Smiles COc1ccc(CCNC(=O)[C@H](C)N2C(=O)N3CCc4c([nH]c5ccccc45)[C@@]3(C)C2=O)cc1
#INCHI_AUX N/A
#Library_Class 1
#SpectrumID CCMSLIB00000079659
#IonMode Positive
#UpdateWorkflowName UPDATE-SINGLE-ANNOTATED-GOLD
#LibraryQualityString Gold
#TaskID b1d8e8f6646f4e71acdff9ca3d919d08
##Scan# 2333
#SpectrumFile p1-D09_GD9_01_17917.mzXML
#LibraryName NIH_Natural_Products_Library.mgf
#MQScore -1
#Organism NIH_Natural_Products_Library
#TIC_Query 0
#RT_Query -1
#MZErrorPPM -1
#SharedPeaks 0
#MassDiff 0
#LibMZ -1
#SpecMZ 461.219
#SpecCharge 0
#internalFilename spec-00000.mgf

>collision 10
95.450714 140.0
95.54213 184.0
95.58493 204.0
97.149895 256.0
97.409012 168.0
98.206177 192.0
99.526131 132.0
100.220284 100.0
100.878876 184.0
102.109985 116.0
102.136131 92.0
102.472313 140.0
102.720268 32.0
103.052719 548.0
103.259552 184.0
103.346542 140.0
103.451775 108.0
103.936157 144.0
103.986885 188.0
104.064026 228.0
104.444038 164.0
104.460312 212.0
104.688255 248.0
105.070969 1228.0
105.704834 148.0
105.897263 128.0
106.071312 376.0
107.04731 84.0
107.482239 52.0
108.033867 200.0
108.100075 124.0
108.172516 104.0
108.549576 204.0
108.910683 176.0
109.307762 128.0
109.41391 156.0
110.405014 164.0
112.749062 156.0
112.839951 112.0
113.01973 132.0
113.231415 36.0
113.632034 132.0
114.054626 188.0
114.23111 128.0
115.982048 132.0
116.68615 228.0
116.860359 168.0
117.06826 200.0
117.526123 144.0
118.416748 188.0
118.770035 196.0
118.965324 164.0
118.993546 64.0
119.084747 124.0
119.275948 188.0
119.552162 96.0
120.057564 308.0
120.090271 116.0
120.437309 144.0
120.467888 156.0
120.776688 208.0
121.036522 48.0
122.118408 168.0
122.133804 148.0
122.382477 116.0
123.45929 152.0
123.758018 116.0
123.800087 140.0
123.844383 32.0
123.8909 164.0
124.494186 136.0
125.580231 120.0
125.615921 192.0
126.236809 192.0
126.391151 124.0
126.503052 144.0
126.597084 84.0
126.939934 152.0
127.056564 196.0
127.460701 200.0
128.061356 252.0
128.122162 132.0
128.972519 176.0
129.072357 184.0
129.438919 44.0
130.064621 192.0
130.400772 132.0
130.732803 60.0
131.065262 216.0
131.562454 224.0
131.829681 148.0
131.854813 100.0
133.898941 252.0
133.956528 104.0
134.07634 156.0
134.364288 168.0
134.803345 200.0
134.976624 176.0
135.022873 352.0
135.080261 2820.0
135.27507 140.0
135.367676 56.0
135.518234 104.0
135.606293 112.0
135.828873 148.0
135.947205 128.0
136.082657 616.0
136.839752 192.0
137.065689 156.0
137.228836 76.0
137.497086 40.0
137.779617 168.0
137.873077 160.0
138.317459 128.0
138.570374 152.0
138.657074 144.0
140.521759 144.0
140.724731 72.0
141.034195 228.0
141.069656 164.0
141.493103 164.0
141.865036 152.0
141.971725 116.0
142.066757 164.0
142.133026 176.0
142.429779 184.0
142.617493 112.0
142.884537 200.0
143.074203 148.0
143.500656 128.0
143.770187 136.0
144.00415 160.0
144.080185 3836.0
144.121201 132.0
144.209625 80.0
144.50853 204.0
144.585052 172.0
144.704788 28.0
145.01619 64.0
145.085022 608.0
145.49353 172.0
145.772141 36.0
146.096725 196.0
147.891998 164.0
149.11438 144.0
149.32103 44.0
149.858994 84.0
150.266159 244.0
150.74472 52.0
151.047882 196.0
151.579147 20.0
153.417557 212.0
153.649368 104.0
154.069046 140.0
154.358215 120.0
154.546204 64.0
154.692215 180.0
154.99437 144.0
155.066223 128.0
155.19017 92.0
155.224884 80.0
155.644226 84.0
156.081421 388.0
156.390015 144.0
156.544373 172.0
156.808441 224.0
157.557007 136.0
157.909454 148.0
158.04454 88.0
158.06456 176.0
158.312378 192.0
158.550354 80.0
158.934021 208.0
159.021851 128.0
159.29303 64.0
159.426178 228.0
159.453827 152.0
159.511642 164.0
159.667526 172.0
159.881363 216.0
160.440521 72.0
161.157272 144.0
161.316498 176.0
161.501083 160.0
162.045334 64.0
162.283569 144.0
162.33429 136.0
162.834213 168.0
163.474854 152.0
164.315674 124.0
165.429901 100.0
166.06279 176.0
166.270599 180.0
166.314224 132.0
166.50679 148.0
166.977097 104.0
167.043961 136.0
167.073853 136.0
167.705704 196.0
168.080215 1636.0
168.113235 204.0
168.593506 128.0
169.004654 212.0
169.046051 100.0
169.075882 144.0
169.082367 240.0
169.198761 72.0
170.096085 968.0
170.274841 80.0
171.060059 188.0
171.091293 192.0
171.130356 60.0
171.750565 44.0
172.280457 152.0
172.73793 240.0
173.604843 152.0
173.704498 172.0
177.255783 72.0
178.987656 148.0
180.481873 112.0
180.987564 160.0
181.071655 100.0
182.05748 176.0
182.078964 168.0
182.380249 172.0
183.022827 128.0
183.090942 1808.0
183.249069 232.0
183.764328 156.0
183.885452 240.0
184.104538 356.0
184.485092 144.0
184.528336 184.0
184.804214 92.0
184.958466 176.0
184.982819 120.0
185.031555 184.0
185.107666 5408.0
185.169647 64.0
185.240067 112.0
185.356567 52.0
185.467682 220.0
185.576111 148.0
185.828354 52.0
185.8582 72.0
186.029175 68.0
186.107834 480.0
187.3862 100.0
187.427078 96.0
187.563339 56.0
187.860565 136.0
188.422928 84.0
188.88765 204.0
188.920471 56.0
190.101349 36.0
190.548904 96.0
190.939224 160.0
191.175812 128.0
191.657684 72.0
191.809265 148.0
191.914017 68.0
192.708908 136.0
193.411316 88.0
193.895996 72.0
194.09343 196.0
194.139954 228.0
194.28418 56.0
195.0784 164.0
195.100632 156.0
195.353699 148.0
195.701569 72.0
196.076111 180.0
196.791718 116.0
196.895035 88.0
196.925766 116.0
197.104492 176.0
197.19397 112.0
197.249878 92.0
197.834503 152.0
198.115479 204.0
198.285461 60.0
201.24472 164.0
201.524338 136.0
201.863525 44.0
203.208923 140.0
203.887573 136.0
204.069489 124.0
204.183228 220.0
204.510422 188.0
204.689758 152.0
204.743866 160.0
206.079132 188.0
206.364639 260.0
206.530502 148.0
206.853836 196.0
209.489929 144.0
209.838623 136.0
210.046265 156.0
210.153 212.0
210.314606 232.0
210.432953 60.0
210.510925 148.0
210.874924 148.0
211.086319 6564.0
211.12178 1484.0
211.210312 64.0
211.233459 100.0
211.272629 148.0
211.326324 180.0
211.392578 84.0
211.57782 32.0
211.768921 44.0
212.087234 436.0
212.13028 276.0
212.667725 188.0
213.101456 900.0
213.141083 116.0
213.708069 96.0
213.970001 68.0
214.108154 268.0
214.214615 140.0
214.360291 112.0
214.49144 172.0
214.914291 92.0
215.109833 208.0
215.267487 144.0
216.167816 100.0
216.688995 68.0
218.235718 124.0
218.268066 124.0
218.315109 40.0
219.375046 128.0
222.080612 124.0
222.11026 172.0
222.516815 148.0
223.109619 156.0
224.113953 144.0
225.020645 64.0
226.078751 76.0
226.464951 160.0
226.893463 108.0
227.26535 124.0
228.040115 80.0
228.106232 36.0
228.503189 60.0
229.726288 136.0
230.17598 196.0
230.254501 132.0
230.964752 228.0
231.927612 140.0
232.689011 148.0
234.441025 160.0
234.779404 92.0
235.429413 232.0
235.85408 120.0
237.115051 136.0
237.731461 140.0
238.103455 204.0
238.129028 672.0
238.465439 40.0
239.079483 764.0
239.12114 368.0
239.249817 100.0
239.603973 204.0
240.101074 268.0
241.100464 152.0
241.499283 120.0
241.542587 192.0
242.108963 48.0
242.527222 120.0
243.76239 136.0
245.437012 184.0
247.449127 188.0
249.117508 228.0
252.044342 140.0
252.075943 120.0
252.917175 88.0
253.069855 224.0
253.103958 108.0
253.183121 104.0
253.240128 220.0
253.274963 172.0
253.363663 64.0
253.47139 136.0
253.588638 128.0
253.718597 140.0
253.870789 180.0
254.013596 164.0
254.064011 504.0
254.128799 27836.0
254.276855 36.0
254.298584 152.0
254.35939 36.0
254.381607 64.0
254.464142 68.0
254.576691 144.0
254.600464 68.0
254.661026 128.0
254.715012 104.0
254.766327 52.0
254.813492 84.0
255.131653 5104.0
255.236221 56.0
255.277557 68.0
255.342072 148.0
255.392044 80.0
255.637009 72.0
255.66246 64.0
255.684738 80.0
255.783417 48.0
255.837524 84.0
255.86618 68.0
256.069977 56.0
256.13797 916.0
256.328003 48.0
256.37262 48.0
256.429169 80.0
256.512848 76.0
256.570221 156.0
256.838776 208.0
256.886322 188.0
256.921021 104.0
256.943359 92.0
256.97525 108.0
257.016754 40.0
257.045471 76.0
257.090118 92.0
257.130432 152.0
257.434906 56.0
257.677643 40.0
257.741547 92.0
257.939697 120.0
258.217865 40.0
259.582062 180.0
259.620544 68.0
261.326202 56.0
262.814728 80.0
263.492737 60.0
264.110168 104.0
264.925873 188.0
265.098022 272.0
265.360138 176.0
265.548218 64.0
266.398621 116.0
267.09494 132.0
267.400085 60.0
267.468445 48.0
267.758209 44.0
268.69696 44.0
269.055939 136.0
271.906921 148.0
277.597595 212.0
278.158295 148.0
280.086853 132.0
280.140686 104.0
281.510925 72.0
281.744751 148.0
281.798187 72.0
282.122986 6088.0
282.212646 68.0
282.25943 132.0
282.299561 92.0
282.333008 56.0
282.476837 52.0
282.510284 104.0
282.603943 76.0
282.690948 76.0
282.771515 108.0
282.828156 172.0
283.055817 192.0
283.125336 1504.0
283.186432 28.0
283.233307 44.0
283.407501 48.0
283.430969 76.0
283.484589 44.0
283.534851 92.0
283.953918 72.0
284.131104 136.0
284.792114 92.0
284.84671 92.0
284.920624 40.0
285.003021 92.0
285.078552 124.0
285.522278 60.0
285.814941 72.0
286.12796 92.0
287.229889 60.0
289.362244 76.0
293.527802 96.0
299.800995 128.0
307.845703 76.0
310.126709 140.0
312.138306 204.0
313.053192 168.0
317.917419 120.0
318.151672 120.0
319.043365 132.0
319.139343 120.0
339.903503 140.0
343.011169 40.0
357.887543 208.0
360.475098 56.0
360.698059 52.0
368.106537 124.0
377.757324 64.0
380.501007 144.0
388.195374 72.0
389.203827 208.0
390.189972 104.0
392.126617 156.0
395.828186 96.0
413.211975 88.0
414.458984 56.0
419.547394 132.0
425.598358 60.0
432.155945 116.0
452.578156 128.0
459.305481 180.0
459.3396 180.0
459.710785 52.0
461.214081 92.0
462.219086 140.0
463.298004 124.0
464.0737 120.0
475.140594 60.0
483.743011 72.0
494.788269 148.0
519.182861 100.0
524.643616 48.0
548.6073 28.0
562.643677 96.0
594.383484 100.0
611.773132 92.0
618.718994 212.0
624.017517 120.0
637.769653 48.0
652.129089 56.0
668.237183 60.0
670.389465 52.0
670.889404 112.0
674.032532 92.0
675.288757 48.0
682.63208 56.0
691.772827 32.0
709.82843 132.0
710.735474 52.0
711.96167 44.0
757.416748 60.0
824.777649 60.0
861.314636 92.0
906.662048 40.0
913.849609 88.0
944.895569 20.0
946.664429 96.0
985.123901 84.0
987.580444 96.0
992.791077 52.0
1010.161865 132.0
1035.526855 156.0
1066.25647 220.0
1129.331177 64.0
1129.652222 176.0
1158.999023 184.0
1171.029785 36.0
1175.207397 124.0
1203.341797 192.0
1222.249756 224.0
1222.40979 228.0
1233.514282 164.0
1237.584473 176.0
1271.06543 100.0
1286.987915 124.0
1289.488159 124.0
1302.470825 148.0
1323.196045 160.0
1358.072144 168.0
1366.438965 96.0
1369.265503 172.0
1375.75415 220.0
1377.438477 164.0
1379.418091 156.0
1397.468628 120.0
1398.971924 212.0
1408.651123 120.0
1420.07312 52.0
1420.418213 56.0
1434.095215 88.0
1453.090576 176.0
1456.810425 192.0
1466.908447 164.0
1470.745117 212.0
1473.608765 192.0
1486.341675 72.0
1500.655518 168.0
1501.264771 184.0
1503.910889 28.0
