>compound MLS001158924-01!(2S)-1-[(2S)-3-methyl-2-[(3-oxo-2,4-dihydroquinoxaline-1-carbonyl)amino]butanoyl]pyrrolidine-2-carboxylic acid
>formula C19H24N4O5
>ionization [M+H]+
>parentmass 389.182
#inchi InChI=1S/C19H24N4O5/c1-11(2)16(17(25)22-9-5-8-14(22)18(26)27)21-19(28)23-10-15(24)20-12-6-3-4-7-13(12)23/h3-4,6-7,11,14,16H,5,8-10H2,1-2H3,(H,20,24)(H,21,28)(H,26,27)/t14-,16-/m0/s1
#inchikey KXLLMZMKIMFEFF
#Ion_Source LC-ESI
#Instrument qTof
#Compound_Source NIH Natural Product Library
#PI Dorrestein
#Data_Collector VVP/LMS
#Scan -1
#Precursor_MZ 389.182
#ExactMass 388.175
#Charge 1
#CAS_Number N/A
#Pubmed_ID N/A
#Smiles CC(C)[C@H](NC(=O)N1CC(=O)Nc2ccccc12)C(=O)N3CCC[C@H]3C(=O)O
#INCHI_AUX N/A
#Library_Class 1
#SpectrumID CCMSLIB00000079855
#IonMode Positive
#UpdateWorkflowName UPDATE-SINGLE-ANNOTATED-GOLD
#LibraryQualityString Gold
#TaskID b1d8e8f6646f4e71acdff9ca3d919d08
##Scan# 1518
#SpectrumFile p1-A12_GA12_01_17884.mzXML
#LibraryName NIH_Natural_Products_Library.mgf
#MQScore -1
#Organism NIH_Natural_Products_Library
#TIC_Query 0
#RT_Query -1
#MZErrorPPM -1
#SharedPeaks 0
#MassDiff 0
#LibMZ -1
#SpecMZ 389.182
#SpecCharge 0
#internalFilename spec-00000.mgf

>collision 10
95.026237 128.0
95.068924 380.0
95.0961 60.0
95.114815 116.0
95.303879 64.0
95.333031 156.0
95.428276 116.0
95.667564 152.0
95.827736 180.0
95.866226 136.0
95.883766 220.0
95.934448 244.0
96.215363 180.0
96.381378 180.0
96.676643 132.0
96.704041 224.0
96.933174 140.0
97.050774 220.0
97.146873 200.0
97.162567 220.0
97.439384 148.0
97.45314 144.0
97.476715 184.0
97.661514 180.0
97.791367 84.0
97.856331 192.0
97.901619 136.0
97.968582 224.0
98.061882 560.0
98.08287 176.0
98.203148 104.0
98.382713 156.0
98.483414 60.0
98.566391 52.0
98.671143 72.0
98.754196 88.0
98.936234 96.0
99.1026 52.0
99.501244 188.0
99.67205 192.0
99.689148 152.0
99.862892 220.0
99.992218 160.0
100.067856 168.0
100.107681 72.0
100.213249 56.0
100.508339 112.0
100.522308 36.0
101.013786 96.0
101.215927 152.0
101.233948 148.0
101.478401 232.0
101.793419 212.0
101.980247 76.0
102.028496 100.0
102.25843 140.0
102.422905 156.0
102.469238 148.0
102.565964 204.0
102.658707 88.0
102.715172 80.0
102.773682 128.0
102.795876 88.0
102.840271 148.0
102.904869 152.0
102.949295 276.0
102.971275 172.0
102.997765 148.0
103.078575 168.0
103.252426 156.0
103.398087 128.0
103.428452 116.0
103.541832 144.0
103.770805 176.0
103.890457 168.0
104.052528 228.0
104.394165 380.0
104.793114 96.0
104.917435 168.0
105.041824 192.0
105.22345 112.0
105.294914 168.0
105.78154 184.0
105.97773 200.0
106.316483 240.0
106.583427 136.0
106.665047 292.0
106.852768 100.0
106.891861 184.0
106.92067 156.0
106.947426 144.0
107.129852 204.0
107.421349 136.0
107.681419 172.0
108.092804 80.0
108.10936 168.0
108.310181 144.0
108.747673 168.0
109.021812 204.0
109.061295 136.0
109.150688 132.0
109.387863 148.0
109.454483 172.0
109.539871 168.0
109.602371 84.0
109.666977 128.0
109.814529 68.0
109.829605 152.0
109.913055 156.0
110.013237 36.0
110.240891 92.0
110.579681 116.0
110.919342 120.0
110.950439 240.0
111.080452 216.0
111.643333 140.0
111.695908 176.0
112.030609 148.0
112.377678 160.0
112.441772 72.0
112.665588 176.0
112.927696 224.0
113.044052 208.0
113.190109 144.0
113.285416 224.0
113.406197 68.0
113.446472 180.0
114.013176 128.0
114.055779 140.0
114.42157 108.0
114.4599 164.0
114.572777 96.0
114.634567 176.0
114.732613 44.0
114.792313 76.0
114.813637 192.0
114.837097 180.0
114.962967 120.0
115.082497 156.0
115.159378 276.0
115.174324 48.0
115.364502 136.0
115.415817 132.0
115.522751 120.0
115.62545 176.0
115.711075 212.0
115.758179 52.0
115.87812 144.0
116.070457 2408.0
116.109627 176.0
116.201859 204.0
116.264084 84.0
116.753891 64.0
116.814117 168.0
116.831329 256.0
116.874359 68.0
116.91198 124.0
116.917969 60.0
116.925079 140.0
117.007797 36.0
117.077171 128.0
117.128387 148.0
117.285683 140.0
117.358978 172.0
117.376228 176.0
117.576843 128.0
117.624329 148.0
117.7258 172.0
117.740921 240.0
117.946175 176.0
118.078056 196.0
118.227333 164.0
118.552162 172.0
118.686562 144.0
118.703903 152.0
118.82103 140.0
118.88829 192.0
118.942551 76.0
118.98597 172.0
119.016365 144.0
119.060074 11036.0
119.11409 180.0
119.13147 28.0
119.233589 48.0
119.402443 68.0
119.505402 208.0
119.568504 120.0
119.614212 76.0
119.662109 72.0
119.720901 176.0
119.825447 48.0
119.880775 168.0
119.916969 92.0
120.034691 148.0
120.062599 1028.0
120.196106 68.0
120.279037 176.0
120.307411 48.0
120.455902 160.0
120.729103 168.0
120.771904 204.0
120.836288 112.0
120.864731 172.0
120.904114 168.0
120.954453 100.0
121.015755 172.0
121.076279 15284.0
121.13237 124.0
121.243561 84.0
121.284683 152.0
121.401398 76.0
121.453552 164.0
121.458817 200.0
121.486938 148.0
121.550568 72.0
121.676826 160.0
121.772285 60.0
121.79425 84.0
121.952446 140.0
122.07917 952.0
122.189934 136.0
122.313171 68.0
122.445335 140.0
122.5466 52.0
122.643562 96.0
122.789078 124.0
122.958954 212.0
123.047249 136.0
123.084785 72.0
123.124535 108.0
123.571037 132.0
123.774666 108.0
123.872108 104.0
124.03302 208.0
124.113678 140.0
124.217911 164.0
124.386551 84.0
124.442055 132.0
124.482018 216.0
124.504227 164.0
124.804214 244.0
125.088974 156.0
125.345093 124.0
125.505577 132.0
125.628242 92.0
125.728645 172.0
126.03904 236.0
126.083733 72.0
126.246925 192.0
126.264816 160.0
126.287186 188.0
126.318497 176.0
126.528854 204.0
126.871613 124.0
127.045639 200.0
127.127304 120.0
127.253006 84.0
127.268723 148.0
127.81041 56.0
127.855415 144.0
127.992729 48.0
128.033264 244.0
128.060287 148.0
128.454742 196.0
128.646545 124.0
128.693954 140.0
128.858826 144.0
128.885941 168.0
128.955994 192.0
129.044159 92.0
129.428802 160.0
129.551331 188.0
129.89566 80.0
130.059021 184.0
130.513382 92.0
130.704437 88.0
130.754501 184.0
130.834167 48.0
130.861496 128.0
131.060394 364.0
131.114334 208.0
131.148514 260.0
131.305832 176.0
131.340042 128.0
131.426743 244.0
131.474655 108.0
131.515732 244.0
131.643585 176.0
131.821762 100.0
131.858322 72.0
131.874329 124.0
132.043243 332.0
132.064926 260.0
132.265442 96.0
132.297485 44.0
132.411972 148.0
132.700699 160.0
132.911713 68.0
133.050812 280.0
133.072037 212.0
133.133026 184.0
133.357224 196.0
133.676895 76.0
133.886368 176.0
133.920914 200.0
133.996933 164.0
134.052231 156.0
134.089111 228.0
134.728256 236.0
134.774475 196.0
134.811447 120.0
135.050812 304.0
135.17218 204.0
135.250854 108.0
135.317993 236.0
135.338837 200.0
135.405991 180.0
135.941498 144.0
136.055237 320.0
136.073807 148.0
136.261917 136.0
137.454025 96.0
137.619751 212.0
137.783234 132.0
137.963181 148.0
138.052032 100.0
138.199402 192.0
138.726334 224.0
138.852951 144.0
138.878754 108.0
139.160355 136.0
139.618561 148.0
140.042175 132.0
140.126984 120.0
140.320236 176.0
140.466446 136.0
140.498642 224.0
140.535782 176.0
140.726044 120.0
141.347397 168.0
141.383179 80.0
141.553619 152.0
142.250641 184.0
142.419235 208.0
142.49762 204.0
142.533264 144.0
142.564713 168.0
142.633087 148.0
142.851837 32.0
142.880386 116.0
143.092209 188.0
143.297028 164.0
144.093872 152.0
144.253998 52.0
144.464432 128.0
144.639114 196.0
144.806702 160.0
144.823471 176.0
144.904922 144.0
145.314896 144.0
145.547714 136.0
145.610153 68.0
145.648575 208.0
145.74707 140.0
146.012894 188.0
146.237656 168.0
146.319489 100.0
146.459152 40.0
146.498657 324.0
146.553116 192.0
146.577209 164.0
146.616272 132.0
146.644287 124.0
146.689987 200.0
146.724228 140.0
146.779678 128.0
146.798965 180.0
146.870392 176.0
146.88208 104.0
146.917923 172.0
146.977478 368.0
147.015778 224.0
147.055786 72848.0
147.127106 96.0
147.163239 76.0
147.185226 60.0
147.217789 128.0
147.236847 160.0
147.251053 108.0
147.278488 196.0
147.296143 96.0
147.323563 80.0
147.346725 68.0
147.377426 180.0
147.400024 48.0
147.452759 92.0
147.482193 92.0
147.535172 92.0
147.561966 112.0
147.605484 44.0
147.68869 100.0
147.707062 148.0
147.769958 68.0
147.796585 104.0
147.828033 124.0
147.932114 52.0
147.953888 44.0
148.015945 68.0
148.059143 8004.0
148.12825 156.0
148.150055 228.0
148.206619 104.0
148.2397 124.0
148.32132 124.0
148.389969 44.0
148.411789 100.0
148.508804 92.0
148.613113 104.0
148.656784 184.0
148.734451 80.0
148.751434 60.0
148.777573 236.0
148.821838 92.0
148.861649 160.0
148.915222 228.0
148.972183 172.0
149.023438 224.0
149.070251 1832.0
149.164383 116.0
149.205704 36.0
149.273788 68.0
149.3069 136.0
149.329727 116.0
149.36377 52.0
149.44162 48.0
149.458649 36.0
149.512192 112.0
149.597382 136.0
149.704498 100.0
149.977371 60.0
150.00174 84.0
150.068008 148.0
150.096817 52.0
150.128525 76.0
150.174866 44.0
150.84877 36.0
151.005264 68.0
151.264053 192.0
151.399277 64.0
151.600159 204.0
151.703979 56.0
152.987869 60.0
153.039581 128.0
153.382004 108.0
153.438705 68.0
153.663132 168.0
154.040833 176.0
154.535263 176.0
155.181702 152.0
155.561264 216.0
155.769852 68.0
156.117813 204.0
156.543335 204.0
156.598129 52.0
156.735138 196.0
157.101639 232.0
157.858414 188.0
158.091049 172.0
158.173645 152.0
158.594437 72.0
158.990707 132.0
159.055954 160.0
159.536942 152.0
159.724335 108.0
160.064087 72.0
160.104385 200.0
160.368912 76.0
160.782532 116.0
161.037521 44.0
161.201736 104.0
161.583527 120.0
162.089905 220.0
162.25972 148.0
163.776794 192.0
163.988266 204.0
164.074921 160.0
164.33252 184.0
164.763977 184.0
165.720825 192.0
167.032654 244.0
167.114838 376.0
167.48053 64.0
167.635101 124.0
167.861954 168.0
168.119919 140.0
168.194763 44.0
168.388397 116.0
169.21846 104.0
169.288361 184.0
169.464508 164.0
169.555191 200.0
169.879303 108.0
170.117935 204.0
170.562225 136.0
170.843994 56.0
171.12674 108.0
172.600922 196.0
172.865112 200.0
173.069275 108.0
173.103317 168.0
173.443909 148.0
173.595963 160.0
174.270538 112.0
174.365143 32.0
174.409821 176.0
174.649094 136.0
174.791153 204.0
174.888535 152.0
175.050049 20376.0
175.120422 772.0
175.199249 32.0
175.2556 124.0
175.404785 40.0
175.458115 52.0
175.497055 48.0
175.52446 124.0
175.589355 88.0
175.644745 88.0
175.671112 156.0
175.778137 72.0
175.919739 148.0
176.008926 144.0
176.051849 2096.0
176.080063 328.0
176.144485 168.0
176.216354 180.0
176.45546 112.0
176.516266 64.0
176.598251 148.0
176.817841 80.0
176.987259 160.0
177.056061 316.0
177.241531 92.0
177.292236 92.0
177.352844 128.0
177.392593 92.0
177.426224 88.0
178.116089 784.0
178.202026 96.0
178.566193 80.0
179.055893 144.0
179.124527 172.0
179.157104 52.0
179.194412 108.0
179.655609 112.0
179.810379 180.0
179.863754 76.0
180.045303 56.0
180.224274 108.0
180.585159 124.0
180.751022 56.0
181.136551 88.0
181.289261 60.0
182.220337 136.0
183.109375 164.0
183.622757 124.0
185.94133 96.0
186.071625 32.0
186.661224 80.0
186.979507 88.0
187.058426 160.0
187.082932 128.0
187.439713 112.0
187.537827 208.0
187.813202 124.0
188.47113 188.0
188.646042 144.0
188.74173 48.0
189.16304 188.0
189.949478 100.0
190.042755 184.0
190.737534 88.0
191.034515 208.0
192.097824 140.0
192.351685 196.0
192.553238 160.0
193.058487 260.0
195.111771 1648.0
195.30545 44.0
195.561417 76.0
196.117218 688.0
196.137985 196.0
196.64003 168.0
196.991104 56.0
197.58728 88.0
198.130402 68.0
198.64621 156.0
198.730362 188.0
200.408905 116.0
200.933319 184.0
201.060287 116.0
201.098465 788.0
201.134613 192.0
201.37085 152.0
202.054901 96.0
202.111481 204.0
202.72879 168.0
203.068649 496.0
203.118256 624.0
203.344193 176.0
203.369736 52.0
203.605377 168.0
203.665024 116.0
203.784332 184.0
204.06868 168.0
204.11972 232.0
204.429779 152.0
204.46962 92.0
205.130844 1900.0
205.438385 40.0
205.895065 52.0
206.12822 656.0
206.160751 48.0
207.182205 128.0
208.525085 200.0
211.273026 180.0
211.362717 148.0
211.736145 64.0
211.785385 116.0
211.814346 164.0
212.579742 104.0
213.122726 172.0
214.234085 208.0
214.735428 180.0
215.886078 164.0
216.263474 104.0
217.529739 164.0
217.873322 180.0
218.128372 2192.0
218.358307 180.0
218.481857 184.0
218.573471 84.0
218.626022 72.0
219.132355 384.0
219.163681 156.0
220.031998 140.0
220.13829 188.0
221.16713 40.0
221.371399 60.0
221.744675 172.0
223.044693 228.0
223.133865 156.0
224.685486 136.0
227.726761 80.0
228.694901 144.0
229.095703 1416.0
229.173706 100.0
229.565552 88.0
230.100983 128.0
230.627777 128.0
230.963882 140.0
231.057648 44.0
231.087906 216.0
232.075272 228.0
233.426468 76.0
234.059387 236.0
234.424911 148.0
235.462143 188.0
236.896652 220.0
237.019196 196.0
237.267456 56.0
237.288925 128.0
240.765976 48.0
240.985291 144.0
241.115509 1088.0
241.888306 200.0
242.120789 132.0
242.259888 152.0
242.4272 248.0
242.932587 72.0
243.056686 100.0
243.895187 48.0
243.960464 108.0
244.115921 160.0
244.464325 240.0
245.087082 92.0
245.158752 48.0
245.299011 92.0
245.754318 172.0
245.821808 88.0
245.877792 260.0
245.9478 116.0
246.005905 88.0
246.031998 152.0
246.039337 148.0
246.055862 200.0
246.083572 120.0
246.123474 31908.0
246.196457 124.0
246.219574 84.0
246.254547 100.0
246.277557 56.0
246.323685 92.0
246.356857 76.0
246.389252 76.0
246.417984 64.0
246.463089 88.0
246.50058 72.0
246.522461 60.0
246.544327 56.0
246.575577 68.0
246.609955 160.0
246.714798 52.0
246.756439 64.0
246.839737 104.0
246.868042 116.0
246.925735 44.0
246.957016 40.0
247.125107 5440.0
247.235458 44.0
247.32309 76.0
247.448303 60.0
247.510925 56.0
247.629929 116.0
247.699707 92.0
247.789673 48.0
247.868011 76.0
247.893082 72.0
247.93779 60.0
248.130325 480.0
248.338242 84.0
248.537598 88.0
248.589218 152.0
248.620605 116.0
248.641281 148.0
248.683365 84.0
248.72731 88.0
248.786957 104.0
248.856018 144.0
248.894638 108.0
248.965927 76.0
249.085266 196.0
249.176376 112.0
249.258072 92.0
249.496933 56.0
249.713898 192.0
249.968719 116.0
250.119781 80.0
250.727646 72.0
251.825546 64.0
252.878387 60.0
252.941681 48.0
254.352234 100.0
255.09552 100.0
256.228424 32.0
256.904266 60.0
257.028717 48.0
257.830231 108.0
258.105133 48.0
258.35141 68.0
260.418884 88.0
260.544159 152.0
264.656281 84.0
265.061157 72.0
265.643799 68.0
266.319885 60.0
267.08371 80.0
271.446899 84.0
273.306061 96.0
274.110413 212.0
275.131927 136.0
276.411011 56.0
295.658722 68.0
298.007599 112.0
308.883087 72.0
313.771362 48.0
314.974701 128.0
315.480011 44.0
319.519318 80.0
320.192047 100.0
333.911896 120.0
334.410339 124.0
341.935181 84.0
344.095215 128.0
345.185211 140.0
355.1138 72.0
360.822388 84.0
360.988739 144.0
362.912292 48.0
363.845612 40.0
368.029785 168.0
372.39917 48.0
373.717712 92.0
376.319336 108.0
379.309723 60.0
387.227112 148.0
389.254547 96.0
389.427368 44.0
391.240082 76.0
393.230652 164.0
408.005219 84.0
409.409454 56.0
410.904877 84.0
416.958466 116.0
417.13324 80.0
418.984833 120.0
459.514496 80.0
467.505768 100.0
502.405609 48.0
517.026794 56.0
539.000549 92.0
553.953674 64.0
563.803772 20.0
566.815735 92.0
592.05249 176.0
596.52594 156.0
614.31665 128.0
631.178223 96.0
646.166748 96.0
654.801147 36.0
664.431335 72.0
666.027771 92.0
741.850037 88.0
743.390381 100.0
764.660278 148.0
782.523499 48.0
789.666138 56.0
796.695129 52.0
806.307739 136.0
806.918213 88.0
845.681763 208.0
846.857117 116.0
865.545105 32.0
878.474854 164.0
895.069641 188.0
902.396606 264.0
903.538879 56.0
924.090759 208.0
944.488342 88.0
952.045166 192.0
957.235229 124.0
964.539917 192.0
967.578552 168.0
974.523499 168.0
986.989258 52.0
987.295654 112.0
990.863464 200.0
998.810791 164.0
1002.166199 144.0
1003.804993 204.0
1004.59967 88.0
1009.627319 164.0
1015.098633 164.0
1016.621094 116.0
1026.50647 80.0
1026.88269 192.0
1029.020386 220.0
1031.729248 184.0
1034.108643 252.0
1037.939575 68.0
1041.366455 96.0
1043.699097 136.0
1059.310791 208.0
1074.43811 120.0
1080.402588 220.0
1082.418457 100.0
1082.811401 96.0
1087.282593 172.0
1097.801636 208.0
1108.722534 132.0
1112.257568 124.0
1112.562988 196.0
1114.116943 20.0
1115.878052 188.0
1115.931274 92.0
1120.550171 168.0
1123.52356 152.0
1128.973755 156.0
1134.4104 48.0
1140.807861 72.0
1142.785034 72.0
1143.85498 112.0
1149.401611 180.0
1150.386963 152.0
1152.581909 180.0
1156.808838 240.0
1159.640137 100.0
1161.55896 84.0
1173.541626 180.0
1178.913574 188.0
1179.979858 144.0
1184.660767 140.0
1185.085571 144.0
1194.277466 148.0
1194.765869 240.0
1195.378174 152.0
1197.932495 168.0
1207.492065 260.0
1207.540527 120.0
1208.232178 204.0
1212.934204 160.0
1215.47937 196.0
1216.534302 140.0
1221.120239 136.0
1222.003662 188.0
1224.356445 104.0
1227.046021 208.0
1227.87146 144.0
1228.677979 128.0
1230.108521 160.0
1230.290039 168.0
1233.349609 52.0
1235.986084 132.0
1238.996704 156.0
1239.508179 140.0
1239.753418 104.0
1240.685547 76.0
1241.470947 216.0
1246.061401 136.0
1252.427612 144.0
1254.449951 144.0
1254.5979 112.0
1256.621948 132.0
1257.47583 120.0
1257.751099 232.0
1258.435791 116.0
1258.965454 184.0
1259.473877 140.0
1260.60437 256.0
1261.339355 136.0
1263.022217 156.0
1269.608887 156.0
1270.835938 160.0
1273.746582 224.0
1274.265259 160.0
1275.828735 204.0
1275.921143 208.0
1276.049072 144.0
1282.612549 200.0
1284.701904 168.0
1293.348145 204.0
1297.115723 132.0
1298.341797 184.0
1302.030518 136.0
1306.084106 128.0
1307.400757 212.0
1310.756348 176.0
1312.918945 140.0
1313.250732 160.0
1316.81604 232.0
1317.198853 200.0
1323.078003 140.0
1323.548584 196.0
1326.040649 76.0
1326.432007 196.0
1326.598755 188.0
1327.889404 172.0
1329.071777 164.0
1329.601562 116.0
1330.944458 136.0
1333.799561 164.0
1337.166992 164.0
1337.611084 104.0
1338.623047 228.0
1338.739502 160.0
1347.061279 176.0
1348.760986 132.0
1349.210449 208.0
1352.68457 160.0
1355.108521 176.0
1356.926147 200.0
1357.630005 180.0
1358.143433 152.0
1358.194702 264.0
1360.190552 228.0
1361.203735 200.0
1363.392822 96.0
1364.091064 164.0
1365.451294 168.0
1365.782227 152.0
1368.836426 184.0
1370.965332 184.0
1372.373169 156.0
1375.995728 104.0
1380.391968 56.0
1382.167236 172.0
1382.811035 88.0
1384.869385 156.0
1385.669312 196.0
1389.205566 172.0
1391.372437 152.0
1394.313965 176.0
1396.804688 164.0
1397.154297 132.0
1398.172729 152.0
1398.307617 188.0
1398.657471 172.0
1400.988159 84.0
1402.940674 56.0
1403.537109 124.0
1405.730103 208.0
1406.386841 148.0
1407.066162 116.0
1409.217041 180.0
1409.523438 172.0
1413.172119 164.0
1414.751221 196.0
1416.17395 156.0
1416.481079 208.0
1421.091553 56.0
1422.862793 184.0
1426.769287 148.0
1427.340698 144.0
1427.822021 128.0
1428.439331 160.0
1432.217407 152.0
1433.324829 164.0
1438.453125 244.0
1438.724976 160.0
1442.64563 200.0
1447.510498 120.0
1449.184326 192.0
1449.896606 140.0
1450.495483 208.0
1453.270996 176.0
1454.948242 152.0
1455.34314 208.0
1458.746582 144.0
1461.385498 156.0
1461.629028 248.0
1463.402466 92.0
1464.110596 116.0
1465.390259 80.0
1465.717896 224.0
1466.937256 184.0
1467.928467 112.0
1468.187744 180.0
1468.675781 212.0
1468.795288 212.0
1469.537842 168.0
1471.529785 72.0
1472.843262 152.0
1474.294922 216.0
1475.196777 160.0
1475.517944 192.0
1475.754883 196.0
1476.481323 168.0
1476.871338 68.0
1477.031982 168.0
1477.475708 220.0
1477.751099 192.0
1477.919434 200.0
1478.646362 160.0
1479.771606 120.0
1481.992676 92.0
1482.191895 76.0
1486.723877 160.0
1488.029541 204.0
1488.228394 144.0
1488.512451 164.0
1489.349609 252.0
1490.617188 188.0
1490.955322 76.0
1493.900146 136.0
1494.446289 92.0
1495.900879 184.0
1496.05481 164.0
1497.87207 132.0
1499.698242 220.0
1502.404785 136.0
1503.191772 176.0
