>compound MLS002153423-01!8-Methoxymethyl-3-isobutyl-1-methylxanthine78033-08-6
>formula C12H18N4O3
>ionization [M+H]+
>parentmass 267.1451668880905
#inchi InChI=1S/C12H18N4O3/c1-7(2)5-16-10-9(11(17)15(3)12(16)18)13-8(14-10)6-19-4/h7H,5-6H2,1-4H3,(H,13,14)
#inchikey NBLBCGUCPBXKOV
#Ion_Source LC-ESI
#Instrument qTof
#Compound_Source NIH Pharmacologically Active Library
#PI Dorrestein
#Data_Collector VP/LMS
#Scan -1
#Precursor_MZ 267.141
#ExactMass 266.138
#Charge 1
#CAS_Number N/A
#Pubmed_ID N/A
#Smiles COCc1nc2c(=O)n(C)c(=O)n(CC(C)C)c2[nH]1
#INCHI_AUX N/A
#Library_Class 1
#SpectrumID CCMSLIB00000085343
#IonMode Positive
#UpdateWorkflowName UPDATE-SINGLE-ANNOTATED-GOLD
#LibraryQualityString Gold
#TaskID d252d724072548979f1f6f1ced849daf
##Scan# 1542
#SpectrumFile p3-H07_GH7_01_18312.mzXML
#LibraryName Pharm_Active_Library.mgf
#MQScore -1
#Organism Pharm_Active_Library
#TIC_Query 0
#RT_Query -1
#MZErrorPPM -1
#SharedPeaks 0
#MassDiff 0
#LibMZ -1
#SpecMZ 267.141
#SpecCharge 0
#internalFilename spec-00000.mgf

>collision 10
44.903175 228.0
45.449013 196.0
45.470638 172.0
45.494648 208.0
45.564487 156.0
45.794529 128.0
45.932022 156.0
45.960354 136.0
46.29155 164.0
46.353867 220.0
46.391819 84.0
46.418938 184.0
46.470486 172.0
46.547859 200.0
46.772198 144.0
46.836201 140.0
47.010723 136.0
47.039387 176.0
47.094009 152.0
47.111767 160.0
47.251225 208.0
47.295017 172.0
47.397736 176.0
47.497822 156.0
47.585659 236.0
47.657085 176.0
47.68182 168.0
47.824867 204.0
47.91576 184.0
48.06744 232.0
48.184811 180.0
48.229034 116.0
48.39505 144.0
48.457382 212.0
48.554928 164.0
48.654331 176.0
48.926838 160.0
48.956078 124.0
48.968613 196.0
49.191723 188.0
49.243389 168.0
49.462925 180.0
49.495129 168.0
49.586193 184.0
49.674534 128.0
50.017422 184.0
50.070927 100.0
50.401047 180.0
50.415176 184.0
50.477383 144.0
50.597656 52.0
50.655544 224.0
50.786137 200.0
51.105793 192.0
51.313751 168.0
51.35083 164.0
51.36224 60.0
51.37936 168.0
51.703739 176.0
51.782486 196.0
51.910042 180.0
51.921513 204.0
52.200127 160.0
52.26918 164.0
52.329636 200.0
52.551609 144.0
52.609341 168.0
52.778389 204.0
53.14922 196.0
53.213089 176.0
53.224705 192.0
53.250847 176.0
53.416557 112.0
53.511158 140.0
53.553391 208.0
53.723949 116.0
53.772102 168.0
53.783096 204.0
53.843647 140.0
53.93716 64.0
53.956165 92.0
54.005886 196.0
54.279766 128.0
54.328171 196.0
54.495548 128.0
54.705868 164.0
54.717644 176.0
54.78392 144.0
54.839916 120.0
55.018417 108.0
55.16172 148.0
55.527466 160.0
55.554165 112.0
55.882515 144.0
56.170055 124.0
56.231236 156.0
56.271542 144.0
56.344727 156.0
56.531979 124.0
56.576546 88.0
56.751846 140.0
56.931927 296.0
57.053638 88.0
57.08672 248.0
57.239315 168.0
57.31403 160.0
57.442188 120.0
57.605225 168.0
57.838108 156.0
58.038094 196.0
58.442146 200.0
58.807907 208.0
58.969814 216.0
59.119701 232.0
59.182465 188.0
59.239132 124.0
59.366356 196.0
59.59201 116.0
59.804237 192.0
60.066196 136.0
60.273087 160.0
60.351921 148.0
60.382851 184.0
60.508198 160.0
60.548458 180.0
60.58099 136.0
60.787209 116.0
61.043533 168.0
61.083973 124.0
61.153999 140.0
61.17112 48.0
61.920639 152.0
62.107349 168.0
62.122852 60.0
62.309681 212.0
62.514099 212.0
62.895432 140.0
63.080349 116.0
63.113548 124.0
63.260693 168.0
63.324032 176.0
63.53804 128.0
63.690441 156.0
63.815994 204.0
64.183823 180.0
64.226883 164.0
64.287514 148.0
64.523926 204.0
64.845688 216.0
64.9804 204.0
65.054222 68.0
65.181114 204.0
65.214859 40.0
65.282387 200.0
65.544792 132.0
65.69474 192.0
65.781883 168.0
65.854553 164.0
66.072784 160.0
66.093819 144.0
66.156944 104.0
66.228195 188.0
66.278419 188.0
66.294624 216.0
66.3293 184.0
66.341629 156.0
66.555801 212.0
66.728035 184.0
67.130241 104.0
67.14492 164.0
67.24118 200.0
67.270569 204.0
67.293419 212.0
67.306488 152.0
67.597466 144.0
67.662941 188.0
68.148438 236.0
68.309555 140.0
68.429695 252.0
68.493927 168.0
68.689545 168.0
68.749496 148.0
68.993172 136.0
69.018768 188.0
69.383514 248.0
69.442734 152.0
69.61866 180.0
69.863007 172.0
69.874649 160.0
70.036133 120.0
70.321259 212.0
70.491615 120.0
70.742508 136.0
70.899963 164.0
71.034103 196.0
71.486076 176.0
71.543304 132.0
71.659515 220.0
72.164192 208.0
72.338455 224.0
72.409576 188.0
72.497673 160.0
72.607872 232.0
72.629929 172.0
72.672646 176.0
72.74192 184.0
72.854004 152.0
72.92028 136.0
73.313431 148.0
73.373093 124.0
73.419136 148.0
73.458366 168.0
73.594902 156.0
73.632477 196.0
73.700806 64.0
73.840988 132.0
74.003563 148.0
74.451141 164.0
74.686615 228.0
75.071289 208.0
75.134514 188.0
75.350334 176.0
75.384888 160.0
75.422913 164.0
75.583763 216.0
75.672035 144.0
75.966667 180.0
76.155884 128.0
76.528046 160.0
76.59597 72.0
76.848763 196.0
77.081009 188.0
77.192886 104.0
77.229614 160.0
77.248856 152.0
77.376617 252.0
77.497467 124.0
77.620171 100.0
77.706123 144.0
77.774567 208.0
78.365471 116.0
78.413055 128.0
78.566467 404.0
78.686485 196.0
78.741226 156.0
78.769485 28.0
78.858727 216.0
79.137352 224.0
79.201111 172.0
79.263123 184.0
79.275528 96.0
79.360611 144.0
79.404945 176.0
79.417366 116.0
80.087486 184.0
80.237175 220.0
80.279358 232.0
80.562706 232.0
80.652534 216.0
80.679947 132.0
80.934021 128.0
81.061844 224.0
81.131859 200.0
81.256653 148.0
81.475693 176.0
81.526001 140.0
81.7976 140.0
81.891235 100.0
82.186897 120.0
83.066193 136.0
83.078888 148.0
83.369415 184.0
83.471222 100.0
83.487587 140.0
83.507591 60.0
83.545792 184.0
83.780647 64.0
83.822556 188.0
84.006706 172.0
84.119858 172.0
84.13958 184.0
84.589668 196.0
84.622627 40.0
84.692215 136.0
84.847046 188.0
84.89933 208.0
85.046112 76.0
85.097511 180.0
85.187508 168.0
85.334534 212.0
85.505615 140.0
85.638184 68.0
85.901779 168.0
86.060501 180.0
86.152855 156.0
86.210136 160.0
86.284073 136.0
86.491272 160.0
86.580147 136.0
86.817368 160.0
87.599892 192.0
87.707977 224.0
87.825455 176.0
88.146576 164.0
88.174606 196.0
88.657471 220.0
89.083405 132.0
89.508484 196.0
89.644112 76.0
89.779854 128.0
90.229263 156.0
90.433571 132.0
90.523056 136.0
90.729088 64.0
90.96125 148.0
91.213188 196.0
91.226494 128.0
91.258812 188.0
91.490936 56.0
91.730972 216.0
91.862556 268.0
91.963692 148.0
92.007599 192.0
92.091621 104.0
92.194794 132.0
92.275078 144.0
92.334358 152.0
92.395576 220.0
92.422363 172.0
92.554436 140.0
92.629135 104.0
92.711525 104.0
92.824631 168.0
93.007339 224.0
93.044212 1152.0
93.066414 152.0
93.083221 160.0
93.208557 188.0
93.348885 92.0
93.647202 96.0
93.778221 148.0
93.851479 172.0
93.90741 204.0
94.01545 112.0
94.037254 208.0
94.063705 124.0
94.117767 216.0
94.247185 196.0
94.272049 148.0
94.368958 200.0
94.661148 80.0
94.946037 44.0
95.021797 760.0
95.140076 124.0
95.279907 192.0
95.569618 96.0
95.608536 144.0
95.871452 192.0
96.015724 156.0
96.029373 228.0
96.054802 1248.0
96.193283 128.0
96.212807 156.0
96.349518 32.0
96.372963 52.0
96.390556 180.0
96.486328 76.0
96.672157 156.0
96.691727 192.0
96.740311 384.0
96.871872 140.0
97.014931 116.0
97.044342 200.0
97.056946 192.0
97.12867 128.0
97.348495 128.0
97.399559 244.0
97.613792 140.0
97.645256 184.0
97.867638 44.0
98.003548 132.0
98.222389 160.0
98.569878 144.0
98.650909 212.0
98.767586 124.0
98.876411 212.0
98.979355 64.0
99.161613 136.0
99.308342 188.0
99.43412 172.0
99.496864 108.0
99.761093 144.0
100.09536 124.0
100.143158 116.0
100.374336 132.0
100.440155 196.0
100.509987 168.0
100.863487 196.0
101.077492 164.0
101.259674 136.0
101.311752 164.0
101.436005 148.0
101.50618 148.0
101.55632 172.0
101.662651 144.0
101.682442 144.0
101.8554 80.0
102.360229 100.0
102.636299 116.0
102.761353 88.0
102.777496 204.0
103.056145 200.0
103.20977 148.0
103.347313 144.0
103.67334 180.0
103.762535 176.0
104.001915 192.0
104.119675 172.0
104.939766 204.0
105.176422 188.0
105.331612 152.0
105.52372 140.0
105.55439 120.0
105.630066 212.0
105.675079 228.0
105.728279 68.0
105.916649 176.0
105.937134 260.0
106.033897 164.0
106.119545 184.0
106.31852 196.0
106.349312 168.0
106.378052 188.0
106.503311 200.0
106.612206 116.0
106.710876 208.0
106.844566 124.0
107.023628 148.0
107.087471 136.0
107.258492 184.0
107.334778 168.0
107.62986 176.0
107.741394 140.0
107.778587 112.0
107.842651 144.0
107.983253 68.0
108.018562 172.0
108.055817 692.0
108.144638 132.0
108.331009 180.0
108.739502 124.0
108.847458 124.0
108.868225 116.0
108.886917 108.0
108.957542 100.0
109.019508 220.0
109.03817 508.0
109.076111 232.0
109.177887 96.0
109.248604 220.0
109.348488 44.0
109.460907 92.0
109.487984 80.0
109.562973 128.0
109.656746 136.0
109.792259 296.0
109.861099 124.0
109.982132 164.0
110.034798 576.0
110.061462 208.0
110.084435 144.0
110.552719 224.0
110.816566 64.0
110.954895 144.0
111.055557 164.0
111.092705 152.0
111.143669 56.0
111.271706 100.0
111.317238 152.0
111.456543 112.0
111.759338 172.0
111.826683 76.0
111.953003 200.0
111.971962 172.0
112.01619 60.0
112.066757 180.0
112.134193 200.0
112.598366 180.0
112.649055 128.0
112.773727 152.0
113.093124 152.0
113.13546 168.0
113.32608 180.0
113.508369 184.0
114.296463 56.0
114.358185 232.0
114.547699 208.0
114.871719 72.0
114.982681 128.0
115.048851 188.0
115.155624 232.0
115.341522 180.0
115.467674 80.0
115.555382 192.0
115.724472 164.0
115.803703 160.0
116.01371 236.0
116.056587 244.0
116.099152 132.0
116.232483 168.0
116.380592 164.0
116.681396 208.0
116.733002 140.0
116.791069 136.0
116.829796 220.0
117.001968 148.0
117.245377 164.0
117.279861 88.0
117.465309 156.0
117.581825 48.0
117.694084 152.0
117.752388 156.0
117.810715 72.0
118.018204 212.0
118.046204 156.0
118.150139 176.0
118.490051 160.0
118.737167 144.0
119.058372 164.0
119.621529 220.0
119.656364 120.0
119.886948 248.0
119.972275 208.0
120.019295 8112.0
120.081299 124.0
120.105293 140.0
120.21051 236.0
120.421791 72.0
120.525078 72.0
120.627197 40.0
120.72126 176.0
120.762764 52.0
120.960922 136.0
121.001297 176.0
121.02063 872.0
121.056038 128.0
121.112984 128.0
121.145844 140.0
121.255402 84.0
121.351074 100.0
121.3694 212.0
121.619507 84.0
121.645844 180.0
121.666252 136.0
121.689758 264.0
121.724892 116.0
121.740257 160.0
121.777596 80.0
121.867958 92.0
121.906425 144.0
122.03476 16500.0
122.073433 200.0
122.094093 60.0
122.210678 68.0
122.234886 68.0
122.32653 132.0
122.364754 128.0
122.695236 72.0
122.734924 124.0
122.823143 64.0
122.854027 36.0
122.918015 128.0
122.937874 48.0
122.962906 152.0
123.041077 840.0
123.06411 164.0
123.089996 304.0
123.505699 144.0
123.594193 184.0
123.696999 160.0
123.796356 148.0
123.946274 56.0
123.995026 80.0
124.014977 84.0
124.049011 916.0
124.128044 140.0
124.326591 60.0
124.343239 200.0
124.363213 200.0
124.423149 56.0
124.765289 180.0
124.983261 140.0
125.092323 56.0
125.185837 176.0
125.524567 188.0
125.631622 252.0
125.689636 184.0
125.77668 164.0
125.821327 228.0
125.836952 176.0
126.078209 144.0
126.216812 148.0
126.295082 124.0
126.440521 164.0
126.722679 128.0
126.796631 92.0
127.00515 60.0
127.157722 92.0
127.301407 152.0
127.422707 76.0
127.440681 268.0
127.485626 144.0
127.548561 128.0
127.95575 152.0
127.987274 328.0
128.465088 76.0
128.607254 32.0
129.131454 132.0
129.547958 176.0
129.695251 136.0
129.883453 208.0
130.226212 136.0
130.330704 100.0
130.473907 128.0
130.505737 180.0
130.539841 148.0
131.323303 100.0
131.615417 196.0
131.789017 180.0
131.891861 120.0
131.908737 264.0
131.969589 156.0
132.054199 160.0
132.294479 128.0
132.358582 72.0
132.594543 80.0
132.807785 32.0
132.968384 208.0
133.050659 152.0
133.317474 140.0
133.38414 128.0
133.556595 108.0
133.678146 164.0
133.825851 80.0
133.851181 172.0
134.033478 364.0
134.242935 136.0
134.272919 180.0
134.512894 228.0
134.609863 144.0
134.697632 76.0
134.71611 96.0
135.0513 132.0
135.069794 120.0
135.095245 116.0
135.148453 172.0
135.377625 132.0
135.885269 168.0
135.986252 188.0
136.013199 596.0
136.050323 1072.0
136.137772 160.0
136.163025 68.0
136.207977 88.0
136.510117 236.0
136.538025 204.0
136.800964 172.0
137.017273 164.0
137.052505 124.0
137.073471 64.0
137.49559 72.0
137.843552 168.0
138.026215 380.0
138.105408 132.0
138.283234 184.0
138.355789 232.0
138.437744 120.0
138.65094 80.0
138.730637 284.0
138.967514 176.0
139.044052 128.0
139.069397 200.0
139.444229 272.0
139.463043 164.0
140.04538 1208.0
140.100754 40.0
140.213867 200.0
140.404831 120.0
140.444931 188.0
141.037613 168.0
141.056519 76.0
141.094345 356.0
141.177109 160.0
141.264618 140.0
141.397125 104.0
141.577057 172.0
141.655228 100.0
141.783173 104.0
142.048737 92.0
142.264694 196.0
142.590118 148.0
142.827896 112.0
142.849304 56.0
143.220642 176.0
143.616333 136.0
144.012558 88.0
144.691711 152.0
144.777908 148.0
144.837784 176.0
145.411789 176.0
145.478058 76.0
145.706223 76.0
145.751877 52.0
146.069229 108.0
146.098099 96.0
146.256927 116.0
146.635086 160.0
146.656769 176.0
146.753204 180.0
147.011322 144.0
147.17305 152.0
147.206863 156.0
147.811203 172.0
147.912857 172.0
147.944321 176.0
147.983063 224.0
148.014313 14888.0
148.077759 156.0
148.210739 128.0
148.25679 152.0
148.329498 48.0
148.48468 124.0
148.647232 60.0
148.720032 84.0
148.73703 52.0
148.887573 188.0
149.018387 1324.0
149.048447 252.0
149.075882 136.0
149.346939 60.0
149.449112 192.0
149.478317 44.0
149.575668 120.0
149.821304 92.0
150.027496 692.0
150.053162 132.0
150.098984 432.0
150.137665 220.0
150.384933 260.0
150.45816 76.0
150.511887 96.0
150.805054 192.0
150.89061 48.0
150.924835 68.0
150.971298 144.0
151.028625 204.0
151.061157 3560.0
151.127853 92.0
151.198822 28.0
151.331009 80.0
151.446121 168.0
151.541656 132.0
151.69606 72.0
151.772064 40.0
151.81485 144.0
151.860352 56.0
151.986969 108.0
152.061707 588.0
152.098358 152.0
152.636414 128.0
152.973495 252.0
153.052063 180.0
153.143402 96.0
153.387344 212.0
153.419388 68.0
153.471161 72.0
153.648758 168.0
154.030777 172.0
154.065994 224.0
154.100571 108.0
154.518417 164.0
155.723206 132.0
155.884689 180.0
156.496613 168.0
156.670959 76.0
156.755676 212.0
157.084778 204.0
157.227005 44.0
157.419235 168.0
157.644073 48.0
157.924088 200.0
157.976624 48.0
158.116745 148.0
158.617706 176.0
159.026566 244.0
159.742706 136.0
159.969193 84.0
160.08754 92.0
160.158051 248.0
160.352066 180.0
160.407532 120.0
160.500809 204.0
160.522827 212.0
160.548721 132.0
160.573944 64.0
160.619339 72.0
160.644577 152.0
160.727829 124.0
160.821213 232.0
160.879272 252.0
160.917328 156.0
160.937347 144.0
160.976395 164.0
160.981659 160.0
161.008041 220.0
161.045731 34676.0
161.121094 80.0
161.152985 176.0
161.169189 80.0
161.227844 56.0
161.255646 144.0
161.278397 96.0
161.311264 108.0
161.345291 164.0
161.384583 52.0
161.42038 176.0
161.442734 44.0
161.462967 72.0
161.533798 48.0
161.59198 44.0
161.609695 56.0
161.648621 104.0
161.681183 160.0
161.833252 112.0
161.986923 72.0
162.04921 2500.0
162.104614 44.0
162.213226 80.0
162.2724 56.0
162.291061 128.0
162.385971 112.0
162.415329 52.0
162.466064 128.0
162.483826 68.0
162.697983 52.0
162.760483 48.0
162.839203 128.0
163.017044 268.0
163.056808 396.0
163.098373 116.0
163.146683 40.0
163.177185 100.0
163.235672 112.0
163.262436 92.0
163.281448 120.0
163.306885 132.0
163.342499 200.0
163.454437 92.0
163.497711 60.0
163.757401 68.0
163.87204 40.0
164.351395 112.0
164.614319 48.0
164.680725 72.0
164.716492 148.0
165.038513 212.0
165.122894 84.0
165.212433 192.0
165.414597 140.0
165.566818 88.0
165.780869 128.0
165.806488 216.0
165.826996 68.0
165.868011 172.0
165.893646 212.0
165.991074 204.0
166.024246 12060.0
166.061401 256.0
166.115417 84.0
166.265579 156.0
166.314346 76.0
166.340012 80.0
166.483795 160.0
166.596817 40.0
166.66362 64.0
166.697021 148.0
166.990097 176.0
167.027206 492.0
167.62085 40.0
167.662079 128.0
167.8116 104.0
167.919907 180.0
168.029648 352.0
168.229553 40.0
168.252792 80.0
168.273438 88.0
168.340576 92.0
168.363815 88.0
168.658371 140.0
168.779877 84.0
169.100677 108.0
169.204224 60.0
169.302612 244.0
169.701675 48.0
169.735382 108.0
169.891006 200.0
169.971436 144.0
170.046707 140.0
170.449249 108.0
170.750809 160.0
171.102097 40.0
171.206253 40.0
172.108063 152.0
172.218231 128.0
172.495209 36.0
172.581482 188.0
172.843063 88.0
172.966553 108.0
173.076035 172.0
173.151978 72.0
173.282959 180.0
173.84935 120.0
174.500793 148.0
174.687531 124.0
174.949631 188.0
175.100784 104.0
175.723312 128.0
176.914856 216.0
177.010178 108.0
177.039307 152.0
177.153198 148.0
177.816116 72.0
177.959473 60.0
178.09758 396.0
178.140228 132.0
178.192932 220.0
178.227737 136.0
178.262283 184.0
178.33139 112.0
178.568024 132.0
178.626541 180.0
178.679749 88.0
178.724014 132.0
178.743607 112.0
178.781448 164.0
178.855667 152.0
178.892502 136.0
178.909653 208.0
178.929932 320.0
178.961945 144.0
179.006943 156.0
179.056442 62172.0
179.148087 48.0
179.16275 76.0
179.213013 56.0
179.233566 60.0
179.267273 80.0
179.296356 100.0
179.334122 124.0
179.344177 32.0
179.348709 80.0
179.377487 56.0
179.407547 44.0
179.444885 68.0
179.49678 64.0
179.5336 80.0
179.585617 200.0
179.620956 76.0
179.660172 132.0
179.788254 108.0
179.868332 96.0
179.92012 80.0
179.943069 40.0
179.969772 104.0
179.999146 92.0
180.059479 5396.0
180.156738 60.0
180.25058 96.0
180.303696 40.0
180.37439 88.0
180.45607 40.0
180.480133 96.0
180.691437 80.0
180.766357 76.0
180.857361 48.0
180.972473 44.0
181.020676 80.0
181.061752 1144.0
181.093811 168.0
181.200134 116.0
181.27272 140.0
181.299286 96.0
181.35556 64.0
181.433502 56.0
181.484604 92.0
181.57811 168.0
181.752487 44.0
181.790054 28.0
181.82225 136.0
181.926941 48.0
182.070251 300.0
182.096115 108.0
182.139084 88.0
182.190125 80.0
182.219681 48.0
182.251923 128.0
182.42662 76.0
182.479004 116.0
182.62561 80.0
182.660583 64.0
182.792419 128.0
183.093933 100.0
183.16127 56.0
183.209763 136.0
183.239395 60.0
183.455002 172.0
183.557465 176.0
184.040085 144.0
185.433685 120.0
185.672272 64.0
186.758698 36.0
186.889282 84.0
187.619217 88.0
187.668304 80.0
188.115738 88.0
188.448929 104.0
188.998535 84.0
190.201675 100.0
191.436172 56.0
191.606949 236.0
192.066071 184.0
192.334991 72.0
193.06842 148.0
194.091156 536.0
194.505188 88.0
195.098328 800.0
195.683929 56.0
196.090652 156.0
196.110168 48.0
196.483841 96.0
197.724533 120.0
198.1866 44.0
198.705307 140.0
201.758301 72.0
202.077896 112.0
202.587509 136.0
204.057648 72.0
204.07901 404.0
204.404663 176.0
205.079636 96.0
206.078461 152.0
208.11499 144.0
208.241348 112.0
211.08699 164.0
219.033585 172.0
222.110794 76.0
222.137497 76.0
224.5737 84.0
227.500275 152.0
234.104095 108.0
234.576355 44.0
235.064362 148.0
235.119583 6024.0
235.180344 44.0
235.22467 92.0
235.284134 40.0
235.354355 128.0
235.375732 108.0
235.400162 100.0
235.458176 40.0
235.586472 40.0
235.613968 76.0
236.118393 484.0
236.145874 152.0
236.194809 72.0
236.360016 88.0
236.552841 52.0
237.13176 128.0
237.395432 48.0
237.68071 104.0
237.781982 108.0
237.828033 48.0
237.892487 108.0
237.978455 140.0
238.448471 56.0
239.118958 80.0
239.275955 128.0
241.745331 80.0
243.577744 88.0
244.921539 84.0
250.869324 124.0
251.228851 104.0
252.08136 108.0
255.97374 92.0
268.16214 84.0
274.202789 148.0
279.521484 88.0
288.666321 88.0
292.602386 32.0
293.655365 48.0
299.630432 68.0
304.233643 120.0
316.289795 56.0
336.682373 84.0
343.97821 52.0
351.576141 124.0
368.093231 48.0
374.293915 36.0
375.060608 76.0
378.286133 32.0
389.792297 80.0
411.781464 44.0
412.06424 76.0
456.455048 32.0
474.780273 92.0
477.416412 36.0
497.546692 64.0
499.577667 92.0
505.051147 72.0
507.545715 100.0
521.355103 124.0
572.382629 48.0
607.848633 96.0
645.022461 84.0
645.158936 72.0
679.958191 64.0
699.191833 112.0
722.059265 36.0
722.7547 84.0
731.637634 64.0
750.781921 112.0
781.627625 20.0
858.169861 116.0
865.807495 48.0
868.069641 192.0
868.761719 128.0
870.076355 68.0
910.853577 144.0
916.352295 212.0
931.549866 256.0
933.17865 88.0
939.781189 72.0
948.244873 144.0
949.133789 176.0
950.059937 100.0
952.478638 196.0
959.53125 148.0
963.042603 128.0
965.316956 176.0
968.876038 132.0
986.270203 176.0
994.023132 204.0
994.362 52.0
995.485779 116.0
1009.962952 208.0
1018.742615 168.0
1020.611206 184.0
1026.852173 200.0
1028.147339 164.0
1028.696289 116.0
1034.033691 172.0
1038.813843 152.0
1045.959595 144.0
1048.903442 212.0
1052.309814 156.0
1058.128784 136.0
1062.743652 116.0
1063.814575 152.0
1064.911743 252.0
1073.750732 112.0
1078.379883 136.0
1102.335571 200.0
1105.940063 212.0
1106.893433 172.0
1110.744141 240.0
1111.036011 204.0
1115.173096 132.0
1119.324463 184.0
1123.60376 144.0
1124.86499 196.0
1125.920044 176.0
1131.764771 152.0
1135.490723 196.0
1140.244263 180.0
1141.010498 168.0
1142.759277 200.0
1144.805664 168.0
1146.03833 104.0
1147.858398 144.0
1166.531982 76.0
1167.72876 120.0
1173.701294 212.0
1178.691772 228.0
1179.538696 188.0
1179.901001 112.0
1182.165161 188.0
1187.584473 172.0
1193.765747 212.0
1196.421631 172.0
1199.170166 156.0
1200.273315 168.0
1201.687256 60.0
1204.158691 252.0
1206.646362 228.0
1208.714478 172.0
1209.496582 148.0
1210.417358 68.0
1218.289795 148.0
1231.106201 180.0
1235.432861 168.0
1236.916382 204.0
1240.005371 168.0
1249.386841 124.0
1250.787354 84.0
1252.15332 148.0
1256.622681 248.0
1256.904907 164.0
1260.386108 116.0
1260.852539 180.0
1261.778564 144.0
1263.744751 220.0
1264.027832 192.0
1264.289673 128.0
1265.379761 240.0
1265.974609 152.0
1269.61731 76.0
1271.263184 44.0
1271.724487 152.0
1272.753906 204.0
1273.265259 112.0
1273.492554 236.0
1274.536865 144.0
1279.15271 168.0
1283.627075 172.0
1289.516968 116.0
1290.467773 96.0
1292.220093 164.0
1293.90918 76.0
1294.961914 160.0
1299.94458 56.0
1301.430542 128.0
1303.377075 100.0
1303.664551 232.0
1304.009521 180.0
1305.843018 188.0
1307.159546 204.0
1309.773071 52.0
1311.473633 236.0
1312.973267 144.0
1315.101685 204.0
1316.213501 80.0
1316.285767 36.0
1316.487915 144.0
1317.773682 200.0
1318.077148 144.0
1319.949463 232.0
1320.397827 232.0
1320.889648 128.0
1321.309326 184.0
1323.857178 148.0
1325.436401 264.0
1327.132568 44.0
1327.284912 108.0
1327.734497 212.0
1327.923096 112.0
1334.647949 200.0
1337.88562 180.0
1339.633423 140.0
1341.324097 132.0
1341.564697 88.0
1343.628662 48.0
1346.482788 124.0
1348.214355 112.0
1352.134399 148.0
1354.103882 132.0
1354.785156 164.0
1356.126099 36.0
1356.77124 72.0
1361.342529 232.0
1363.32605 168.0
1364.215454 256.0
1364.575684 60.0
1364.766968 216.0
1366.267334 196.0
1367.98938 196.0
1368.055664 164.0
1369.174927 180.0
1370.37561 156.0
1371.153809 188.0
1371.282104 184.0
1371.982422 164.0
1373.13269 72.0
1374.364746 124.0
1374.837036 188.0
1376.955933 136.0
1385.373779 180.0
1385.647827 248.0
1389.933594 128.0
1394.623047 180.0
1395.482178 212.0
1399.529907 64.0
1399.812866 72.0
1399.879883 192.0
1402.196899 76.0
1402.427979 160.0
1402.748535 80.0
1402.867798 72.0
1404.195068 224.0
1404.657471 156.0
1405.590088 200.0
1407.807251 68.0
1409.435791 172.0
1409.914062 136.0
1410.139038 204.0
1414.761108 144.0
1416.28125 196.0
1417.000488 200.0
1417.614868 76.0
1418.049561 92.0
1421.432007 176.0
1424.870972 220.0
1427.56189 84.0
1428.532227 68.0
1428.825562 172.0
1430.797485 96.0
1431.008301 140.0
1432.529541 172.0
1433.011719 188.0
1434.14978 156.0
1442.09021 156.0
1444.283081 136.0
1445.947632 208.0
1446.303345 180.0
1448.287231 168.0
1451.735718 184.0
1452.251465 156.0
1452.881104 228.0
1453.30603 92.0
1453.943481 156.0
1456.213623 152.0
1456.418701 176.0
1457.793823 172.0
1458.637573 168.0
1459.945312 156.0
1462.24292 104.0
1462.737671 124.0
1464.093018 168.0
1464.169189 84.0
1466.012817 168.0
1466.18811 128.0
1466.831543 48.0
1467.293457 124.0
1467.522217 156.0
1468.071167 168.0
1468.879639 152.0
1469.345093 176.0
1470.489746 40.0
1471.016357 176.0
1471.176758 240.0
1472.505371 196.0
1475.722656 132.0
1476.625 120.0
1479.785522 240.0
1483.838623 212.0
1487.413574 188.0
1487.751343 228.0
1488.711182 208.0
1488.803345 108.0
1489.663574 92.0
1492.322754 152.0
1492.907227 176.0
1494.014893 72.0
1494.191772 132.0
1494.391846 92.0
1495.938843 160.0
1496.32373 180.0
1497.609741 100.0
1497.740723 164.0
1497.994995 60.0
1499.096802 124.0
1502.605225 320.0
1502.813599 216.0
1504.133301 156.0
