>compound MLS002153458-01!Dihydrocapsaicin19408-84-5
>formula C18H29NO3
>ionization [M+H]+
>parentmass 308.22202024009056
#inchi InChI=1S/C18H29NO3/c1-14(2)8-6-4-5-7-9-18(21)19-13-15-10-11-16(20)17(12-15)22-3/h10-12,14,20H,4-9,13H2,1-3H3,(H,19,21)
#inchikey XJQPQKLURWNAAH
#Ion_Source LC-ESI
#Instrument qTof
#Compound_Source NIH Pharmacologically Active Library
#PI Dorrestein
#Data_Collector VP/LMS
#Scan -1
#Precursor_MZ 308.218
#ExactMass 307.215
#Charge 1
#CAS_Number N/A
#Pubmed_ID N/A
#Smiles COc1cc(CNC(=O)CCCCCCC(C)C)ccc1O
#INCHI_AUX N/A
#Library_Class 1
#SpectrumID CCMSLIB00000085327
#IonMode Positive
#UpdateWorkflowName UPDATE-SINGLE-ANNOTATED-GOLD
#LibraryQualityString Gold
#TaskID d252d724072548979f1f6f1ced849daf
##Scan# 2323
#SpectrumFile p3-H05_GH5_01_18310.mzXML
#LibraryName Pharm_Active_Library.mgf
#MQScore -1
#Organism Pharm_Active_Library
#TIC_Query 0
#RT_Query -1
#MZErrorPPM -1
#SharedPeaks 0
#MassDiff 0
#LibMZ -1
#SpecMZ 308.218
#SpecCharge 0
#internalFilename spec-00000.mgf

>collision 10
44.923573 184.0
44.980782 160.0
45.060917 60.0
45.079624 200.0
45.102345 164.0
45.149143 80.0
45.170547 32.0
45.258739 224.0
45.270935 196.0
45.299061 160.0
45.312458 140.0
45.349983 124.0
45.450569 168.0
45.519032 156.0
45.529778 132.0
45.545895 128.0
45.591579 120.0
45.605019 140.0
45.649387 232.0
45.678978 232.0
45.731461 112.0
45.770504 116.0
45.936287 60.0
46.045624 176.0
46.101021 228.0
46.122646 172.0
46.133461 248.0
46.186199 188.0
46.242065 196.0
46.287708 124.0
46.427299 196.0
46.500565 240.0
46.560307 92.0
46.722069 260.0
46.952282 112.0
47.002762 168.0
47.128387 200.0
47.187164 164.0
47.20631 196.0
47.224087 204.0
47.263763 128.0
47.289768 76.0
47.354122 176.0
47.37056 160.0
47.385632 120.0
47.631207 44.0
47.693043 180.0
47.831371 136.0
47.849876 108.0
47.860893 200.0
47.898079 160.0
48.033176 172.0
48.08699 156.0
48.193329 184.0
48.214058 160.0
48.267975 140.0
48.290104 168.0
48.306705 184.0
48.356522 192.0
48.368977 140.0
48.410515 144.0
48.449303 148.0
48.461769 120.0
48.510281 100.0
48.522758 176.0
48.568523 176.0
48.587944 164.0
48.610146 156.0
48.700394 136.0
48.730957 152.0
48.764309 192.0
48.801846 212.0
48.858871 148.0
48.950741 164.0
49.009247 204.0
49.053848 224.0
49.087311 176.0
49.116604 188.0
49.152878 172.0
49.221279 176.0
49.236641 148.0
49.247818 196.0
49.316284 40.0
49.364254 220.0
49.400188 100.0
49.419777 56.0
49.437969 92.0
49.582222 152.0
49.620071 160.0
49.629887 180.0
49.662144 168.0
49.676174 204.0
49.746342 152.0
49.764595 128.0
49.777233 36.0
49.788467 200.0
49.81937 140.0
49.885422 56.0
49.914951 176.0
49.98951 56.0
50.08556 164.0
50.127522 44.0
50.15712 172.0
50.176857 64.0
50.201168 200.0
50.264309 124.0
50.296772 72.0
50.325008 172.0
50.360882 260.0
50.389984 128.0
50.464897 156.0
50.491764 212.0
50.545525 180.0
50.629051 220.0
50.6418 228.0
50.694221 160.0
50.775379 196.0
50.800564 112.0
50.819012 140.0
50.855907 120.0
50.898502 116.0
50.959579 212.0
51.010746 264.0
51.067787 176.0
51.093231 188.0
51.177208 96.0
51.188602 208.0
51.227058 132.0
51.333961 120.0
51.399582 132.0
51.503807 124.0
51.578114 184.0
51.592411 176.0
51.610733 172.0
51.625298 44.0
51.701122 116.0
51.712574 72.0
51.76125 160.0
51.802071 204.0
51.850075 184.0
51.871574 172.0
51.888779 348.0
51.903118 248.0
52.066723 164.0
52.096886 120.0
52.141434 88.0
52.155807 180.0
52.174496 196.0
52.187435 104.0
52.219395 176.0
52.226818 104.0
52.24065 160.0
52.279503 180.0
52.383175 132.0
52.420635 164.0
52.454723 148.0
52.616814 168.0
52.641808 168.0
52.685394 264.0
52.712147 232.0
52.781536 108.0
52.842289 244.0
52.866104 236.0
52.911552 140.0
52.936378 192.0
52.972588 176.0
52.988819 216.0
53.011711 188.0
53.081295 172.0
53.10305 180.0
53.126259 168.0
53.197372 176.0
53.326656 156.0
53.338284 164.0
53.364456 120.0
53.376087 164.0
53.392086 160.0
53.453186 188.0
53.515781 188.0
53.571125 72.0
53.600269 176.0
53.684822 192.0
53.785496 228.0
53.813236 116.0
53.830757 148.0
53.96666 200.0
54.1203 72.0
54.13641 140.0
54.18145 176.0
54.208195 188.0
54.221382 168.0
54.297623 148.0
54.313759 140.0
54.36805 208.0
54.387131 168.0
54.45908 184.0
54.525917 164.0
54.550186 204.0
54.617832 144.0
54.661972 176.0
54.785656 164.0
54.801865 216.0
54.823967 164.0
54.87851 164.0
54.896206 124.0
55.017204 56.0
55.052643 164.0
55.071194 204.0
55.08366 156.0
55.101387 140.0
55.16494 232.0
55.212257 140.0
55.249237 184.0
55.326199 236.0
55.389877 212.0
55.521797 36.0
55.532181 132.0
55.683575 188.0
55.720715 124.0
55.853027 64.0
55.869392 128.0
55.902126 144.0
55.924454 160.0
56.058498 180.0
56.083836 148.0
56.133038 72.0
56.227024 160.0
56.270317 48.0
56.288235 172.0
56.304665 148.0
56.324081 168.0
56.359936 144.0
56.370399 64.0
56.410755 140.0
56.430191 180.0
56.456589 184.0
56.498993 76.0
56.518444 216.0
56.54538 140.0
56.62923 44.0
56.713139 124.0
56.776112 128.0
56.812115 168.0
56.832214 252.0
56.852627 120.0
56.932198 220.0
56.975758 180.0
57.074963 164.0
57.196831 216.0
57.254047 156.0
57.287186 212.0
57.333897 196.0
57.403244 60.0
57.416817 204.0
57.430393 176.0
57.474144 52.0
57.623631 64.0
57.696178 164.0
57.729282 184.0
57.774822 192.0
57.839897 216.0
57.865635 124.0
57.915611 160.0
57.965611 352.0
57.998951 48.0
58.052074 220.0
58.09449 216.0
58.14912 172.0
58.159744 60.0
58.199219 132.0
58.209846 148.0
58.238895 160.0
58.33292 140.0
58.372452 132.0
58.567963 236.0
58.626686 228.0
58.648026 136.0
58.669472 232.0
58.809715 180.0
58.884533 196.0
58.922722 116.0
58.967037 268.0
58.989967 196.0
59.020546 220.0
59.08326 124.0
59.146004 172.0
59.198059 212.0
59.210312 156.0
59.223434 204.0
59.236351 124.0
59.326771 44.0
59.377373 264.0
59.48632 180.0
59.574837 144.0
59.599976 188.0
59.62149 136.0
59.664532 176.0
59.778358 176.0
59.790672 76.0
59.850712 136.0
59.864174 248.0
59.910778 144.0
59.926186 156.0
59.952385 124.0
59.978588 132.0
60.020214 132.0
60.0634 64.0
60.118946 108.0
60.157536 176.0
60.168343 188.0
60.217758 204.0
60.265926 156.0
60.327473 180.0
60.443474 112.0
60.45895 172.0
60.471333 128.0
60.51313 76.0
60.537277 204.0
60.551846 140.0
60.629314 184.0
60.664967 132.0
60.711483 148.0
60.731647 332.0
60.747158 192.0
60.828785 180.0
60.908604 124.0
60.925694 184.0
60.939678 128.0
61.001846 180.0
61.028275 144.0
61.092045 124.0
61.121609 164.0
61.17297 116.0
61.263298 184.0
61.278877 180.0
61.3116 164.0
61.32563 168.0
61.39423 156.0
61.431667 200.0
61.501888 176.0
61.533112 212.0
61.686222 124.0
61.88335 200.0
61.993004 168.0
62.010056 132.0
62.05257 120.0
62.129425 168.0
62.156097 176.0
62.170223 96.0
62.192196 148.0
62.276989 176.0
62.390228 196.0
62.435734 408.0
62.456181 64.0
62.550598 184.0
62.667145 132.0
62.823231 48.0
62.850056 196.0
62.900558 216.0
62.987411 272.0
63.001633 224.0
63.012691 192.0
63.12492 108.0
63.247509 208.0
63.298241 176.0
63.311665 188.0
63.362354 152.0
63.67804 188.0
63.7257 64.0
63.76384 64.0
63.786049 152.0
63.801991 192.0
63.843334 124.0
63.878326 172.0
63.997692 136.0
64.013618 184.0
64.03273 52.0
64.121956 168.0
64.182533 140.0
64.22081 96.0
64.281441 136.0
64.308571 40.0
64.347595 180.0
64.521843 180.0
64.568413 160.0
64.579178 112.0
64.599403 156.0
64.615402 248.0
64.644203 204.0
64.663406 116.0
64.770691 164.0
64.794724 240.0
64.831573 184.0
64.94175 212.0
64.967194 180.0
65.052933 188.0
65.091461 164.0
65.155334 188.0
65.184746 236.0
65.387276 172.0
65.61441 152.0
65.664406 144.0
65.738617 176.0
65.754761 212.0
65.824028 176.0
65.946968 88.0
65.996071 236.0
66.022957 68.0
66.042366 192.0
66.063393 176.0
66.086044 188.0
66.136215 84.0
66.183167 152.0
66.197739 184.0
66.225273 196.0
66.261406 184.0
66.281982 200.0
66.380867 152.0
66.409813 188.0
66.448647 168.0
66.484695 180.0
66.523651 192.0
66.542046 180.0
66.609901 212.0
66.656837 164.0
66.697472 172.0
66.994598 184.0
67.097954 148.0
67.110992 72.0
67.15992 144.0
67.237801 224.0
67.270561 100.0
67.289406 316.0
67.318237 176.0
67.33239 40.0
67.362335 264.0
67.409721 148.0
67.432602 100.0
67.47184 104.0
67.485077 332.0
67.535614 148.0
67.653435 140.0
67.704201 132.0
67.777916 140.0
67.814987 264.0
67.845123 116.0
67.917274 124.0
68.007523 80.0
68.038712 124.0
68.055138 348.0
68.075035 204.0
68.132332 164.0
68.161903 160.0
68.211212 176.0
68.240807 164.0
68.276985 128.0
68.293434 208.0
68.346077 148.0
68.379921 128.0
68.48098 200.0
68.512375 152.0
68.546982 216.0
68.591476 132.0
68.63105 108.0
68.73497 196.0
68.75312 168.0
68.82576 184.0
68.967842 196.0
68.997215 372.0
69.010826 172.0
69.129929 172.0
69.184105 208.0
69.219322 64.0
69.30397 164.0
69.404922 124.0
69.524361 140.0
69.542618 208.0
69.56295 144.0
69.618996 152.0
69.71701 136.0
69.755241 196.0
69.79847 116.0
69.869995 128.0
69.893288 164.0
69.97818 176.0
70.184799 136.0
70.203308 400.0
70.241501 136.0
70.256516 140.0
70.314919 120.0
70.349976 168.0
70.393517 156.0
70.436073 156.0
70.51535 180.0
70.687607 192.0
70.729454 148.0
70.751213 196.0
70.888565 84.0
70.922089 176.0
70.985802 164.0
71.119873 228.0
71.140167 148.0
71.188133 184.0
71.21376 228.0
71.27285 76.0
71.347351 176.0
71.390526 148.0
71.415756 228.0
71.444351 144.0
71.483055 160.0
71.619385 164.0
71.656807 140.0
71.752563 248.0
71.769424 96.0
71.936455 192.0
72.113823 152.0
72.157578 168.0
72.237015 188.0
72.301567 184.0
72.318237 160.0
72.345573 168.0
72.453964 152.0
72.487854 192.0
72.569221 172.0
72.708954 248.0
72.951225 116.0
72.963127 100.0
73.078781 188.0
73.148567 200.0
73.172401 68.0
73.26255 160.0
73.325714 212.0
73.424599 164.0
73.439949 160.0
73.468956 84.0
73.511612 32.0
73.537209 164.0
73.585014 96.0
73.598671 200.0
73.615746 128.0
73.660156 124.0
73.711411 156.0
73.760979 112.0
73.90464 156.0
73.97995 276.0
73.995361 176.0
74.111832 32.0
74.158104 100.0
74.209534 148.0
74.250694 180.0
74.266129 212.0
74.298721 192.0
74.35878 192.0
74.469788 184.0
74.496155 60.0
74.518486 140.0
74.585518 116.0
74.661171 172.0
74.738579 152.0
74.77816 228.0
74.801064 184.0
74.816032 176.0
74.840561 164.0
74.884918 148.0
75.011467 172.0
75.026222 176.0
75.038292 132.0
75.069328 172.0
75.133148 204.0
75.159035 196.0
75.219437 192.0
75.266052 144.0
75.367973 176.0
75.464767 104.0
75.708763 228.0
75.824844 124.0
75.846306 168.0
75.880318 232.0
75.904594 140.0
75.937546 128.0
76.020821 168.0
76.043381 76.0
76.074631 152.0
76.126129 152.0
76.170357 196.0
76.279625 48.0
76.298744 132.0
76.33004 144.0
76.439636 108.0
76.470963 152.0
76.542343 204.0
76.558014 176.0
76.676491 164.0
76.72007 112.0
76.784584 160.0
76.950371 92.0
76.96608 196.0
77.012245 184.0
77.077881 140.0
77.161781 52.0
77.217743 156.0
77.251312 104.0
77.310463 160.0
77.32972 152.0
77.341972 160.0
77.366478 144.0
77.433022 156.0
77.482071 300.0
77.514183 172.0
77.576706 260.0
77.601257 132.0
77.657372 200.0
77.784439 204.0
77.824097 136.0
77.843407 116.0
77.868637 208.0
77.961113 100.0
78.049011 168.0
78.061676 196.0
78.20031 180.0
78.253899 236.0
78.397568 196.0
78.431053 196.0
78.446884 180.0
78.536858 112.0
78.559792 180.0
78.59684 116.0
78.644493 100.0
78.715111 108.0
78.84761 152.0
78.905945 204.0
78.966072 180.0
78.988678 128.0
79.038605 188.0
79.088165 64.0
79.157211 240.0
79.256409 112.0
79.279449 184.0
79.298943 220.0
79.326584 156.0
79.341492 144.0
79.391136 48.0
79.446129 124.0
79.577461 184.0
79.614754 92.0
79.632515 200.0
79.650276 184.0
79.666267 240.0
79.733788 168.0
79.828796 200.0
79.988693 356.0
80.043343 172.0
80.118149 208.0
80.227188 156.0
80.252823 172.0
80.530258 212.0
80.5616 196.0
80.633911 124.0
80.775116 156.0
80.79171 144.0
80.835396 220.0
80.866371 188.0
80.896805 164.0
80.90934 148.0
80.988129 132.0
81.002464 152.0
81.034714 160.0
81.124321 232.0
81.169151 104.0
81.199638 212.0
81.436562 180.0
81.494049 148.0
81.521004 132.0
81.618073 212.0
81.690018 152.0
81.720604 276.0
81.779991 180.0
81.794395 204.0
81.848404 136.0
81.866417 224.0
81.927658 188.0
82.032181 168.0
82.074554 184.0
82.178268 192.0
82.326294 216.0
82.369644 440.0
82.431068 196.0
82.481277 180.0
82.644073 212.0
82.673401 204.0
82.749428 120.0
82.769348 144.0
82.807381 56.0
82.863541 152.0
82.98349 176.0
83.006805 204.0
83.028496 40.0
83.050262 220.0
83.159134 196.0
83.23175 88.0
83.295319 228.0
83.371635 156.0
83.402534 176.0
83.424347 48.0
83.553474 148.0
83.62104 216.0
83.633545 168.0
83.657211 128.0
83.71508 204.0
83.7519 84.0
83.775581 132.0
83.836533 148.0
83.982384 424.0
84.001671 204.0
84.03083 144.0
84.133278 208.0
84.180511 200.0
84.306564 160.0
84.370544 164.0
84.390656 88.0
84.540657 208.0
84.606552 152.0
84.828224 176.0
84.875893 68.0
84.897896 192.0
84.943756 232.0
85.0355 148.0
85.107101 224.0
85.136482 108.0
85.16954 216.0
85.257736 176.0
85.309204 192.0
85.333107 152.0
85.377235 224.0
85.515228 160.0
85.55941 208.0
85.594391 120.0
85.612808 176.0
85.645958 124.0
85.717812 132.0
85.746475 272.0
85.774948 152.0
85.80629 56.0
85.835793 72.0
85.870834 176.0
85.902191 192.0
85.954712 208.0
86.066452 164.0
86.10524 144.0
86.219788 124.0
86.267845 192.0
86.367706 32.0
86.447266 36.0
86.467621 212.0
86.502792 280.0
86.545372 84.0
86.823082 140.0
86.845604 196.0
86.923523 184.0
86.997772 176.0
87.08876 132.0
87.102097 180.0
87.194672 88.0
87.343483 232.0
87.373184 132.0
87.434593 200.0
87.492294 80.0
87.522087 144.0
87.551888 136.0
87.565666 156.0
87.584129 232.0
87.648758 48.0
87.686028 180.0
87.775513 56.0
87.816544 160.0
87.995697 200.0
88.012505 192.0
88.029305 160.0
88.061249 192.0
88.077866 52.0
88.092812 128.0
88.145126 164.0
88.165688 152.0
88.193726 72.0
88.242325 124.0
88.319 124.0
88.363899 196.0
88.478073 148.0
88.515442 196.0
88.551102 132.0
88.611046 236.0
88.753502 140.0
88.783508 184.0
88.851036 52.0
88.86792 112.0
88.90358 180.0
88.918594 148.0
88.961761 36.0
88.974907 88.0
89.158997 140.0
89.189064 144.0
89.224785 40.0
89.339508 168.0
89.375259 196.0
89.459114 168.0
89.597435 168.0
89.642662 176.0
89.670929 152.0
89.744453 140.0
89.782166 68.0
89.877296 140.0
89.953873 160.0
89.984077 128.0
90.008629 124.0
90.05584 112.0
90.169205 84.0
90.195671 180.0
90.219536 192.0
90.297775 176.0
90.34317 124.0
90.39994 336.0
90.420364 260.0
90.494583 224.0
90.542274 176.0
90.674553 96.0
90.721077 200.0
90.750381 120.0
90.820549 100.0
90.843315 188.0
90.934395 256.0
91.002739 136.0
91.053886 628.0
91.27446 268.0
91.344833 148.0
91.510406 148.0
91.540878 140.0
91.565636 56.0
91.740944 196.0
91.763824 232.0
91.804031 232.0
91.830566 172.0
91.885887 168.0
91.901154 148.0
91.939316 160.0
92.057159 176.0
92.097511 136.0
92.16275 188.0
92.197144 192.0
92.225815 40.0
92.243019 40.0
92.270523 160.0
92.346275 204.0
92.44194 152.0
92.476387 156.0
92.499359 212.0
92.545303 108.0
92.600845 48.0
92.637238 144.0
92.662148 160.0
92.698555 196.0
92.75222 288.0
92.813568 156.0
92.903717 260.0
92.930573 208.0
92.970871 104.0
93.032578 192.0
93.059265 260.0
93.172493 40.0
93.283958 56.0
93.30703 184.0
93.339722 260.0
93.355103 92.0
93.46283 120.0
93.539818 152.0
93.554337 184.0
93.582169 164.0
93.609131 156.0
93.661133 128.0
93.699356 196.0
93.755547 140.0
93.821083 120.0
93.861023 212.0
93.935616 216.0
93.965729 140.0
93.986954 100.0
94.041336 12820.0
94.104698 36.0
94.118217 156.0
94.131737 172.0
94.185623 200.0
94.232178 220.0
94.26696 48.0
94.299812 148.0
94.319145 188.0
94.374588 136.0
94.423073 192.0
94.444832 172.0
94.471916 124.0
94.522224 172.0
94.539642 204.0
94.578781 160.0
94.824341 312.0
94.843727 136.0
94.884438 204.0
94.915459 92.0
94.932053 160.0
94.977524 228.0
95.007812 156.0
95.043602 896.0
95.062889 132.0
95.083374 532.0
95.196838 256.0
95.257057 132.0
95.348381 144.0
95.402809 120.0
95.496147 160.0
95.537666 232.0
95.599716 188.0
95.61483 132.0
95.749168 176.0
95.766701 60.0
95.78228 224.0
95.846581 176.0
95.866066 56.0
95.928436 52.0
95.951828 176.0
95.986931 220.0
96.002533 168.0
96.048569 192.0
96.080551 332.0
96.109825 80.0
96.349983 180.0
96.452194 252.0
96.478973 136.0
96.745041 196.0
96.83316 192.0
96.931114 152.0
97.027161 120.0
97.039764 112.0
97.06955 200.0
97.138947 212.0
97.176224 88.0
97.219391 40.0
97.290054 176.0
97.323433 152.0
97.341103 208.0
97.466827 172.0
97.596558 144.0
97.671295 176.0
97.805107 104.0
97.822823 44.0
97.848412 132.0
97.925217 168.0
97.954758 176.0
97.986282 164.0
98.10125 144.0
98.140022 76.0
98.252449 196.0
98.316124 164.0
98.359016 156.0
98.428116 172.0
98.534775 48.0
98.562439 52.0
98.592087 184.0
98.666954 128.0
98.716629 56.0
98.770035 148.0
98.833344 236.0
98.898651 100.0
98.965759 156.0
98.983788 208.0
99.0047 100.0
99.019012 132.0
99.066971 80.0
99.097511 136.0
99.166054 140.0
99.235634 164.0
99.273117 92.0
99.30088 152.0
99.368729 240.0
99.447708 212.0
99.473511 180.0
99.595848 112.0
99.720245 208.0
99.839119 192.0
99.990318 56.0
100.034111 60.0
100.145622 56.0
100.205391 228.0
100.221329 164.0
100.241257 112.0
100.257202 236.0
100.350891 180.0
100.479012 204.0
100.674156 172.0
100.77404 224.0
100.897957 136.0
100.960823 100.0
100.979942 228.0
101.013954 152.0
101.039955 68.0
101.087982 136.0
101.117958 180.0
101.218102 152.0
101.350304 120.0
101.389893 196.0
101.434486 152.0
101.510674 256.0
101.618996 160.0
101.635048 72.0
101.731384 176.0
101.771538 188.0
101.81572 88.0
101.903557 248.0
101.996552 156.0
102.092247 192.0
102.223831 208.0
102.32045 184.0
102.354675 144.0
102.368774 168.0
102.487625 140.0
102.584366 116.0
102.641335 172.0
102.658653 280.0
102.718781 184.0
102.804222 160.0
102.842567 92.0
102.876038 248.0
102.969772 200.0
103.016235 152.0
103.064217 132.0
103.129395 240.0
103.199326 204.0
103.228073 188.0
103.33567 180.0
103.408524 120.0
103.485451 172.0
103.501648 56.0
103.550255 188.0
103.604942 244.0
103.72654 172.0
103.761711 160.0
103.852257 120.0
103.870514 200.0
103.998352 184.0
104.022713 144.0
104.061287 124.0
104.110023 128.0
104.166893 184.0
104.244102 128.0
104.469795 296.0
104.516594 180.0
104.544395 200.0
104.59597 300.0
104.62854 196.0
104.716103 84.0
104.899498 112.0
105.033134 664.0
105.164673 148.0
105.301476 196.0
105.318947 164.0
105.372978 156.0
105.462891 76.0
105.550804 84.0
105.691948 144.0
105.834709 156.0
105.886436 144.0
105.906914 272.0
105.943787 104.0
105.974525 148.0
106.025757 216.0
106.091347 204.0
106.118462 212.0
106.267731 112.0
106.286194 188.0
106.304665 160.0
106.333397 204.0
106.368294 208.0
106.405243 144.0
106.486832 208.0
106.528473 184.0
106.724014 140.0
106.95414 176.0
106.970612 200.0
107.049568 1424.0
107.085922 212.0
107.205421 400.0
107.404724 216.0
107.418633 196.0
107.479691 64.0
107.558113 100.0
107.572563 148.0
107.688202 244.0
107.729515 256.0
107.772903 68.0
107.831169 184.0
107.878311 196.0
107.931244 352.0
108.023071 124.0
108.056702 288.0
108.128601 104.0
108.184486 248.0
108.232567 180.0
108.250748 100.0
108.281815 140.0
108.304596 184.0
108.362602 156.0
108.412827 184.0
108.418922 224.0
108.59893 196.0
108.644569 128.0
108.673615 116.0
108.70826 128.0
108.804375 272.0
108.825356 192.0
108.924828 148.0
108.955986 260.0
108.996399 192.0
109.063896 760.0
109.097313 120.0
109.158806 132.0
109.238724 204.0
109.272011 212.0
109.363579 172.0
109.43853 176.0
109.555801 200.0
109.569748 148.0
109.596901 120.0
109.721306 228.0
109.865791 96.0
110.045868 72.0
110.068962 224.0
110.208206 216.0
110.241646 208.0
110.256271 228.0
110.373344 200.0
110.423531 344.0
110.519768 164.0
110.706078 132.0
110.938652 28.0
111.072868 136.0
111.091743 80.0
111.118919 168.0
111.186172 160.0
111.251244 148.0
111.450775 124.0
111.608421 144.0
111.648376 184.0
111.709381 144.0
111.816689 144.0
111.844055 116.0
111.877739 156.0
111.945114 104.0
112.001984 176.0
112.016731 120.0
112.113655 176.0
112.132622 112.0
112.185318 252.0
112.240135 168.0
112.275986 108.0
112.451103 216.0
112.529213 104.0
112.583694 160.0
112.613686 216.0
112.655937 208.0
112.727776 168.0
112.797523 344.0
112.846146 72.0
112.877869 96.0
112.915932 172.0
113.053452 80.0
113.154198 212.0
113.246117 68.0
113.330856 148.0
113.361115 188.0
113.398674 136.0
113.43895 188.0
113.508919 180.0
113.54921 156.0
113.587387 160.0
113.68499 104.0
113.833595 156.0
113.876068 176.0
113.89653 76.0
113.927055 72.0
113.952545 168.0
113.997169 132.0
114.073692 368.0
114.145981 196.0
114.177933 168.0
114.288498 44.0
114.426849 40.0
114.522682 188.0
114.703804 164.0
114.78566 164.0
114.897873 164.0
114.923477 148.0
115.014656 180.0
115.045494 212.0
115.064346 128.0
115.10289 156.0
115.160446 192.0
115.27581 116.0
115.30146 68.0
115.372002 52.0
115.438286 188.0
115.551651 232.0
115.583748 168.0
115.656517 148.0
115.690765 176.0
115.776413 188.0
115.883522 160.0
115.911377 156.0
115.934952 180.0
115.954239 256.0
116.012115 52.0
116.052856 240.0
116.108612 184.0
116.147217 176.0
116.172958 176.0
116.211578 112.0
116.241623 112.0
116.38974 204.0
116.467056 144.0
116.492828 168.0
116.559441 316.0
116.632637 136.0
116.65831 188.0
116.912117 164.0
116.958145 228.0
117.049896 204.0
117.142509 168.0
117.157593 168.0
117.207146 168.0
117.227486 200.0
117.278267 148.0
117.295509 84.0
117.405472 176.0
117.461555 144.0
117.781036 44.0
118.051201 192.0
118.111763 140.0
118.139885 156.0
118.159355 164.0
118.21994 176.0
118.274055 124.0
118.381172 228.0
118.423462 128.0
118.475449 204.0
118.554291 228.0
118.583794 156.0
118.618477 156.0
118.661835 152.0
118.696533 112.0
118.857056 104.0
118.926506 92.0
118.976433 192.0
119.021935 180.0
119.048698 272.0
119.130623 64.0
119.204498 144.0
119.391464 196.0
119.428436 40.0
119.443665 132.0
119.476295 336.0
119.530693 100.0
119.681725 208.0
119.768005 188.0
119.82029 336.0
119.951042 116.0
120.005547 156.0
120.049759 220.0
120.088417 212.0
120.13205 120.0
120.154144 184.0
120.232422 160.0
120.343224 200.0
120.419846 208.0
120.459503 176.0
120.487907 224.0
120.529419 352.0
120.560013 188.0
120.763344 196.0
120.856255 144.0
120.888054 36.0
120.929634 132.0
120.962471 136.0
120.997498 200.0
121.194626 132.0
121.249413 40.0
121.29982 188.0
121.349899 192.0
121.433578 108.0
121.475471 204.0
121.533752 200.0
121.610336 136.0
121.682503 176.0
121.696922 328.0
121.742722 192.0
121.789162 224.0
121.822639 200.0
121.850838 212.0
121.87838 164.0
121.898331 232.0
121.918282 188.0
121.94297 156.0
121.974731 160.0
121.996109 300.0
122.036583 56800.0
122.08638 192.0
122.116119 124.0
122.128891 268.0
122.151466 200.0
122.177261 132.0
122.213318 60.0
122.237236 264.0
122.281471 248.0
122.288567 224.0
122.309059 92.0
122.356529 136.0
122.398911 460.0
122.46003 172.0
122.477654 112.0
122.506294 148.0
122.549255 80.0
122.567986 88.0
122.612663 88.0
122.634102 56.0
122.677025 76.0
122.711258 48.0
122.768593 196.0
122.797768 52.0
122.830345 32.0
122.845787 152.0
122.867851 32.0
122.89212 88.0
123.013504 76.0
123.039337 4996.0
123.075325 124.0
123.10183 216.0
123.121704 32.0
123.181343 56.0
123.207848 52.0
123.267509 64.0
123.285187 228.0
123.313919 48.0
123.413399 176.0
123.428879 252.0
123.630188 132.0
123.665604 88.0
123.703232 232.0
123.794014 200.0
123.82502 144.0
123.844955 220.0
123.884827 160.0
123.930374 240.0
123.958839 168.0
123.97567 128.0
124.009659 156.0
124.021111 72.0
124.040314 324.0
124.104248 180.0
124.157463 188.0
124.184082 88.0
124.212204 212.0
124.231667 168.0
124.27504 92.0
124.320015 208.0
124.386009 80.0
124.650307 40.0
124.77478 172.0
124.810356 56.0
124.888199 156.0
124.910439 88.0
124.961609 168.0
125.010567 264.0
125.059532 172.0
125.075111 88.0
125.21093 208.0
125.25325 112.0
125.33123 60.0
125.456047 204.0
125.48806 244.0
125.554153 228.0
125.65876 188.0
125.750496 168.0
125.797371 112.0
125.89785 92.0
125.962624 172.0
126.004204 176.0
126.025177 176.0
126.094452 128.0
126.127983 36.0
126.255432 152.0
126.340431 68.0
126.37175 144.0
126.395805 204.0
126.423218 96.0
126.503799 156.0
126.523949 228.0
126.56649 208.0
126.625931 176.0
126.648514 96.0
126.667274 144.0
126.70536 172.0
126.790512 52.0
126.902596 168.0
126.974358 180.0
126.990059 148.0
127.133644 208.0
127.270584 196.0
127.3694 232.0
127.443535 232.0
127.56501 164.0
127.69577 240.0
127.725128 192.0
127.744812 120.0
127.848312 112.0
127.878761 136.0
128.103561 368.0
128.271759 160.0
128.329056 180.0
128.416077 168.0
128.449905 88.0
128.497284 196.0
128.517593 216.0
128.63269 116.0
128.664307 100.0
128.720749 96.0
128.826904 204.0
128.844986 200.0
128.937622 212.0
129.215775 152.0
129.23613 164.0
129.267807 204.0
129.367401 156.0
129.460236 140.0
129.491943 72.0
129.657333 160.0
129.678787 168.0
129.734406 284.0
129.761612 48.0
129.893158 164.0
129.93399 100.0
129.965759 232.0
130.121658 176.0
130.160919 180.0
130.192764 184.0
130.451797 88.0
130.517731 248.0
130.604156 144.0
130.631439 44.0
130.67012 172.0
130.772522 36.0
130.84082 164.0
130.9319 140.0
130.956955 152.0
131.032135 144.0
131.095932 148.0
131.246384 104.0
131.262344 140.0
131.301117 184.0
131.335327 116.0
131.369553 196.0
131.537537 92.0
131.590927 180.0
131.629745 164.0
131.67543 196.0
131.867355 148.0
131.909042 148.0
131.965652 172.0
132.006805 136.0
132.053833 192.0
132.130325 164.0
132.2202 84.0
132.276794 164.0
132.327164 188.0
132.370667 100.0
132.488876 144.0
132.528717 160.0
132.691452 68.0
132.732727 228.0
132.810715 160.0
132.943787 160.0
132.97821 124.0
133.024109 132.0
133.056259 136.0
133.145813 88.0
133.166489 192.0
133.404938 156.0
133.658463 200.0
133.75769 176.0
133.976212 124.0
134.022278 212.0
134.047638 124.0
134.063766 152.0
134.114471 220.0
134.1306 180.0
134.149048 64.0
134.179016 172.0
134.211304 132.0
134.379684 36.0
134.428131 200.0
134.695969 172.0
134.712128 140.0
134.742172 40.0
134.767578 180.0
135.012619 144.0
135.043015 828.0
135.091263 192.0
135.119278 148.0
135.166412 140.0
135.294922 268.0
135.438492 284.0
135.568253 72.0
135.64241 72.0
135.681824 216.0
135.716599 140.0
135.739792 56.0
135.760666 148.0
135.783157 160.0
135.94162 152.0
136.025543 152.0
136.050705 188.0
136.088287 172.0
136.187714 92.0
136.226181 180.0
136.292267 120.0
136.344528 172.0
136.368958 76.0
136.408035 172.0
136.416672 76.0
136.436371 168.0
136.454971 160.0
136.482864 128.0
136.506119 164.0
136.562378 108.0
136.590271 400.0
136.629395 144.0
136.673615 176.0
136.702209 164.0
136.740204 172.0
136.765427 176.0
136.788651 368.0
136.836517 404.0
136.840393 440.0
136.870758 232.0
136.889145 244.0
136.918411 200.0
136.926453 284.0
136.960434 160.0
137.01825 560.0
137.060272 225408.0
137.130707 460.0
137.180725 284.0
137.203995 216.0
137.237762 160.0
137.269669 232.0
137.278076 184.0
137.318817 96.0
137.32457 104.0
137.336365 188.0
137.343872 84.0
137.371796 48.0
137.387161 64.0
137.412979 156.0
137.443222 2736.0
137.475174 108.0
137.504059 84.0
137.563751 52.0
137.588715 52.0
137.605209 100.0
137.622299 108.0
137.640182 84.0
137.66597 108.0
137.710831 172.0
137.738174 104.0
137.777573 108.0
137.802872 156.0
137.825516 172.0
137.848175 276.0
137.872253 112.0
137.901123 92.0
137.952789 132.0
137.974167 148.0
138.000595 164.0
138.016251 208.0
138.0625 24900.0
138.126389 64.0
138.202606 108.0
138.240173 180.0
138.265167 88.0
138.294067 116.0
138.344009 68.0
138.370499 88.0
138.402954 28.0
138.4431 108.0
138.478333 116.0
138.517059 104.0
138.562561 72.0
138.583649 52.0
138.608444 124.0
138.66333 60.0
138.682068 104.0
138.707855 96.0
138.725662 120.0
138.747635 228.0
138.785233 108.0
138.837448 120.0
138.884506 132.0
138.912949 148.0
138.958588 448.0
138.98764 132.0
139.021545 248.0
139.063721 1160.0
139.089676 588.0
139.120773 220.0
139.167419 68.0
139.182892 144.0
139.19165 92.0
139.20871 120.0
139.242844 128.0
139.260574 116.0
139.301559 108.0
139.35907 84.0
139.395554 124.0
139.412003 116.0
139.4543 48.0
139.473114 44.0
139.503662 76.0
139.567154 64.0
139.709747 76.0
139.748459 48.0
139.835922 48.0
139.89418 76.0
139.931 132.0
140.011917 76.0
140.065674 224.0
140.093216 140.0
140.13887 108.0
140.179184 136.0
140.205109 92.0
140.235748 72.0
140.480988 92.0
140.544693 84.0
140.596603 52.0
140.679214 88.0
140.759491 96.0
140.972107 52.0
140.988647 52.0
141.194336 108.0
141.234543 36.0
141.620377 36.0
141.911865 64.0
142.160004 132.0
142.445862 52.0
142.474365 92.0
142.612198 48.0
143.066544 116.0
143.407196 60.0
143.862808 60.0
144.070572 36.0
144.484177 120.0
144.575104 116.0
144.838486 52.0
144.972656 40.0
145.02298 64.0
145.164444 148.0
145.560394 60.0
145.735748 64.0
145.882355 120.0
146.248001 120.0
146.447845 160.0
146.57312 60.0
146.623734 128.0
146.652649 108.0
146.686401 88.0
146.71051 120.0
146.739441 72.0
147.057877 68.0
147.108566 108.0
147.466064 124.0
147.545837 48.0
147.920822 180.0
148.162994 32.0
148.238113 40.0
148.465988 108.0
148.742599 120.0
149.134842 116.0
149.281982 60.0
149.359818 40.0
149.440094 72.0
150.102646 40.0
150.827774 52.0
150.972031 80.0
151.001373 84.0
151.260742 76.0
151.52034 44.0
151.981293 64.0
152.051178 84.0
152.144577 196.0
152.440491 36.0
152.587967 100.0
152.634689 80.0
153.126892 144.0
153.491623 88.0
153.948166 60.0
154.838501 72.0
154.875641 100.0
155.14328 156.0
158.122513 60.0
158.317795 36.0
160.063126 120.0
160.910339 104.0
160.940628 108.0
161.084595 44.0
161.607941 28.0
161.885971 72.0
162.395813 84.0
162.581024 80.0
165.548523 60.0
166.150894 136.0
166.243271 112.0
171.697037 128.0
171.957947 144.0
172.064972 168.0
172.132858 148.0
172.168671 5552.0
172.237335 136.0
172.334 56.0
172.435913 64.0
172.480347 100.0
172.634613 124.0
172.807251 72.0
172.97998 96.0
173.170563 592.0
173.260208 60.0
173.467239 80.0
174.446426 68.0
179.258408 32.0
179.919907 60.0
180.593323 112.0
181.629944 44.0
182.088928 236.0
184.167236 404.0
185.179886 176.0
185.347855 76.0
185.404755 60.0
186.482254 48.0
187.02626 80.0
187.175995 36.0
187.802826 72.0
187.988358 76.0
191.029724 76.0
193.416718 80.0
193.524689 48.0
195.38707 92.0
196.33136 120.0
197.115814 156.0
198.947617 64.0
203.10083 56.0
204.038712 124.0
206.088028 172.0
206.13089 44.0
207.66626 68.0
207.917908 56.0
208.090515 152.0
208.909225 96.0
209.410095 196.0
210.012512 92.0
210.096161 132.0
210.119247 120.0
211.055069 56.0
211.115799 172.0
215.236542 96.0
217.159302 96.0
220.73465 76.0
221.071884 172.0
222.102951 208.0
226.865356 76.0
227.186249 52.0
227.678528 164.0
228.114212 124.0
229.858093 80.0
231.151443 96.0
235.02887 116.0
239.166275 44.0
239.982666 112.0
242.368927 76.0
243.116272 28.0
245.218719 44.0
245.936111 48.0
246.134644 188.0
250.530167 136.0
253.918777 52.0
254.032959 120.0
254.82666 108.0
255.052307 176.0
257.256714 188.0
260.941071 44.0
261.52655 108.0
264.143494 132.0
264.337646 60.0
268.587311 140.0
268.871185 132.0
270.600433 72.0
273.779083 60.0
275.329132 64.0
276.267883 56.0
278.561951 100.0
280.342041 84.0
283.795135 100.0
285.11441 108.0
289.158264 112.0
295.905365 84.0
297.956329 96.0
299.473389 116.0
303.055878 48.0
304.113617 52.0
305.190552 104.0
306.635284 84.0
310.263733 84.0
313.543365 44.0
314.573303 92.0
318.816681 92.0
320.161469 48.0
324.528259 72.0
332.181458 100.0
339.784424 168.0
342.596954 48.0
346.157562 56.0
349.73288 44.0
350.209503 140.0
360.081665 52.0
363.086761 84.0
364.164673 116.0
379.128448 104.0
388.314087 124.0
390.250122 140.0
392.159424 52.0
393.496765 56.0
414.538574 96.0
416.364166 88.0
429.870361 36.0
449.581665 96.0
470.563477 60.0
489.391571 56.0
499.69574 60.0
505.81427 36.0
531.665344 84.0
534.993225 56.0
547.714417 20.0
550.937866 44.0
551.853943 76.0
556.159241 32.0
580.710632 68.0
584.414551 64.0
585.38208 40.0
591.915771 28.0
596.330627 60.0
598.870483 108.0
603.203552 96.0
609.245972 84.0
628.192383 100.0
637.741699 208.0
650.928101 180.0
653.647705 84.0
660.351379 56.0
684.046997 96.0
691.066589 160.0
697.564636 52.0
699.684753 208.0
712.967224 180.0
721.437073 120.0
732.416626 224.0
736.764648 216.0
739.349304 44.0
745.271057 180.0
745.390625 184.0
747.83252 140.0
750.878235 32.0
751.407349 108.0
751.963989 60.0
754.832153 252.0
757.464722 244.0
762.556763 88.0
766.150085 96.0
768.349854 60.0
769.564087 76.0
772.31073 148.0
783.897827 188.0
786.547058 56.0
788.898865 72.0
791.937378 152.0
792.200684 192.0
793.203796 128.0
794.21875 100.0
794.560913 144.0
795.733948 100.0
796.452759 156.0
797.374268 196.0
803.230164 164.0
805.126648 136.0
811.073303 172.0
812.269775 172.0
812.769043 228.0
819.125366 160.0
824.928955 84.0
827.984497 36.0
828.081848 44.0
828.299561 116.0
831.412964 228.0
837.507507 92.0
844.468567 180.0
844.902466 112.0
849.467529 268.0
855.732605 156.0
857.124756 156.0
857.35199 128.0
861.01001 232.0
862.517517 180.0
864.283752 72.0
866.690369 88.0
866.877869 56.0
867.393616 108.0
867.739502 172.0
868.337646 216.0
874.895508 112.0
877.010315 176.0
878.508118 104.0
879.43457 180.0
880.361511 176.0
883.322754 164.0
885.530579 132.0
889.52124 104.0
890.679199 212.0
893.533325 152.0
893.800476 136.0
894.502747 172.0
896.331238 208.0
897.940857 124.0
898.20929 184.0
899.587769 84.0
899.772827 52.0
899.910156 164.0
902.706665 52.0
902.778442 192.0
902.886108 148.0
905.435669 148.0
905.711182 196.0
909.086731 148.0
909.490356 260.0
912.438477 156.0
915.055664 140.0
915.097839 64.0
917.929871 172.0
918.08667 224.0
918.919128 116.0
919.118225 180.0
920.180603 68.0
921.026062 192.0
921.201233 80.0
925.991943 56.0
927.379456 52.0
927.743164 68.0
929.708496 188.0
929.787354 88.0
929.933044 100.0
932.01001 204.0
934.630737 184.0
935.154114 132.0
935.610718 164.0
937.029785 176.0
938.206055 220.0
940.243408 244.0
941.336182 92.0
941.62323 216.0
942.759583 148.0
946.711609 136.0
947.465027 156.0
948.365845 68.0
948.57428 68.0
950.88678 212.0
952.458618 216.0
953.619934 144.0
954.831604 172.0
956.406311 244.0
956.775696 216.0
957.342163 196.0
958.327759 44.0
959.270752 152.0
961.225891 132.0
961.688782 184.0
968.601868 124.0
971.050232 100.0
971.459656 84.0
971.645752 168.0
972.253906 184.0
974.216614 188.0
976.696411 268.0
978.719055 164.0
978.849792 172.0
978.930786 172.0
980.706421 160.0
981.947205 164.0
986.099182 84.0
986.274231 68.0
986.943176 48.0
987.130737 36.0
987.900085 140.0
989.959351 180.0
991.744995 220.0
993.381592 60.0
995.678955 116.0
996.307129 92.0
997.098877 196.0
997.557739 200.0
999.815796 208.0
1001.843384 164.0
1007.710876 36.0
1010.050049 176.0
1011.644714 200.0
1012.752869 164.0
1012.955566 168.0
1014.245667 212.0
1014.768127 140.0
1015.586243 208.0
1017.928162 164.0
1018.728455 172.0
1019.884949 172.0
1020.609741 164.0
1023.976257 60.0
1024.402954 168.0
1026.213013 212.0
1026.404297 148.0
1027.080322 120.0
1027.323608 148.0
1029.780396 192.0
1030.789795 184.0
1032.957275 144.0
1033.065918 140.0
1033.123535 172.0
1033.168335 76.0
1033.468262 156.0
1033.648193 184.0
1036.446533 144.0
1036.56189 148.0
1036.638794 208.0
1040.134277 136.0
1041.10376 220.0
1042.195923 160.0
1042.665039 168.0
1045.125366 208.0
1045.346802 160.0
1045.636353 156.0
1046.614868 104.0
1047.477905 180.0
1047.819336 256.0
1048.315552 204.0
1048.676392 160.0
1049.095459 188.0
1049.340454 112.0
1049.669312 160.0
1049.733765 208.0
1049.778931 84.0
1052.056641 100.0
1052.321289 216.0
1052.366455 180.0
1054.52417 164.0
1055.028442 68.0
1056.231201 136.0
1056.768188 172.0
1056.904053 148.0
1057.124146 224.0
1057.991455 68.0
1061.004028 188.0
1062.807129 44.0
1062.93042 128.0
1063.099121 164.0
1063.404175 204.0
1063.559937 172.0
1065.930542 112.0
1066.717041 144.0
1068.117798 172.0
1069.032471 60.0
1070.067505 112.0
1071.050903 256.0
1071.396118 168.0
1074.303711 88.0
1074.87793 212.0
1075.210693 152.0
1075.504517 188.0
1075.745972 112.0
1077.548462 212.0
1078.104004 208.0
1078.528809 176.0
1079.581421 152.0
1080.523315 156.0
1080.798218 188.0
1081.720947 276.0
1081.930542 112.0
1082.140015 180.0
1083.593994 136.0
1084.505005 240.0
1084.963867 76.0
1085.547363 184.0
1085.757202 160.0
1085.999878 168.0
1089.91272 108.0
1090.385864 248.0
1090.878906 224.0
1091.629272 140.0
1092.220337 140.0
1092.542725 192.0
1093.240234 160.0
1093.490234 184.0
1097.007812 176.0
1097.166016 152.0
1098.043091 208.0
1099.091919 220.0
1100.431885 36.0
1101.984009 180.0
1102.863037 148.0
1103.127441 148.0
1103.524048 128.0
1104.145752 164.0
1104.192017 164.0
1104.463135 180.0
1105.058594 156.0
1105.90564 80.0
1108.316284 180.0
1109.038696 96.0
1109.098389 192.0
1109.628662 176.0
1110.450928 44.0
1111.067871 200.0
1111.27356 156.0
1111.519043 176.0
1114.660034 148.0
1115.098633 68.0
1115.916382 92.0
1116.514893 132.0
1119.769409 200.0
1120.62207 68.0
1120.908569 196.0
1121.881714 224.0
1124.516602 224.0
1124.897095 152.0
1125.124146 172.0
1125.584839 148.0
1125.891968 140.0
1126.165894 88.0
1126.773682 76.0
1127.695923 132.0
1131.328247 204.0
1131.428711 192.0
1131.763428 216.0
1133.022583 136.0
1133.377686 112.0
1133.665894 184.0
1134.584229 120.0
1134.651245 216.0
1134.959717 140.0
1136.166992 140.0
1136.274292 160.0
1136.891602 144.0
1137.44873 224.0
1137.65686 136.0
1138.066406 196.0
1139.362671 28.0
1139.839722 128.0
1140.081665 220.0
1140.209351 72.0
1142.320679 172.0
1143.895386 132.0
1143.962769 108.0
1144.508057 48.0
1144.844727 192.0
1144.918823 152.0
1145.525024 116.0
1146.003418 220.0
1146.441406 176.0
1147.021118 168.0
1147.337891 140.0
1147.735718 148.0
1148.315674 40.0
1149.199463 140.0
1149.611084 124.0
1149.894531 132.0
1151.231323 180.0
1151.508179 124.0
1151.643311 108.0
1151.852661 176.0
1152.872925 144.0
1152.974243 224.0
1153.580322 160.0
1153.8396 192.0
1155.625122 168.0
1155.889038 184.0
1156.13269 144.0
1157.452759 228.0
1159.200439 140.0
1159.302124 92.0
1160.074829 144.0
1160.420532 216.0
1160.786743 68.0
1160.915527 220.0
1161.078369 100.0
1161.485352 68.0
1161.980591 184.0
1162.489502 108.0
1162.598022 148.0
1164.125488 196.0
1165.851074 172.0
1166.449219 204.0
1166.544434 192.0
1168.97937 144.0
1169.026978 116.0
1169.115479 184.0
1169.340088 176.0
1170.831055 164.0
1171.069458 176.0
1171.260254 212.0
1171.436157 144.0
1171.941528 176.0
1173.509155 124.0
1173.822876 188.0
1173.986572 212.0
1174.552612 192.0
1176.401978 92.0
1177.60376 156.0
1177.740356 36.0
1178.054565 192.0
1178.280029 136.0
1178.635376 244.0
1179.421265 192.0
1179.667358 140.0
1179.858887 148.0
1180.453735 152.0
1181.554932 148.0
1182.300781 160.0
1182.63623 256.0
1182.684082 116.0
1183.043701 240.0
1183.580933 180.0
1183.65625 140.0
1184.471313 208.0
1185.67041 196.0
1185.807495 176.0
1186.205078 128.0
1186.75354 168.0
1187.631348 160.0
1188.015503 176.0
1188.145874 148.0
1188.420288 184.0
1188.564331 180.0
1188.729004 224.0
1188.818237 156.0
1188.969238 164.0
1189.243774 204.0
1189.346802 164.0
1190.163696 156.0
1190.747437 196.0
1191.365723 132.0
1191.86731 156.0
1192.320801 164.0
1192.437622 204.0
1193.647583 196.0
1194.548584 236.0
1194.810059 156.0
1194.947632 124.0
1194.99585 112.0
1196.007446 108.0
1196.875 132.0
1197.288086 160.0
1197.453369 140.0
1197.825439 140.0
1198.797729 160.0
1199.010498 172.0
1199.362061 188.0
1199.686035 160.0
1199.734253 164.0
1199.982544 140.0
1200.085938 168.0
1200.472046 176.0
1200.665161 164.0
1202.107666 192.0
1202.472778 176.0
1202.859375 40.0
1203.100952 172.0
1203.577393 128.0
1203.784546 184.0
1204.164429 32.0
1204.613403 140.0
1204.696289 40.0
1204.896606 160.0
1205.67749 128.0
1206.194458 180.0
1206.465454 144.0
1208.796387 76.0
1208.934814 188.0
1209.308594 188.0
1209.620117 72.0
1210.340088 48.0
1211.212769 308.0
1212.058716 208.0
1212.321289 104.0
1213.479004 60.0
1213.624512 212.0
1214.609375 76.0
1214.685669 180.0
1214.761963 128.0
1214.928467 184.0
1214.984009 152.0
1215.601562 184.0
1215.712524 160.0
1216.344116 192.0
1216.55249 136.0
1217.598877 204.0
1218.059326 124.0
1220.408447 44.0
1221.270752 48.0
1222.432739 184.0
1223.024292 96.0
1223.525513 188.0
1224.145264 180.0
1224.988037 124.0
1225.378174 208.0
1226.500122 168.0
1226.660522 172.0
1226.765015 140.0
1226.855713 152.0
1227.971436 152.0
1228.745728 228.0
1229.478394 140.0
1229.764526 200.0
1230.364868 208.0
1230.9375 140.0
1231.230713 156.0
1231.398438 36.0
1231.691772 140.0
1232.102905 220.0
1232.348511 104.0
1232.72583 196.0
1233.019287 144.0
1233.075195 92.0
1235.263794 200.0
1236.264404 180.0
1236.446411 176.0
1237.167358 168.0
1238.123535 164.0
1238.890137 164.0
1240.221558 64.0
1240.523071 148.0
1240.950684 132.0
1241.988647 148.0
1242.963867 116.0
1243.784912 44.0
1243.855225 140.0
1244.697632 172.0
1245.076904 204.0
1245.126099 144.0
1245.28064 204.0
1246.629517 124.0
1247.529175 220.0
1247.733032 208.0
1247.810425 136.0
1248.429199 60.0
1248.640259 120.0
1248.942627 132.0
1249.301392 48.0
1249.350708 184.0
1251.511475 176.0
1251.736694 172.0
1251.962158 172.0
1253.103271 192.0
1253.370972 84.0
1253.69519 248.0
1253.786743 152.0
1255.027466 128.0
1255.909058 144.0
1256.162964 200.0
1256.339355 176.0
1256.66394 180.0
1257.179077 232.0
1257.581299 268.0
1258.626221 184.0
1258.873291 200.0
1259.890503 196.0
1262.34314 116.0
1262.470459 120.0
1263.623535 180.0
1263.941895 92.0
1264.356323 196.0
1264.472656 136.0
1264.890259 112.0
1265.123901 40.0
1265.292603 188.0
1265.584106 156.0
1266.068237 152.0
1266.171875 184.0
1267.00061 176.0
1267.269897 248.0
1267.822632 172.0
1268.978027 148.0
1269.05603 88.0
1269.368042 232.0
1269.623413 176.0
1269.722656 132.0
1270.105713 104.0
1270.609375 60.0
1271.247925 164.0
1271.595703 160.0
1271.744751 216.0
1271.844116 156.0
1271.936401 164.0
1272.014526 180.0
1273.519897 192.0
1274.457642 172.0
1274.756104 148.0
1275.694336 156.0
1275.971558 172.0
1276.184937 220.0
1276.248901 124.0
1276.369751 84.0
1276.618652 172.0
1277.14502 196.0
1277.970215 164.0
1278.162354 108.0
1279.301147 72.0
1280.466309 260.0
1280.540161 120.0
1280.646118 148.0
1280.796631 144.0
1282.727783 88.0
1283.34082 184.0
1285.138306 160.0
1286.001831 196.0
1286.087524 168.0
1286.751343 176.0
1287.194092 84.0
1287.42981 168.0
1288.372681 100.0
1290.080688 212.0
1290.695557 80.0
1290.924438 132.0
1291.675415 104.0
1291.725464 160.0
1291.86853 104.0
1292.097534 140.0
1292.571411 280.0
1292.798706 80.0
1293.321167 140.0
1293.507324 148.0
1293.664795 88.0
1295.089844 244.0
1295.469482 184.0
1295.734619 132.0
1296.014038 136.0
1296.152344 64.0
1296.644653 280.0
1297.189453 156.0
1297.827515 120.0
1298.264893 148.0
1298.315186 144.0
1298.745483 80.0
1298.896118 160.0
1298.967896 60.0
1299.240479 212.0
1299.369629 192.0
1299.456299 220.0
1299.613525 220.0
1299.721191 116.0
1300.459595 176.0
1300.639771 220.0
1300.833618 144.0
1300.991699 176.0
1301.049072 144.0
1301.106445 144.0
1301.328979 152.0
1301.953735 144.0
1302.355957 148.0
1302.959473 104.0
1303.203735 176.0
1303.254028 188.0
1303.469604 196.0
1304.137939 112.0
1304.209839 188.0
1304.36084 216.0
1304.418335 120.0
1304.835205 208.0
1305.396118 120.0
1306.004639 140.0
1306.071777 140.0
1306.820435 72.0
1307.396118 48.0
1307.755981 172.0
1307.95752 160.0
1308.123047 128.0
1308.526245 116.0
1308.720581 180.0
1309.397583 156.0
1309.901733 184.0
1309.980957 172.0
1310.442139 220.0
1310.506958 188.0
1310.636597 200.0
1311.861938 196.0
1312.582886 172.0
1312.698242 148.0
1313.123779 180.0
1313.946167 160.0
1314.011108 60.0
1314.314087 124.0
1315.837158 228.0
1315.923828 128.0
1316.017578 192.0
1316.097046 176.0
1316.28479 188.0
1317.476562 180.0
1317.55603 176.0
1317.938965 156.0
1318.119629 176.0
1318.26416 120.0
1318.372559 192.0
1318.459351 152.0
1318.697388 156.0
1319.92688 104.0
1320.129272 148.0
1320.780273 64.0
1320.868286 112.0
1321.033447 196.0
1321.134766 132.0
1321.448242 168.0
1322.241821 132.0
1323.211792 300.0
1323.573853 160.0
1323.682495 208.0
1324.102539 76.0
1324.382446 148.0
1324.515381 180.0
1325.109497 156.0
1325.761597 116.0
1327.827881 180.0
1328.926636 160.0
1329.560303 188.0
1329.736084 156.0
1331.042114 128.0
1331.347778 156.0
1331.398682 148.0
1331.776367 220.0
1331.856201 120.0
1331.972412 124.0
1332.682739 204.0
1333.193115 124.0
1333.46936 168.0
1333.723755 184.0
1333.796387 56.0
1333.992676 136.0
1334.491211 148.0
1335.272461 168.0
1335.76709 152.0
1336.043457 176.0
1336.181763 204.0
1336.421875 132.0
1336.705566 172.0
1337.113159 200.0
1337.557129 196.0
1337.994019 132.0
1338.095947 148.0
1338.277954 204.0
1338.336182 116.0
1339.241943 164.0
1339.523315 156.0
1339.661743 264.0
1339.712769 132.0
1339.822021 132.0
1340.317505 176.0
1340.740112 172.0
1341.199341 168.0
1341.541992 176.0
1341.636719 124.0
1342.307495 160.0
1342.387695 188.0
1342.88501 156.0
1342.98584 152.0
1343.569336 176.0
1343.737183 112.0
1343.978027 196.0
1344.211426 164.0
1344.437744 56.0
1344.736572 156.0
1344.963257 168.0
1345.642212 196.0
1345.737061 176.0
1346.394287 112.0
1346.83252 176.0
1347.292725 136.0
1347.526611 96.0
1348.301147 156.0
1348.805542 260.0
1348.980957 224.0
1350.13623 152.0
1350.326416 208.0
1351.335938 200.0
1351.957886 160.0
1352.9021 180.0
1353.583984 216.0
1354.820923 208.0
1354.908813 208.0
1355.150635 120.0
1355.575684 156.0
1355.744141 180.0
1356.828979 124.0
1356.931641 192.0
1357.005005 152.0
1357.503662 212.0
1358.266357 108.0
1358.603882 152.0
1358.669922 184.0
1359.587158 120.0
1359.70459 172.0
1360.754272 136.0
1360.981934 176.0
1361.246216 124.0
1361.907227 72.0
1361.988037 192.0
1362.627197 136.0
1362.708008 220.0
1362.803589 184.0
1363.295898 60.0
1363.413452 220.0
1363.77356 184.0
1364.758789 48.0
1364.942505 180.0
1365.001343 192.0
1365.324951 184.0
1365.854492 176.0
1367.664673 180.0
1368.003296 192.0
1368.283081 132.0
1368.717529 124.0
1369.041504 240.0
1369.144653 76.0
1369.446655 64.0
1369.674927 192.0
1370.102173 212.0
1370.478027 184.0
1370.684326 120.0
1370.91272 224.0
1371.229614 160.0
1371.347656 92.0
1371.39917 140.0
1371.459351 128.0
1371.59082 124.0
1371.730957 72.0
1371.856201 188.0
1371.981567 232.0
1372.092163 156.0
1372.151123 212.0
1372.298584 64.0
1372.630371 172.0
1372.792603 124.0
1372.999146 156.0
1373.065552 172.0
1373.146606 148.0
1373.213013 232.0
1373.325439 168.0
1373.899048 184.0
1373.965454 172.0
1374.024536 156.0
1374.695923 136.0
1374.887817 32.0
1375.021484 148.0
1375.323364 148.0
1375.493042 140.0
1375.847412 60.0
1375.943359 68.0
1376.097412 120.0
1376.312622 208.0
1377.760254 64.0
1377.885864 192.0
1378.225708 304.0
1378.521362 192.0
1380.177124 180.0
1380.872314 164.0
1381.249512 204.0
1381.686035 72.0
1382.070801 172.0
1383.34375 168.0
1383.595459 180.0
1384.054565 124.0
1384.469238 156.0
1384.943237 260.0
1385.765625 152.0
1385.832275 148.0
1386.010132 220.0
1386.165771 168.0
1386.654053 192.0
1387.188599 132.0
1387.56665 164.0
1389.317017 136.0
1389.57666 148.0
1389.660889 148.0
1390.27417 156.0
1390.407715 200.0
1390.70459 184.0
1390.771484 188.0
1390.823364 184.0
1390.979248 160.0
1391.179688 208.0
1392.189575 148.0
1392.568359 168.0
1392.687134 128.0
1392.828369 180.0
1394.584839 200.0
1394.916382 148.0
1395.07251 196.0
1395.667358 156.0
1395.793701 152.0
1396.745728 144.0
1396.894531 320.0
1397.065674 140.0
1397.973389 208.0
1398.88147 48.0
1399.491943 100.0
1400.18457 172.0
1400.329712 192.0
1400.519653 168.0
1401.383911 132.0
1401.607422 152.0
1401.689697 180.0
1402.509155 112.0
1402.904297 136.0
1403.314331 208.0
1403.456055 88.0
1403.523193 52.0
1403.940186 224.0
1404.022827 148.0
1404.321167 140.0
1404.798462 108.0
1405.171509 144.0
1405.60437 212.0
1405.671509 112.0
1405.790894 152.0
1406.037109 140.0
1406.440186 180.0
1406.858276 188.0
1407.127075 160.0
1407.806519 204.0
1408.000732 192.0
1408.396606 192.0
1408.486206 112.0
1409.031616 72.0
1409.300537 200.0
1409.674194 172.0
1409.920776 176.0
1410.302002 224.0
1410.743652 228.0
1410.832764 148.0
1410.900024 172.0
1411.221558 140.0
1411.602905 192.0
1411.744995 200.0
1412.172485 104.0
1412.477905 184.0
1412.754761 144.0
1412.807129 156.0
1412.934326 228.0
1413.539185 192.0
1413.705078 188.0
1414.862183 236.0
1415.276978 204.0
1415.426758 364.0
1415.595825 188.0
1415.726318 168.0
1416.138306 192.0
1416.28064 168.0
1416.467896 176.0
1417.224609 164.0
1417.404419 96.0
1417.621704 128.0
1417.771606 208.0
1418.311279 172.0
1418.420898 240.0
1418.716064 120.0
1418.776001 164.0
1418.873535 172.0
1419.203369 140.0
1419.27832 136.0
1419.330811 128.0
1419.501953 200.0
1420.200806 188.0
1420.43335 156.0
1420.515869 124.0
1420.635864 156.0
1421.401245 184.0
1421.641357 152.0
1422.49707 96.0
1422.91748 60.0
1422.969971 80.0
1423.195312 136.0
1423.397949 176.0
1424.329346 256.0
1424.411987 160.0
1424.51709 136.0
1424.622314 132.0
1424.8927 204.0
1425.42627 212.0
1425.884644 136.0
1426.02002 76.0
1426.58374 188.0
1426.861938 96.0
1426.989746 188.0
1427.52356 184.0
1427.967285 132.0
1428.29834 44.0
1428.712036 144.0
1428.98291 180.0
1429.13855 248.0
1429.472046 132.0
1429.697754 148.0
1429.953613 184.0
1430.15686 116.0
1430.314941 124.0
1430.744019 368.0
1430.932251 164.0
1431.908691 268.0
1432.114624 88.0
1432.702148 192.0
1433.018677 168.0
1433.62146 160.0
1433.719482 132.0
1433.827393 176.0
1434.292236 56.0
1434.601318 100.0
1434.827515 208.0
1435.053711 160.0
1435.287476 188.0
1435.483521 172.0
1435.747437 124.0
1435.936035 204.0
1436.184937 140.0
1436.83374 120.0
1437.505249 164.0
1437.558105 248.0
1437.927856 176.0
1438.207153 176.0
1439.596313 32.0
1439.671875 60.0
1440.200562 228.0
1440.486816 180.0
1440.661377 124.0
1440.774658 196.0
1440.85022 192.0
1441.220459 176.0
1441.357544 120.0
1441.54541 316.0
1441.682861 176.0
1441.991333 144.0
1442.399536 52.0
1442.958984 152.0
1443.049683 208.0
1443.594116 60.0
1444.494141 180.0
1444.698364 112.0
1444.766479 176.0
1444.925415 132.0
1445.318848 164.0
1445.576172 48.0
1445.717285 232.0
1446.04541 220.0
1446.401123 188.0
1446.560059 180.0
1446.628174 136.0
1447.385376 180.0
1447.514038 140.0
1447.998779 192.0
1448.28833 204.0
1448.347168 132.0
1448.453247 152.0
1448.809326 72.0
1449.332031 180.0
1449.544312 176.0
1449.710938 156.0
1449.85498 132.0
1450.067139 216.0
1450.142944 124.0
1450.324951 200.0
1450.514404 200.0
1450.80249 184.0
1450.863159 120.0
1450.931396 88.0
1451.447021 132.0
1451.788208 136.0
1452.008179 84.0
1452.16748 180.0
1452.357056 164.0
1452.501221 80.0
1452.766724 176.0
1452.956299 72.0
1453.411621 56.0
1453.570923 132.0
1453.980713 196.0
1454.056641 224.0
1455.3396 156.0
1455.411621 208.0
1455.886353 140.0
1456.395264 100.0
1456.706665 176.0
1457.192871 184.0
1457.703491 168.0
1457.937622 80.0
1458.127563 224.0
1458.598877 112.0
1458.773682 192.0
1458.910522 160.0
1459.001831 116.0
1459.245117 156.0
1459.503662 196.0
1459.625244 156.0
1460.043579 176.0
1460.21521 156.0
1460.299072 164.0
1460.621582 144.0
1460.720459 124.0
1461.275879 212.0
1461.34436 136.0
1461.656372 180.0
1462.128174 172.0
1462.234741 60.0
1462.341309 168.0
1462.424805 408.0
1462.638184 232.0
1462.866455 132.0
1463.041626 132.0
1463.643066 208.0
1463.940063 156.0
1464.190796 188.0
1464.640747 116.0
1464.838867 168.0
1465.0979 80.0
1465.471191 124.0
1465.585449 164.0
1465.890259 164.0
1466.743896 192.0
1467.064087 180.0
1468.369141 180.0
1468.474854 180.0
1468.566406 228.0
1468.63501 84.0
1468.779907 164.0
1468.970581 128.0
1469.542847 144.0
1469.970093 36.0
1470.15332 196.0
1470.542603 176.0
1470.603638 100.0
1470.786743 132.0
1471.962524 112.0
1472.588867 84.0
1473.497925 200.0
1473.673584 180.0
1473.907104 220.0
1473.963989 128.0
1474.214722 216.0
1474.590576 140.0
1474.819946 140.0
1475.15625 208.0
1475.484985 108.0
1475.714355 136.0
1476.457031 168.0
1477.152222 92.0
1478.299927 260.0
1478.659546 112.0
1478.950439 144.0
1479.149536 204.0
1479.233643 176.0
1479.294922 88.0
1481.122559 244.0
1481.393188 132.0
1481.883545 156.0
1482.419922 152.0
1482.711182 172.0
1483.416382 164.0
1484.581787 112.0
1484.81189 96.0
1485.157104 128.0
1485.297241 208.0
1486.057007 140.0
1486.545776 124.0
1486.814331 148.0
1486.937134 124.0
1487.213501 112.0
1487.428345 152.0
1487.824463 168.0
1488.618408 172.0
1488.864258 76.0
1488.94873 216.0
1489.309692 240.0
1489.409546 128.0
1489.632324 68.0
1489.978027 92.0
1490.316162 220.0
1490.669556 168.0
1490.761841 128.0
1490.919312 188.0
1491.292114 136.0
1491.653442 244.0
1492.460693 228.0
1492.537598 168.0
1493.021973 128.0
1493.120361 148.0
1493.414307 176.0
1493.682129 116.0
1493.744995 220.0
1493.837402 160.0
1494.006592 168.0
1494.529785 180.0
1494.776001 128.0
1495.699585 188.0
1496.330933 224.0
1496.615845 104.0
1497.039307 196.0
1497.240601 168.0
1497.408936 308.0
1497.509155 116.0
1497.678589 172.0
1499.003784 184.0
1499.103882 80.0
1499.318115 192.0
1499.666504 220.0
1500.144531 128.0
1500.261475 204.0
1500.538574 128.0
1501.3396 212.0
1502.149536 176.0
1502.257568 172.0
1502.728149 140.0
1502.782104 212.0
1503.144775 184.0
1503.515259 152.0
1503.970581 192.0
1504.101807 196.0
1504.341187 284.0
1504.487793 144.0
1504.549561 176.0
1504.765747 172.0
1505.313965 96.0
