>compound MLS000536557-01!
>formula C22H27NO2
>ionization [M+H]+
>parentmass 338.210144
#inchi InChI=1S/C22H27NO2/c1-23-19(15-21(24)17-9-4-2-5-10-17)13-8-14-20(23)16-22(25)18-11-6-3-7-12-18/h2-7,9-12,19-21,24H,8,13-16H2,1H3
#inchikey MXYUKLILVYORSK
#Ion_Source LC-ESI
#Instrument qTof
#Compound_Source NIH Natural Product Library
#PI Dorrestein
#Data_Collector VVP/LMS
#Scan -1
#Precursor_MZ 338.212
#ExactMass 337.204
#Charge 1
#CAS_Number N/A
#Pubmed_ID N/A
#Smiles CN1C(CC(O)c2ccccc2)CCCC1CC(=O)c3ccccc3
#INCHI_AUX N/A
#Library_Class 1
#SpectrumID CCMSLIB00000079833
#IonMode Positive
#UpdateWorkflowName UPDATE-SINGLE-ANNOTATED-GOLD
#LibraryQualityString Gold
#TaskID b1d8e8f6646f4e71acdff9ca3d919d08
##Scan# 1739
#SpectrumFile p1-G11_GG11_01_17955.mzXML
#LibraryName NIH_Natural_Products_Library.mgf
#MQScore -1
#Organism NIH_Natural_Products_Library
#TIC_Query 0
#RT_Query -1
#MZErrorPPM -1
#SharedPeaks 0
#MassDiff 0
#LibMZ -1
#SpecMZ 338.212
#SpecCharge 0
#internalFilename spec-00000.mgf

>collision 10
94.99942 204.0
95.02076 52.0
95.067131 712.0
95.081604 204.0
95.123619 180.0
95.198219 236.0
95.249832 152.0
95.310059 192.0
95.323662 172.0
95.372253 120.0
95.605637 196.0
95.645439 124.0
95.700554 116.0
95.7145 204.0
95.736069 156.0
95.827858 184.0
95.852135 220.0
95.924362 144.0
95.936066 484.0
95.950409 168.0
95.971855 416.0
95.999458 196.0
96.028572 280.0
96.047005 220.0
96.080887 73796.0
96.182098 52.0
96.216225 192.0
96.239166 28.0
96.261818 60.0
96.288681 224.0
96.302406 156.0
96.317955 176.0
96.334862 156.0
96.358566 60.0
96.379799 64.0
96.400276 164.0
96.418877 184.0
96.432564 132.0
96.45015 32.0
96.479477 152.0
96.508804 132.0
96.556 292.0
96.600723 224.0
96.621498 280.0
96.647675 76.0
96.664207 80.0
96.69799 152.0
96.731827 112.0
96.780777 212.0
96.799706 108.0
96.838684 168.0
96.855194 80.0
96.884575 64.0
96.904167 76.0
96.92231 92.0
96.960999 48.0
96.978638 236.0
97.037445 68.0
97.084076 4644.0
97.113922 204.0
97.229759 68.0
97.261086 96.0
97.314087 36.0
97.333725 104.0
97.373001 108.0
97.443718 260.0
97.469254 136.0
97.506592 44.0
97.523796 156.0
97.557701 204.0
97.577362 76.0
97.628487 120.0
97.691422 88.0
97.709129 56.0
97.726837 112.0
97.754639 224.0
97.777618 204.0
97.785294 164.0
97.808395 108.0
97.829849 140.0
97.873199 296.0
97.89415 132.0
97.935509 100.0
97.968643 112.0
98.0084 208.0
98.034019 56.0
98.06369 220.0
98.096214 13240.0
98.144409 36.0
98.166176 104.0
98.179901 192.0
98.201591 44.0
98.217377 76.0
98.250908 52.0
98.302208 124.0
98.347931 164.0
98.450264 216.0
98.511642 160.0
98.57373 192.0
98.629875 216.0
98.721001 160.0
98.758583 72.0
98.808037 60.0
98.869377 48.0
98.948982 128.0
99.023705 84.0
99.098709 736.0
99.130783 164.0
99.217995 60.0
99.247734 96.0
99.271675 160.0
99.286537 176.0
99.325073 132.0
99.352852 152.0
99.377243 148.0
99.407104 128.0
99.448395 132.0
99.471916 40.0
99.539421 184.0
99.651054 256.0
99.674492 104.0
99.710266 168.0
99.793755 132.0
99.825569 132.0
99.853294 68.0
99.909103 52.0
99.930992 52.0
99.984718 56.0
100.042442 180.0
100.073227 84.0
100.104805 136.0
100.155945 92.0
100.173874 168.0
100.249588 56.0
100.303741 164.0
100.329315 116.0
100.347252 88.0
100.403091 140.0
100.45295 76.0
100.522415 196.0
100.566689 68.0
100.636559 100.0
100.698463 120.0
100.744408 44.0
100.770378 120.0
100.804344 308.0
100.850311 188.0
100.88829 100.0
100.984276 116.0
101.038284 112.0
101.210411 112.0
101.328583 180.0
101.436798 204.0
101.872253 152.0
101.954636 56.0
102.043083 108.0
102.11145 272.0
102.202965 124.0
102.447601 144.0
102.483864 44.0
102.671333 104.0
102.740974 152.0
102.807869 200.0
102.895309 188.0
102.921562 128.0
103.0084 100.0
103.026581 48.0
103.053215 2032.0
103.109428 160.0
103.210503 172.0
103.293427 60.0
103.331863 64.0
103.374352 116.0
103.394592 108.0
103.414825 68.0
103.534279 240.0
103.580864 100.0
103.708519 100.0
103.88092 180.0
103.951462 212.0
103.994507 96.0
104.058128 176.0
104.154915 148.0
104.177254 56.0
104.195053 168.0
104.245377 164.0
104.289017 64.0
104.356102 136.0
104.472023 204.0
104.557487 120.0
104.642982 128.0
104.71608 156.0
104.738693 140.0
104.765175 104.0
104.82222 120.0
104.859039 128.0
104.878212 152.0
104.893555 204.0
104.971031 136.0
104.994255 124.0
105.033508 57480.0
105.067863 604.0
105.097801 188.0
105.117905 52.0
105.137421 64.0
105.183212 88.0
105.197502 132.0
105.238335 88.0
105.256111 68.0
105.298561 176.0
105.346573 48.0
105.36834 64.0
105.430351 88.0
105.479401 108.0
105.497803 84.0
105.608223 88.0
105.685051 144.0
105.797707 72.0
105.815926 64.0
105.916145 164.0
105.948021 48.0
105.982857 52.0
106.036682 2692.0
106.067451 172.0
106.122231 112.0
106.183746 96.0
106.267853 56.0
106.315048 44.0
106.3368 140.0
106.37252 184.0
106.493668 44.0
106.514999 172.0
106.546112 128.0
106.600494 180.0
106.627876 136.0
106.684761 96.0
106.711494 120.0
106.74028 164.0
106.769066 240.0
106.797859 92.0
106.829742 72.0
106.8741 132.0
106.892494 44.0
106.943947 168.0
107.048721 2948.0
107.071487 444.0
107.102493 76.0
107.195206 52.0
107.2323 156.0
107.302383 64.0
107.34362 36.0
107.358803 128.0
107.406616 228.0
107.463257 148.0
107.479767 68.0
107.599472 40.0
107.700661 116.0
107.727516 136.0
107.752304 112.0
107.785362 60.0
107.81636 120.0
107.915581 160.0
108.048897 324.0
108.08091 4612.0
108.199028 136.0
108.2715 32.0
108.567856 132.0
108.673645 64.0
108.694397 64.0
108.708923 44.0
108.742126 128.0
108.887459 48.0
108.916534 124.0
108.978859 40.0
109.034966 68.0
109.051453 152.0
109.087875 4920.0
109.178413 68.0
109.195053 172.0
109.216545 108.0
109.254143 88.0
109.363586 288.0
109.386482 200.0
109.560631 108.0
109.588493 52.0
109.648926 204.0
109.79277 116.0
109.892899 100.0
109.942978 140.0
110.094566 1940.0
110.250839 212.0
110.306877 88.0
110.329399 136.0
110.352394 44.0
110.375397 172.0
110.435242 52.0
110.628555 92.0
110.720688 128.0
110.867332 72.0
110.892479 128.0
110.913445 144.0
110.991013 116.0
111.030853 80.0
111.099533 352.0
111.456062 184.0
111.583107 104.0
111.776619 164.0
111.79586 164.0
111.87764 52.0
111.923958 172.0
111.948196 204.0
112.113853 164.0
112.235809 100.0
112.292747 208.0
112.526985 164.0
112.630463 68.0
112.824875 152.0
112.945412 140.0
113.085052 184.0
113.154915 36.0
113.222672 196.0
113.426071 64.0
113.536324 96.0
113.735764 136.0
114.054375 204.0
114.091248 1800.0
114.160683 148.0
114.416016 32.0
114.509705 68.0
114.684418 196.0
114.712128 136.0
115.053352 2168.0
115.074089 156.0
115.092621 232.0
115.128181 196.0
115.153816 60.0
115.228577 148.0
115.254219 72.0
115.303368 76.0
115.399559 60.0
115.455154 132.0
115.596352 32.0
115.774025 204.0
115.81044 40.0
116.062157 200.0
116.091194 44.0
116.127655 120.0
116.157684 176.0
116.303596 104.0
116.357262 152.0
116.38517 140.0
116.520485 156.0
116.62793 164.0
116.642975 216.0
116.803551 172.0
116.866638 124.0
116.924744 244.0
116.950569 60.0
117.043137 68.0
117.068375 2492.0
117.090004 168.0
117.297363 72.0
117.340477 124.0
117.420944 88.0
117.668411 140.0
117.737511 156.0
117.797989 68.0
117.849838 92.0
117.911598 200.0
117.929794 148.0
117.953575 172.0
117.988159 124.0
118.064758 208.0
118.07338 264.0
118.247734 152.0
118.364639 164.0
118.483765 188.0
118.536568 172.0
118.587776 52.0
118.789429 156.0
119.058571 128.0
119.663071 200.0
119.708794 124.0
119.795921 180.0
119.829788 220.0
120.080589 1600.0
120.127266 200.0
120.212357 148.0
120.745407 216.0
120.900734 136.0
120.929184 156.0
120.992668 176.0
121.058861 156.0
121.082443 132.0
121.097778 148.0
121.202927 124.0
121.393639 116.0
121.426537 60.0
121.624001 220.0
121.733772 180.0
121.790878 136.0
121.896332 88.0
122.061195 84.0
122.097885 328.0
122.131569 188.0
122.294395 140.0
122.316406 124.0
122.499176 212.0
122.534424 168.0
122.59832 152.0
122.68428 156.0
123.03064 220.0
123.1035 212.0
123.702675 180.0
123.751381 116.0
123.859894 172.0
123.994667 184.0
124.083717 76.0
124.11132 212.0
124.632385 200.0
124.920959 112.0
125.119026 128.0
125.428673 88.0
125.479942 108.0
125.61821 136.0
125.702995 176.0
125.906136 168.0
125.968681 60.0
126.026764 44.0
126.04464 572.0
126.192162 228.0
126.207817 160.0
126.261482 184.0
126.521042 40.0
126.59269 176.0
126.68676 144.0
126.706924 120.0
126.810005 104.0
126.859314 128.0
127.053566 448.0
127.128464 120.0
127.153091 148.0
127.294586 136.0
127.386673 160.0
127.573189 140.0
127.593422 68.0
127.732849 120.0
128.061783 9972.0
128.14032 160.0
128.163666 44.0
128.219193 216.0
128.253098 156.0
128.276794 164.0
128.34317 80.0
128.537155 144.0
128.552948 116.0
128.961731 48.0
128.984329 116.0
129.020508 132.0
129.067368 2764.0
129.160706 228.0
129.221786 104.0
129.312302 84.0
129.32814 152.0
129.380203 44.0
129.47757 88.0
129.507019 76.0
129.731354 92.0
129.778961 44.0
129.917313 100.0
129.960419 128.0
130.003525 100.0
130.042114 132.0
130.077057 324.0
130.173782 56.0
130.198761 72.0
130.582855 108.0
130.752777 64.0
130.803558 176.0
130.926514 168.0
131.026733 104.0
131.057617 180.0
131.084595 1268.0
131.1371 120.0
131.309387 164.0
131.437134 52.0
131.763641 160.0
131.82077 132.0
131.921326 120.0
131.976196 176.0
132.051666 212.0
132.081848 444.0
132.175888 172.0
132.195801 144.0
132.734116 172.0
132.832733 124.0
132.862549 124.0
132.974991 48.0
133.020905 152.0
133.065628 432.0
133.08522 424.0
133.119629 164.0
133.570099 52.0
133.79332 212.0
133.959122 156.0
134.08493 172.0
134.157303 104.0
134.219559 164.0
134.268372 164.0
134.427155 88.0
134.579498 72.0
134.662643 232.0
134.72963 148.0
134.834183 192.0
135.330948 240.0
135.500031 192.0
135.53479 164.0
135.653168 48.0
135.78978 40.0
136.035736 48.0
136.077881 200.0
136.258682 128.0
136.428345 180.0
136.456238 152.0
136.581818 76.0
136.609726 84.0
136.740036 36.0
136.954239 264.0
137.054413 132.0
137.108002 196.0
137.166275 104.0
137.301514 152.0
137.364487 180.0
137.518478 160.0
137.677246 60.0
137.756653 108.0
138.165756 148.0
138.472412 68.0
138.727814 80.0
139.03508 104.0
139.131317 144.0
139.396729 128.0
139.504837 180.0
139.692963 180.0
139.895355 184.0
139.921249 168.0
139.973038 176.0
140.038986 168.0
140.413025 188.0
140.418091 132.0
140.426025 168.0
140.455093 164.0
140.571793 112.0
140.644943 176.0
140.673279 192.0
140.741745 60.0
141.069122 2644.0
141.107971 68.0
141.316101 208.0
141.365784 236.0
141.509354 160.0
141.538589 116.0
141.621475 36.0
141.69017 124.0
141.856064 180.0
142.033905 56.0
142.050522 144.0
142.075851 696.0
142.306824 160.0
142.337692 136.0
142.413681 80.0
142.480423 132.0
142.527725 48.0
142.748779 36.0
142.772568 184.0
142.861786 180.0
142.905777 168.0
142.96051 132.0
143.05571 128.0
143.085632 8056.0
143.15213 48.0
143.199097 148.0
143.935471 76.0
144.055435 320.0
144.086945 792.0
144.175705 64.0
144.259674 136.0
144.346481 144.0
144.413437 72.0
144.659897 180.0
144.887405 100.0
144.92334 124.0
144.990433 88.0
145.061691 352.0
145.09993 112.0
145.14386 40.0
145.20195 124.0
145.427734 180.0
145.542175 164.0
145.820831 120.0
145.902557 48.0
145.993942 144.0
146.06369 152.0
146.09639 1044.0
146.318771 32.0
146.901978 160.0
147.051575 72.0
147.075531 184.0
147.348587 84.0
147.394501 124.0
147.505676 48.0
147.706375 184.0
147.99437 48.0
148.110565 604.0
148.180862 272.0
148.205093 80.0
148.319 176.0
148.340805 112.0
148.374756 196.0
148.428085 144.0
148.454758 112.0
148.624573 52.0
148.913452 28.0
149.112671 128.0
149.58699 96.0
149.673813 144.0
149.934448 104.0
150.32547 48.0
150.545181 40.0
150.645325 176.0
151.087799 172.0
151.241974 208.0
151.386414 168.0
151.49173 132.0
151.756424 176.0
151.977173 132.0
152.298767 84.0
152.360184 60.0
152.458466 124.0
152.603485 56.0
152.723984 188.0
153.066513 328.0
153.159653 152.0
153.295166 100.0
153.438126 64.0
153.514557 44.0
153.674896 84.0
153.781006 96.0
154.04274 100.0
154.080185 252.0
154.183578 160.0
154.284927 156.0
154.950653 120.0
154.975433 52.0
155.057114 196.0
155.079468 600.0
155.126617 160.0
155.535904 72.0
155.87616 180.0
156.083145 176.0
156.104843 108.0
156.132202 244.0
156.1521 68.0
156.341187 140.0
157.069839 324.0
157.098846 916.0
157.131073 124.0
157.438095 156.0
157.552994 224.0
157.667923 100.0
157.882935 144.0
158.064789 132.0
158.088898 168.0
158.153137 108.0
158.807098 60.0
159.079224 2100.0
159.110138 704.0
159.799362 68.0
160.00322 188.0
160.081116 160.0
160.109329 388.0
160.191284 72.0
160.253006 136.0
160.32312 100.0
160.842682 168.0
160.915894 76.0
161.09288 196.0
161.119751 208.0
161.155838 132.0
161.502167 100.0
161.648911 232.0
161.810898 192.0
162.091293 504.0
162.126694 320.0
162.55864 116.0
163.094513 128.0
163.198746 200.0
163.427658 132.0
163.590546 96.0
163.707657 160.0
163.77388 164.0
164.344925 140.0
164.518478 148.0
165.031998 204.0
165.070007 140.0
165.164978 68.0
165.495117 60.0
165.612915 164.0
165.664139 104.0
166.079529 160.0
166.271835 180.0
166.43869 148.0
166.734116 156.0
166.934631 128.0
166.957779 120.0
167.08345 468.0
167.361786 208.0
167.503433 84.0
167.572983 148.0
167.593597 32.0
167.634827 108.0
168.095688 240.0
168.114487 48.0
168.220306 172.0
168.972336 176.0
169.011154 120.0
169.060318 172.0
169.100693 864.0
169.277771 80.0
169.46167 156.0
169.91539 208.0
169.933548 76.0
169.980255 148.0
170.01918 120.0
170.065903 140.0
170.096436 492.0
170.322952 68.0
170.348923 164.0
170.406082 100.0
170.530823 152.0
170.757019 152.0
171.111938 576.0
171.561615 88.0
171.871979 48.0
171.967026 124.0
171.998001 84.0
172.107788 280.0
172.148682 192.0
172.255768 236.0
173.1241 172.0
173.399185 152.0
174.024765 336.0
174.086533 112.0
174.128586 724.0
174.288803 200.0
174.411423 124.0
174.797531 144.0
174.843658 152.0
175.053314 200.0
175.109573 152.0
175.879471 152.0
175.924347 68.0
176.066925 124.0
176.095978 124.0
176.362839 112.0
176.643127 80.0
176.796585 140.0
176.854813 148.0
177.101059 168.0
177.376633 112.0
177.487976 36.0
177.74527 224.0
177.83551 152.0
178.744385 32.0
178.93869 224.0
179.08107 148.0
179.346268 248.0
179.676941 192.0
179.719635 140.0
179.87709 128.0
180.529007 64.0
180.892883 128.0
181.103348 200.0
181.306152 200.0
181.653915 176.0
182.090256 192.0
182.323868 196.0
182.427307 112.0
182.548294 132.0
182.677399 100.0
182.895355 176.0
183.114944 184.0
183.133438 208.0
183.374786 164.0
183.744217 172.0
183.835052 256.0
183.860245 116.0
184.112991 472.0
184.449051 140.0
184.476074 248.0
184.597748 188.0
184.906158 172.0
184.960281 132.0
185.044205 168.0
185.095825 404.0
185.114853 444.0
185.268997 112.0
186.025604 124.0
186.097931 372.0
186.12262 152.0
186.498245 76.0
186.609695 124.0
186.677673 208.0
186.914337 116.0
187.001419 132.0
187.047684 76.0
187.111618 300.0
187.488922 44.0
187.543427 132.0
187.75882 176.0
187.816101 56.0
188.106354 3372.0
188.165405 60.0
188.241852 60.0
188.269165 64.0
188.556015 52.0
188.878647 224.0
189.072906 152.0
189.11084 516.0
189.2043 100.0
189.228943 188.0
189.467209 108.0
189.486389 84.0
189.771423 48.0
190.115479 188.0
190.140701 208.0
190.303711 88.0
190.347641 152.0
191.048508 108.0
191.158569 176.0
191.477905 204.0
191.70105 92.0
191.985001 224.0
192.048431 60.0
192.244308 196.0
193.103516 164.0
193.236298 144.0
193.374649 288.0
193.424469 44.0
194.194763 144.0
194.402832 192.0
194.73877 224.0
195.186188 196.0
195.233459 140.0
195.714874 76.0
196.085373 184.0
196.141113 204.0
196.249847 84.0
196.389282 84.0
197.070435 152.0
197.674408 128.0
198.011536 148.0
198.126846 844.0
198.29332 116.0
198.388626 72.0
198.646622 228.0
199.120804 312.0
199.143997 204.0
199.196808 88.0
199.275482 132.0
199.401932 220.0
199.543304 164.0
199.646515 76.0
199.744965 128.0
199.812469 48.0
199.891266 112.0
199.944733 40.0
199.972397 144.0
200.044724 156.0
200.065765 156.0
200.103134 144.0
200.142761 39832.0
200.236115 56.0
200.28096 104.0
200.348984 176.0
200.38829 108.0
200.445084 108.0
200.468002 84.0
200.477966 128.0
200.505173 84.0
200.559738 100.0
200.59819 60.0
200.646545 184.0
200.719589 64.0
200.756073 68.0
200.79274 96.0
200.876831 172.0
200.947891 164.0
200.971634 128.0
201.01561 52.0
201.074875 176.0
201.098724 80.0
201.145538 6400.0
201.196243 32.0
201.241425 48.0
201.286591 156.0
201.308594 96.0
201.355576 84.0
201.412521 116.0
201.489014 96.0
201.526688 216.0
201.597336 44.0
201.642548 80.0
201.738647 100.0
201.764099 48.0
201.829117 148.0
201.905472 212.0
201.928101 112.0
202.029938 168.0
202.080856 124.0
202.121918 424.0
202.146866 604.0
202.192749 96.0
202.278961 92.0
202.335571 84.0
202.436172 136.0
202.462997 148.0
202.519638 140.0
202.545135 132.0
202.615646 108.0
202.731674 124.0
202.754791 36.0
202.796722 76.0
203.151764 116.0
203.27092 92.0
203.40715 80.0
203.472443 128.0
203.53775 104.0
203.827484 64.0
203.969589 100.0
204.245407 56.0
204.60965 56.0
204.754868 60.0
205.099625 192.0
206.894775 124.0
206.930786 92.0
207.025284 168.0
207.068237 188.0
207.094025 124.0
207.403473 136.0
207.455063 152.0
207.83078 116.0
208.42514 224.0
208.741348 100.0
209.221832 136.0
209.478134 108.0
209.596268 60.0
209.896042 116.0
210.121399 120.0
210.455811 32.0
210.837128 152.0
211.100189 132.0
211.20105 160.0
211.285309 88.0
211.519714 64.0
212.133667 152.0
213.027603 120.0
213.098129 180.0
213.405426 88.0
213.623535 120.0
214.120255 264.0
214.162048 184.0
214.648743 36.0
214.730392 144.0
214.847076 152.0
214.952103 88.0
215.063446 136.0
215.284897 148.0
215.425095 172.0
215.4543 108.0
215.524429 304.0
215.544876 204.0
215.808426 148.0
215.878128 204.0
216.038986 104.0
216.085907 292.0
216.137787 39048.0
216.215485 212.0
216.272018 88.0
216.319931 68.0
216.370529 84.0
216.395432 96.0
216.454605 136.0
216.506149 212.0
216.538345 100.0
216.585663 120.0
216.607758 68.0
216.6772 240.0
216.768036 72.0
216.882339 76.0
216.935104 52.0
216.958374 208.0
216.999588 76.0
217.072098 88.0
217.141312 4896.0
217.228348 192.0
217.301682 84.0
217.369629 128.0
217.492432 132.0
217.756683 36.0
217.789001 40.0
217.856552 48.0
217.877121 56.0
217.903564 128.0
218.024033 88.0
218.093948 168.0
218.152542 15680.0
218.256271 140.0
218.294495 32.0
218.329788 76.0
218.418015 96.0
218.438614 104.0
218.475266 164.0
218.518036 112.0
218.54158 76.0
218.601242 72.0
218.765244 32.0
218.785858 104.0
218.862411 116.0
218.905396 108.0
218.94191 160.0
219.07048 136.0
219.112762 96.0
219.154831 1268.0
219.265991 80.0
219.375046 32.0
219.416321 76.0
219.475281 152.0
219.557846 60.0
219.596191 76.0
219.631592 76.0
219.690582 68.0
219.770248 56.0
220.077209 132.0
220.15979 308.0
220.25145 68.0
220.316437 108.0
220.416885 96.0
220.449402 80.0
220.498459 140.0
220.578613 100.0
220.747971 64.0
220.966843 144.0
221.00531 108.0
221.221359 116.0
221.327942 84.0
222.062881 156.0
222.087845 156.0
222.110336 128.0
222.635666 52.0
223.093872 228.0
224.283951 96.0
224.916306 72.0
225.447937 72.0
226.02507 56.0
228.137802 152.0
228.344009 44.0
229.015182 140.0
230.333313 112.0
230.523666 52.0
232.895874 64.0
233.076401 164.0
233.363861 108.0
234.06369 144.0
234.100235 192.0
234.243378 80.0
235.051315 108.0
235.087936 44.0
235.670441 84.0
236.34996 100.0
236.484619 128.0
239.86647 72.0
240.04837 52.0
240.119293 168.0
240.455582 36.0
241.577225 132.0
243.179199 100.0
244.416061 88.0
245.138489 176.0
246.205383 32.0
247.882156 108.0
249.090057 144.0
250.077377 52.0
251.091888 116.0
251.284302 104.0
252.76619 184.0
259.198547 84.0
259.394043 192.0
260.199249 92.0
260.97998 136.0
261.089325 88.0
261.884277 132.0
262.029236 116.0
263.087036 160.0
266.112671 280.0
266.166107 176.0
266.435669 60.0
266.786652 164.0
267.118347 108.0
268.8974 60.0
272.627655 124.0
273.10437 152.0
273.176727 128.0
273.515656 184.0
273.825165 156.0
275.104523 64.0
277.075562 148.0
277.65564 108.0
278.192566 180.0
279.093506 104.0
279.179962 120.0
279.592499 208.0
279.708984 104.0
283.861847 64.0
285.157715 84.0
288.139923 48.0
289.929932 180.0
290.194336 192.0
290.221436 104.0
290.54364 92.0
290.567383 128.0
291.115021 160.0
292.079102 156.0
292.878998 88.0
292.957367 112.0
293.103851 116.0
293.349243 64.0
293.929047 96.0
294.601654 144.0
295.538422 60.0
296.428711 92.0
296.476685 116.0
296.661774 164.0
297.910889 104.0
301.843475 128.0
302.187866 192.0
303.436188 196.0
306.627258 116.0
308.008942 112.0
308.305939 68.0
309.257233 40.0
310.420349 156.0
311.43811 64.0
313.644318 116.0
316.746765 184.0
317.317322 108.0
317.930969 176.0
318.12619 68.0
319.394775 68.0
319.569092 152.0
319.864471 76.0
320.024658 132.0
320.085205 140.0
320.12439 36.0
320.199677 6648.0
320.295319 120.0
320.332123 104.0
320.359436 44.0
320.416443 64.0
320.444946 48.0
320.626678 52.0
321.090393 436.0
321.157928 180.0
321.201538 692.0
321.413971 88.0
321.489716 76.0
321.521851 68.0
321.657471 112.0
322.105774 168.0
322.200806 132.0
322.304413 136.0
322.757843 164.0
323.12265 120.0
323.197784 168.0
323.534241 52.0
323.903076 108.0
324.028442 32.0
324.777679 116.0
325.132874 96.0
325.455933 192.0
325.649872 60.0
327.289734 44.0
327.776001 92.0
328.843475 80.0
332.067169 88.0
334.144989 40.0
335.120728 184.0
335.827972 140.0
335.990723 32.0
336.123047 188.0
337.11673 120.0
337.566345 108.0
337.778473 148.0
337.84433 68.0
337.918182 152.0
338.008972 120.0
338.148041 76.0
338.210144 6916.0
338.32373 168.0
338.455536 44.0
338.493774 72.0
338.539764 44.0
338.787567 116.0
338.843536 116.0
338.972015 56.0
339.125946 100.0
339.211273 1060.0
339.287231 140.0
339.595245 44.0
339.782349 92.0
340.046539 80.0
340.217468 344.0
340.567902 88.0
340.725861 88.0
340.983093 92.0
341.273499 36.0
341.884125 48.0
342.163879 68.0
342.594757 40.0
342.661072 96.0
345.071136 64.0
347.337524 92.0
349.808624 76.0
351.224609 96.0
354.256195 108.0
355.200836 76.0
365.709229 100.0
370.888611 64.0
376.587067 128.0
378.667877 64.0
382.827271 36.0
396.725067 108.0
404.529144 88.0
425.218933 60.0
430.85614 56.0
467.165131 96.0
467.634155 128.0
474.545929 48.0
482.316742 92.0
492.851074 100.0
507.428009 140.0
519.274292 56.0
535.380188 68.0
537.385315 92.0
555.248535 80.0
555.586304 84.0
555.65863 48.0
557.365723 96.0
561.399902 92.0
573.646912 104.0
575.192505 52.0
607.250916 96.0
632.877502 60.0
637.216003 96.0
654.07666 56.0
656.144897 76.0
674.911316 68.0
676.059692 80.0
679.095642 104.0
679.131958 72.0
690.046997 76.0
699.86908 212.0
713.865234 224.0
720.004456 64.0
722.308105 212.0
729.122803 84.0
732.878906 96.0
737.698364 88.0
760.121948 164.0
766.13147 124.0
774.118164 104.0
784.976562 232.0
785.255371 216.0
785.729553 160.0
788.733887 192.0
792.931702 172.0
794.041809 244.0
794.400818 148.0
801.05658 108.0
803.824829 120.0
805.874512 64.0
806.7901 72.0
814.746826 148.0
827.035583 184.0
827.877197 152.0
831.528503 192.0
833.05072 180.0
835.643555 204.0
836.978882 200.0
840.171936 240.0
841.68988 184.0
842.359802 168.0
844.00116 180.0
844.296082 184.0
845.15802 152.0
847.166992 224.0
847.624695 176.0
848.105713 248.0
850.930847 188.0
851.017944 144.0
852.475891 152.0
852.539795 120.0
853.71991 72.0
853.958374 128.0
857.882996 156.0
864.869324 104.0
865.027344 112.0
866.268799 168.0
868.496277 164.0
868.859924 40.0
869.393921 232.0
871.460876 168.0
872.013245 204.0
872.28949 48.0
874.930847 188.0
876.415039 68.0
877.953552 164.0
878.177673 196.0
880.278687 152.0
881.282837 156.0
881.726013 136.0
881.909241 220.0
883.677429 188.0
884.33429 144.0
886.37146 208.0
887.936523 212.0
888.458496 176.0
888.767029 188.0
888.814514 88.0
889.497009 148.0
889.5578 84.0
889.835388 148.0
892.520996 108.0
894.139038 140.0
894.27002 168.0
894.662842 100.0
894.734314 152.0
897.28418 72.0
897.474976 180.0
898.351685 168.0
900.058594 48.0
900.297485 148.0
900.954529 168.0
902.867249 232.0
904.291138 96.0
905.04541 172.0
905.620361 204.0
905.764099 184.0
906.237366 164.0
907.723877 72.0
908.779602 144.0
910.934875 276.0
912.304993 184.0
913.333252 184.0
913.566162 184.0
917.53656 160.0
917.934509 164.0
918.17572 104.0
919.328003 208.0
919.768555 216.0
921.749512 204.0
923.829346 240.0
923.907959 136.0
924.258911 60.0
926.081116 208.0
926.184082 284.0
927.208008 112.0
929.245483 156.0
929.287964 176.0
930.629333 112.0
930.708252 56.0
931.065552 124.0
931.35199 112.0
931.771118 224.0
933.320984 140.0
934.142029 252.0
934.64093 52.0
934.738281 176.0
934.999939 148.0
936.388062 156.0
937.271423 180.0
938.770935 144.0
939.173462 84.0
940.009277 132.0
940.149658 92.0
942.195129 116.0
944.041077 196.0
945.031982 192.0
945.350159 132.0
946.341797 148.0
946.611206 148.0
946.843933 176.0
947.572876 176.0
948.099854 176.0
948.216309 88.0
948.26532 184.0
949.270752 168.0
952.351562 148.0
953.070374 88.0
953.389893 56.0
953.611145 144.0
954.428772 200.0
955.917358 68.0
956.625183 204.0
957.450256 144.0
959.798096 160.0
960.365417 168.0
960.445618 140.0
961.358765 52.0
962.284607 172.0
965.312317 208.0
967.18689 48.0
967.552124 216.0
967.799805 184.0
968.679199 196.0
969.342163 176.0
970.761719 132.0
971.344727 192.0
971.983765 52.0
972.653992 200.0
974.846436 172.0
975.00177 124.0
978.236145 160.0
981.363586 180.0
982.28656 208.0
982.835571 244.0
983.797241 188.0
984.258728 128.0
984.727112 212.0
984.795837 208.0
987.327026 204.0
987.570984 56.0
988.484375 180.0
989.767578 204.0
989.836426 192.0
989.899048 220.0
990.437683 160.0
990.97644 76.0
993.967285 144.0
997.075806 224.0
997.358643 192.0
997.471802 136.0
998.76709 136.0
998.962097 164.0
999.031311 172.0
999.559814 232.0
1000.201782 52.0
1000.333923 192.0
1002.349365 184.0
1003.767639 180.0
1004.814697 152.0
1006.979858 144.0
1007.125122 208.0
1008.224426 108.0
1009.248535 224.0
1009.370789 196.0
1009.570984 180.0
1009.855591 200.0
1010.184509 84.0
1010.5578 52.0
1011.07666 72.0
1011.424744 220.0
1011.760254 124.0
1011.950195 112.0
1012.228821 176.0
1013.033203 164.0
1013.254883 168.0
1014.408264 152.0
1014.547729 204.0
1014.896484 160.0
1014.972534 88.0
1015.397461 168.0
1015.701904 184.0
1016.209412 104.0
1016.29187 204.0
1018.012085 180.0
1018.46936 184.0
1018.869568 88.0
1019.498596 100.0
1020.134216 144.0
1020.229553 224.0
1020.452087 44.0
1020.795349 220.0
1021.037109 52.0
1021.348755 156.0
1022.595825 188.0
1023.257874 184.0
1023.391602 172.0
1023.939209 84.0
1023.990173 64.0
1024.111206 136.0
1024.385132 168.0
1024.850342 172.0
1025.066772 172.0
1026.163086 84.0
1027.145264 176.0
1028.568237 116.0
1028.62561 128.0
1029.251343 116.0
1029.487549 140.0
1030.004883 168.0
1030.119873 160.0
1030.982422 156.0
1031.314819 184.0
1032.766235 60.0
1033.757812 200.0
1033.911499 184.0
1034.148315 240.0
1035.953979 100.0
1036.556274 136.0
1037.158691 192.0
1037.774048 156.0
1037.883057 128.0
1038.44104 168.0
1038.915649 216.0
1040.443115 148.0
1041.252197 68.0
1041.586182 128.0
1041.682495 144.0
1042.158936 184.0
1042.27356 180.0
1042.479248 56.0
1042.569214 196.0
1042.871216 152.0
1042.961182 144.0
1043.816284 124.0
1043.957275 216.0
1044.311523 96.0
1044.781006 44.0
1045.010376 204.0
1045.224976 168.0
1045.849243 120.0
1046.409302 180.0
1046.776367 164.0
1047.594238 144.0
1048.219238 160.0
1048.328735 164.0
1049.068848 220.0
1049.366577 144.0
1049.598633 180.0
1051.643677 208.0
1051.882568 132.0
1052.043945 132.0
1052.89624 128.0
1053.484009 200.0
1054.201172 212.0
1054.841064 112.0
1055.151367 100.0
1055.306396 160.0
1055.720337 140.0
1055.946777 200.0
1056.218384 164.0
1057.803711 136.0
1058.017334 180.0
1058.172729 220.0
1059.455078 244.0
1059.597656 208.0
1060.608521 168.0
1061.807983 160.0
1061.937744 184.0
1062.547485 148.0
1062.897827 88.0
1063.02771 168.0
1063.306763 220.0
1063.553345 148.0
1063.87146 248.0
1064.615112 136.0
1065.729248 200.0
1066.079834 192.0
1066.339722 212.0
1066.430786 72.0
1066.80127 180.0
1066.963745 144.0
1067.373413 128.0
1067.568481 152.0
1067.841553 72.0
1068.765381 116.0
1070.034546 204.0
1071.089478 132.0
1071.350098 164.0
1071.903931 76.0
1073.20752 284.0
1073.605347 124.0
1073.703125 164.0
1074.068359 176.0
1074.577271 132.0
1075.35376 140.0
1076.104492 164.0
1076.241577 148.0
1077.044922 104.0
1079.253784 156.0
1080.188965 128.0
1080.503052 176.0
1081.137695 152.0
1081.680908 188.0
1081.759521 140.0
1082.990479 136.0
1083.47522 84.0
1084.97998 216.0
1085.172729 160.0
1085.323486 168.0
1085.428467 156.0
1088.144897 152.0
1089.405762 80.0
1089.655396 132.0
1089.977417 180.0
1090.240234 232.0
1090.582031 172.0
1091.259155 136.0
1091.344604 132.0
1091.864014 160.0
1092.344238 104.0
1093.686523 68.0
1093.739258 96.0
1093.976196 220.0
1094.041992 188.0
1094.246094 156.0
1094.754028 152.0
1094.832153 196.0
1095.312988 188.0
1095.424927 232.0
1095.721436 152.0
1095.787231 172.0
1096.755981 56.0
1097.098755 164.0
1097.625 192.0
1097.725098 96.0
1099.156616 232.0
1099.281982 84.0
1099.400757 208.0
1100.073975 172.0
1100.687988 228.0
1100.919067 136.0
1101.150269 112.0
1101.817383 188.0
1102.009033 224.0
1102.716064 160.0
1103.799316 136.0
1104.580688 196.0
1106.155518 184.0
1107.115601 144.0
1107.532837 212.0
1107.79126 184.0
1108.533203 68.0
1108.679077 260.0
1109.209229 160.0
1109.262329 148.0
1109.792725 140.0
1110.057861 204.0
1110.707275 164.0
1111.231934 92.0
1112.048218 236.0
1112.326904 144.0
1112.419922 192.0
1113.30957 184.0
1113.787842 208.0
1114.724609 44.0
1114.824219 60.0
1114.943848 152.0
1115.70166 96.0
1116.306641 148.0
1118.329102 204.0
1118.675293 56.0
1118.768433 148.0
1118.950928 192.0
1120.160278 80.0
1120.406738 104.0
1120.799805 140.0
1120.966431 156.0
1122.933105 220.0
1123.09314 224.0
1123.269897 164.0
1123.600098 180.0
1125.642578 32.0
1126.544189 260.0
1127.072021 140.0
1127.132202 140.0
1127.285889 148.0
1127.586548 188.0
1127.748047 124.0
1127.957764 244.0
1128.194824 132.0
1128.589355 180.0
1128.662842 144.0
1129.271484 176.0
1129.585815 140.0
1130.094238 156.0
1130.763428 164.0
1130.890625 36.0
1131.245361 164.0
1131.60022 192.0
1131.727417 212.0
1131.901489 184.0
1131.955078 192.0
1132.0354 132.0
1132.229614 120.0
1132.973145 192.0
1133.629761 196.0
1133.917969 192.0
1134.192749 164.0
1134.295776 248.0
1134.561401 212.0
1135.734985 96.0
1135.808716 224.0
1135.936157 140.0
1136.888916 156.0
1137.043213 132.0
1137.09021 152.0
1137.78833 180.0
1137.855469 148.0
1137.99646 204.0
1138.11731 224.0
1139.359863 204.0
1139.810059 128.0
1140.582886 228.0
1141.241699 140.0
1141.460205 128.0
1143.165527 152.0
1143.825073 232.0
1144.33667 236.0
1144.606079 164.0
1145.643311 164.0
1146.317017 208.0
1146.499023 192.0
1146.950562 112.0
1147.220215 172.0
1147.752808 212.0
1148.177612 96.0
1149.00061 40.0
1149.304199 148.0
1150.762085 128.0
1152.518188 184.0
1154.187744 76.0
1154.262207 200.0
1154.431152 96.0
1154.884277 192.0
1155.675781 124.0
1155.790894 216.0
1156.562378 160.0
1156.684204 144.0
1156.778931 140.0
1156.89917 200.0
1156.975342 168.0
1157.320557 240.0
1157.720093 192.0
1158.793823 196.0
1158.993652 132.0
1159.332397 156.0
1159.397705 152.0
1159.684814 140.0
1160.084717 140.0
1160.552612 112.0
1161.156128 196.0
1161.373169 148.0
1162.939575 140.0
1163.890869 172.0
1164.060669 180.0
1164.617554 140.0
1165.344482 192.0
1165.480347 256.0
1165.874512 192.0
1166.187134 148.0
1166.533813 176.0
1167.200073 180.0
1167.512817 68.0
1168.363037 132.0
1168.83252 180.0
1169.240845 200.0
1169.329346 244.0
1170.581909 96.0
1170.765869 188.0
1170.949707 156.0
1171.126831 172.0
1171.314575 116.0
1171.392456 216.0
1171.487793 76.0
1171.780762 184.0
1171.828491 116.0
1172.680298 84.0
1172.966553 160.0
1173.21875 184.0
1173.655151 124.0
1174.821411 156.0
1175.258057 192.0
1175.954102 176.0
1176.199829 164.0
1176.78125 168.0
1177.790771 76.0
1178.299561 224.0
1178.60498 216.0
1181.085449 148.0
1181.242676 208.0
1181.851562 160.0
1182.37854 144.0
1182.919312 172.0
1184.686035 124.0
1184.80249 144.0
1184.898438 196.0
1185.282104 44.0
1185.357422 240.0
1185.864624 60.0
1186.227905 152.0
1186.89978 132.0
1187.393555 160.0
1188.250977 152.0
1188.619751 148.0
1188.8479 148.0
1188.909668 176.0
1189.101807 160.0
1190.117798 184.0
1190.193359 204.0
1190.255127 184.0
1191.444092 188.0
1191.800659 156.0
1192.247314 148.0
1192.590942 188.0
1192.920898 152.0
1194.516235 96.0
1194.702026 184.0
1195.713501 104.0
1196.023193 152.0
1196.174683 136.0
1197.097168 112.0
1197.241821 116.0
1197.510498 148.0
1197.655029 220.0
1197.91687 152.0
1197.978882 116.0
1198.74231 400.0
1199.039917 120.0
1199.281128 132.0
1199.391479 204.0
1199.687866 176.0
1200.432495 148.0
1200.584229 96.0
1200.673828 192.0
1200.797974 184.0
1201.391235 144.0
1201.453369 140.0
1201.515381 136.0
1201.615845 180.0
1202.226074 164.0
1202.502197 180.0
1203.006104 176.0
1203.075073 172.0
1203.634277 168.0
1204.457153 240.0
1204.656494 80.0
1205.340454 144.0
1205.485596 160.0
1206.252808 220.0
1206.356445 48.0
1207.179199 196.0
1207.310669 152.0
1207.677246 112.0
1208.057617 224.0
1208.618042 176.0
1208.694092 184.0
1208.991699 164.0
1209.225952 128.0
1209.38623 184.0
1209.843018 204.0
1209.905396 144.0
1210.517944 152.0
1210.736328 220.0
1211.297363 164.0
1211.456665 176.0
1213.528809 184.0
1213.729858 136.0
1214.035034 148.0
1214.125122 172.0
1214.243042 132.0
1214.45813 176.0
1214.797974 152.0
1214.999146 244.0
1215.241943 260.0
1215.408569 56.0
1216.040039 176.0
1216.914673 120.0
1218.234253 184.0
1218.303711 132.0
1218.401001 180.0
1219.019409 136.0
1219.084717 136.0
1219.943726 196.0
1220.29834 128.0
1220.757202 156.0
1222.051025 212.0
1222.17627 184.0
1222.31543 128.0
1222.689819 196.0
1224.25061 228.0
1224.477051 112.0
1224.682495 104.0
1224.849609 148.0
1224.974976 160.0
1225.309448 136.0
1226.208252 152.0
1226.905396 188.0
1227.051758 140.0
1227.456177 184.0
1227.728149 212.0
1227.937378 128.0
1228.139648 156.0
1228.258179 116.0
1228.767456 152.0
1229.325684 212.0
1229.814209 152.0
1229.876953 184.0
1230.121338 176.0
1230.302856 180.0
1230.400513 160.0
1231.231445 200.0
1231.720459 140.0
1232.663574 168.0
1232.950073 188.0
1233.751953 172.0
1233.963623 228.0
1234.341187 160.0
1234.565063 96.0
1234.697876 104.0
1235.08252 180.0
1235.201416 120.0
1235.257446 232.0
1235.537231 172.0
1236.278931 48.0
1237.195801 88.0
1237.321899 152.0
1238.015015 180.0
1238.239136 160.0
1238.494873 124.0
1238.834595 96.0
1240.544434 96.0
1240.614502 88.0
1240.901978 48.0
1240.986084 64.0
1241.596191 108.0
1241.694336 208.0
1242.430908 104.0
1243.027222 124.0
1243.195679 124.0
1243.47644 136.0
1243.625488 200.0
1243.708008 160.0
1244.585571 200.0
1244.789185 132.0
1244.880493 100.0
1245.231689 184.0
1245.365112 132.0
1246.032471 144.0
1246.27832 156.0
1246.868652 160.0
1247.037354 228.0
1247.205933 176.0
1247.686768 176.0
1247.838623 84.0
1248.499634 200.0
1248.548828 96.0
1248.970825 184.0
1249.540649 72.0
1249.666382 156.0
1249.786987 168.0
1250.103638 180.0
1250.645508 92.0
1250.72998 120.0
1250.976318 200.0
1251.342407 60.0
1251.784668 252.0
1251.92688 176.0
1252.293091 104.0
1252.447998 148.0
1253.103149 180.0
1254.653687 152.0
1254.766479 156.0
1254.815796 180.0
1255.154297 160.0
1255.633789 120.0
1255.753784 116.0
1255.866577 168.0
1256.19104 136.0
1256.268677 144.0
1256.522583 156.0
1256.974243 180.0
1257.228271 240.0
1257.70105 188.0
1257.97644 136.0
1259.317993 248.0
1260.109131 180.0
1260.165649 80.0
1260.243408 192.0
1260.442627 184.0
1260.65332 144.0
1261.128174 160.0
1261.529663 196.0
1261.897339 172.0
1262.166016 200.0
1262.392334 184.0
1263.191528 144.0
1264.160767 160.0
1265.331787 156.0
1265.71814 188.0
1265.958862 160.0
1266.284668 132.0
1266.334229 208.0
1266.567993 136.0
1267.34729 160.0
1267.588135 180.0
1267.850342 172.0
1268.318115 100.0
1268.651367 168.0
1268.899414 264.0
1268.949097 200.0
1269.707764 164.0
1269.934814 176.0
1270.55896 120.0
1270.665405 172.0
1271.147949 172.0
1271.282715 180.0
1272.106079 176.0
1272.517822 204.0
1272.688232 116.0
1272.80188 192.0
1273.1427 152.0
1273.682495 220.0
1273.77478 132.0
1274.03772 192.0
1274.272095 52.0
1274.797974 136.0
1275.771606 188.0
1276.248047 168.0
1276.475586 148.0
1276.731567 196.0
1276.980469 144.0
1277.513062 200.0
1277.604126 212.0
1277.983521 112.0
1278.093384 172.0
1279.940918 220.0
1280.069092 64.0
1280.22583 148.0
1280.318359 164.0
1280.453613 164.0
1280.588989 160.0
1280.667358 144.0
1281.103394 180.0
1281.821411 128.0
1281.956909 148.0
1282.505615 148.0
1282.648193 60.0
1282.71228 220.0
1282.883423 176.0
1283.111572 36.0
1283.525146 144.0
1283.810303 128.0
1283.98999 180.0
1284.15979 160.0
1284.865967 136.0
1284.915894 68.0
1286.457397 144.0
1287.014282 148.0
1288.285522 132.0
1288.430542 208.0
1288.957153 132.0
1289.578979 192.0
1289.921997 164.0
1290.86145 228.0
1291.201904 160.0
1291.709717 120.0
1291.831299 156.0
1292.224854 144.0
1292.639771 132.0
1293.77063 152.0
1294.12146 224.0
1294.276733 212.0
1294.305298 144.0
1294.393555 200.0
1294.47229 136.0
1294.522461 36.0
1294.708618 204.0
1296.076904 136.0
1296.213013 164.0
1296.313354 156.0
1296.420776 252.0
1296.642944 84.0
1296.85144 196.0
1297.288086 212.0
1297.352661 84.0
1297.768433 224.0
1298.205811 300.0
1298.413818 156.0
1299.07373 168.0
1299.453979 204.0
1299.762451 120.0
1300.264771 192.0
1300.508789 240.0
1300.960205 180.0
1301.542603 176.0
1302.044434 172.0
1302.13147 228.0
1302.203247 144.0
1302.454712 152.0
1303.331177 200.0
1303.388672 188.0
1303.532349 152.0
1303.759033 124.0
1303.884521 184.0
1304.538574 128.0
1304.811768 184.0
1305.127319 176.0
1305.509277 160.0
1306.067871 184.0
1306.401123 192.0
1306.688843 80.0
1307.13501 60.0
1307.372437 136.0
1307.933838 156.0
1308.300903 180.0
1308.358521 104.0
1308.408936 160.0
1308.553223 172.0
1308.654297 208.0
1308.884155 60.0
1309.352173 48.0
1309.748413 168.0
1309.87085 204.0
1310.187744 108.0
1311.081299 180.0
1311.535278 192.0
1311.585815 176.0
1311.722778 208.0
1311.931763 48.0
1312.075928 164.0
1312.198486 144.0
1312.465332 84.0
1312.688843 264.0
1312.796997 164.0
1313.013306 180.0
1313.455078 248.0
1313.640869 136.0
1313.698608 164.0
1313.770752 52.0
1313.936646 156.0
1314.275757 84.0
1314.511475 232.0
1314.571655 140.0
1314.668335 108.0
1315.325073 176.0
1315.863647 172.0
1316.109131 204.0
1316.318481 164.0
1316.629028 164.0
1317.084106 140.0
1317.149048 108.0
1317.257446 208.0
1317.481323 168.0
1317.690918 172.0
1318.073853 160.0
1318.435181 164.0
1318.803711 132.0
1318.948364 180.0
1318.998901 144.0
1319.736328 180.0
1319.960449 160.0
1320.470215 200.0
1320.519165 128.0
1320.929565 176.0
1321.457764 184.0
1322.022095 200.0
1322.692505 176.0
1322.941284 192.0
1323.563965 156.0
1323.86084 288.0
1323.976807 120.0
1324.150513 48.0
1324.309937 176.0
1324.432983 192.0
1324.544678 88.0
1324.780762 184.0
1324.932861 112.0
1325.135742 208.0
1325.526978 108.0
1325.717163 148.0
1325.976318 96.0
1326.034302 136.0
1326.099487 92.0
1327.832275 212.0
1328.949463 120.0
1329.036499 188.0
1329.130859 176.0
1330.081543 192.0
1330.154175 136.0
1330.51709 200.0
1330.887451 132.0
1330.967285 120.0
1331.076172 148.0
1331.853271 176.0
1332.165649 116.0
1332.332764 180.0
1332.921265 208.0
1333.073853 180.0
1333.211914 132.0
1333.684326 204.0
1334.179932 156.0
1334.600342 168.0
1335.136963 176.0
1335.473022 208.0
1335.873047 224.0
1335.945801 192.0
1336.527832 200.0
1336.949951 200.0
1337.20459 64.0
1337.524902 172.0
1337.58313 144.0
1337.699585 100.0
1338.092651 124.0
1338.675171 72.0
1338.791748 120.0
1339.061157 184.0
1339.17041 160.0
1339.592896 140.0
1339.723999 128.0
1339.772949 264.0
1339.935303 164.0
1341.130371 164.0
1341.22522 108.0
1342.041626 164.0
1342.238525 164.0
1342.668823 160.0
1342.785522 164.0
1343.062622 152.0
1343.398193 244.0
1343.536743 160.0
1344.390503 192.0
1344.5802 104.0
1344.704346 100.0
1345.521851 44.0
1345.65332 188.0
1345.989136 52.0
1346.99707 216.0
1347.72876 180.0
1347.822632 216.0
1349.006592 220.0
1349.416016 192.0
1349.525635 192.0
1350.542114 184.0
1350.746948 216.0
1351.061523 132.0
1351.149292 40.0
1351.339478 168.0
1351.756592 132.0
1352.283569 192.0
1352.488403 32.0
1352.825195 168.0
1353.213135 68.0
1353.894165 192.0
1354.165161 160.0
1354.311646 60.0
1354.685181 156.0
1355.058594 160.0
1355.33728 204.0
1355.498535 136.0
1357.360352 156.0
1357.419067 184.0
1357.55835 172.0
1357.807739 140.0
1358.240479 240.0
1358.401855 152.0
1359.230835 140.0
1359.561157 116.0
1360.140869 188.0
1360.309692 92.0
1360.390503 100.0
1360.537354 108.0
1361.242188 88.0
1361.315674 204.0
1361.668091 152.0
1361.719482 108.0
1362.137085 180.0
1362.490845 176.0
1362.564331 152.0
1363.034546 216.0
1363.703247 176.0
1363.795044 132.0
1363.98999 112.0
1364.195801 200.0
1364.386963 148.0
1364.651611 152.0
1365.30603 208.0
1365.401611 88.0
1365.688477 176.0
1366.265625 184.0
1366.836182 172.0
1367.27771 84.0
1367.395386 260.0
1367.697144 152.0
1367.822388 168.0
1367.984253 172.0
1368.261108 192.0
1368.823608 212.0
1369.670532 144.0
1369.817871 92.0
1370.643066 200.0
1371.114624 68.0
1371.254639 188.0
1371.999146 212.0
1372.316162 144.0
1372.552124 196.0
1372.758667 336.0
1372.839722 152.0
1373.341309 132.0
1373.680542 172.0
1373.820679 168.0
1374.241211 160.0
1374.831543 172.0
1375.817139 180.0
1376.005249 152.0
1376.470337 180.0
1376.743652 180.0
1377.66687 68.0
1378.442627 240.0
1378.886108 184.0
1379.04126 236.0
1379.314819 204.0
1380.460693 156.0
1381.178101 160.0
1381.55542 124.0
1381.984497 140.0
1382.065918 260.0
1382.228638 36.0
1382.317505 132.0
1382.613525 168.0
1383.087158 180.0
1383.390625 44.0
1383.694214 136.0
1383.886719 156.0
1383.975586 184.0
1384.264404 124.0
1384.52356 200.0
1384.945679 120.0
1385.049438 180.0
1385.24939 196.0
1385.64209 36.0
1385.70874 180.0
1385.916138 192.0
1386.041992 180.0
1386.227417 80.0
1386.405273 96.0
1387.228027 164.0
1387.494873 172.0
1388.117676 128.0
1388.734863 200.0
1388.859253 120.0
1388.955688 172.0
1389.081787 224.0
1389.452759 176.0
1389.653076 116.0
1389.858521 176.0
1390.209595 52.0
1390.409912 28.0
1390.52124 108.0
1390.632568 36.0
1390.68457 36.0
1390.795898 136.0
1391.189331 160.0
1391.359253 188.0
1391.643921 192.0
1391.76416 208.0
1391.872437 156.0
1392.043213 176.0
1392.40625 136.0
1392.897461 216.0
1393.083496 176.0
1393.213867 148.0
1393.580811 176.0
1393.922607 376.0
1394.234619 132.0
1394.370605 180.0
1394.524536 128.0
1394.732666 236.0
1395.134033 252.0
1395.208374 216.0
1395.441528 424.0
1396.241943 172.0
1396.688232 180.0
1396.77002 132.0
1396.896484 84.0
1396.963501 136.0
1397.015503 204.0
1397.618164 136.0
1397.982788 192.0
1398.674927 184.0
1398.831299 196.0
1398.942871 196.0
1400.432129 148.0
1400.937866 156.0
1401.281372 96.0
1401.519775 244.0
1401.974365 140.0
1402.250122 204.0
1402.447388 172.0
1403.323608 140.0
1403.582275 200.0
1403.994629 172.0
1404.218384 144.0
1404.457031 104.0
1404.755493 200.0
1405.173218 212.0
1405.247803 164.0
1405.680664 124.0
1405.859741 176.0
1406.105957 188.0
1406.97937 188.0
1408.211426 192.0
1408.746826 208.0
1408.950928 136.0
1409.24231 56.0
1409.974609 64.0
1410.198853 148.0
1410.467896 192.0
1411.327637 172.0
1411.738892 160.0
1411.880981 128.0
1412.830933 168.0
1412.965576 184.0
1413.085327 164.0
1413.377075 172.0
1413.594116 76.0
1413.758789 148.0
1413.870972 244.0
1414.529663 148.0
1414.671875 168.0
1415.091187 176.0
1415.195923 184.0
1415.315308 216.0
1415.712646 164.0
1416.394165 204.0
1416.753784 48.0
1417.712891 192.0
1417.787842 148.0
1417.967651 204.0
1418.072632 132.0
1418.304932 160.0
1418.357422 200.0
1419.095459 144.0
1419.286987 156.0
1419.481934 208.0
1419.699463 92.0
1420.523193 96.0
1421.117188 192.0
1421.574951 132.0
1422.167847 164.0
1422.316895 152.0
1422.328857 232.0
1422.595703 104.0
1423.278931 104.0
1423.721924 140.0
1423.800903 164.0
1423.868286 116.0
1423.99231 196.0
1424.097412 184.0
1424.705933 136.0
1424.788574 100.0
1425.028931 156.0
1425.322021 136.0
1425.712769 160.0
1425.825439 220.0
1425.915649 200.0
1426.562012 196.0
1426.644775 32.0
1427.021973 236.0
1427.186035 156.0
1427.742554 156.0
1428.306641 128.0
1428.471191 144.0
1428.908447 192.0
1429.224487 188.0
1429.517944 208.0
1429.698486 216.0
1429.81897 204.0
1430.067261 164.0
1430.247925 168.0
1430.488892 52.0
1430.759888 88.0
1431.17395 180.0
1431.271851 184.0
1431.806519 184.0
1431.93457 236.0
1432.175537 168.0
1432.514526 52.0
1433.101562 160.0
1433.185059 180.0
1433.260376 192.0
1433.554199 248.0
1433.697388 44.0
1434.044067 160.0
1434.240112 136.0
1434.322998 144.0
1434.692383 108.0
1434.880859 192.0
1435.009033 140.0
1435.265381 168.0
1435.551392 180.0
1435.876221 192.0
1436.049683 168.0
1436.147705 168.0
1436.585205 148.0
1436.705933 192.0
1437.068115 148.0
1437.79248 128.0
1438.298218 140.0
1438.569946 144.0
1438.819092 88.0
1439.219238 172.0
1439.268799 188.0
1439.470337 220.0
1439.702515 144.0
1439.815796 200.0
1439.917847 152.0
1440.148071 192.0
1440.231201 56.0
1441.24353 184.0
1442.044556 144.0
1442.339355 180.0
1442.414917 200.0
1442.61145 140.0
1442.724854 196.0
1443.239014 192.0
1443.382568 140.0
1443.707764 104.0
1444.070801 152.0
1444.184204 112.0
1444.306396 168.0
1444.789429 164.0
1445.561157 152.0
1445.761963 156.0
1446.499634 148.0
1446.908447 180.0
1447.0448 160.0
1447.385498 172.0
1449.483643 164.0
1449.559448 176.0
1449.771606 80.0
1450.908569 192.0
1451.697144 132.0
1452.457764 152.0
1452.87146 112.0
1453.199097 220.0
1453.427124 192.0
1454.147583 180.0
1455.589966 144.0
1456.402588 128.0
1456.455811 200.0
1456.835571 152.0
1456.973145 196.0
1457.262817 192.0
1457.914185 192.0
1458.05896 152.0
1458.279297 176.0
1458.560547 48.0
1458.811401 136.0
1458.988037 120.0
1459.731445 172.0
1460.499512 152.0
1461.442871 140.0
1461.747192 168.0
1462.363647 208.0
1463.063965 96.0
1463.596924 176.0
1463.695923 176.0
1463.80249 132.0
1464.320312 184.0
1464.54126 76.0
1464.768677 172.0
1465.028809 156.0
1465.569946 136.0
1465.623047 176.0
1465.828735 80.0
1466.263184 144.0
1466.324097 144.0
1466.911011 128.0
1467.162598 144.0
1467.505615 184.0
1467.970825 152.0
1469.199463 188.0
1469.547729 160.0
1469.618408 144.0
1470.366211 144.0
1470.488403 68.0
1470.579956 228.0
1470.648682 212.0
1470.749023 156.0
1470.915771 224.0
1470.984497 208.0
1471.175293 112.0
1471.344727 176.0
1471.549438 204.0
1471.679199 56.0
1472.46582 68.0
1472.534546 88.0
1472.649048 180.0
1472.763672 196.0
1472.992798 224.0
1473.344238 176.0
1473.496948 232.0
1473.657471 108.0
1473.940186 232.0
1474.505615 120.0
1474.864868 92.0
1474.994873 164.0
1476.088989 184.0
1476.646362 144.0
1476.868164 168.0
1477.051758 160.0
1477.143555 124.0
1477.87793 80.0
1478.367676 168.0
1478.735107 164.0
1478.888184 192.0
1479.811768 176.0
1479.959839 88.0
1480.668091 172.0
1481.139282 148.0
1481.39209 184.0
1481.552979 184.0
1481.629517 156.0
1481.890015 88.0
1482.204224 176.0
1482.357422 192.0
1482.640991 160.0
1483.146851 156.0
1483.338501 48.0
1483.54541 200.0
1483.637451 252.0
1483.813721 188.0
1484.160889 200.0
1484.209839 168.0
1484.39856 208.0
1484.718628 52.0
1485.002563 152.0
1485.209473 128.0
1485.485596 44.0
1486.529053 152.0
1486.636475 152.0
1487.316895 236.0
1487.634277 156.0
1487.780151 248.0
1488.700439 148.0
1488.77832 200.0
1488.985596 220.0
1489.047119 164.0
1489.38501 140.0
1489.577026 140.0
1489.699951 196.0
1489.861328 188.0
1489.93811 176.0
1491.090698 168.0
1491.813232 36.0
1492.201782 232.0
1492.282227 224.0
1492.689697 196.0
1492.790039 200.0
1493.95874 216.0
1494.689697 192.0
1495.428467 160.0
1495.598999 208.0
1495.824951 192.0
1496.02124 136.0
1496.105835 136.0
1496.182861 172.0
1496.43689 136.0
1496.814209 164.0
1497.253174 112.0
1497.414917 196.0
1497.653687 160.0
1498.424072 168.0
1498.743286 212.0
1498.840088 140.0
1499.19458 180.0
1499.687744 180.0
1500.489502 156.0
1500.720825 112.0
1500.857544 176.0
1501.599854 144.0
1501.800415 120.0
1501.882812 164.0
1502.240845 184.0
1502.30188 196.0
1502.718384 192.0
1503.219971 192.0
1503.868286 148.0
