>compound NCGC00160339-01!(5-Hydroxy-benzofuran-3-yl)-(4-methoxy-phenyl)-methanone
>formula C16H12O4
>ionization [M+H]+
>parentmass 269.081
#inchi InChI=1S/C16H12O4/c1-19-12-5-2-10(3-6-12)16(18)14-9-20-15-7-4-11(17)8-13(14)15/h2-9,17H,1H3
#inchikey VUQAOMULUVFNHK
#Ion_Source LC-ESI
#Instrument qTOF
#Compound_Source Prestwick Phytochem Lib
#PI Dorrestein
#Data_Collector VVP/LMS
#Scan -1
#Precursor_MZ 269.081
#ExactMass 268.074
#Charge 1
#CAS_Number N/A
#Pubmed_ID N/A
#Smiles COC1=CC=C(C=C1)C(=O)C2=COC3=C2C=C(O)C=C3
#INCHI_AUX N/A
#Library_Class 1
#SpectrumID CCMSLIB00000078711
#IonMode Positive
#UpdateWorkflowName UPDATE-SINGLE-ANNOTATED-GOLD
#LibraryQualityString Gold
#TaskID 67c915c6594c435cadc1fe2b5358144d
##Scan# 2114
#SpectrumFile p1-F02_GF2_01_17934.mzXML
#LibraryName phytochem_lib.mgf
#MQScore -1
#Organism phytochem_lib
#TIC_Query 0
#RT_Query -1
#MZErrorPPM -1
#SharedPeaks 0
#MassDiff 0
#LibMZ -1
#SpecMZ 269.081
#SpecCharge 0
#internalFilename spec-00000.mgf

>collision 10
95.747322 56.0
95.873947 136.0
96.135269 200.0
96.205536 148.0
96.387169 124.0
96.666794 200.0
96.831879 172.0
96.935066 116.0
97.331299 84.0
98.06311 168.0
98.082825 68.0
98.17746 204.0
98.252411 128.0
98.831299 196.0
99.049065 64.0
99.493881 128.0
99.755486 168.0
100.083755 60.0
100.223183 140.0
100.302895 100.0
100.368683 148.0
100.492348 104.0
100.673988 276.0
100.835815 180.0
100.921768 192.0
101.757256 160.0
101.843605 188.0
101.8657 144.0
101.911911 80.0
102.010384 144.0
102.181328 196.0
102.324219 156.0
102.642563 128.0
103.2686 192.0
103.628929 204.0
103.756615 196.0
103.981773 200.0
104.036575 108.0
104.085304 140.0
104.361641 184.0
104.404343 208.0
104.532501 140.0
104.821655 168.0
104.890945 168.0
104.990852 156.0
105.033485 8940.0
105.076523 136.0
105.113251 48.0
105.127533 140.0
105.15406 52.0
105.493134 52.0
105.536064 240.0
105.812271 84.0
105.861412 200.0
105.97612 60.0
106.01915 264.0
106.036263 776.0
106.464317 128.0
106.632782 48.0
106.809601 96.0
107.049522 1272.0
107.093651 36.0
107.36982 36.0
107.398697 184.0
107.656677 176.0
107.875687 84.0
108.051994 300.0
108.778862 192.0
108.841141 104.0
109.200653 196.0
109.760849 116.0
111.269562 236.0
112.176094 208.0
112.370117 160.0
113.147865 140.0
113.18174 68.0
113.251625 172.0
113.450806 184.0
113.510178 180.0
113.883682 36.0
113.92617 140.0
114.325897 72.0
114.726326 184.0
114.758308 180.0
115.050591 196.0
115.873962 128.0
116.601387 148.0
116.704567 148.0
116.872337 232.0
116.906769 148.0
117.922539 128.0
118.05658 144.0
118.086853 128.0
118.158241 104.0
118.422333 208.0
118.56749 304.0
118.639015 68.0
118.871086 140.0
118.957901 140.0
119.014351 120.0
119.462051 200.0
120.266113 192.0
120.530357 160.0
120.980904 112.0
121.033447 208.0
121.138573 160.0
121.300728 192.0
121.434479 188.0
121.541969 220.0
121.662682 208.0
122.806915 56.0
123.577881 184.0
123.766014 216.0
124.340157 60.0
124.593292 204.0
124.708839 212.0
124.99572 212.0
125.026878 112.0
125.059921 556.0
125.103279 172.0
126.019165 180.0
127.594742 148.0
127.857918 104.0
128.060547 124.0
128.218567 144.0
128.576828 140.0
128.976608 248.0
129.284195 132.0
129.920883 208.0
131.070435 308.0
131.547989 92.0
131.579941 176.0
131.668991 180.0
132.482422 116.0
132.513062 172.0
132.806488 164.0
132.875305 172.0
132.951035 108.0
133.027939 8076.0
133.16684 92.0
133.189804 120.0
133.25412 92.0
133.396606 56.0
133.951187 52.0
134.031219 544.0
134.569229 124.0
134.677765 68.0
134.80484 156.0
134.874161 112.0
134.915771 52.0
134.988373 172.0
135.044052 12244.0
135.124969 88.0
135.151688 112.0
135.201141 108.0
135.225739 56.0
135.281281 76.0
135.304428 52.0
135.334534 36.0
135.391541 84.0
135.415588 60.0
135.434113 36.0
136.046967 1160.0
136.153091 44.0
136.246002 48.0
136.341263 56.0
136.43425 176.0
136.745941 44.0
136.822754 76.0
136.843704 72.0
136.878632 68.0
136.983444 48.0
137.043198 148.0
137.074295 128.0
137.870056 104.0
138.611862 156.0
139.350967 36.0
139.93425 172.0
140.115585 80.0
141.063599 156.0
141.568222 84.0
142.046982 144.0
142.075165 204.0
142.588333 156.0
142.992645 152.0
143.016449 168.0
143.291183 160.0
145.065918 164.0
145.296143 180.0
145.944611 172.0
147.055161 176.0
147.784958 188.0
147.95195 200.0
148.846603 100.0
149.697693 96.0
149.953491 68.0
150.285141 76.0
150.509689 216.0
151.125641 112.0
152.061493 516.0
153.070114 332.0
153.205109 192.0
153.619263 152.0
154.09079 132.0
154.325592 80.0
155.085068 176.0
155.762955 124.0
155.966721 160.0
156.26265 144.0
156.730728 56.0
157.064789 188.0
157.971542 116.0
158.68779 184.0
159.533844 84.0
160.011826 164.0
160.301483 104.0
160.578796 152.0
160.626724 164.0
160.694839 104.0
160.732681 160.0
160.880615 228.0
160.967438 288.0
160.991302 292.0
161.022995 31588.0
161.122009 40.0
161.144241 68.0
161.244476 84.0
161.293335 52.0
161.321152 64.0
161.343369 168.0
161.371704 80.0
161.422287 76.0
161.450104 160.0
161.480438 72.0
161.5392 52.0
161.611359 48.0
161.725403 108.0
161.890427 128.0
161.961349 180.0
162.026871 4400.0
162.207123 60.0
162.24205 72.0
162.251007 104.0
162.341507 64.0
162.427734 128.0
162.524139 68.0
162.579971 52.0
162.597733 52.0
162.731659 100.0
162.907501 52.0
162.948151 92.0
163.029358 1112.0
163.082825 84.0
163.108246 120.0
163.136215 48.0
163.18869 56.0
163.26358 168.0
163.293137 140.0
163.331009 112.0
163.348267 112.0
163.583923 48.0
163.884445 44.0
163.907364 52.0
164.23114 100.0
164.856628 200.0
164.989548 88.0
165.069229 292.0
165.242737 80.0
166.047058 64.0
166.801926 216.0
168.058685 184.0
168.149002 36.0
169.064957 408.0
169.623306 40.0
169.838531 120.0
170.073196 624.0
170.12915 104.0
170.149918 104.0
170.199249 124.0
170.446014 68.0
171.038971 52.0
171.084442 180.0
172.324188 120.0
172.34552 104.0
172.533707 136.0
173.423706 100.0
173.99556 68.0
175.722046 100.0
176.948364 100.0
177.825775 32.0
179.792542 52.0
180.055145 196.0
180.949951 172.0
181.069 320.0
182.06839 380.0
182.471161 48.0
183.044266 144.0
186.126846 136.0
187.890533 56.0
193.940399 180.0
195.080002 332.0
197.059952 316.0
197.325455 116.0
198.065765 212.0
198.947556 268.0
199.068283 124.0
203.916183 140.0
210.069626 184.0
212.050278 132.0
212.085266 168.0
212.885803 108.0
213.086655 192.0
214.104294 200.0
218.065628 180.0
220.523712 100.0
223.087921 156.0
225.055725 168.0
225.911743 68.0
226.06134 184.0
235.54921 100.0
237.057541 112.0
237.14949 112.0
240.906586 68.0
241.085785 144.0
249.652161 108.0
254.157272 148.0
265.406708 92.0
269.077881 292.0
271.035919 144.0
271.196503 128.0
276.310516 56.0
295.98288 84.0
307.78476 168.0
350.757233 52.0
352.15271 80.0
358.146423 64.0
369.565857 88.0
377.045166 56.0
396.334747 36.0
420.29364 48.0
430.362183 80.0
490.513062 56.0
506.980621 68.0
596.192505 52.0
613.30304 60.0
646.892944 48.0
732.569763 196.0
784.265686 224.0
784.382751 56.0
795.71106 176.0
830.997742 140.0
841.328308 104.0
844.44281 104.0
851.937561 160.0
852.98938 72.0
867.02063 180.0
876.799866 76.0
882.768188 156.0
884.661499 132.0
901.9599 160.0
915.434998 160.0
929.634949 140.0
934.082336 128.0
940.681641 204.0
942.397766 188.0
944.503784 20.0
967.032837 160.0
975.965881 216.0
977.359131 132.0
978.641357 96.0
997.076111 96.0
1000.472717 184.0
1000.806396 140.0
1008.546997 132.0
1021.730469 256.0
1025.149658 196.0
1026.170898 236.0
1046.099976 68.0
1048.096558 156.0
1051.43689 128.0
1061.651855 160.0
1065.70105 256.0
1065.799805 180.0
1069.369995 176.0
1069.61084 156.0
1070.190186 176.0
1077.854248 140.0
1086.254028 192.0
1089.240723 216.0
1091.527832 80.0
1094.771973 64.0
1099.294189 132.0
1112.677612 152.0
1115.175293 160.0
1116.85083 168.0
1121.045166 184.0
1146.692871 176.0
1146.98645 200.0
1163.617554 32.0
1165.505737 200.0
1166.831055 184.0
1169.626953 96.0
1182.150635 212.0
1184.588013 188.0
1185.389648 160.0
1189.147827 196.0
1190.349121 228.0
1196.158691 148.0
1204.308838 148.0
1204.640381 108.0
1206.768921 172.0
1213.020264 184.0
1215.06604 148.0
1215.149292 216.0
1227.258301 164.0
1231.487183 44.0
1232.255615 156.0
1238.530518 116.0
1250.62146 144.0
1252.043579 144.0
1258.912354 180.0
1259.166626 212.0
1263.478394 204.0
1263.598633 128.0
1264.044434 176.0
1266.246094 144.0
1271.080811 196.0
1271.740845 108.0
1272.983154 192.0
1274.545898 68.0
1274.801758 220.0
1276.699829 116.0
1277.098022 188.0
1280.578491 256.0
1286.889404 160.0
1287.717773 204.0
1293.795776 344.0
1294.046265 180.0
1296.625122 200.0
1300.354492 216.0
1301.531738 160.0
1302.400757 148.0
1302.551514 116.0
1305.196289 180.0
1306.210327 188.0
1306.296631 148.0
1316.047485 180.0
1318.243408 120.0
1320.572144 164.0
1323.132812 160.0
1324.139404 208.0
1325.892578 200.0
1331.398926 180.0
1337.564453 108.0
1337.928345 144.0
1338.510864 172.0
1338.889526 132.0
1339.545044 92.0
1344.014038 144.0
1347.796387 68.0
1351.532715 172.0
1357.212646 184.0
1358.280029 216.0
1358.353394 156.0
1362.420166 140.0
1362.552368 184.0
1367.177368 192.0
1369.489136 112.0
1370.240601 56.0
1371.154297 248.0
1372.458984 172.0
1374.015259 136.0
1374.140625 124.0
1374.354614 152.0
1380.736938 116.0
1381.950195 224.0
1382.394043 140.0
1383.970703 36.0
1384.281738 200.0
1388.936035 208.0
1391.466553 208.0
1394.578979 164.0
1395.500854 164.0
1395.820557 192.0
1399.384521 208.0
1399.593018 124.0
1400.196289 196.0
1408.938232 112.0
1409.595825 200.0
1410.141357 172.0
1413.454224 188.0
1420.811768 160.0
1425.053589 144.0
1426.181519 180.0
1432.900757 56.0
1434.68689 156.0
1435.388062 180.0
1436.074341 168.0
1438.881348 208.0
1440.029175 172.0
1440.520142 100.0
1440.61084 156.0
1443.77771 120.0
1446.910278 148.0
1447.826538 188.0
1451.805176 192.0
1454.369507 260.0
1455.546143 76.0
1455.804321 128.0
1456.404419 64.0
1459.505005 200.0
1463.027588 132.0
1463.743286 80.0
1464.070679 188.0
1465.586548 100.0
1466.821167 284.0
1466.958374 44.0
1471.688477 188.0
1480.512695 164.0
1482.481445 208.0
1482.811035 48.0
1484.697021 184.0
1488.910156 184.0
1490.116211 44.0
1491.999023 180.0
1495.414429 132.0
1496.107178 164.0
1496.507446 128.0
1499.457764 232.0
1503.313721 124.0
