>compound MLS000862195-01!()-trans-(1S,2S)-U-50488 hydrochloride
>formula C19H26Cl2N2O
>ionization [M+H]+
>parentmass 369.1494952640905
#inchi InChI=1S/C19H26Cl2N2O/c1-22(19(24)13-14-8-9-15(20)16(21)12-14)17-6-2-3-7-18(17)23-10-4-5-11-23/h8-9,12,17-18H,2-7,10-11,13H2,1H3/t17-,18-/m0/s1
#inchikey VQLPLYSROCPWFF
#origInchi InChI=1S/C19H26Cl2N2O.ClH/c1-22(19(24)13-14-8-9-15(20)16(21)12-14)17-6-2-3-7-18(17)23-10-4-5-11-23;/h8-9,12,17-18H,2-7,10-11,13H2,1H3;1H/t17-,18-;/m0./s1
#Ion_Source LC-ESI
#Instrument qTof
#Compound_Source NIH Pharmacologically Active Library
#PI Dorrestein
#Data_Collector VP/LMS
#Scan -1
#Precursor_MZ 369.152
#ExactMass 368.142
#Charge 1
#CAS_Number N/A
#Pubmed_ID N/A
#Smiles CN([C@H]1CCCC[C@@H]1N2CCCC2)C(=O)Cc3ccc(Cl)c(Cl)c3.Cl
#INCHI_AUX N/A
#Library_Class 1
#SpectrumID CCMSLIB00000084775
#IonMode Positive
#UpdateWorkflowName UPDATE-SINGLE-ANNOTATED-GOLD
#LibraryQualityString Gold
#TaskID d252d724072548979f1f6f1ced849daf
##Scan# 1762
#SpectrumFile p3-A07-2_GA7_01_18221.mzXML
#LibraryName Pharm_Active_Library.mgf
#MQScore -1
#Organism Pharm_Active_Library
#TIC_Query 0
#RT_Query -1
#MZErrorPPM -1
#SharedPeaks 0
#MassDiff 0
#LibMZ -1
#SpecMZ 369.152
#SpecCharge 0
#internalFilename spec-00000.mgf

>collision 10
94.951889 80.0
94.990685 176.0
95.027542 196.0
95.062469 60.0
95.161461 76.0
95.223602 164.0
95.342117 116.0
95.394592 168.0
95.443199 144.0
95.534607 144.0
95.550171 112.0
95.649422 224.0
95.715614 188.0
95.737038 172.0
95.834427 176.0
95.907738 188.0
95.937721 188.0
95.95417 220.0
96.015717 120.0
96.029373 160.0
96.078056 52.0
96.099602 176.0
96.249893 72.0
96.306526 124.0
96.333878 36.0
96.347549 180.0
96.415939 152.0
96.437439 180.0
96.499664 144.0
96.542915 168.0
96.549118 160.0
96.553078 188.0
96.58017 136.0
96.634949 172.0
96.662338 132.0
96.691696 92.0
96.748459 172.0
96.773911 108.0
96.820908 80.0
96.840492 120.0
96.877708 228.0
96.89534 116.0
96.981476 188.0
97.014885 172.0
97.071747 64.0
97.097656 152.0
97.177666 176.0
97.205139 156.0
97.254196 184.0
97.269905 164.0
97.293457 236.0
97.37397 208.0
97.40197 140.0
97.430389 188.0
97.444687 216.0
97.495773 108.0
97.576363 156.0
97.605858 64.0
97.631424 132.0
97.647156 92.0
97.720802 164.0
97.777206 192.0
97.808495 52.0
97.832077 188.0
97.86348 168.0
97.964058 148.0
97.985733 172.0
98.161156 112.0
98.249908 144.0
98.291344 140.0
98.338707 72.0
98.364365 104.0
98.392006 164.0
98.463089 100.0
98.498642 36.0
98.53334 176.0
98.603363 192.0
98.646843 116.0
98.675438 224.0
98.717621 244.0
98.75164 192.0
98.779335 220.0
98.917854 188.0
98.971306 48.0
99.001007 184.0
99.044579 168.0
99.135719 164.0
99.20311 108.0
99.234825 188.0
99.405411 164.0
99.468925 196.0
99.528481 196.0
99.572166 168.0
99.599976 164.0
99.824554 160.0
99.889915 176.0
100.01799 196.0
100.091202 112.0
100.144974 240.0
100.272484 56.0
100.330292 180.0
100.37542 200.0
100.477867 128.0
100.621567 76.0
100.661499 152.0
100.75338 128.0
100.805328 96.0
100.82531 132.0
100.877281 200.0
100.905266 248.0
101.029991 220.0
101.103294 140.0
101.2174 208.0
101.239616 248.0
101.306755 240.0
101.4879 124.0
101.501938 108.0
101.554077 300.0
101.592194 152.0
101.609642 120.0
101.617889 84.0
101.720619 120.0
101.841095 152.0
101.997826 44.0
102.011894 144.0
102.027977 128.0
102.078247 124.0
102.200943 96.0
102.291512 168.0
102.327744 40.0
102.454628 72.0
102.631989 168.0
102.658203 136.0
102.718704 408.0
102.786865 368.0
102.873482 176.0
102.918503 76.0
102.944756 184.0
103.094246 200.0
103.110413 212.0
103.140732 152.0
103.185204 84.0
103.253952 196.0
103.377357 68.0
103.401642 120.0
103.43605 32.0
103.470467 168.0
103.685181 220.0
103.776398 164.0
103.794647 148.0
103.827095 168.0
103.843323 212.0
103.857521 172.0
103.977226 180.0
104.013756 164.0
104.050301 164.0
104.068573 140.0
104.174179 136.0
104.311111 184.0
104.326591 128.0
104.420128 140.0
104.436394 172.0
104.450371 92.0
104.470978 144.0
104.496704 180.0
104.521843 124.0
104.546257 192.0
104.568649 184.0
104.607323 152.0
104.657188 192.0
104.676544 220.0
104.717278 160.0
104.792648 172.0
104.86071 120.0
104.931236 116.0
104.989799 144.0
105.088287 176.0
105.106644 156.0
105.159706 140.0
105.220947 176.0
105.382294 112.0
105.5131 140.0
105.527412 68.0
105.631706 88.0
105.652168 316.0
105.673576 120.0
105.779045 80.0
105.797462 140.0
105.893707 204.0
106.042908 224.0
106.098618 84.0
106.221657 120.0
106.277046 120.0
106.430992 180.0
106.447418 148.0
106.570663 124.0
106.646698 160.0
106.7351 120.0
106.753601 144.0
106.835876 84.0
106.856453 156.0
106.996399 168.0
107.039749 152.0
107.058235 136.0
107.138504 92.0
107.212532 172.0
107.365234 232.0
107.406487 136.0
107.468376 80.0
107.490608 160.0
107.517899 176.0
107.627304 120.0
107.67067 136.0
107.709915 208.0
107.732635 144.0
107.784286 124.0
107.98275 104.0
108.040665 92.0
108.119293 44.0
108.15448 44.0
108.226936 180.0
108.276634 120.0
108.309776 84.0
108.338776 164.0
108.39679 184.0
108.450668 120.0
108.536293 132.0
108.568848 52.0
108.695389 200.0
108.709915 116.0
108.833496 224.0
108.880142 104.0
108.894684 44.0
108.965309 156.0
108.981934 112.0
109.023491 64.0
109.239723 188.0
109.268852 168.0
109.333359 60.0
109.385391 64.0
109.439514 52.0
109.626991 172.0
109.706192 164.0
109.75206 200.0
109.770828 144.0
109.797935 140.0
109.919136 160.0
109.977364 156.0
110.030991 168.0
110.035309 116.0
110.073402 96.0
110.095627 792.0
110.253052 120.0
110.305305 116.0
110.405663 124.0
110.464226 92.0
110.491295 132.0
110.522804 160.0
110.570938 216.0
110.585587 236.0
110.620522 232.0
110.665138 180.0
110.711205 224.0
110.814697 196.0
110.92701 100.0
111.006683 200.0
111.099945 284.0
111.128342 132.0
111.147224 248.0
111.178703 148.0
111.210182 120.0
111.285751 124.0
111.350853 36.0
111.415222 212.0
111.435402 208.0
111.495819 136.0
111.51683 144.0
111.574326 240.0
111.60302 132.0
111.645081 64.0
111.689247 192.0
111.720802 192.0
111.762016 156.0
111.78392 200.0
111.813385 80.0
111.845741 252.0
111.86869 116.0
111.899689 172.0
111.922844 132.0
111.969177 48.0
111.983917 176.0
112.016029 212.0
112.044136 320.0
112.071701 248.0
112.113167 95212.0
112.19751 44.0
112.206383 84.0
112.224197 196.0
112.246025 64.0
112.3218 132.0
112.337471 60.0
112.375038 108.0
112.392006 72.0
112.432129 116.0
112.457474 276.0
112.495155 88.0
112.513931 276.0
112.537476 48.0
112.560425 76.0
112.598358 60.0
112.631981 96.0
112.675026 172.0
112.696938 40.0
112.728088 68.0
112.759857 96.0
112.789925 80.0
112.806175 64.0
112.868149 136.0
112.904099 120.0
112.937233 108.0
112.964653 208.0
112.993042 88.0
113.010536 188.0
113.017197 60.0
113.024727 156.0
113.047951 184.0
113.087173 120.0
113.115715 6024.0
113.278214 228.0
113.319733 124.0
113.36348 172.0
113.424942 108.0
113.446144 72.0
113.488548 84.0
113.550339 144.0
113.574554 164.0
113.589279 88.0
113.605194 92.0
113.628807 60.0
113.645134 152.0
113.679138 108.0
113.711281 104.0
113.747368 64.0
113.791183 100.0
113.799248 64.0
113.807869 128.0
113.826553 108.0
113.864143 96.0
113.901176 120.0
113.91053 124.0
113.958969 320.0
113.98214 140.0
114.025421 96.0
114.033051 80.0
114.038864 132.0
114.093628 152.0
114.120888 384.0
114.148911 120.0
114.193573 96.0
114.231857 160.0
114.310577 60.0
114.327606 200.0
114.4021 80.0
114.487267 52.0
114.531998 180.0
114.583122 96.0
114.610245 208.0
114.625732 156.0
114.751488 136.0
114.76635 128.0
114.787743 108.0
114.947723 100.0
114.969063 140.0
114.996811 172.0
115.039497 68.0
115.128952 192.0
115.186844 204.0
115.262421 80.0
115.295807 212.0
115.400551 64.0
115.473259 220.0
115.601616 64.0
115.62516 180.0
115.740753 76.0
115.849983 40.0
115.946404 56.0
116.139366 248.0
116.158669 76.0
116.269608 176.0
116.334633 128.0
116.506432 164.0
116.536514 204.0
116.692009 164.0
116.722374 176.0
116.880539 208.0
116.899902 116.0
117.011253 224.0
117.145889 208.0
117.302658 172.0
117.341461 100.0
117.451447 160.0
117.514008 148.0
117.598694 236.0
117.615433 220.0
117.85083 152.0
117.878914 132.0
117.956726 52.0
118.086456 132.0
118.307167 196.0
118.326653 188.0
118.359131 104.0
118.426262 152.0
118.515083 180.0
118.64946 128.0
118.710167 216.0
118.805801 260.0
119.179031 176.0
119.20945 136.0
119.257263 184.0
119.292046 196.0
119.413811 68.0
119.474716 48.0
119.572632 156.0
119.611565 180.0
119.657524 96.0
119.820869 56.0
119.916748 128.0
119.938545 164.0
119.964699 224.0
120.006119 164.0
120.091171 124.0
120.204613 132.0
120.241714 76.0
120.374374 156.0
120.382668 120.0
120.422928 60.0
120.497192 128.0
120.516861 100.0
120.683037 140.0
120.862328 88.0
120.930168 112.0
121.026489 116.0
121.054955 44.0
121.085617 168.0
121.289383 140.0
121.374474 192.0
121.493317 36.0
121.545975 232.0
121.565727 40.0
121.581085 176.0
121.611816 252.0
121.631569 48.0
121.758911 120.0
121.787163 144.0
121.833595 228.0
121.851173 176.0
121.868744 160.0
121.890717 248.0
121.9105 176.0
121.950058 212.0
121.983025 136.0
122.035789 136.0
122.112755 128.0
122.350403 140.0
122.365814 68.0
122.440681 100.0
122.667625 112.0
122.697609 140.0
122.769051 188.0
122.84404 64.0
122.859482 196.0
122.912796 196.0
123.000534 1316.0
123.217125 176.0
123.290047 248.0
123.312149 184.0
123.354141 212.0
123.449211 36.0
123.539894 160.0
123.557243 184.0
123.683731 160.0
123.759003 136.0
123.814987 184.0
123.854225 56.0
124.006989 496.0
124.080261 192.0
124.126823 164.0
124.25103 96.0
124.428581 200.0
124.488525 216.0
124.619583 112.0
124.652908 164.0
124.699158 148.0
124.790726 68.0
124.81073 68.0
124.848267 164.0
125.016006 1396.0
125.115547 68.0
125.291481 148.0
125.492065 112.0
125.583344 120.0
125.613831 240.0
125.844589 144.0
126.006683 188.0
126.02298 752.0
126.052315 132.0
126.097015 100.0
126.122536 76.0
126.222198 128.0
126.251274 128.0
126.273636 100.0
126.425766 188.0
126.508583 164.0
126.577988 192.0
126.61158 224.0
126.690544 204.0
126.743744 132.0
126.824425 68.0
126.915405 192.0
126.928024 132.0
127.011307 484.0
127.091286 76.0
127.219215 28.0
127.265457 212.0
127.439308 180.0
127.462791 196.0
127.515717 136.0
127.556175 48.0
127.576401 160.0
127.610123 80.0
127.661842 188.0
127.720322 140.0
127.826057 180.0
127.904831 120.0
128.017395 176.0
128.046677 188.0
128.078552 156.0
128.184097 68.0
128.34639 72.0
128.502014 148.0
128.594543 160.0
128.696121 192.0
128.723221 252.0
128.838409 36.0
128.910706 124.0
128.935577 172.0
128.960434 60.0
129.098343 60.0
129.178192 216.0
129.234055 160.0
129.268433 64.0
129.295151 136.0
129.313263 248.0
129.395676 236.0
129.435287 80.0
129.483063 64.0
129.569611 156.0
129.698303 132.0
129.800323 196.0
129.842804 224.0
130.12706 176.0
130.161118 120.0
130.211075 156.0
130.304214 180.0
130.397385 200.0
130.429199 116.0
130.624756 192.0
130.943405 136.0
131.000351 124.0
131.089218 128.0
131.116562 264.0
131.178101 100.0
131.257889 108.0
131.417557 152.0
131.698349 192.0
131.753174 56.0
131.776352 112.0
131.810287 120.0
131.899429 104.0
132.043472 176.0
132.068634 104.0
132.180725 204.0
132.258545 68.0
132.297455 116.0
132.478363 180.0
132.540222 136.0
132.625763 160.0
132.794693 128.0
132.817627 156.0
132.911682 148.0
132.961258 312.0
133.031036 52.0
133.057343 120.0
133.090729 156.0
133.113678 180.0
133.145828 184.0
133.246902 80.0
133.320435 72.0
133.412369 152.0
133.67688 56.0
133.720596 116.0
133.863327 240.0
133.900177 160.0
133.962372 172.0
134.130585 112.0
134.234329 104.0
134.298904 136.0
134.474258 112.0
134.511185 132.0
134.652039 136.0
134.755981 160.0
134.957062 144.0
135.153671 152.0
135.318008 72.0
135.373581 52.0
135.500961 132.0
135.54512 136.0
135.853348 140.0
135.920639 180.0
136.150452 60.0
136.282852 56.0
136.401382 100.0
136.631607 136.0
136.664169 180.0
136.794495 56.0
136.81778 208.0
136.866669 108.0
136.962158 100.0
137.02272 176.0
137.115936 180.0
137.157883 156.0
137.234818 144.0
137.27446 168.0
137.305786 212.0
137.335098 236.0
137.388748 164.0
137.419067 192.0
137.517075 56.0
137.642471 140.0
137.729553 176.0
137.820663 144.0
137.974915 100.0
138.087158 172.0
138.112885 40.0
138.3703 64.0
138.552734 188.0
138.581085 184.0
138.667801 132.0
138.691238 208.0
138.709991 164.0
138.742798 184.0
138.785004 160.0
138.874115 256.0
138.93042 176.0
139.185181 80.0
139.253372 148.0
139.355362 124.0
139.472855 168.0
139.644501 152.0
139.698593 164.0
139.748001 104.0
139.88121 120.0
139.924515 160.0
139.948059 148.0
139.990448 196.0
140.178894 188.0
140.204819 192.0
140.228394 112.0
140.256668 132.0
140.391068 120.0
140.513718 60.0
140.565155 140.0
140.657669 56.0
140.733215 156.0
140.930145 180.0
141.125427 204.0
141.144348 144.0
141.196365 120.0
141.215286 144.0
141.231857 144.0
141.278793 220.0
141.295715 96.0
141.589233 128.0
141.641342 188.0
141.683975 160.0
141.721893 204.0
141.73848 164.0
141.845123 172.0
141.925735 112.0
141.992126 124.0
142.071075 212.0
142.205658 120.0
142.22464 196.0
142.255508 92.0
142.35759 160.0
142.412216 160.0
142.485855 168.0
142.654587 136.0
142.752075 188.0
143.001862 112.0
143.034241 144.0
143.185196 40.0
143.394852 156.0
143.419678 152.0
143.590347 120.0
143.62851 72.0
143.728714 64.0
143.814621 128.0
143.831329 48.0
143.892441 72.0
143.93399 220.0
144.164932 464.0
144.246964 404.0
144.34259 124.0
144.359329 196.0
144.4263 192.0
144.639252 120.0
144.667969 128.0
144.71347 184.0
145.010498 152.0
145.209503 156.0
145.250275 176.0
145.26947 152.0
145.314743 124.0
145.327896 168.0
145.42543 144.0
145.445953 136.0
145.607895 200.0
145.699173 188.0
145.837479 148.0
145.852966 176.0
146.091034 164.0
146.148773 76.0
146.213745 116.0
146.245041 208.0
146.620758 96.0
146.741272 188.0
146.794327 188.0
146.955933 104.0
147.004196 124.0
147.068985 212.0
147.107971 160.0
147.200699 148.0
147.305984 192.0
147.339813 232.0
147.3936 168.0
147.583908 68.0
147.608093 204.0
147.658813 148.0
147.750793 164.0
147.85968 136.0
147.983139 108.0
148.029144 152.0
148.087265 204.0
148.116333 116.0
148.552658 172.0
148.761353 248.0
148.790482 120.0
148.812332 256.0
148.856476 220.0
148.94104 88.0
149.055222 160.0
149.150009 140.0
149.196198 128.0
149.417496 92.0
149.476532 92.0
149.561081 104.0
149.624374 132.0
149.692535 160.0
149.724197 208.0
149.755859 120.0
150.033646 324.0
150.126282 368.0
150.206787 148.0
150.352356 164.0
150.406876 124.0
150.480118 140.0
150.684982 200.0
150.735275 116.0
150.834335 148.0
150.900345 164.0
150.998154 156.0
151.071609 140.0
151.127808 192.0
151.228134 68.0
151.295212 180.0
151.455856 84.0
151.539139 160.0
151.570999 164.0
151.62001 160.0
151.698441 120.0
151.749924 164.0
151.774445 124.0
151.987839 152.0
152.088058 176.0
152.117905 172.0
152.14357 3264.0
152.18782 184.0
152.211212 80.0
152.248047 188.0
152.282425 156.0
152.324173 160.0
152.35611 196.0
152.424911 44.0
152.468536 156.0
152.493713 52.0
152.537964 264.0
152.565002 64.0
152.626465 64.0
152.73468 148.0
152.948746 172.0
153.015213 140.0
153.07431 160.0
153.145721 180.0
153.437256 200.0
153.480881 172.0
153.591858 140.0
153.616531 136.0
153.7547 192.0
153.796661 188.0
153.824936 232.0
153.901978 188.0
153.934906 156.0
154.042114 224.0
154.081253 48.0
154.120163 92.0
154.144882 164.0
154.17453 96.0
154.194305 28.0
154.221497 160.0
154.270935 124.0
154.30307 168.0
154.382187 168.0
154.451447 168.0
154.535553 196.0
154.629593 188.0
154.723648 172.0
154.791199 212.0
154.867264 156.0
154.934158 208.0
155.040695 164.0
155.256378 200.0
155.291107 72.0
155.375916 148.0
155.549149 148.0
155.626114 124.0
155.655899 168.0
155.710541 128.0
155.745316 204.0
155.819839 92.0
155.839706 152.0
155.883331 192.0
155.915497 104.0
155.935867 224.0
155.959 104.0
155.998764 160.0
156.220093 168.0
156.2798 152.0
156.344498 208.0
156.396759 160.0
156.483887 128.0
156.542343 176.0
156.595947 172.0
156.6931 168.0
156.745422 108.0
156.87114 136.0
156.919891 124.0
157.109482 212.0
157.15184 84.0
157.214233 100.0
157.261169 144.0
157.383972 168.0
157.511337 120.0
157.576294 152.0
157.693741 132.0
157.808731 136.0
157.91626 100.0
157.983795 176.0
158.06636 80.0
158.116409 180.0
158.153946 44.0
158.176483 160.0
158.241562 160.0
158.270584 224.0
158.326706 92.0
158.394333 116.0
158.53212 188.0
158.594788 288.0
158.622345 180.0
158.652725 224.0
158.675003 256.0
158.692551 132.0
158.71994 160.0
158.77774 148.0
158.822296 152.0
158.895706 164.0
158.920792 148.0
158.97702 74072.0
159.042572 196.0
159.070053 96.0
159.102325 72.0
159.124924 60.0
159.167099 208.0
159.2164 68.0
159.235672 92.0
159.254669 96.0
159.271088 92.0
159.307114 100.0
159.3255 184.0
159.345901 144.0
159.363892 108.0
159.391006 136.0
159.41571 120.0
159.467636 200.0
159.514633 104.0
159.54364 124.0
159.560059 60.0
159.575607 112.0
159.654266 112.0
159.690811 68.0
159.769409 144.0
159.857513 228.0
159.878098 136.0
159.980652 4228.0
160.082077 144.0
160.155121 84.0
160.175262 120.0
160.263443 132.0
160.295013 120.0
160.340683 188.0
160.366333 48.0
160.411209 120.0
160.499741 144.0
160.530624 172.0
160.576019 92.0
160.670364 108.0
160.697113 180.0
160.78038 156.0
160.79805 96.0
160.855728 132.0
160.880112 132.0
160.912704 160.0
160.923584 120.0
160.931335 144.0
160.974197 34260.0
161.027786 256.0
161.062683 256.0
161.099625 52.0
161.134247 160.0
161.155685 240.0
161.199158 96.0
161.234955 84.0
161.253616 84.0
161.278976 184.0
161.29657 160.0
161.347961 176.0
161.357681 124.0
161.379196 204.0
161.426987 108.0
161.447311 36.0
161.50296 108.0
161.52066 152.0
161.549423 76.0
161.628448 112.0
161.720551 72.0
161.740799 92.0
161.767014 88.0
161.816742 128.0
161.847137 68.0
161.875763 116.0
161.895248 160.0
161.938293 52.0
161.97818 2736.0
162.012482 152.0
162.051025 96.0
162.100433 76.0
162.123245 36.0
162.191666 64.0
162.211945 44.0
162.337524 68.0
162.384369 124.0
162.417343 168.0
162.503586 108.0
162.549271 180.0
162.576218 72.0
162.617783 60.0
162.668549 84.0
162.726944 128.0
162.757416 260.0
162.820892 84.0
162.841217 60.0
162.903412 128.0
162.945358 176.0
162.971771 648.0
163.021591 192.0
163.054626 96.0
163.074951 76.0
163.157028 140.0
163.214783 72.0
163.318451 144.0
163.352112 128.0
163.456421 80.0
163.569397 208.0
163.619324 100.0
163.693161 132.0
163.722717 184.0
163.886734 160.0
163.97493 92.0
163.993774 284.0
164.029449 108.0
164.210495 248.0
164.251297 192.0
164.279358 84.0
164.355896 80.0
164.427353 52.0
164.486053 92.0
164.524338 120.0
164.616257 148.0
164.733749 52.0
164.971405 104.0
164.991852 196.0
165.036667 844.0
165.352524 200.0
165.816086 136.0
165.869904 108.0
166.04425 132.0
166.103241 124.0
166.193039 60.0
166.219086 188.0
166.320129 244.0
166.342667 184.0
166.382965 136.0
166.40863 192.0
166.447144 52.0
166.529327 152.0
166.757996 280.0
166.82225 80.0
167.026932 516.0
167.156677 136.0
167.200348 68.0
167.280151 96.0
167.311035 188.0
167.354813 216.0
167.411453 112.0
167.470688 156.0
167.493866 168.0
167.532516 48.0
167.643295 176.0
167.787643 68.0
168.063614 80.0
168.122955 180.0
168.174576 132.0
168.412125 116.0
168.592972 88.0
168.631729 136.0
168.683426 56.0
168.741699 132.0
168.760986 156.0
168.869598 104.0
169.071396 164.0
169.146454 220.0
169.180115 188.0
169.262955 244.0
169.312164 168.0
169.524582 32.0
169.563461 120.0
169.657288 80.0
169.674927 180.0
169.905731 160.0
169.975784 172.0
170.069214 140.0
170.089981 116.0
170.235367 148.0
170.456177 192.0
170.549728 112.0
170.617691 112.0
170.809753 132.0
170.939835 64.0
170.971069 124.0
170.994492 64.0
171.080383 132.0
171.192825 128.0
171.257446 132.0
171.293915 148.0
171.355377 108.0
171.429199 52.0
171.478912 148.0
171.562332 76.0
171.658798 292.0
171.786591 80.0
171.869247 240.0
172.068436 164.0
172.145889 188.0
172.406158 156.0
172.489029 148.0
172.525635 112.0
172.614517 108.0
172.669434 128.0
172.768845 264.0
172.894424 152.0
172.965103 148.0
173.051483 120.0
173.15361 184.0
173.232193 84.0
173.250534 56.0
173.329132 112.0
173.439194 64.0
173.499496 160.0
173.654205 68.0
173.68306 100.0
173.808975 60.0
173.92836 164.0
174.097733 104.0
174.347305 116.0
174.565491 100.0
174.728165 156.0
174.746979 184.0
174.799606 152.0
174.960159 68.0
174.989334 244.0
175.157669 104.0
175.257767 124.0
175.334198 84.0
175.402725 128.0
175.638779 176.0
175.661133 132.0
175.800964 196.0
175.96727 176.0
176.038559 116.0
176.160049 140.0
176.210236 200.0
176.308014 140.0
176.421661 128.0
176.601471 196.0
176.657028 112.0
176.858124 36.0
176.895187 144.0
176.926956 152.0
177.046097 200.0
177.186493 228.0
177.804321 176.0
177.870667 196.0
177.952957 56.0
178.014038 180.0
178.103806 160.0
178.13887 52.0
178.193405 72.0
178.292969 100.0
178.449799 48.0
178.561493 60.0
178.612015 120.0
178.992111 156.0
179.048523 100.0
179.136505 116.0
179.188309 176.0
179.211014 56.0
179.314941 136.0
179.872391 36.0
179.988632 168.0
180.024567 132.0
180.19017 268.0
180.27034 104.0
180.58847 124.0
180.692795 176.0
181.052399 220.0
181.142548 64.0
181.539215 136.0
181.957794 196.0
182.16188 140.0
182.18338 116.0
182.335892 152.0
182.390289 136.0
182.419861 156.0
182.479004 136.0
182.508575 100.0
182.618835 104.0
182.656494 160.0
182.742584 232.0
182.770416 184.0
182.848724 216.0
182.97403 108.0
183.050354 232.0
183.111359 84.0
183.151764 192.0
183.186081 472.0
183.259521 176.0
183.394272 116.0
183.653381 160.0
183.820374 200.0
184.033615 176.0
184.117325 104.0
184.165939 224.0
184.18425 184.0
184.463165 216.0
184.501007 200.0
184.579422 180.0
184.771454 168.0
184.950058 164.0
185.228943 52.0
185.326477 136.0
185.440292 128.0
185.480942 84.0
185.562271 160.0
185.819931 164.0
186.012604 128.0
186.319473 108.0
186.400986 188.0
186.526001 152.0
186.57222 124.0
186.787048 164.0
186.836014 188.0
186.950287 116.0
186.978851 172.0
187.021042 168.0
187.124496 112.0
187.603973 152.0
188.04039 168.0
188.111359 128.0
188.510117 200.0
188.551117 280.0
188.745193 144.0
188.962967 144.0
189.029678 124.0
189.070724 152.0
189.215805 160.0
189.382843 184.0
189.404755 196.0
189.478714 72.0
189.517075 148.0
189.574615 152.0
189.752777 148.0
189.791168 228.0
189.933777 100.0
189.980408 212.0
190.105148 208.0
190.172485 88.0
190.243851 56.0
190.312485 76.0
190.485504 84.0
190.50473 88.0
190.749298 124.0
190.809784 132.0
191.137085 104.0
191.189377 200.0
191.271942 160.0
191.539032 152.0
191.729141 112.0
191.839401 76.0
192.074997 128.0
192.170334 180.0
192.213562 156.0
192.512619 96.0
192.672806 188.0
192.802673 264.0
193.130661 188.0
193.510803 48.0
193.585571 112.0
193.760071 104.0
193.804398 72.0
193.887527 148.0
193.937408 152.0
194.076096 140.0
194.120392 188.0
194.672607 116.0
194.811478 176.0
195.081039 56.0
195.108841 88.0
195.253433 160.0
195.626266 144.0
195.762695 100.0
195.793335 104.0
195.966034 144.0
196.113724 176.0
196.29216 184.0
196.359085 132.0
196.406494 92.0
196.735779 168.0
197.006653 104.0
197.386765 128.0
197.518204 124.0
197.691666 140.0
197.854004 196.0
198.366653 148.0
198.551712 244.0
198.647079 196.0
199.006302 96.0
199.155136 120.0
199.230972 164.0
199.374283 136.0
199.579483 116.0
199.601974 184.0
199.857941 196.0
199.908585 124.0
199.945175 136.0
200.002151 1384.0
200.043686 108.0
200.083099 132.0
200.277405 108.0
200.444885 160.0
200.483063 148.0
200.569656 72.0
200.643738 144.0
201.005753 192.0
201.03862 60.0
201.165619 104.0
201.710815 44.0
201.846512 184.0
201.908722 136.0
201.959381 176.0
202.002289 512.0
202.050156 144.0
202.202957 172.0
202.242584 96.0
202.310516 124.0
202.454926 152.0
202.508728 108.0
202.537048 188.0
202.576706 152.0
202.905441 168.0
202.981995 44.0
203.021698 56.0
203.115295 140.0
203.211746 212.0
203.461411 128.0
203.552353 124.0
203.663116 204.0
203.728439 148.0
203.756851 144.0
203.822205 104.0
203.88472 156.0
204.006943 144.0
204.208832 100.0
204.345367 176.0
204.463516 188.0
204.507568 120.0
204.684082 116.0
205.365189 132.0
205.388 136.0
205.427933 128.0
205.533493 272.0
205.587723 228.0
205.62767 100.0
205.710449 332.0
205.750412 316.0
205.856064 188.0
205.904602 192.0
206.044571 180.0
206.196014 116.0
206.439011 200.0
206.590607 56.0
207.180328 172.0
207.309265 124.0
207.753677 284.0
207.819656 88.0
208.046722 172.0
208.100937 132.0
208.408264 64.0
208.471481 96.0
208.733063 152.0
208.770447 156.0
209.369034 136.0
209.423752 140.0
209.498642 120.0
209.769531 104.0
209.815643 76.0
209.887726 176.0
210.106934 160.0
210.199249 76.0
210.337784 172.0
210.407074 176.0
210.476364 100.0
210.562988 152.0
210.97908 116.0
211.103409 148.0
211.253815 120.0
211.342377 172.0
211.546082 172.0
212.264603 144.0
212.287796 152.0
212.589493 116.0
212.84494 124.0
212.865265 128.0
212.978531 164.0
213.230942 140.0
213.330124 56.0
213.41153 168.0
213.556931 156.0
213.615112 132.0
213.676193 92.0
213.728577 124.0
213.882812 200.0
213.935822 96.0
214.433304 60.0
214.47702 124.0
214.535324 116.0
214.894028 220.0
214.949478 140.0
215.149734 156.0
215.197571 132.0
215.223846 196.0
215.51593 148.0
215.588989 140.0
215.664978 132.0
215.714661 128.0
215.799454 136.0
215.860855 120.0
215.910812 92.0
216.033417 136.0
216.062668 108.0
216.270432 184.0
216.293839 132.0
216.522217 104.0
216.589584 132.0
216.815186 112.0
216.914841 172.0
217.02037 108.0
217.114212 92.0
217.161133 92.0
217.250595 176.0
217.304871 228.0
217.387039 68.0
217.451599 200.0
217.524979 304.0
217.551392 116.0
217.642303 116.0
217.684982 248.0
217.714554 120.0
217.786301 140.0
217.847321 212.0
217.885971 56.0
217.919525 160.0
217.953751 156.0
218.014267 84672.0
218.090195 128.0
218.121033 60.0
218.152435 108.0
218.183304 156.0
218.226654 52.0
218.272446 76.0
218.308853 96.0
218.346741 168.0
218.387619 48.0
218.412369 48.0
218.457764 108.0
218.494125 120.0
218.52417 96.0
218.571548 108.0
218.591843 100.0
218.629913 128.0
218.666214 88.0
218.74144 72.0
218.774323 52.0
218.85675 192.0
218.894699 36.0
218.930374 124.0
218.977493 128.0
219.016083 7112.0
219.094315 164.0
219.118881 120.0
219.154236 160.0
219.194809 52.0
219.217499 64.0
219.241028 44.0
219.27478 128.0
219.279831 116.0
219.339722 68.0
219.372055 88.0
219.416977 92.0
219.444061 88.0
219.494446 152.0
219.636536 116.0
219.681961 112.0
219.734467 200.0
219.77034 180.0
219.774384 172.0
219.788361 64.0
219.798904 176.0
219.826279 92.0
219.866821 208.0
219.893982 196.0
220.011261 46940.0
220.096725 236.0
220.146332 108.0
220.176392 156.0
220.201462 120.0
220.222137 120.0
220.250092 172.0
220.273788 208.0
220.299957 160.0
220.331253 196.0
220.340866 80.0
220.3685 104.0
220.389572 76.0
220.472092 112.0
220.496017 108.0
220.520538 112.0
220.546326 148.0
220.598984 124.0
220.648926 120.0
220.696686 92.0
220.73027 112.0
220.783661 72.0
220.825989 148.0
220.881668 148.0
220.936813 108.0
220.977646 76.0
221.013779 3104.0
221.070618 92.0
221.10022 72.0
221.164185 52.0
221.251175 68.0
221.285263 140.0
221.411072 120.0
221.45253 84.0
221.479187 104.0
221.609268 44.0
221.617538 40.0
221.643219 228.0
221.688477 56.0
221.733093 92.0
221.766586 92.0
221.799194 172.0
222.008408 812.0
222.042313 124.0
222.105667 112.0
222.131302 76.0
222.261841 60.0
222.330688 100.0
222.410217 112.0
222.433975 112.0
222.490707 176.0
222.566177 128.0
222.577286 176.0
222.626953 100.0
222.710022 128.0
222.716156 124.0
222.757645 44.0
222.804626 176.0
222.831909 188.0
222.909164 80.0
222.935898 56.0
223.045868 40.0
223.152893 176.0
223.197495 36.0
223.367004 168.0
223.449051 200.0
223.49791 68.0
223.786621 196.0
223.837234 96.0
223.947433 64.0
224.045731 48.0
224.313934 168.0
224.42424 208.0
224.55246 92.0
225.032898 120.0
225.053802 128.0
225.188171 80.0
225.274796 160.0
225.307663 120.0
225.352478 88.0
225.723114 104.0
225.803848 144.0
225.833755 60.0
225.944443 184.0
226.109009 164.0
226.13295 128.0
226.162888 52.0
226.28862 56.0
226.315567 48.0
226.436462 64.0
226.549164 188.0
226.636047 136.0
226.701965 176.0
227.097702 128.0
227.214569 188.0
227.37973 64.0
227.65892 160.0
227.682953 76.0
227.992386 116.0
228.189133 208.0
228.283981 112.0
228.431351 104.0
228.512589 164.0
228.623917 76.0
228.771393 76.0
228.885803 164.0
228.93399 168.0
229.223175 88.0
229.325638 112.0
229.532394 212.0
229.612061 72.0
229.681427 132.0
229.750809 144.0
230.007309 116.0
230.031464 148.0
230.128067 52.0
230.263947 192.0
230.354568 104.0
230.499588 96.0
230.662781 52.0
230.699051 76.0
230.738358 184.0
230.913742 52.0
231.031708 88.0
231.349457 112.0
231.561417 212.0
231.670456 84.0
231.761353 104.0
232.337402 40.0
232.516418 228.0
232.613556 72.0
232.674271 180.0
232.742157 144.0
233.011368 56.0
233.032639 168.0
233.111649 56.0
233.269684 160.0
233.579849 156.0
233.731964 172.0
233.753265 152.0
233.899353 176.0
234.328735 52.0
234.529861 88.0
234.557297 108.0
234.810364 96.0
234.859161 124.0
234.972031 160.0
234.999481 152.0
235.130707 68.0
235.460419 84.0
236.016586 136.0
236.695877 172.0
237.419067 88.0
237.615372 76.0
237.649124 168.0
238.014374 144.0
238.11264 156.0
238.656555 160.0
238.847229 136.0
238.945663 132.0
239.201096 64.0
239.743164 160.0
239.780136 128.0
239.89418 168.0
240.140869 60.0
240.470993 40.0
240.625336 152.0
240.816788 132.0
240.909454 148.0
240.968155 80.0
241.224655 112.0
241.277206 52.0
241.394699 92.0
241.475098 112.0
241.782425 168.0
241.834 104.0
241.945435 168.0
242.27681 120.0
242.354263 176.0
242.83165 196.0
243.241226 256.0
243.415085 124.0
243.462769 144.0
243.56105 148.0
243.63829 120.0
244.636948 108.0
244.702332 140.0
245.007538 192.0
245.353455 124.0
245.861877 156.0
245.926376 104.0
245.94928 64.0
246.14595 148.0
246.236511 176.0
246.358337 32.0
246.708344 152.0
247.127426 136.0
247.208771 104.0
247.421616 132.0
247.753571 104.0
247.941574 176.0
248.515411 176.0
248.669174 168.0
248.954865 96.0
249.064789 176.0
249.16217 168.0
249.382141 188.0
249.671387 136.0
249.711334 148.0
249.746857 188.0
249.77832 112.0
249.809769 148.0
249.834946 232.0
250.354279 176.0
251.1548 120.0
251.312531 140.0
251.334625 44.0
251.707092 104.0
252.146194 44.0
252.762848 132.0
252.946411 160.0
253.098984 116.0
253.247208 64.0
253.408768 128.0
253.545013 84.0
253.570374 216.0
253.684479 140.0
254.09993 172.0
254.709427 180.0
254.798386 216.0
254.922302 108.0
254.95726 116.0
255.179535 164.0
255.717361 120.0
255.812851 104.0
255.882141 172.0
256.179047 100.0
256.201355 40.0
256.548706 168.0
256.765533 212.0
257.28244 80.0
257.60498 112.0
257.735962 84.0
258.04599 196.0
258.103546 136.0
258.772278 72.0
259.070099 164.0
259.593628 140.0
259.640656 128.0
259.794617 252.0
260.064148 216.0
260.259979 112.0
260.449432 152.0
260.746735 160.0
260.886475 112.0
261.510498 132.0
261.75885 136.0
262.376984 96.0
262.563995 140.0
262.815613 168.0
262.875122 136.0
262.904236 156.0
263.44519 132.0
263.920258 188.0
263.98172 184.0
264.369904 160.0
264.583527 148.0
264.64502 168.0
264.800476 60.0
264.900879 124.0
265.154175 112.0
265.357819 44.0
265.416199 180.0
265.487518 132.0
265.562134 76.0
265.601044 116.0
265.768372 172.0
266.045593 144.0
266.15274 184.0
266.874054 96.0
266.958618 160.0
267.007385 128.0
267.09845 52.0
267.124481 120.0
267.45639 172.0
267.521484 172.0
267.689117 220.0
268.404388 112.0
268.991638 180.0
269.510925 116.0
269.566467 92.0
269.707001 128.0
269.873718 124.0
270.005615 192.0
270.080444 172.0
270.194244 200.0
270.249847 160.0
270.67865 56.0
270.803101 116.0
271.281494 124.0
271.337219 148.0
271.47821 128.0
271.533966 152.0
271.661896 256.0
271.774841 88.0
271.973602 96.0
272.213257 52.0
272.495758 176.0
272.538452 136.0
272.939453 144.0
273.044708 64.0
273.30127 176.0
273.383545 128.0
273.5448 148.0
274.345306 128.0
274.618988 208.0
274.658569 36.0
275.005005 176.0
276.121735 160.0
276.876282 136.0
276.945831 168.0
276.988892 132.0
277.012085 140.0
277.301636 176.0
277.360016 152.0
277.958679 196.0
278.425049 124.0
278.501434 68.0
278.544617 136.0
278.61438 228.0
279.30249 192.0
279.443085 156.0
279.924835 152.0
280.031403 52.0
280.094696 184.0
280.201294 200.0
280.921356 144.0
281.0448 172.0
281.184967 152.0
281.448669 176.0
281.625671 72.0
281.826111 120.0
281.876221 208.0
282.073425 140.0
282.345093 204.0
282.45462 52.0
282.903015 220.0
283.298187 108.0
283.49585 116.0
283.593048 144.0
283.787476 104.0
284.042358 176.0
284.220154 144.0
284.297333 144.0
285.304993 84.0
286.078705 120.0
286.243683 120.0
286.769226 156.0
287.194061 124.0
287.342499 196.0
287.497711 100.0
287.578705 164.0
287.619202 128.0
287.686707 64.0
288.125732 124.0
288.183167 184.0
288.828857 160.0
289.069061 188.0
289.289062 212.0
289.671722 108.0
289.695435 108.0
290.997711 204.0
291.561584 124.0
291.779114 100.0
292.04776 200.0
292.425415 152.0
292.637268 120.0
292.769287 136.0
293.945831 164.0
294.474487 208.0
294.863983 116.0
294.922089 56.0
295.141724 208.0
295.217285 116.0
295.363159 124.0
295.56842 208.0
295.746368 60.0
295.908051 156.0
296.18808 44.0
296.236023 104.0
296.283997 44.0
296.336578 172.0
296.510132 120.0
296.537567 116.0
296.56842 128.0
296.705536 148.0
296.743225 160.0
296.784393 80.0
296.844208 116.0
296.851379 52.0
296.877319 160.0
296.945557 76.0
296.972015 120.0
297.08963 92.0
297.142487 200.0
297.206268 192.0
297.264557 164.0
297.27594 160.0
297.324768 128.0
297.35321 44.0
297.449341 152.0
297.496613 200.0
297.538635 172.0
297.56665 76.0
297.64563 308.0
297.671295 188.0
297.729156 176.0
297.795074 208.0
297.823608 232.0
297.856201 64.0
297.888611 160.0
297.935852 300.0
297.951172 176.0
297.958618 228.0
297.993835 256.0
298.077057 117584.0
298.15979 160.0
298.181671 92.0
298.276642 148.0
298.316772 112.0
298.358398 48.0
298.425323 216.0
298.471008 424.0
298.546448 56.0
298.580017 192.0
298.644135 544.0
298.692719 112.0
298.731659 72.0
298.818298 152.0
298.855652 108.0
298.913208 144.0
298.966461 140.0
299.018768 152.0
299.079468 17408.0
299.159882 200.0
299.194061 76.0
299.225647 148.0
299.237793 68.0
299.287079 156.0
299.332123 92.0
299.375305 32.0
299.413025 92.0
299.437103 240.0
299.520294 96.0
299.625824 184.0
299.677734 120.0
299.705963 120.0
299.773285 136.0
299.799011 100.0
299.838837 152.0
299.863434 156.0
299.894104 100.0
299.94577 96.0
299.979401 136.0
300.01474 184.0
300.074127 57352.0
300.150635 60.0
300.174194 48.0
300.243347 112.0
300.283264 156.0
300.324036 56.0
300.335938 92.0
300.413055 44.0
300.480713 108.0
300.509827 112.0
300.545044 176.0
300.619049 40.0
300.633148 176.0
300.647064 140.0
300.708099 184.0
300.761902 84.0
300.801819 96.0
300.829559 204.0
300.874756 68.0
300.928864 120.0
301.011719 132.0
301.075012 6356.0
301.172058 248.0
301.22467 100.0
301.264526 124.0
301.303192 124.0
301.346863 268.0
301.400146 40.0
301.480988 92.0
301.545288 44.0
301.592377 80.0
301.660645 64.0
301.700836 76.0
301.735413 120.0
301.776886 40.0
301.886108 64.0
301.917084 68.0
301.954987 52.0
301.983185 116.0
302.069794 1096.0
302.146942 48.0
302.184052 172.0
302.246033 120.0
302.30957 88.0
302.361481 48.0
302.385712 56.0
302.414795 80.0
302.458191 100.0
302.502838 56.0
302.532623 72.0
302.610718 84.0
302.7146 56.0
302.745148 92.0
302.844116 56.0
302.952667 60.0
302.988434 124.0
302.998871 56.0
303.012146 128.0
303.04364 136.0
303.086761 36.0
303.141052 128.0
303.199585 56.0
303.227325 80.0
303.272369 52.0
303.345154 104.0
303.424896 60.0
303.480682 84.0
303.650269 48.0
303.709259 68.0
303.750854 60.0
303.79248 84.0
303.868805 44.0
303.948608 60.0
303.988983 108.0
304.080017 60.0
304.167267 108.0
304.254059 64.0
304.306122 56.0
304.386597 68.0
304.653412 64.0
304.715942 104.0
304.959198 56.0
305.08432 36.0
305.272095 84.0
305.745209 116.0
305.797394 124.0
306.121155 64.0
306.222168 80.0
306.663483 72.0
306.87381 52.0
306.95401 88.0
307.278381 88.0
307.322693 68.0
307.80542 52.0
308.256012 112.0
308.839874 52.0
308.902832 44.0
308.969299 104.0
309.17923 124.0
309.259735 64.0
309.341156 76.0
309.368256 52.0
309.469757 68.0
309.932098 36.0
310.457916 84.0
310.661346 44.0
310.899933 124.0
310.998199 112.0
311.54248 96.0
311.581116 132.0
311.806 172.0
311.936066 76.0
312.08371 48.0
312.111847 76.0
312.59375 76.0
312.635956 88.0
312.688751 52.0
312.790833 128.0
312.93515 48.0
313.333344 68.0
313.618561 44.0
314.052246 96.0
314.256866 100.0
314.323914 64.0
314.97702 80.0
315.128937 68.0
315.358643 96.0
316.237885 108.0
317.50412 108.0
318.022125 76.0
318.050507 88.0
318.71817 48.0
319.64978 36.0
319.74942 68.0
320.012848 92.0
320.044891 88.0
320.47229 104.0
322.091919 52.0
324.231476 184.0
325.304749 68.0
325.986328 48.0
326.888916 64.0
327.198456 148.0
328.355133 92.0
333.060333 32.0
333.103912 76.0
333.252869 80.0
333.478149 52.0
333.601746 48.0
335.480164 60.0
337.506409 124.0
338.018524 156.0
338.585907 40.0
338.666504 72.0
339.17215 72.0
339.817566 108.0
340.45993 44.0
340.985291 60.0
341.147003 64.0
342.747986 112.0
345.4505 40.0
347.035553 100.0
347.272888 112.0
347.488037 64.0
349.933594 128.0
354.756653 100.0
357.524811 88.0
361.150482 124.0
362.358063 68.0
366.038544 76.0
368.424805 192.0
369.147247 356.0
369.841003 60.0
369.967316 68.0
370.148224 204.0
370.610718 56.0
370.886658 88.0
371.138367 560.0
371.457977 48.0
371.557739 92.0
372.153687 100.0
372.970886 52.0
373.032379 52.0
373.324585 112.0
373.932434 156.0
378.228271 48.0
381.972748 76.0
385.935059 92.0
386.302673 52.0
387.304749 72.0
388.096375 88.0
388.12381 104.0
389.171417 84.0
395.961914 112.0
396.393738 108.0
404.390533 44.0
404.706787 84.0
406.121399 104.0
408.986206 76.0
411.336182 68.0
412.075195 52.0
414.717682 80.0
417.506866 144.0
418.642242 68.0
419.80365 112.0
420.019806 48.0
420.293152 68.0
420.709442 44.0
424.514557 124.0
425.376129 80.0
426.057831 76.0
426.222168 84.0
430.444275 40.0
431.956909 48.0
434.575165 64.0
437.059814 32.0
438.425659 56.0
439.480652 64.0
439.943909 136.0
444.217987 56.0
445.702698 36.0
448.244202 48.0
448.400116 60.0
448.640381 52.0
450.281769 52.0
452.743103 72.0
453.976318 84.0
455.856842 56.0
460.111908 88.0
460.7995 100.0
464.584045 84.0
465.43811 100.0
465.854706 104.0
474.971558 104.0
478.23468 64.0
478.513275 48.0
484.807556 116.0
489.529968 48.0
495.253632 56.0
498.861145 52.0
508.967194 104.0
513.440186 112.0
514.77594 36.0
521.658142 100.0
521.858154 108.0
522.981812 48.0
524.50769 116.0
525.720825 68.0
525.834961 48.0
526.003845 48.0
527.159302 80.0
535.145142 64.0
542.490845 36.0
544.592834 48.0
547.378479 56.0
550.428101 80.0
560.235229 88.0
560.376526 92.0
564.383728 68.0
567.338013 88.0
572.440857 100.0
576.146851 120.0
578.925842 28.0
591.308105 108.0
596.595215 32.0
609.724182 76.0
619.05304 52.0
623.88562 104.0
629.395996 72.0
637.139099 76.0
638.617004 68.0
639.744141 116.0
642.647034 80.0
646.411377 68.0
647.397034 68.0
668.343201 108.0
671.954956 52.0
675.023071 88.0
682.557434 64.0
688.179565 84.0
693.389648 92.0
693.656921 68.0
697.420471 76.0
697.604431 52.0
714.852173 56.0
731.061462 48.0
732.692932 48.0
749.352722 116.0
751.113586 76.0
759.520813 112.0
763.590698 64.0
769.387451 112.0
773.118408 104.0
775.932251 60.0
776.442383 76.0
795.63739 60.0
800.072998 92.0
806.328491 76.0
815.873901 60.0
821.945312 44.0
829.65509 144.0
829.741089 244.0
831.203674 80.0
833.920044 52.0
845.790283 52.0
855.076843 132.0
877.853943 208.0
879.842957 48.0
880.787781 52.0
881.37854 88.0
882.070007 52.0
882.643494 84.0
882.96283 192.0
883.1698 244.0
884.696472 28.0
888.495178 84.0
889.7771 108.0
903.400513 84.0
911.50647 104.0
912.997314 168.0
914.772278 60.0
937.796143 64.0
938.911804 204.0
941.676514 172.0
944.274048 108.0
945.258972 176.0
948.008484 92.0
948.474243 80.0
950.866272 188.0
951.909912 100.0
952.751343 200.0
953.12616 84.0
953.31665 196.0
956.927246 104.0
957.912598 60.0
959.613525 152.0
971.43811 128.0
974.256409 172.0
977.763306 220.0
979.213928 104.0
985.002136 168.0
985.61438 156.0
989.116638 96.0
989.29187 172.0
989.736389 180.0
991.327454 96.0
991.408936 152.0
996.083191 180.0
997.06958 100.0
997.408997 144.0
1005.268982 68.0
1021.56488 144.0
1022.525696 264.0
1023.754395 204.0
1023.878357 76.0
1026.354248 264.0
1028.580811 172.0
1034.026367 172.0
1034.647339 104.0
1034.768921 164.0
1036.382935 160.0
1036.869995 248.0
1037.062256 216.0
1042.253906 112.0
1043.532959 128.0
1047.394165 120.0
1051.361694 244.0
1052.405029 152.0
1052.553589 128.0
1052.928101 152.0
1053.451294 148.0
1053.541748 160.0
1053.761353 120.0
1056.58667 32.0
1057.816284 176.0
1058.159302 200.0
1059.09375 168.0
1059.318604 128.0
1061.995605 148.0
1062.144775 76.0
1064.624023 220.0
1065.215088 80.0
1065.332031 192.0
1065.676392 148.0
1065.942749 192.0
1066.599121 184.0
1067.619873 156.0
1069.337402 188.0
1071.922852 164.0
1072.809204 112.0
1076.430298 60.0
1078.116089 60.0
1078.514404 80.0
1081.117432 180.0
1081.791504 216.0
1083.612183 128.0
1084.070801 100.0
1085.545776 184.0
1087.546753 156.0
1087.592651 204.0
1089.424683 52.0
1090.009521 144.0
1090.739014 136.0
1094.798462 152.0
1096.287231 132.0
1096.458618 212.0
1100.257935 176.0
1101.585327 200.0
1105.473022 56.0
1106.187744 60.0
1106.412842 164.0
1106.955811 48.0
1107.604858 108.0
1114.942871 156.0
1115.301758 184.0
1116.126099 168.0
1118.155151 56.0
1118.647705 204.0
1118.980469 236.0
1119.060425 152.0
1119.406616 164.0
1119.553101 236.0
1124.092896 160.0
1124.833618 132.0
1126.763672 116.0
1126.830444 236.0
1127.478638 164.0
1127.839478 132.0
1127.906372 144.0
1129.818848 184.0
1132.831299 180.0
1133.206543 172.0
1134.761353 92.0
1134.981812 160.0
1136.183228 136.0
1137.511963 152.0
1139.177246 204.0
1141.025391 44.0
1142.242554 156.0
1142.572144 156.0
1144.214355 116.0
1145.460205 144.0
1146.68103 196.0
1147.063843 132.0
1147.117798 80.0
1147.650391 176.0
1148.479858 200.0
1148.783447 84.0
1150.767578 152.0
1151.436157 152.0
1151.870239 172.0
1152.300781 200.0
1152.739868 148.0
1157.420776 96.0
1158.883911 156.0
1159.744507 156.0
1161.066528 208.0
1161.894043 108.0
1161.96875 144.0
1162.477661 212.0
1162.755859 156.0
1167.742676 124.0
1168.688232 136.0
1174.253784 52.0
1174.888062 228.0
1176.614746 164.0
1177.529785 148.0
1179.401855 192.0
1181.583252 272.0
1182.151123 164.0
1184.287231 56.0
1184.369385 236.0
1185.093628 176.0
1185.403931 76.0
1186.000122 152.0
1187.501709 136.0
1187.748657 176.0
1188.77771 212.0
1190.335938 44.0
1190.514526 200.0
1193.944946 184.0
1196.234985 176.0
1197.302124 92.0
1198.280273 48.0
1198.838379 188.0
1199.07959 144.0
1199.162354 168.0
1200.596313 124.0
1201.88623 156.0
1202.258911 36.0
1202.597046 228.0
1203.473755 156.0
1204.951782 220.0
1205.843262 100.0
1206.506836 52.0
1207.378052 52.0
1208.131958 204.0
1214.289795 144.0
1215.03894 204.0
1216.544922 148.0
1217.808716 68.0
1218.232422 228.0
1218.565918 140.0
1218.968872 92.0
1219.358032 128.0
1223.468872 76.0
1225.189087 148.0
1225.802246 64.0
1226.770996 124.0
1227.747192 196.0
1229.016724 256.0
1229.951904 212.0
1230.307861 188.0
1230.398682 188.0
1230.552246 196.0
1231.962891 148.0
1232.067749 164.0
1235.752197 232.0
1236.297974 164.0
1237.074829 120.0
1238.874634 208.0
1239.294922 68.0
1241.923828 272.0
1242.036011 240.0
1242.2854 180.0
1242.555176 200.0
1242.927002 152.0
1243.165649 180.0
1244.085083 168.0
1244.878418 80.0
1246.248169 152.0
1249.010986 132.0
1249.397949 132.0
1250.108521 88.0
1251.509277 140.0
1251.762817 208.0
1252.967285 148.0
1253.291382 220.0
1253.946655 188.0
1254.799683 164.0
1256.322998 172.0
1257.353149 204.0
1257.988403 100.0
1261.166992 212.0
1261.371948 212.0
1261.753784 144.0
1261.810303 228.0
1262.439575 192.0
1264.951294 168.0
1265.453979 116.0
1265.5177 84.0
1265.715942 196.0
1265.772583 176.0
1266.112427 132.0
1267.040405 128.0
1267.493774 140.0
1268.216675 168.0
1268.833252 180.0
1269.053223 168.0
1269.577881 120.0
1270.202026 112.0
1270.709595 224.0
1270.989502 156.0
1272.77832 152.0
1274.213013 160.0
1276.572754 48.0
1276.892822 208.0
1279.440186 156.0
1279.917236 132.0
1280.515381 124.0
1281.04248 204.0
1281.60791 244.0
1283.484253 176.0
1284.449829 124.0
1284.542603 180.0
1284.735229 180.0
1285.056274 128.0
1285.198975 116.0
1285.641357 108.0
1285.856445 156.0
1286.426514 48.0
1289.362061 136.0
1289.855225 160.0
1291.206299 172.0
1291.278198 116.0
1291.349609 60.0
1291.721558 68.0
1291.946777 136.0
1292.064941 196.0
1292.522827 136.0
1293.217041 184.0
1293.574951 240.0
1293.897095 100.0
1294.061768 92.0
1294.491333 80.0
1294.942505 244.0
1295.00708 64.0
1296.038574 148.0
1296.239258 160.0
1297.472046 180.0
1297.909424 184.0
1298.741333 100.0
1301.001587 140.0
1301.396484 144.0
1301.690918 144.0
1302.646118 152.0
1302.775391 212.0
1303.853271 216.0
1304.651123 148.0
1308.024902 144.0
1308.255249 84.0
1309.241699 132.0
1309.472168 48.0
1309.659424 136.0
1310.819092 148.0
1311.950806 240.0
1312.145508 200.0
1313.934082 132.0
1316.084839 184.0
1316.510864 252.0
1317.117554 160.0
1317.776245 112.0
1318.598755 160.0
1318.656616 192.0
1319.748169 56.0
1320.312134 104.0
1321.238037 176.0
1321.773438 84.0
1321.990479 140.0
1322.316162 232.0
1322.750488 120.0
1323.365845 132.0
1323.814819 112.0
1323.917725 188.0
1325.647461 212.0
1326.104126 140.0
1327.786133 104.0
1327.989136 132.0
1329.019287 44.0
1329.541748 260.0
1329.795776 120.0
1330.485352 204.0
1330.587036 140.0
1330.812134 108.0
1333.994141 196.0
1334.117798 156.0
1334.314087 152.0
1334.466675 140.0
1335.986694 72.0
1336.095825 176.0
1336.328613 192.0
1338.146973 192.0
1338.30835 48.0
1338.362427 100.0
1340.325928 80.0
1340.457153 212.0
1340.508179 204.0
1340.821533 196.0
1341.010986 160.0
1341.623291 52.0
1342.052612 148.0
1342.97229 208.0
1343.650757 164.0
1344.789062 212.0
1344.869385 188.0
1345.741333 204.0
1346.380615 180.0
1346.512085 160.0
1347.549438 124.0
1349.281494 152.0
1349.49353 136.0
1350.590454 204.0
1351.431763 408.0
1353.28125 164.0
1353.664307 160.0
1354.374634 188.0
1355.91333 192.0
1356.638916 196.0
1356.976196 148.0
1358.611694 144.0
1358.98584 192.0
1359.433472 36.0
1360.550415 224.0
1360.848633 176.0
1361.041016 204.0
1361.635864 140.0
1362.238159 196.0
1363.832642 188.0
1363.935547 172.0
1364.009033 136.0
1364.722168 404.0
1364.810425 92.0
1364.920654 64.0
1365.023682 168.0
1366.090088 92.0
1367.002441 156.0
1368.077026 204.0
1369.144653 144.0
1370.116943 172.0
1371.376953 172.0
1371.612793 144.0
1373.681519 132.0
1374.319336 144.0
1374.503906 52.0
1375.79541 156.0
1376.829224 124.0
1378.107056 152.0
1378.328735 136.0
1378.580078 160.0
1380.110107 40.0
1380.25647 172.0
1380.731323 136.0
1381.300781 64.0
1381.500488 128.0
1381.870483 180.0
1381.981445 152.0
1382.358765 104.0
1382.417969 204.0
1385.03894 212.0
1385.438843 108.0
1385.512939 72.0
1385.95752 160.0
1386.452515 136.0
1386.587402 176.0
1387.135864 144.0
1387.365723 104.0
1389.509033 128.0
1390.433716 180.0
1391.618042 160.0
1392.099487 128.0
1393.919434 172.0
1394.67749 116.0
1395.108521 224.0
1395.182861 160.0
1395.252563 160.0
1395.51001 200.0
1396.618042 48.0
1397.39917 168.0
1398.664307 176.0
1399.27478 112.0
1402.254395 240.0
1402.649414 168.0
1402.84314 148.0
1402.910278 252.0
1403.089233 36.0
1405.393799 208.0
1405.460938 132.0
1407.401611 88.0
1407.521118 160.0
1408.267944 216.0
1408.379883 116.0
1408.663818 204.0
1409.186768 192.0
1410.158203 108.0
1410.741211 212.0
1411.219727 112.0
1411.316895 228.0
1412.55188 172.0
1412.880005 252.0
1413.635742 184.0
1414.676147 128.0
1414.911743 212.0
1415.394775 236.0
1415.574585 204.0
1417.222412 188.0
1417.5896 168.0
1417.904419 220.0
1418.256592 140.0
1420.378662 80.0
1420.656128 80.0
1421.383911 320.0
1421.751587 92.0
1422.126953 144.0
1422.786499 216.0
1423.180298 188.0
1423.771118 52.0
1423.85376 112.0
1425.9198 124.0
1426.100098 192.0
1429.3125 180.0
1429.454346 120.0
1429.82312 116.0
1430.395142 164.0
1431.953735 140.0
1432.029053 228.0
1432.669312 148.0
1434.523071 224.0
1435.261963 108.0
1435.880249 132.0
1435.978394 144.0
1436.860962 192.0
1437.464478 148.0
1439.004272 144.0
1439.434692 180.0
1439.608398 96.0
1442.290405 156.0
1442.61145 248.0
1443.114502 216.0
1444.377441 200.0
1444.801025 160.0
1445.391235 196.0
1445.444092 164.0
1446.609741 172.0
1446.889771 196.0
1448.396729 152.0
1448.896729 164.0
1448.994507 200.0
1449.624146 144.0
1449.79834 96.0
1449.881714 248.0
1450.381958 120.0
1450.685181 208.0
1451.848022 36.0
1452.391357 60.0
1453.112061 112.0
1453.407959 152.0
1454.584229 52.0
1455.50293 156.0
1456.961182 212.0
1457.196655 148.0
1457.416992 88.0
1457.941284 92.0
1458.81543 140.0
1459.408447 152.0
1459.74292 192.0
1460.05481 156.0
1460.153687 232.0
1460.252563 148.0
1460.724121 196.0
1461.522949 100.0
1461.804443 136.0
1461.949097 196.0
1462.078369 48.0
1462.92334 200.0
1463.296387 116.0
1463.532349 172.0
1464.560425 192.0
1465.527954 184.0
1467.273315 72.0
1467.501953 152.0
1467.784058 48.0
1467.936646 184.0
1468.073853 108.0
1468.134888 188.0
1468.287476 108.0
1468.714478 244.0
1469.630005 184.0
1470.07251 144.0
1471.354858 160.0
1471.667847 84.0
1471.988647 180.0
1472.095459 184.0
1472.385742 176.0
1472.813354 172.0
1472.981445 104.0
1474.051025 280.0
1474.196289 244.0
1475.044556 144.0
1475.258667 184.0
1476.168457 164.0
1477.842529 172.0
1478.279785 204.0
1478.348633 144.0
1479.573364 36.0
1479.772339 136.0
1480.155273 192.0
1480.584106 128.0
1481.204468 180.0
1482.008911 252.0
1482.085449 184.0
1482.460938 140.0
1483.189087 160.0
1486.625 120.0
1486.732422 88.0
1486.862915 156.0
1487.001099 140.0
1487.062378 168.0
1487.87793 84.0
1488.129517 196.0
1488.275391 196.0
1488.382812 128.0
1488.467285 228.0
1488.605591 152.0
1488.828247 88.0
1490.741089 108.0
1490.856323 140.0
1491.211182 212.0
1492.155396 212.0
1492.613281 256.0
1493.147339 136.0
1493.293457 184.0
1493.739624 160.0
1494.624268 156.0
1495.270752 192.0
1497.133789 204.0
1498.219849 92.0
1498.497192 380.0
1498.700317 196.0
1498.789917 140.0
1499.152832 184.0
1499.47583 160.0
1500.292847 212.0
1500.462524 156.0
1501.233521 156.0
1502.976807 156.0
1503.424438 84.0
1503.69458 180.0
1503.787109 164.0
1503.887451 236.0
1504.21936 200.0
