>compound Ifosfamide
>formula C7H15Cl2N2O2P 
>ionization [M+H]+
>parentmass 261.0320961620905
#inchi InChI=1S/C7H15Cl2N2O2P/c8-2-4-10-14(12)11(6-3-9)5-1-7-13-14/h1-7H2,(H,10,12)
#inchikey HOMGKSMUEGBAAB
#Ion_Source LC-ESI
#Instrument qTof
#Compound_Source Isolated
#PI Sirenas
#Data_Collector Ed Esquenazi 
#Scan -1
#Precursor_MZ 261.03
#ExactMass 0.0
#Charge 1
#CAS_Number N/A
#Pubmed_ID N/A
#Smiles N/A
#INCHI_AUX N/A
#Library_Class 3
#SpectrumID CCMSLIB00000004304
#IonMode Positive
#UpdateWorkflowName UPDATE-SINGLE-ANNOTATED-BRONZE
#LibraryQualityString Bronze
#TaskID d19310cd93df49b68e9fcbec27720eb5
##Scan# 3
#SpectrumFile Ifosfamide.mgf
#LibraryName fda_library.mgf
#MQScore -1
#Organism fda_library
#TIC_Query 0
#RT_Query -1
#MZErrorPPM -1
#SharedPeaks 0
#MassDiff 0
#LibMZ -1
#SpecMZ 261.03
#SpecCharge 0
#internalFilename spec-00000.mgf

>collision 10
100.019402 5.008333
101.016914 9.011363
105.588531 2.083333
106.005295 499.855591
106.448105 1.777778
106.731842 7.843137
108.963112 45.27586
111.422318 39.43116
115.965454 110.378601
116.191269 3.185606
118.005547 498.685486
118.041183 58.002419
118.054398 5.015
118.080856 3.666667
118.098045 12.51042
118.174049 8.002778
119.49131 13.38667
119.531677 19.61364
119.672623 13.89043
120.019966 129.792007
120.058037 475.735687
120.13945 8.595239
120.199661 13.34347
120.600616 14.21894
121.584167 11.48611
123.972046 351.959106
124.587463 7.410257
124.94104 31.801611
125.174217 28.775511
125.181801 2.375
125.381004 7.111111
125.950111 1058.928955
125.998268 7.142316
126.156693 3.683333
126.194939 6.558333
126.313118 14.33929
126.373726 6.916667
127.124832 8.03728
127.259918 11.19853
127.967087 203.6138
128.023605 91.800789
128.25116 9.639493
128.956802 17.2598
129.009918 96.850502
133.063828 37.728142
135.970123 96.481499
136.236176 8.083333
136.260544 12.68116
141.951279 36.666672
141.980209 236.537201
142.170929 7.130208
142.237305 14.39054
146.034973 44.26815
153.125824 9.376773
153.981506 2540.701904
154.033981 29.49091
154.070038 2.680556
154.083557 3.15
154.100266 8.019608
154.152603 9.813406
154.185928 3.449074
154.2341 19.36585
154.274994 24.66256
154.301849 18.7787
154.350922 10.73016
154.39209 14.79688
154.447083 5.414216
154.497894 10.17647
154.602127 4.59375
155.255463 13.375
156.345383 6.03858
182.011215 98.125
182.066299 3.010417
189.955231 31.789141
383.30484 4.558333
617.859924 3.013889
759.189758 16.349871
827.258728 5.44079
1061.164429 33.41843
