>compound Paclitaxel
>formula C47H51NO14 
>ionization [M+H]+
>parentmass 854.339355
#inchi InChI=1S/C47H51NO14/c1-25-31(60-43(56)36(52)35(28-16-10-7-11-17-28)48-41(54)29-18-12-8-13-19-29)23-47(57)40(61-42(55)30-20-14-9-15-21-30)38-45(6,32(51)22-33-46(38,24-58-33)62-27(3)50)39(53)37(59-26(2)49)34(25)44(47,4)5/h7-21,31-33,35-38,40,51-52,57H,22-24H2,1-6H3,(H,48,54)
#inchikey RCINICONZNJXQF
#Ion_Source LC-ESI
#Instrument qTof
#Compound_Source Isolated
#PI Sirenas
#Data_Collector Ed Esquenazi 
#Scan -1
#Precursor_MZ 854.341
#ExactMass 0.0
#Charge 1
#CAS_Number N/A
#Pubmed_ID N/A
#Smiles N/A
#INCHI_AUX N/A
#Library_Class 3
#SpectrumID CCMSLIB00000005450
#IonMode Positive
#UpdateWorkflowName UPDATE-SINGLE-ANNOTATED-BRONZE
#LibraryQualityString Bronze
#TaskID d19310cd93df49b68e9fcbec27720eb5
##Scan# 2
#SpectrumFile Paclitaxel.mgf
#LibraryName fda_library.mgf
#MQScore -1
#Organism fda_library
#TIC_Query 0
#RT_Query -1
#MZErrorPPM -1
#SharedPeaks 0
#MassDiff 0
#LibMZ -1
#SpecMZ 854.341
#SpecCharge 0
#internalFilename spec-00000.mgf

>collision 10
103.053551 32.976631
104.451454 8.240079
104.479355 7.482143
104.542473 11.10714
104.559998 18.22315
104.597534 13.3705
104.900803 6.520833
105.013985 3.518939
105.03347 3966.430908
105.068558 282.069489
105.101776 18.02363
105.134659 10.12927
105.143425 10.27222
105.168747 15.40469
105.195312 10.675
105.219154 6.708333
105.285706 6.777778
105.352516 13.69565
105.386879 20.853359
105.464439 16.006941
105.501129 8.080882
105.520134 7.022059
106.41555 10.42455
106.429924 7.019737
106.442627 11.75
107.085266 111.875504
108.094749 51.04348
109.064598 140.116196
109.098366 25.09091
111.041809 26.14912
117.501762 13.01389
118.064217 226.356506
119.05056 13.02216
119.085434 158.337402
120.04924 11.675
121.02829 4.558333
121.063469 197.396393
121.099533 203.847305
121.121574 5.386905
121.308022 3.0
121.464119 28.78307
121.515221 4.670455
121.553658 11.19444
121.949928 7.190217
122.014359 5.787879
122.059929 4351.146973
122.14119 12.68632
122.167305 6.446428
122.179642 9.086538
122.194954 4.814815
122.205315 9.483334
122.229637 7.698232
122.242493 22.891979
122.28315 8.358974
122.325813 3.025
122.375832 12.60682
122.408653 21.36536
122.42601 15.68182
122.510567 3.66886
122.548973 11.83333
122.576035 8.400001
122.672363 18.313761
122.784111 16.336109
122.922928 10.72185
123.042557 43.0
123.08123 30.334999
123.200821 3.367424
123.328255 6.012097
123.440056 9.366667
131.085617 116.431297
132.394196 12.48981
132.459183 4.669445
132.562866 25.98732
132.81485 5.671875
132.935532 7.041667
133.064926 534.690918
133.101761 1050.44397
133.232132 8.666667
133.272293 5.668104
133.320496 14.40056
133.448624 10.05511
133.505341 8.025641
133.642044 16.34017
135.079559 58.120041
135.211121 15.00119
135.336502 2.0
136.076279 138.185898
136.25882 4.541667
137.057693 63.51281
137.572983 12.41554
139.073456 33.243
139.418015 5.001667
143.084839 125.994499
145.06308 129.255005
145.098251 6.408333
147.041428 59.3064
147.079651 133.342194
147.117691 59.18475
148.605515 14.47619
148.667664 19.23184
149.059631 529.529602
149.095184 391.445587
149.217072 12.36667
149.280762 18.6124
149.314758 3.727941
149.324188 8.12037
149.493362 2.4
150.191757 25.25758
150.418243 4.094697
151.076492 230.8172
151.111755 231.981201
151.280899 4.002451
151.431564 3.720238
151.462021 4.59375
151.679169 10.36687
153.086304 36.26844
155.069687 10.37191
157.069153 45.487431
157.098038 87.336327
157.107681 14.64209
157.160202 5.231482
157.259186 8.223765
158.322784 2.671296
159.078796 204.7061
160.325165 2.816667
160.386795 4.002778
161.05925 113.217598
161.095474 239.607697
161.127869 3.002778
161.300461 12.97961
163.037186 75.3899
163.108856 39.829601
163.570251 9.408334
165.053253 73.130951
165.092743 69.462898
165.251953 2.666667
167.07045 93.179161
167.104858 140.474503
169.084656 43.027
169.100555 94.334137
169.170959 11.77885
171.07901 25.641029
171.389984 26.69231
171.408234 12.34848
172.274734 11.36232
173.095215 241.7603
175.071991 58.59243
175.114212 93.068893
175.665726 6.927469
176.025757 8.003788
177.05397 642.430115
177.089859 279.352112
177.125702 3.700758
177.175003 8.12037
177.246094 8.789634
177.278702 10.34964
178.549973 4.345238
179.066437 10.68314
179.107758 136.313995
179.33342 4.387821
179.389633 8.12037
180.784348 3.714286
181.083145 85.151512
181.100021 67.745644
181.139252 4.666667
182.073837 25.785709
183.064194 10.7815
183.116394 49.484852
184.068161 15.56053
185.08577 24.630211
185.130936 79.749863
185.437866 9.157051
187.086838 3.016667
187.111755 79.209648
187.289124 16.66667
187.777435 7.688889
188.482193 6.493421
188.770325 9.33642
189.054367 49.18721
189.089569 230.128494
189.127396 66.157852
190.128754 69.880951
190.187454 2.0
190.512207 12.4537
191.068375 153.881195
191.104431 22.163759
193.08252 43.230808
193.125153 691.601379
193.430069 40.175919
193.493256 5.480072
194.107285 8.481667
194.171188 2.053571
195.06517 189.480804
195.403214 2.815476
196.063522 79.729057
197.094711 104.115196
197.193405 5.66821
197.330139 1.671296
198.039459 2.041667
198.157013 6.201666
199.108963 103.346497
201.088516 23.89414
201.12471 35.21814
201.407623 6.673611
203.071121 43.428028
203.105392 102.436401
205.052399 15.36012
205.087067 8.422101
205.123413 63.264568
206.11058 18.424549
207.066635 128.328995
207.115158 21.337959
207.129654 2.361111
207.184113 28.356569
207.24025 5.416667
207.257706 5.625
207.586014 7.291667
208.121658 60.655041
208.196411 10.53186
209.079987 71.387756
209.097382 20.334021
209.142349 4.35
210.086838 38.84409
210.099823 14.89655
211.092697 114.091599
211.113068 242.428406
211.149918 169.319794
211.200333 2.666667
211.383911 3.266667
211.751785 4.711957
213.083786 232.085693
213.125549 29.711109
213.275009 4.387821
213.46022 11.81855
213.618744 17.29657
215.066696 18.370449
215.107727 134.650497
215.141846 4.688725
215.402161 7.35
215.580902 10.20833
217.148438 3.266667
217.439087 2.4
219.063156 7.383333
219.112808 44.637199
220.088776 85.187393
221.131821 243.565201
221.650208 5.670455
222.087585 19.89167
223.111023 251.588303
223.170639 1.720238
223.186432 5.939394
223.456375 14.71646
223.909164 14.04003
224.075775 14.225
224.096939 17.80064
224.367493 3.678571
225.092422 49.690269
225.123016 254.830902
225.161926 21.0744
225.181152 3.010417
225.26564 11.77885
225.821106 4.666667
227.069672 6.337963
227.105484 117.250603
227.143692 78.19117
229.085846 26.28269
229.118896 44.387211
229.445374 3.688725
229.508591 6.468334
229.661469 13.8776
231.097137 49.361099
231.116028 21.471149
231.393982 5.378623
232.119507 9.348333
233.111237 61.951561
233.133011 14.00362
235.097839 60.08255
235.150574 231.557907
235.775558 12.52083
236.116486 12.65278
236.524811 12.33333
236.732269 13.44928
237.074539 83.856194
237.092392 42.57476
237.125763 533.224609
237.160645 75.845062
237.316071 10.4
237.755737 3.402778
238.052383 2.893518
238.491196 8.699275
238.668518 2.669872
238.765488 20.88068
238.821808 19.00293
239.100845 105.183899
239.141739 599.741821
239.196228 17.07843
239.251831 2.337963
239.36673 3.926282
239.411148 6.272727
239.480728 10.71354
240.057846 26.687639
240.101517 2827.506104
240.165695 6.265351
240.18306 1.671296
240.218887 8.667683
240.255646 51.289009
240.279083 9.827381
240.332382 19.44643
240.354736 19.04273
240.434097 4.190476
240.486542 16.221531
240.533401 7.455883
240.570206 23.56448
240.599167 12.375
240.682999 9.482456
240.790741 13.05235
240.920349 6.666667
241.120361 169.973297
241.397339 6.160088
241.428497 16.706921
242.076019 23.08255
242.272293 26.67837
243.113495 58.641312
243.136108 61.549709
243.486542 5.8
243.725571 5.415
245.129456 64.935417
245.881058 7.377451
247.093506 10.69048
247.112564 75.698227
247.146286 25.313869
247.679382 9.796296
247.82666 4.469445
247.898209 17.4161
247.989517 13.23148
249.085922 59.61409
249.127548 112.207603
249.549561 9.676802
249.811264 20.71102
251.069275 15.46959
251.104507 178.490402
251.145432 16.81649
251.642288 11.48457
251.732773 6.25926
251.79126 8.789216
252.432297 5.670455
253.122818 16.08013
253.157043 204.036896
253.278458 7.671297
253.315781 12.07692
253.638855 10.06373
253.732651 5.669117
253.973083 10.06833
254.090668 31.56522
254.17804 4.013889
255.090988 170.036407
255.135086 157.122894
255.192169 2.016667
255.430557 5.932018
256.210266 29.486111
256.460846 6.732527
256.588989 4.011905
257.112915 52.474239
257.152191 54.259521
258.204803 9.416667
261.128113 116.155602
261.4263 12.10417
261.58548 5.518939
263.113037 43.837601
263.143555 690.540771
263.218109 2.695513
263.343079 7.402778
263.432648 5.840278
263.528717 2.733333
263.681152 9.019608
263.743256 16.46505
264.329742 7.075
265.120697 243.666504
265.15741 46.719639
265.304932 9.561992
265.361603 15.5
265.406921 5.37037
265.682526 5.148809
266.053894 14.02042
266.291809 2.00463
266.461334 2.333333
266.550385 10.45595
266.655273 8.354167
266.686707 13.22917
266.90506 18.197399
267.093109 30.368429
267.137573 656.427673
267.212128 3.094697
267.373596 20.388571
267.652222 3.560185
267.742065 5.932018
267.772858 20.79167
267.826843 6.201666
267.934998 3.333333
268.09729 3546.657959
268.174011 21.402781
268.197021 3.003788
268.27655 26.72187
268.316681 11.02126
268.350006 37.714439
268.375488 21.5376
268.412201 18.533211
268.449585 25.08477
268.475067 10.85833
268.517426 29.277031
268.590271 5.720238
268.635803 23.036079
269.081665 299.308014
269.116302 192.465897
269.156372 162.418106
269.693451 2.741667
269.71463 6.708333
269.746185 7.2
270.18866 6.272727
271.090302 66.176659
271.139313 68.852989
271.168243 45.597462
273.122467 216.258804
273.146393 68.145187
273.182312 13.774
273.21106 16.12842
276.112823 88.768707
278.129669 52.35556
279.133057 138.883606
279.187744 7.094697
279.299683 6.880952
279.427246 9.019736
279.759338 20.60799
279.782837 10.16329
279.836792 7.259615
280.441986 4.669445
280.661469 12.56019
280.842529 6.468334
281.154266 1159.240967
281.223236 2.854167
281.26825 7.340278
281.314758 7.075
281.385406 20.859871
281.422821 6.916667
281.479492 15.06667
281.60675 11.40833
281.671143 22.66964
281.781921 6.025641
281.869537 6.344048
282.273193 5.480072
282.658844 4.531863
283.16925 122.853897
283.636169 10.44298
283.788544 9.477381
283.941345 10.16329
284.13562 88.83316
284.243073 22.049999
284.298706 13.9616
284.319275 8.053572
284.380219 20.22381
284.420624 36.313999
284.467468 94.427353
284.514679 19.77932
284.562531 40.178471
284.577332 9.875
284.605316 115.027603
284.673553 129.924698
284.714142 26.00577
284.769287 14.56517
284.836731 12.07428
284.974579 32.671051
284.997131 5.840278
285.114288 40.013889
285.149597 277.34079
285.329376 134.065704
285.352539 2.791667
285.690521 17.410259
285.867035 19.68269
286.014038 9.035435
286.05014 66.301811
286.067291 85.01667
286.108063 25670.179688
286.302032 77.253212
286.370422 66.09726
286.414581 59.08287
286.436768 84.618393
286.501648 75.347313
286.543335 88.76992
286.58371 32.785591
286.606018 76.755562
286.70282 43.282509
286.735168 43.500111
286.774628 45.29744
286.892944 21.56333
286.937347 52.48341
286.980682 21.380659
287.281006 50.591911
287.320557 37.378792
287.47818 18.496031
287.55307 20.82258
287.58786 14.58712
287.629395 16.45595
287.746399 10.76587
287.915283 12.04732
287.960663 15.23661
287.977905 29.033331
288.088867 19.6674
288.206787 5.375
288.26593 7.810714
288.354553 3.686404
288.573181 3.375
288.610016 4.669445
288.819305 48.797009
289.135559 17.74498
289.401123 9.144048
289.431061 38.630459
289.492218 5.884804
289.560944 5.480072
289.743408 26.831791
290.622986 7.113095
291.138855 1252.584961
291.220093 3.15
291.453583 7.740942
291.493469 3.857143
291.589691 10.15686
291.624725 12.00362
291.703278 6.157051
291.88623 8.694445
291.9375 4.761905
292.629608 11.66667
292.707428 5.265351
293.034729 4.388889
293.171387 16.015551
293.232574 4.531863
293.272675 9.745155
293.39801 23.414749
294.064697 8.445988
294.616577 10.54688
297.147766 132.498795
297.271271 8.133333
297.327057 7.668478
297.351562 6.844298
297.475861 15.43728
298.376587 13.71204
298.814423 3.483333
299.095886 11.93333
299.163452 654.138489
299.23053 2.669444
299.459229 9.003623
299.534393 4.481482
299.99527 4.0
300.079376 6.416667
300.127625 22.6901
300.431274 7.002778
300.724182 18.719021
301.112823 44.835831
301.14743 62.993801
303.094452 3.802778
304.725769 5.339285
305.141052 9.149692
307.161224 12.21389
307.245148 7.005556
307.330505 14.02586
307.403717 4.734848
307.53363 12.69338
307.666046 8.733334
307.888824 4.708333
308.203278 9.354592
308.256592 14.40675
308.414215 2.336539
308.683685 4.777778
309.115326 88.551208
309.14917 2931.563965
309.22406 7.383333
309.308319 7.714285
309.37088 9.375
309.408081 31.17831
309.446716 28.30349
309.482086 15.24333
309.526855 17.0867
309.642731 11.63377
309.67691 9.457936
309.756531 10.84722
309.786987 37.342388
309.826477 15.47384
309.85141 8.881667
310.467163 4.033333
310.856293 14.87907
310.951599 4.083333
311.126312 51.471432
313.097534 12.52134
313.172089 22.60331
313.551971 6.015
315.119019 10.85985
315.157043 83.977226
315.273743 7.362179
315.983765 7.04529
317.10025 49.595718
317.134583 24.0928
322.046143 7.336111
323.159332 76.660942
323.229095 11.76894
323.404388 3.388889
325.08313 5.691667
325.114655 9.497093
325.13974 20.02899
325.1586 10.82456
325.178253 35.626301
325.221558 4.675
325.309113 3.335784
325.611481 23.349899
325.754791 12.05797
325.912781 6.008333
326.391266 43.522781
327.06842 3.440476
327.097534 87.459663
327.159393 4990.617188
327.232788 13.78305
327.257172 24.802679
327.295227 11.44817
327.338989 3.668651
327.356384 9.001985
327.408234 10.03852
327.464478 2.041667
327.505096 16.389549
327.546906 19.494949
327.568756 7.833333
327.641449 6.688726
327.704773 9.635753
327.817535 4.681667
327.845245 14.6495
327.902069 19.66848
327.968811 13.12821
328.002991 26.188339
328.063629 9.010417
328.118866 217.975494
328.662109 15.85192
328.685272 21.48167
329.009186 27.671301
329.138489 302.594696
329.469879 9.920635
329.956299 11.01136
330.039612 3.926282
333.124146 11.03157
335.12851 9.711021
339.432831 4.8
340.138214 10.20833
341.175629 628.808289
341.255066 3.823718
341.358368 2.35
341.427277 7.963235
341.450531 16.33333
341.705627 17.057871
341.795593 9.670455
342.980133 10.08889
343.063782 8.775537
344.154633 46.747162
344.515137 4.408333
344.57431 6.446428
345.168823 905.894409
345.266235 10.45581
345.30899 15.52292
345.510254 15.7298
345.589264 12.52083
345.710938 4.107143
346.285431 25.16667
347.148651 69.422729
347.367584 4.041667
348.517273 8.920045
351.157379 113.930397
351.243805 2.695513
351.792206 16.354839
351.844208 3.490385
352.111481 12.70588
352.228638 6.727941
357.169159 89.793488
359.180511 80.26506
361.129669 38.428478
361.184387 15.33333
363.183838 5.333333
366.869446 7.333333
366.894257 11.29688
366.923889 6.592949
367.904816 27.49342
368.900177 17.78241
369.169617 1082.121948
369.248871 3.683333
369.529572 6.685185
369.636993 15.44444
369.803253 10.27222
369.850891 6.583333
370.279358 12.44599
370.374298 13.9697
370.734314 10.35756
371.076019 7.001068
372.125092 254.766998
384.647797 8.847222
384.737366 5.88587
384.838867 7.486111
384.86618 10.01449
384.903839 8.333333
384.983978 19.04175
385.214355 6.033333
385.466766 4.034091
385.636169 8.74537
386.803528 3.833333
386.935242 13.62976
387.126495 85.525703
387.180969 2905.052002
387.261871 33.114712
387.28894 10.78022
387.368134 8.357142
387.388672 16.006149
387.462219 27.34334
387.495941 22.10887
387.529053 16.743589
387.553894 5.722222
387.580414 15.06123
387.650024 8.700757
387.687805 6.669117
387.792755 10.42976
387.81543 18.46554
387.869659 13.67537
387.94635 22.465389
388.367401 21.143209
388.407837 9.815
388.615295 11.40351
388.64389 7.481667
388.759338 16.063129
389.163361 82.322319
389.405945 10.33333
389.734375 4.898148
390.134583 918.314575
390.325409 16.790211
390.387421 8.061275
390.627747 21.294571
390.743256 6.136111
390.764862 8.075618
390.929932 10.42976
391.040161 4.166667
391.432159 16.028851
391.45282 14.14583
391.538879 4.041667
392.862793 4.013889
395.335693 5.083333
401.196075 44.120621
402.140991 8.444445
402.507599 12.88694
402.982941 9.386905
403.159027 8.074275
403.197601 52.4884
403.919373 3.342592
404.54187 5.121212
405.189301 1448.095947
405.267914 6.144608
405.318939 2.695513
405.402985 22.000931
405.543091 9.375
405.58255 17.410761
405.615295 42.712139
405.671204 3.375
405.817749 9.741667
405.881805 16.33333
406.191772 8.625
406.791077 8.001344
407.164185 41.255211
410.920013 27.685419
413.135437 31.71014
413.179474 122.263298
421.209717 47.023411
426.100067 8.391666
427.033051 4.013889
428.457794 4.763889
428.552368 6.0
428.613953 13.21338
429.188232 146.758804
429.525177 2.016667
431.077606 50.86264
431.183685 697.687622
431.430725 4.037037
431.552185 11.60626
431.792114 5.008333
431.83548 3.016667
432.348907 16.839741
432.537018 14.67816
434.369415 2.4
444.140167 35.85965
444.755585 10.68981
445.204163 43.173229
445.423859 11.87879
445.61438 2.020833
446.264832 4.708333
446.312317 2.4
446.593506 4.066667
446.81543 33.580429
447.138092 19.458429
447.201691 1047.782959
447.286194 9.128205
447.693665 6.037281
447.724915 15.6674
447.761353 2.367424
447.850433 7.041667
447.87915 8.847222
448.004303 6.340278
448.045837 1.708333
448.093506 18.8034
448.122131 8.672222
448.357727 27.35438
448.420502 15.29167
449.139252 8.698232
449.197021 2616.0
449.286469 8.036422
449.33316 34.026951
449.382141 9.854167
449.406952 19.506411
449.430267 4.75
449.469788 11.02222
449.503723 42.23904
449.537415 9.375
449.566895 16.33333
449.618378 19.702379
449.658997 35.338879
449.754089 15.78261
449.882904 13.50718
450.022461 24.075001
450.282501 5.382936
450.36554 7.5625
450.792267 11.82315
450.917603 8.745098
450.968079 1.680555
451.10968 12.79953
451.174072 56.032532
453.590881 7.414216
458.052246 3.666667
463.208923 47.594879
464.118011 2.4
465.213684 188.197693
465.684326 7.166667
466.588745 10.63949
468.210815 41.807468
470.171326 32.791672
473.160522 55.10471
473.199432 121.911903
473.450378 5.668104
473.534943 1.708333
481.220245 30.680559
489.033844 4.734848
491.062042 15.47431
491.207367 853.92572
491.389313 2.680556
491.483307 9.20119
491.545044 4.025
491.617615 1.777778
491.699615 16.85634
491.753998 21.74107
491.873535 13.77564
492.034943 6.633772
492.580048 19.56818
499.132843 8.086538
501.28772 7.37037
505.48703 22.69643
505.722015 10.0049
505.776093 9.626984
505.870667 8.486112
505.918274 38.742168
505.96759 15.03409
506.020386 33.45425
506.09787 8.088768
506.141876 59.015141
506.192139 6.673611
506.254639 14.54167
506.277618 14.39254
506.36145 10.93202
506.585114 8.680555
506.967621 12.37306
507.123688 10.10526
507.539795 6.740942
507.713165 5.414216
507.80127 17.04167
507.873932 3.708333
508.029358 33.592949
508.173706 5.679598
508.393311 4.037037
508.44812 4.380952
509.145111 13.12247
509.218231 7941.079102
509.318359 66.273048
509.38736 86.196289
509.443146 62.779881
509.492584 17.17045
509.528076 53.854649
509.594574 25.96081
509.632629 19.047621
509.660309 23.840811
509.700134 48.473019
509.720703 30.040951
509.774536 62.262192
509.840668 10.85714
509.922729 19.683331
510.053497 53.692501
510.125366 44.161861
510.331207 28.57667
510.975281 9.426724
511.354706 10.75
511.497589 6.177083
512.133911 6.335
512.43634 12.04167
512.771057 7.727941
513.134766 5.695513
513.275085 11.69551
513.449707 14.16964
514.356873 6.856061
522.173401 10.75
523.231079 10.6
525.996094 11.02216
527.228699 129.876007
527.99408 5.666667
533.222717 77.315681
533.413147 38.8918
540.182495 24.6992
544.185791 7.008333
547.840576 3.080128
548.629944 11.61742
549.001953 10.50694
549.059143 9.973485
550.565125 9.932143
551.226501 598.928284
551.805054 11.68421
552.159546 9.733188
552.393616 16.06127
564.246338 10.86667
565.544434 3.761364
565.884338 2.669872
569.043335 6.075
569.240784 1091.927979
569.456787 8.11638
569.86731 3.0
570.022278 8.818548
570.326355 6.54529
570.410156 4.297619
570.619568 3.413462
570.668945 16.61714
570.765076 9.333333
570.918823 17.803419
571.796082 4.375
576.226807 14.69444
576.259583 12.76179
577.053162 3.36218
577.237 18.498631
591.558533 4.5
594.253784 36.700119
595.229919 53.788559
612.265991 76.733589
628.257935 13.41879
630.257263 17.630951
631.261841 14.69444
636.270813 21.36937
651.090088 6.98077
652.724487 23.65341
652.921631 28.4401
654.270569 48.73222
655.255371 160.212997
656.043457 14.04537
656.284119 3.440476
658.647888 9.004902
672.282837 57.001362
673.256958 63.919659
687.908752 2.854167
690.289062 44.554001
714.311096 25.004311
718.709839 10.38075
728.268982 6.685185
732.300781 29.681089
734.315063 19.222361
758.296204 17.65761
771.59259 10.11204
773.517639 14.7451
774.360168 6.740942
776.307312 450.498291
776.626831 11.49662
776.725098 25.680559
776.780884 7.761905
776.829773 19.18528
776.974854 12.08545
777.566467 5.017857
778.129211 9.68632
794.333923 40.333328
801.10144 14.04025
836.327148 32.393749
837.041687 4.358333
848.417236 6.633772
848.494263 16.91013
848.625671 15.84326
848.732361 18.04167
848.776001 7.671875
849.315247 12.10099
849.670105 12.76136
849.87262 7.022059
850.208496 16.36594
850.644592 5.041667
850.785889 3.35
851.587769 14.77844
853.797791 11.55147
854.339355 4683.104004
854.492126 10.94833
854.596375 39.028889
854.653137 23.12368
854.710938 69.925407
854.779358 53.114368
854.87677 41.308479
854.910767 33.466961
854.943604 13.11667
854.995361 85.214844
855.254578 57.147442
855.528931 13.40972
855.654663 109.069801
855.851868 31.67857
856.487671 29.020269
856.671082 11.69048
857.253235 16.09524
858.082214 8.791667
858.311707 5.88587
858.540833 6.125
860.340942 5.121212
862.753052 19.479731
865.911133 10.72464
1409.973755 10.875
