>compound MLS001240241-01!Reichsteins substance S
>formula C21H30O4
>ionization [M+H]+
>parentmass 347.221
#inchi InChI=1S/C21H30O4/c1-19-8-5-14(23)11-13(19)3-4-15-16(19)6-9-20(2)17(15)7-10-21(20,25)18(24)12-22/h11,15-17,22,25H,3-10,12H2,1-2H3
#inchikey WHBHBVVOGNECLV
#Ion_Source LC-ESI
#Instrument qTof
#Compound_Source NIH Pharmacologically Active Library
#PI Dorrestein
#Data_Collector VP/LMS
#Scan -1
#Precursor_MZ 347.221
#ExactMass 346.214
#Charge 1
#CAS_Number N/A
#Pubmed_ID N/A
#Smiles CC12CCC3C(CCC4=CC(=O)CCC34C)C2CCC1(O)C(=O)CO
#INCHI_AUX N/A
#Library_Class 1
#SpectrumID CCMSLIB00000084981
#IonMode Positive
#UpdateWorkflowName UPDATE-SINGLE-ANNOTATED-GOLD
#LibraryQualityString Gold
#TaskID d252d724072548979f1f6f1ced849daf
##Scan# 1883
#SpectrumFile p3-D05_GD5_01_18262.mzXML
#LibraryName Pharm_Active_Library.mgf
#MQScore -1
#Organism Pharm_Active_Library
#TIC_Query 0
#RT_Query -1
#MZErrorPPM -1
#SharedPeaks 0
#MassDiff 0
#LibMZ -1
#SpecMZ 347.221
#SpecCharge 0
#internalFilename spec-00000.mgf

>collision 10
45.456806 196.0
47.179813 120.0
47.64167 96.0
47.750263 124.0
48.00919 212.0
48.253605 132.0
48.422432 188.0
50.321587 164.0
50.578892 172.0
50.740391 148.0
50.751736 152.0
50.824078 180.0
51.721962 136.0
52.002907 168.0
52.270222 216.0
52.468994 188.0
53.029884 164.0
53.81839 204.0
54.814411 148.0
55.173084 188.0
55.81213 120.0
57.420559 196.0
58.15287 124.0
58.350353 220.0
58.834843 192.0
59.096455 216.0
59.13599 196.0
59.197227 228.0
59.828304 132.0
60.000858 112.0
60.923264 140.0
61.50412 192.0
62.899628 48.0
64.210274 40.0
64.291641 112.0
65.363747 144.0
66.517746 88.0
67.61145 188.0
68.333481 188.0
68.903946 148.0
70.073654 132.0
71.606468 112.0
74.77002 64.0
74.916374 232.0
76.106316 148.0
76.783264 160.0
76.942062 156.0
77.529793 184.0
77.905289 156.0
79.037224 188.0
79.423439 188.0
80.27359 136.0
83.792427 152.0
84.210022 196.0
84.920799 156.0
84.95871 160.0
86.525253 176.0
86.551178 92.0
86.64193 152.0
87.36412 92.0
87.412491 84.0
88.723709 204.0
89.865356 56.0
90.553467 216.0
90.642502 56.0
90.993408 220.0
91.037086 168.0
91.056122 348.0
92.029182 200.0
92.407631 104.0
93.067589 328.0
93.482193 56.0
94.588127 156.0
95.047455 240.0
95.084 428.0
95.901215 224.0
96.754883 92.0
96.78817 80.0
96.846924 232.0
96.948799 72.0
97.064232 1912.0
97.091919 172.0
97.117416 72.0
97.156647 80.0
97.854355 164.0
98.06752 468.0
98.088791 176.0
98.817528 96.0
99.392143 196.0
99.672127 104.0
100.664146 236.0
102.086975 156.0
102.205666 44.0
102.705292 120.0
103.048866 128.0
103.220299 180.0
105.031929 68.0
105.068199 1044.0
106.074814 212.0
106.310684 140.0
106.877846 64.0
107.021927 148.0
107.086159 384.0
107.180534 96.0
107.487778 56.0
107.584785 60.0
107.993935 60.0
108.468117 184.0
108.710777 108.0
108.986961 76.0
109.03891 152.0
109.064095 4936.0
109.132462 80.0
109.282219 48.0
109.552872 48.0
109.673737 44.0
109.91983 76.0
109.974091 120.0
110.06765 708.0
110.105629 96.0
110.86087 32.0
111.088829 188.0
112.934692 92.0
113.063751 196.0
115.053352 292.0
115.966759 204.0
116.024635 152.0
116.056801 336.0
116.449516 136.0
117.064606 248.0
118.011894 136.0
118.074608 208.0
119.047676 168.0
119.085037 1128.0
119.10849 40.0
120.050911 140.0
121.062798 736.0
121.104515 196.0
121.865585 144.0
123.079819 1056.0
123.465973 232.0
124.083008 220.0
125.37748 184.0
126.046959 184.0
126.274994 44.0
126.315254 56.0
128.060135 328.0
128.257629 164.0
129.071075 168.0
129.833008 52.0
130.080856 108.0
130.498871 132.0
130.828766 120.0
130.976791 116.0
131.084518 332.0
131.455566 176.0
131.702148 120.0
132.049561 144.0
133.057831 120.0
133.100189 680.0
133.846481 188.0
134.104553 160.0
135.080231 152.0
135.114059 632.0
135.444672 56.0
136.082428 168.0
137.093781 476.0
137.453415 160.0
139.075287 232.0
141.069672 176.0
142.070816 368.0
142.544708 176.0
143.084869 828.0
144.090851 148.0
144.590881 100.0
145.06514 124.0
145.09845 680.0
145.677078 120.0
146.102524 156.0
146.67572 208.0
147.079361 204.0
147.112701 332.0
147.303131 100.0
148.079575 44.0
148.125595 156.0
149.094528 308.0
149.13501 172.0
150.113724 156.0
150.245438 160.0
151.078506 144.0
151.110321 160.0
151.896713 140.0
153.072128 164.0
154.081863 156.0
155.083176 288.0
155.111374 176.0
155.139572 36.0
156.090836 308.0
156.177551 28.0
157.064301 136.0
157.103836 532.0
157.129166 48.0
157.159103 128.0
158.114761 216.0
159.11499 716.0
159.135773 176.0
160.086945 200.0
160.122208 196.0
160.154953 108.0
160.802948 72.0
160.931686 140.0
161.084915 340.0
161.133224 620.0
161.399139 132.0
161.768524 60.0
162.138321 132.0
162.237183 36.0
163.108932 276.0
164.11351 112.0
165.06665 308.0
165.091522 116.0
166.077103 164.0
166.21611 88.0
167.035675 200.0
167.081985 124.0
167.105148 116.0
168.086853 68.0
169.099503 644.0
169.317383 52.0
169.978439 140.0
170.104553 244.0
170.219864 156.0
170.830643 120.0
171.085678 216.0
171.116333 168.0
171.400833 52.0
171.786697 176.0
172.086823 176.0
172.118164 148.0
173.090897 124.0
173.131104 332.0
173.583542 120.0
174.097885 160.0
174.139755 140.0
175.11319 180.0
175.145584 344.0
176.120682 212.0
177.126068 348.0
178.277283 204.0
178.564407 44.0
179.08342 216.0
180.095123 224.0
181.016983 188.0
181.102524 192.0
181.408173 128.0
181.44838 156.0
182.106552 148.0
183.116241 620.0
183.329956 28.0
184.082611 104.0
184.101517 76.0
184.12149 192.0
184.972122 180.0
185.099365 180.0
185.132446 148.0
186.103821 240.0
187.110718 520.0
187.146729 672.0
188.152802 164.0
188.398605 48.0
189.129623 560.0
189.158829 192.0
189.23822 32.0
189.36145 40.0
189.397064 80.0
191.112885 184.0
191.140411 48.0
191.647049 112.0
191.768311 92.0
193.101883 92.0
194.062805 164.0
194.098846 156.0
194.315201 144.0
194.612183 124.0
195.065018 140.0
195.087204 208.0
195.114044 152.0
195.507263 92.0
195.919357 188.0
196.105927 164.0
196.633194 80.0
196.962677 80.0
197.102844 160.0
197.132919 296.0
197.272858 76.0
197.339951 76.0
197.398666 92.0
197.71199 204.0
198.070374 80.0
198.126404 232.0
198.147308 140.0
199.114532 332.0
199.144424 364.0
200.120483 160.0
200.157089 168.0
201.123749 492.0
201.157822 152.0
203.101974 120.0
203.13446 276.0
205.055328 96.0
205.10379 164.0
205.132355 160.0
205.156082 104.0
206.105515 124.0
208.117981 172.0
209.126556 268.0
209.666794 220.0
210.116623 156.0
210.136826 176.0
211.11145 92.0
211.141418 140.0
212.149719 160.0
213.130722 212.0
213.163254 132.0
214.125549 164.0
214.134583 160.0
215.099487 228.0
217.150635 188.0
219.133713 280.0
222.141556 112.0
223.146484 136.0
223.743362 204.0
224.133545 200.0
225.120926 56.0
225.161987 276.0
225.987778 80.0
226.133514 212.0
226.141373 148.0
226.165604 200.0
227.153625 288.0
227.177505 152.0
228.126144 100.0
228.150284 148.0
229.119263 148.0
229.152405 80.0
230.159821 144.0
230.193039 196.0
233.155838 128.0
234.144592 180.0
234.760208 40.0
235.14386 180.0
236.147018 180.0
237.1259 184.0
237.156113 176.0
238.154358 160.0
239.152344 132.0
241.07077 164.0
241.107864 360.0
241.162827 212.0
241.826599 68.0
242.102142 144.0
243.172272 140.0
245.155945 200.0
245.523819 44.0
245.785858 112.0
246.129211 184.0
246.529068 52.0
247.148209 124.0
250.923569 60.0
251.1353 252.0
251.174026 264.0
251.317825 72.0
252.18251 228.0
252.221039 44.0
252.477142 56.0
253.154388 172.0
253.187164 380.0
254.133865 196.0
254.197327 152.0
257.147491 96.0
257.185791 172.0
263.177856 176.0
265.149658 132.0
265.183563 116.0
265.470581 196.0
266.165039 144.0
269.182159 416.0
269.281616 104.0
269.690033 196.0
269.876373 100.0
270.203461 208.0
271.204712 440.0
272.215973 100.0
273.218475 136.0
275.162964 88.0
275.187805 140.0
276.167542 96.0
276.869202 176.0
277.071259 152.0
277.173981 148.0
281.184753 292.0
281.227997 72.0
282.190094 196.0
283.18396 176.0
283.207397 176.0
285.180328 160.0
287.203949 152.0
292.973541 220.0
293.157532 164.0
293.193909 284.0
294.201233 136.0
298.19873 148.0
299.205994 292.0
301.137695 116.0
301.203308 104.0
305.209686 132.0
309.175995 36.0
311.194092 460.0
312.203613 52.0
320.658142 152.0
326.511871 128.0
329.210052 340.0
347.226135 308.0
347.49295 80.0
348.221405 168.0
348.547455 84.0
349.644501 88.0
350.877441 60.0
351.993073 60.0
528.331299 112.0
638.847656 140.0
807.530396 160.0
867.259399 76.0
869.435303 92.0
875.284546 128.0
900.925415 200.0
916.386353 168.0
940.089905 108.0
979.944397 60.0
1040.246826 64.0
1064.082275 124.0
1066.752441 204.0
1071.053711 72.0
1072.787109 144.0
1084.166748 188.0
1092.176758 232.0
1113.027954 200.0
1115.373169 184.0
1119.325195 192.0
1123.69104 148.0
1124.124756 172.0
1124.671997 264.0
1126.074097 216.0
1129.737183 92.0
1135.397217 140.0
1137.517456 188.0
1184.841919 132.0
1190.576294 180.0
1192.10144 88.0
1193.139282 168.0
1203.032227 96.0
1212.065063 244.0
1228.250244 204.0
1246.397095 132.0
1247.802856 172.0
1250.694092 152.0
1250.750366 176.0
1263.318359 216.0
1264.47168 196.0
1264.577881 128.0
1276.695801 152.0
1278.488525 176.0
1295.396362 240.0
1312.06189 176.0
1320.4021 204.0
1329.276611 180.0
1341.262451 120.0
1346.179932 164.0
1346.267578 208.0
1356.877563 232.0
1369.627686 200.0
1375.984497 240.0
1384.065918 100.0
1386.488403 164.0
1387.34082 112.0
1392.275146 172.0
1405.981079 48.0
1410.380249 180.0
1427.917847 124.0
1437.17627 44.0
1447.94104 172.0
1456.00293 216.0
1456.238403 188.0
1458.875122 116.0
1460.040405 204.0
1466.708252 164.0
1484.652954 184.0
1489.626587 208.0
