>compound MLS001066617-01!DANAZOL
>formula C22H27NO2
>ionization [M+H]+
>parentmass 338.211243
#inchi InChI=1S/C22H27NO2/c1-4-22(24)10-8-18-16-6-5-15-11-19-14(13-23-25-19)12-20(15,2)17(16)7-9-21(18,22)3/h1,11,13,16-18,24H,5-10,12H2,2-3H3/t16-,17+,18+,20+,21+,22+/m1/s1
#inchikey POZRVZJJTULAOH
#Ion_Source LC-ESI
#Instrument qTof
#Compound_Source NIH Pharmacologically Active Library
#PI Dorrestein
#Data_Collector VP/LMS
#Scan -1
#Precursor_MZ 338.216
#ExactMass 337.204
#Charge 1
#CAS_Number N/A
#Pubmed_ID N/A
#Smiles C[C@@]12CC[C@H]3[C@@H](CCC4=Cc5oncc5C[C@]34C)[C@@H]2CC[C@@]1(O)C#C
#INCHI_AUX N/A
#Library_Class 3
#SpectrumID CCMSLIB00000085695
#IonMode Positive
#UpdateWorkflowName UPDATE-SINGLE-ANNOTATED-BRONZE
#LibraryQualityString Bronze
#TaskID d252d724072548979f1f6f1ced849daf
##Scan# 2411
#SpectrumFile p4-E04_GE4_01_18376.mzXML
#LibraryName Pharm_Active_Library.mgf
#MQScore -1
#Organism Pharm_Active_Library
#TIC_Query 0
#RT_Query -1
#MZErrorPPM -1
#SharedPeaks 0
#MassDiff 0
#LibMZ -1
#SpecMZ 338.216
#SpecCharge 0
#internalFilename spec-00000.mgf

>collision 10
44.893974 200.0
44.977238 204.0
44.992367 100.0
45.092552 72.0
45.11795 152.0
45.212921 236.0
45.275032 204.0
45.317371 124.0
45.383049 192.0
45.400482 220.0
45.416576 196.0
45.450115 168.0
45.483669 212.0
45.534691 204.0
45.55442 168.0
45.596493 136.0
45.616657 212.0
45.81987 188.0
45.830647 148.0
45.84547 176.0
45.871078 128.0
45.916924 100.0
45.956043 180.0
45.983036 176.0
45.992481 200.0
46.039738 164.0
46.062698 40.0
46.150547 128.0
46.196529 148.0
46.302479 176.0
46.459347 96.0
46.500057 96.0
46.516346 164.0
46.578808 172.0
46.61618 144.0
46.644035 112.0
46.660721 176.0
46.713387 212.0
46.736515 152.0
46.853607 164.0
46.943569 152.0
47.062286 68.0
47.085503 192.0
47.107357 392.0
47.12785 160.0
47.138783 220.0
47.170216 72.0
47.3522 60.0
47.372746 164.0
47.396038 180.0
47.412483 228.0
47.441269 168.0
47.533165 100.0
47.56847 204.0
47.58395 128.0
47.636135 228.0
47.773609 144.0
47.809383 136.0
47.844841 216.0
47.89275 160.0
47.897816 88.0
47.902336 180.0
47.920921 48.0
47.944347 200.0
48.00087 128.0
48.113144 140.0
48.138863 176.0
48.158199 292.0
48.203793 84.0
48.24802 132.0
48.337925 224.0
48.386372 144.0
48.423759 148.0
48.538788 108.0
48.635403 156.0
48.662277 136.0
48.761856 164.0
48.780369 140.0
48.798439 432.0
48.831818 132.0
48.866592 132.0
48.932007 32.0
48.943146 136.0
48.983536 180.0
49.067154 332.0
49.129913 160.0
49.225357 188.0
49.261139 152.0
49.289871 176.0
49.315636 164.0
49.382748 136.0
49.419537 416.0
49.454514 192.0
49.543728 160.0
49.566185 148.0
49.599781 176.0
49.654465 116.0
49.672699 144.0
49.690937 180.0
49.786388 192.0
49.804649 176.0
49.848202 144.0
49.86647 108.0
49.918686 256.0
49.981789 208.0
50.011345 124.0
50.066254 140.0
50.11274 208.0
50.135284 76.0
50.145149 168.0
50.253735 232.0
50.318661 164.0
50.411888 96.0
50.475727 176.0
50.489643 152.0
50.522091 136.0
50.56321 152.0
50.600014 176.0
50.669415 164.0
50.779984 204.0
50.825378 168.0
50.992954 236.0
51.010014 156.0
51.031338 220.0
51.054268 128.0
51.068314 144.0
51.179935 160.0
51.230587 160.0
51.304695 140.0
51.358536 164.0
51.430225 156.0
51.443073 224.0
51.473057 72.0
51.485909 168.0
51.505417 176.0
51.543053 80.0
51.593243 244.0
51.630604 148.0
51.67746 120.0
51.781963 92.0
51.836403 204.0
51.872234 44.0
51.969757 176.0
51.988411 84.0
52.04583 244.0
52.08086 256.0
52.160767 436.0
52.228352 164.0
52.299767 152.0
52.326206 204.0
52.36797 184.0
52.428482 180.0
52.443993 236.0
52.572083 132.0
52.603008 108.0
52.630436 112.0
52.803852 164.0
52.853039 164.0
52.889221 116.0
52.922447 168.0
52.936996 108.0
52.993595 112.0
53.039864 156.0
53.1646 108.0
53.202339 196.0
53.267017 136.0
53.326168 388.0
53.350521 152.0
53.456699 168.0
53.487263 172.0
53.512012 152.0
53.543396 152.0
53.635841 152.0
53.647503 224.0
53.682499 76.0
53.701458 204.0
53.819664 160.0
53.986252 132.0
54.087208 104.0
54.112095 228.0
54.144085 156.0
54.158955 168.0
54.170673 108.0
54.245674 112.0
54.260071 104.0
54.273266 64.0
54.312862 156.0
54.349541 140.0
54.361282 124.0
54.38036 224.0
54.412655 140.0
54.502087 144.0
54.533112 116.0
54.624279 156.0
54.644058 108.0
54.706688 212.0
54.744675 160.0
54.862846 160.0
54.91003 160.0
54.96019 160.0
55.010368 208.0
55.038422 128.0
55.06271 152.0
55.125576 132.0
55.172874 140.0
55.190617 220.0
55.271973 136.0
55.307491 188.0
55.318604 120.0
55.354752 164.0
55.396339 180.0
55.442524 164.0
55.46302 132.0
55.47488 152.0
55.526779 124.0
55.6544 328.0
55.67519 168.0
55.758915 180.0
55.797035 156.0
55.819836 264.0
55.899414 164.0
55.914551 88.0
56.078384 140.0
56.103725 196.0
56.123108 120.0
56.136528 204.0
56.239471 152.0
56.255894 224.0
56.304024 204.0
56.466972 152.0
56.487656 176.0
56.578808 148.0
56.611748 156.0
56.643204 176.0
56.703136 116.0
56.742111 228.0
56.764603 208.0
56.785599 80.0
56.805099 128.0
56.817101 164.0
56.86512 204.0
56.950703 80.0
56.97023 120.0
56.982742 156.0
57.010799 144.0
57.183754 152.0
57.236092 220.0
57.268074 240.0
57.313721 200.0
57.359989 128.0
57.531963 152.0
57.559139 112.0
57.56971 56.0
57.605961 120.0
57.66489 176.0
57.686054 216.0
57.703197 176.0
57.71629 168.0
57.737461 136.0
57.754101 136.0
57.767712 148.0
57.782841 144.0
57.885769 128.0
57.940296 176.0
58.028202 212.0
58.05835 168.0
58.078247 152.0
58.198071 176.0
58.227287 184.0
58.249775 176.0
58.295357 76.0
58.342476 132.0
58.360756 168.0
58.520481 160.0
58.553249 120.0
58.58445 120.0
58.636257 208.0
58.689613 196.0
58.756721 172.0
58.839138 136.0
58.89418 176.0
58.939945 172.0
59.137226 172.0
59.344036 160.0
59.403851 148.0
59.419189 152.0
59.561962 112.0
59.761818 132.0
59.857254 116.0
59.883434 136.0
59.93119 140.0
60.068401 116.0
60.083832 96.0
60.096172 128.0
60.122406 152.0
60.176434 148.0
60.201141 128.0
60.439198 120.0
60.519688 64.0
60.578537 40.0
60.677475 200.0
60.711838 208.0
60.761475 140.0
60.811131 148.0
60.832863 196.0
60.975765 176.0
60.995972 140.0
61.101723 120.0
61.135956 180.0
61.232479 52.0
61.27454 172.0
61.291679 244.0
61.37429 220.0
61.388325 180.0
61.40704 168.0
61.456959 196.0
61.495975 200.0
61.558422 216.0
61.572479 228.0
61.624027 172.0
61.706867 112.0
61.744396 72.0
61.766293 128.0
61.797581 96.0
61.824184 320.0
61.83514 36.0
61.935349 148.0
61.952579 192.0
62.032501 212.0
62.049747 60.0
62.070129 144.0
62.141602 184.0
62.182457 192.0
62.219189 96.0
62.269436 132.0
62.305946 132.0
62.379429 164.0
62.41087 108.0
62.426598 104.0
62.629623 188.0
62.640652 196.0
62.748974 180.0
62.829826 156.0
62.842449 136.0
62.870853 164.0
62.888214 148.0
62.959263 148.0
63.071331 116.0
63.163155 172.0
63.224998 228.0
63.240841 204.0
63.329357 124.0
63.430767 116.0
63.451374 204.0
63.468815 148.0
63.487846 176.0
63.573513 132.0
63.611607 184.0
63.68465 60.0
63.697357 156.0
63.757736 180.0
63.787933 160.0
63.86108 96.0
63.975651 184.0
64.015457 160.0
64.045715 376.0
64.077576 72.0
64.195534 140.0
64.217857 128.0
64.339134 72.0
64.382248 136.0
64.399818 116.0
64.446144 116.0
64.542046 152.0
64.556442 148.0
64.626823 128.0
64.638023 164.0
64.700447 188.0
64.770584 236.0
64.810959 192.0
64.859261 124.0
64.875069 180.0
64.955254 132.0
64.979317 192.0
65.001778 176.0
65.023018 156.0
65.04924 148.0
65.251389 140.0
65.295769 56.0
65.313461 148.0
65.348854 100.0
65.361725 172.0
65.406792 164.0
65.429329 176.0
65.479248 148.0
65.524353 224.0
65.57914 236.0
65.593651 176.0
65.643631 168.0
65.709763 40.0
65.830658 196.0
65.869583 100.0
65.941574 196.0
65.976242 152.0
66.005348 144.0
66.029602 192.0
66.054237 52.0
66.071663 124.0
66.116684 180.0
66.183342 108.0
66.3405 224.0
66.389137 164.0
66.439697 164.0
66.5065 216.0
66.520569 264.0
66.574142 168.0
66.588707 116.0
66.616379 160.0
66.643997 120.0
66.689499 176.0
66.706161 192.0
66.765915 144.0
66.80658 176.0
66.937477 184.0
66.956329 148.0
66.977974 124.0
67.010086 196.0
67.151909 160.0
67.205742 48.0
67.218796 140.0
67.522568 140.0
67.548233 164.0
67.583191 144.0
67.629013 192.0
67.683037 132.0
67.722343 120.0
67.791153 104.0
67.807541 184.0
67.82885 216.0
67.906967 180.0
68.068024 156.0
68.142296 148.0
68.166008 208.0
68.222832 152.0
68.270515 204.0
68.299187 92.0
68.313278 132.0
68.365929 192.0
68.387329 152.0
68.418358 160.0
68.47715 176.0
68.520714 172.0
68.540482 164.0
68.552017 256.0
68.611359 128.0
68.657524 152.0
68.740402 168.0
68.761467 240.0
68.796127 76.0
68.827278 176.0
68.880348 112.0
68.969582 156.0
68.983673 144.0
69.020828 124.0
69.07045 152.0
69.138283 124.0
69.259148 168.0
69.285652 164.0
69.315475 100.0
69.388985 220.0
69.416595 156.0
69.482941 148.0
69.506172 160.0
69.661964 168.0
69.718735 152.0
69.732033 200.0
69.761948 228.0
69.77359 160.0
69.791878 176.0
69.823471 108.0
69.853409 152.0
69.976562 32.0
70.028725 212.0
70.108162 160.0
70.125755 144.0
70.17984 100.0
70.204849 92.0
70.298271 132.0
70.323303 192.0
70.334862 152.0
70.427025 172.0
70.450218 72.0
70.495331 180.0
70.515381 80.0
70.533768 192.0
70.592285 112.0
70.689751 192.0
70.736176 152.0
70.788078 140.0
70.819901 148.0
70.876572 188.0
70.96241 100.0
70.983421 176.0
71.15934 116.0
71.178795 188.0
71.219101 148.0
71.276222 132.0
71.299751 272.0
71.331337 116.0
71.343452 168.0
71.368675 172.0
71.483055 68.0
71.531868 36.0
71.607635 176.0
71.666595 176.0
71.725586 208.0
71.744125 200.0
71.757614 36.0
71.786507 332.0
71.847 180.0
71.872307 208.0
71.929695 112.0
72.07325 156.0
72.13134 140.0
72.171288 160.0
72.195618 184.0
72.208488 108.0
72.312431 212.0
72.326927 200.0
72.340469 212.0
72.400955 172.0
72.42514 164.0
72.484436 188.0
72.569183 148.0
72.617905 184.0
72.717621 264.0
72.922287 96.0
72.95118 128.0
73.000488 260.0
73.145111 152.0
73.15873 80.0
73.191078 228.0
73.236382 260.0
73.310318 160.0
73.36657 200.0
73.383614 112.0
73.406563 180.0
73.438187 168.0
73.482544 108.0
73.497894 140.0
73.588364 192.0
73.639595 312.0
73.67205 84.0
73.752365 236.0
73.825882 160.0
73.848114 168.0
73.861801 100.0
73.883743 184.0
74.027817 176.0
74.056931 128.0
74.074059 164.0
74.16272 92.0
74.192307 176.0
74.212883 136.0
74.226601 160.0
74.355263 324.0
74.420494 140.0
74.435448 232.0
74.472015 148.0
74.490906 44.0
74.521835 236.0
74.639542 192.0
74.671387 72.0
74.693016 140.0
74.714394 148.0
74.745361 120.0
74.785011 220.0
74.917542 100.0
74.93132 204.0
74.967506 136.0
75.091682 168.0
75.207237 208.0
75.224503 152.0
75.241768 176.0
75.286659 60.0
75.379944 156.0
75.460167 204.0
75.602295 208.0
75.62899 120.0
75.698242 188.0
75.713829 164.0
75.751938 88.0
75.810844 132.0
75.885384 168.0
75.980774 164.0
76.173965 212.0
76.312508 72.0
76.338585 160.0
76.352501 324.0
76.376854 68.0
76.430786 116.0
76.516068 196.0
76.559601 188.0
76.578758 156.0
76.598763 144.0
76.657158 68.0
76.674583 104.0
76.744873 124.0
76.766983 68.0
76.793144 148.0
76.819046 296.0
77.02005 148.0
77.074211 168.0
77.115822 148.0
77.149368 148.0
77.18084 204.0
77.193077 124.0
77.236801 176.0
77.268288 112.0
77.296288 120.0
77.310287 64.0
77.331291 116.0
77.483597 164.0
77.545746 172.0
77.619629 160.0
77.669456 36.0
77.697525 128.0
77.753677 108.0
77.816872 196.0
77.839699 264.0
77.902931 172.0
77.965401 160.0
78.168327 148.0
78.293411 120.0
78.429077 52.0
78.483055 156.0
78.489433 204.0
78.536369 160.0
78.587799 180.0
78.614265 188.0
78.71489 184.0
78.787308 236.0
78.836777 100.0
78.861526 284.0
78.950485 228.0
79.017143 164.0
79.036606 128.0
79.082619 108.0
79.095009 128.0
79.118019 92.0
79.151657 184.0
79.171509 116.0
79.291611 108.0
79.40863 56.0
79.458458 224.0
79.598518 116.0
79.61628 152.0
79.666016 112.0
79.735313 44.0
79.755905 184.0
79.864647 108.0
79.882896 112.0
79.94339 44.0
79.970085 120.0
80.009247 152.0
80.03595 248.0
80.080475 140.0
80.110756 124.0
80.174904 100.0
80.233727 76.0
80.251556 264.0
80.306839 112.0
80.444237 140.0
80.626427 176.0
80.660385 148.0
80.733688 96.0
80.853554 44.0
80.887566 184.0
80.996025 228.0
81.089966 92.0
81.117477 164.0
81.145538 148.0
81.22879 228.0
81.262123 204.0
81.414696 148.0
81.42907 188.0
81.50811 160.0
81.599777 156.0
81.622574 136.0
81.707695 144.0
81.720284 176.0
81.763474 112.0
81.808472 100.0
81.857086 112.0
81.885902 168.0
81.929642 156.0
82.011932 152.0
82.082336 220.0
82.168915 124.0
82.199593 144.0
82.311508 96.0
82.361816 84.0
82.385559 192.0
82.418083 168.0
82.430733 72.0
82.446999 148.0
82.463264 164.0
82.58802 368.0
82.707443 152.0
82.741837 184.0
82.79435 136.0
82.850502 200.0
82.889748 444.0
82.926613 80.0
82.991875 156.0
83.024513 68.0
83.115494 224.0
83.138062 156.0
83.176926 148.0
83.196892 320.0
83.224121 216.0
83.462158 156.0
83.500343 184.0
83.611328 160.0
83.638626 68.0
83.686615 220.0
83.797066 216.0
83.822578 200.0
83.911888 124.0
84.019493 96.0
84.054161 112.0
84.174637 200.0
84.23941 168.0
84.284241 148.0
84.297028 120.0
84.357346 156.0
84.401222 152.0
84.432312 160.0
84.47139 164.0
84.501823 108.0
84.52195 96.0
84.551231 180.0
84.575027 152.0
84.599365 244.0
84.628113 96.0
84.644592 176.0
84.937836 128.0
84.996544 88.0
85.054642 152.0
85.071793 164.0
85.084648 128.0
85.101166 184.0
85.117699 44.0
85.174629 224.0
85.305099 200.0
85.321648 144.0
85.363937 128.0
85.470627 152.0
85.492706 220.0
85.551201 216.0
85.687897 144.0
85.798477 52.0
85.831665 184.0
85.931267 236.0
85.975548 144.0
85.990318 160.0
86.008774 200.0
86.038307 188.0
86.064156 72.0
86.091858 92.0
86.190987 200.0
86.21933 92.0
86.245209 160.0
86.313202 144.0
86.40609 212.0
86.429855 152.0
86.513435 180.0
86.528244 136.0
86.546486 244.0
86.570831 56.0
86.630104 224.0
86.657089 184.0
86.711632 132.0
86.754265 220.0
86.80217 184.0
86.898926 120.0
86.934181 224.0
86.984299 208.0
87.049278 156.0
87.066032 176.0
87.10128 152.0
87.123573 128.0
87.205338 108.0
87.223923 60.0
87.31131 308.0
87.339211 180.0
87.385719 192.0
87.419212 180.0
87.43782 124.0
87.462021 172.0
87.625603 176.0
87.678078 180.0
87.706032 216.0
87.760094 160.0
87.799255 132.0
87.830513 116.0
87.857079 52.0
87.882332 120.0
87.953232 160.0
87.990379 188.0
88.174515 156.0
88.253029 188.0
88.294174 228.0
88.354027 96.0
88.412033 192.0
88.428879 132.0
88.499901 200.0
88.610519 132.0
88.698601 188.0
88.739845 188.0
88.755661 160.0
88.769844 204.0
88.873016 196.0
88.899284 120.0
88.939735 160.0
88.998779 112.0
89.055115 140.0
89.09832 156.0
89.250565 148.0
89.282532 196.0
89.34272 180.0
89.368744 164.0
89.445274 224.0
89.481995 156.0
89.514 104.0
89.564857 80.0
89.722946 332.0
89.826874 144.0
89.977844 152.0
90.023766 212.0
90.068489 140.0
90.098717 132.0
90.157295 160.0
90.174301 180.0
90.2537 176.0
90.266937 120.0
90.306656 76.0
90.456055 184.0
90.478851 92.0
90.497787 104.0
90.550812 164.0
90.577332 164.0
90.747894 192.0
90.780128 180.0
90.812019 196.0
90.850304 152.0
90.947083 176.0
90.967964 148.0
91.021126 116.0
91.054352 4480.0
91.081398 240.0
91.112297 236.0
91.224419 84.0
91.294769 140.0
91.315689 124.0
91.376564 148.0
91.429848 180.0
91.445068 336.0
91.49012 120.0
91.523125 148.0
91.586647 168.0
91.646935 28.0
91.689865 264.0
91.701454 144.0
91.772736 156.0
91.814682 232.0
91.841217 176.0
91.929146 40.0
91.948235 196.0
91.969231 216.0
92.02459 124.0
92.051666 824.0
92.09716 140.0
92.188866 160.0
92.410538 164.0
92.475746 160.0
92.515945 156.0
92.544662 212.0
92.590622 92.0
92.620811 168.0
92.636589 192.0
92.661499 116.0
92.701736 244.0
92.745811 136.0
92.805069 220.0
92.822502 156.0
92.85894 88.0
92.938385 116.0
93.025131 216.0
93.069244 1908.0
93.181435 112.0
93.194885 48.0
93.340973 172.0
93.383286 104.0
93.458305 128.0
93.489098 220.0
93.51989 92.0
93.533363 80.0
93.631561 180.0
93.649017 196.0
93.752937 132.0
93.826607 216.0
93.849319 172.0
93.912956 108.0
93.932251 152.0
93.947678 196.0
93.995918 184.0
94.028725 316.0
94.065338 1280.0
94.119453 180.0
94.24501 160.0
94.268196 140.0
94.318443 56.0
94.372581 36.0
94.386116 132.0
94.401581 136.0
94.418991 188.0
94.492493 232.0
94.537003 252.0
94.635719 32.0
94.653145 148.0
94.699631 36.0
94.780991 40.0
94.810059 172.0
94.990379 136.0
95.047928 592.0
95.068329 220.0
95.087158 696.0
95.130104 140.0
95.161163 128.0
95.190292 148.0
95.215759 176.0
95.2369 156.0
95.34182 204.0
95.357368 68.0
95.384583 148.0
95.452629 180.0
95.520699 40.0
95.556137 148.0
95.698601 196.0
95.843887 84.0
95.88871 128.0
95.968636 68.0
96.045128 668.0
96.078896 180.0
96.137444 208.0
96.21283 348.0
96.292572 144.0
96.317963 148.0
96.378532 72.0
96.588676 184.0
96.603371 196.0
96.642494 72.0
96.673805 60.0
96.810844 252.0
96.842178 104.0
96.906097 204.0
96.940552 208.0
96.97345 168.0
97.002853 128.0
97.044022 232.0
97.063225 152.0
97.104004 184.0
97.155815 120.0
97.170769 168.0
97.271599 36.0
97.307648 100.0
97.328537 152.0
97.418724 100.0
97.470581 204.0
97.58004 196.0
97.609528 224.0
97.640999 220.0
97.673447 168.0
97.694107 208.0
97.739357 160.0
97.814148 184.0
97.90078 200.0
97.934258 72.0
97.961838 100.0
97.983505 180.0
98.011093 152.0
98.030792 136.0
98.058388 408.0
98.235847 152.0
98.255577 124.0
98.291092 172.0
98.362144 192.0
98.391754 192.0
98.415451 256.0
98.50235 152.0
98.577423 220.0
98.713829 192.0
98.826576 92.0
98.953041 152.0
99.093872 200.0
99.129791 156.0
99.413116 240.0
99.442352 208.0
99.695114 216.0
99.713005 168.0
99.858147 92.0
99.956688 180.0
100.065102 200.0
100.081024 48.0
100.100937 160.0
100.322105 44.0
100.393883 168.0
100.43 148.0
100.483643 172.0
100.541512 156.0
100.569252 156.0
100.580353 260.0
100.595406 176.0
100.611374 152.0
100.639328 180.0
100.727203 56.0
100.775146 96.0
100.829102 96.0
100.889069 76.0
100.975052 108.0
101.001053 332.0
101.041061 84.0
101.115105 236.0
101.185165 116.0
101.199181 84.0
101.281288 184.0
101.329369 204.0
101.363426 148.0
101.395493 164.0
101.473671 56.0
101.569931 200.0
101.589989 124.0
101.604034 88.0
101.636139 196.0
101.682297 116.0
101.814796 168.0
101.844925 144.0
101.947441 160.0
102.02681 112.0
102.047859 328.0
102.166557 164.0
102.232956 52.0
102.29174 176.0
102.35173 164.0
102.365822 156.0
102.396034 160.0
102.497185 76.0
102.53875 248.0
102.843735 172.0
102.958725 188.0
103.00518 76.0
103.054153 2560.0
103.118332 48.0
103.132477 196.0
103.245552 108.0
103.252548 176.0
103.283607 140.0
103.365059 224.0
103.38327 264.0
103.407555 192.0
103.440536 164.0
103.484482 116.0
103.593689 156.0
103.599869 144.0
103.715431 120.0
103.747864 136.0
103.845474 164.0
103.871567 128.0
103.908081 184.0
103.99128 56.0
104.01767 100.0
104.056717 352.0
104.0867 128.0
104.109039 144.0
104.126335 224.0
104.151688 64.0
104.169968 80.0
104.22686 252.0
104.292206 204.0
104.346779 136.0
104.403717 192.0
104.437286 268.0
104.513802 136.0
104.563477 136.0
104.570091 72.0
104.577919 192.0
104.649933 200.0
104.741577 148.0
104.774178 208.0
104.794548 112.0
104.821953 108.0
104.851608 184.0
104.882179 152.0
104.910721 132.0
104.92907 160.0
104.973923 168.0
105.004517 148.0
105.036209 356.0
105.06987 8804.0
105.116814 204.0
105.245003 104.0
105.280037 96.0
105.296371 52.0
105.367867 172.0
105.420998 80.0
105.439384 168.0
105.581779 136.0
105.656136 192.0
105.768692 112.0
105.858772 92.0
105.895157 144.0
105.930458 120.0
105.97348 132.0
106.034958 132.0
106.065018 5036.0
106.102608 52.0
106.13131 148.0
106.155914 164.0
106.172325 164.0
106.194885 100.0
106.223602 156.0
106.270782 188.0
106.334404 156.0
106.492493 108.0
106.689766 168.0
106.704155 40.0
106.776131 84.0
106.889275 216.0
106.913971 208.0
106.936607 52.0
106.955132 44.0
107.0494 1044.0
107.084312 2028.0
107.161438 180.0
107.24662 172.0
107.260544 120.0
107.313591 212.0
107.354836 136.0
107.54052 152.0
107.569412 160.0
107.587997 224.0
107.62516 192.0
107.658508 160.0
107.682434 212.0
107.718094 52.0
107.732559 112.0
107.800743 108.0
107.912361 72.0
107.933037 108.0
108.012337 128.0
108.04731 448.0
108.081055 1624.0
108.115082 180.0
108.191666 196.0
108.22686 52.0
108.276566 80.0
108.35775 144.0
108.397636 208.0
108.508644 144.0
108.541824 104.0
108.635155 160.0
108.743057 156.0
108.799622 176.0
108.886314 204.0
108.965248 160.0
109.025513 144.0
109.063553 1068.0
109.102112 1004.0
109.158554 140.0
109.250076 160.0
109.300011 144.0
109.320282 220.0
109.488647 200.0
109.5811 136.0
109.597519 164.0
109.631111 152.0
109.670715 72.0
109.738976 236.0
109.7687 64.0
109.804153 128.0
109.8563 160.0
109.908455 200.0
110.00029 188.0
110.06041 588.0
110.101692 152.0
110.152725 172.0
110.225853 136.0
110.338722 204.0
110.449554 76.0
110.510223 160.0
110.524872 40.0
110.558357 188.0
110.577194 148.0
110.637894 108.0
110.674828 156.0
110.723747 184.0
110.811264 72.0
110.83268 140.0
110.876686 156.0
110.924896 40.0
110.945862 172.0
110.969711 256.0
111.00013 172.0
111.05455 168.0
111.080994 264.0
111.160248 112.0
111.31514 40.0
111.367645 112.0
111.400131 120.0
111.42646 136.0
111.476669 188.0
111.504814 140.0
111.638763 132.0
111.823906 344.0
111.847054 212.0
112.023972 252.0
112.045006 64.0
112.082932 160.0
112.178398 176.0
112.23259 76.0
112.272659 44.0
112.348595 360.0
112.506874 188.0
112.530098 228.0
112.597672 132.0
112.73922 188.0
112.802628 116.0
112.825882 160.0
112.84491 80.0
112.880859 176.0
112.983353 152.0
113.021233 184.0
113.077606 152.0
113.109352 128.0
113.153809 112.0
113.17498 156.0
113.206749 200.0
113.227928 152.0
113.257576 164.0
113.33596 192.0
113.352913 120.0
113.40802 168.0
113.427094 44.0
113.454651 104.0
113.480095 256.0
113.526749 148.0
113.639168 264.0
113.662506 204.0
113.863518 140.0
113.877914 152.0
113.893921 268.0
113.919411 200.0
113.940659 184.0
114.01503 172.0
114.059662 188.0
114.087296 188.0
114.119392 168.0
114.174477 28.0
114.189362 208.0
114.21489 128.0
114.338295 84.0
114.365753 248.0
114.407829 204.0
114.461769 176.0
114.549088 164.0
114.5811 156.0
114.623657 160.0
114.637375 124.0
114.655624 180.0
114.732361 192.0
114.877373 220.0
114.924316 52.0
114.960587 144.0
114.977661 168.0
114.992599 160.0
115.054337 4376.0
115.144188 152.0
115.176231 148.0
115.276642 184.0
115.327934 204.0
115.543922 108.0
115.601692 196.0
115.641098 136.0
115.715141 188.0
115.747009 172.0
115.787949 100.0
115.823715 80.0
115.906097 188.0
115.926521 164.0
116.031731 208.0
116.062286 3232.0
116.095688 176.0
116.126579 48.0
116.148033 140.0
116.167336 180.0
116.193085 188.0
116.210243 220.0
116.360779 148.0
116.42276 140.0
116.450676 132.0
116.476456 156.0
116.538757 52.0
116.601074 136.0
116.689209 116.0
116.891556 252.0
116.923676 104.0
117.031311 196.0
117.069626 5144.0
117.135712 76.0
117.169159 80.0
117.203629 148.0
117.220871 40.0
117.314629 96.0
117.356667 48.0
117.401955 64.0
117.451561 176.0
117.488228 200.0
117.546486 52.0
117.598282 160.0
117.760216 148.0
117.781815 140.0
117.799095 112.0
117.814217 172.0
117.930908 244.0
117.974144 92.0
118.039001 148.0
118.06855 1608.0
118.09668 324.0
118.242363 204.0
118.264008 96.0
118.309464 160.0
118.357094 60.0
118.387413 200.0
118.426399 36.0
118.488319 176.0
118.517387 268.0
118.813019 140.0
118.842628 144.0
118.879517 144.0
118.92292 212.0
118.972847 32.0
118.997681 64.0
119.029297 136.0
119.050827 516.0
119.084625 5436.0
119.133553 44.0
119.161797 64.0
119.19854 88.0
119.255241 64.0
119.340027 172.0
119.379166 124.0
119.457466 36.0
119.494453 92.0
119.544754 136.0
119.581497 28.0
119.596733 164.0
119.668571 56.0
119.688164 100.0
119.712898 112.0
119.790527 104.0
119.890755 116.0
119.916908 136.0
119.962967 184.0
120.044373 2396.0
120.080978 10876.0
120.12188 216.0
120.139328 156.0
120.159836 60.0
120.233154 40.0
120.306511 124.0
120.391045 312.0
120.572762 144.0
120.673843 124.0
120.784416 120.0
120.836258 152.0
120.915039 60.0
120.936928 76.0
121.002693 180.0
121.064789 10260.0
121.085686 2148.0
121.1306 80.0
121.185081 176.0
121.207588 144.0
121.234787 44.0
121.344383 36.0
121.386185 64.0
121.400154 120.0
121.462692 164.0
121.503624 132.0
121.528625 56.0
121.594055 220.0
121.608612 244.0
121.613373 136.0
121.621437 212.0
121.640549 168.0
121.671288 80.0
121.752533 136.0
121.84259 56.0
121.868652 144.0
121.90062 156.0
121.923889 188.0
121.968521 248.0
121.996429 128.0
122.021118 160.0
122.062057 2444.0
122.095779 2148.0
122.133354 164.0
122.18116 132.0
122.227364 184.0
122.258171 76.0
122.325172 164.0
122.350624 40.0
122.396858 184.0
122.432091 168.0
122.451912 240.0
122.56427 116.0
122.718559 112.0
122.742813 184.0
122.808975 180.0
122.917076 112.0
122.947975 156.0
122.976051 188.0
123.068001 892.0
123.097206 348.0
123.115669 176.0
123.158722 132.0
123.193062 140.0
123.252716 152.0
123.270393 176.0
123.301338 44.0
123.34996 228.0
123.47821 88.0
123.509171 124.0
123.588814 148.0
123.920937 140.0
123.94088 52.0
124.076576 836.0
124.175873 140.0
124.213577 208.0
124.25573 180.0
124.29567 232.0
124.326736 176.0
124.42218 136.0
124.453262 140.0
124.495461 132.0
124.52433 40.0
124.635406 140.0
124.86438 84.0
124.953354 172.0
125.040138 132.0
125.084312 208.0
125.098572 192.0
125.184853 156.0
125.282852 120.0
125.309586 44.0
125.367523 232.0
125.423241 136.0
125.484772 200.0
125.510193 208.0
125.54364 132.0
125.737732 144.0
125.853813 156.0
125.882843 112.0
125.947609 168.0
125.965485 92.0
125.987823 196.0
126.005692 168.0
126.048515 196.0
126.091492 284.0
126.168846 172.0
126.241173 208.0
126.306656 168.0
126.403694 144.0
126.628128 272.0
126.652206 120.0
126.91217 168.0
126.954781 172.0
127.053421 1032.0
127.154449 216.0
127.174652 88.0
127.197098 124.0
127.212807 56.0
127.268936 188.0
127.291389 208.0
127.347534 212.0
127.49807 52.0
127.531784 216.0
127.594727 72.0
127.653183 108.0
127.779144 124.0
127.830078 208.0
127.866905 64.0
127.938942 192.0
127.972206 160.0
128.06221 7088.0
128.197968 40.0
128.240784 164.0
128.279114 156.0
128.320206 176.0
128.371552 220.0
128.398087 156.0
128.441467 224.0
128.487244 184.0
128.527191 128.0
128.552017 104.0
128.608444 180.0
128.635025 108.0
128.653595 160.0
128.691971 48.0
128.790665 120.0
128.850067 212.0
128.864349 112.0
128.938202 148.0
128.982651 144.0
129.039917 136.0
129.068939 9124.0
129.202759 304.0
129.363434 140.0
129.392868 156.0
129.465332 128.0
129.501572 76.0
129.531906 152.0
129.551407 184.0
129.685089 260.0
129.714569 156.0
129.789383 212.0
129.8302 208.0
129.900513 220.0
129.982193 196.0
130.074051 1800.0
130.132004 88.0
130.152435 112.0
130.184219 68.0
130.327332 120.0
130.412689 136.0
130.536453 144.0
130.575119 188.0
130.59787 80.0
130.689438 172.0
130.725266 172.0
130.748032 72.0
130.793549 168.0
130.911942 60.0
130.936996 124.0
130.955215 136.0
130.971161 200.0
131.012573 188.0
131.049454 1100.0
131.084747 6268.0
131.129456 124.0
131.159454 184.0
131.23703 180.0
131.270584 84.0
131.308487 60.0
131.333359 168.0
131.374634 68.0
131.392197 144.0
131.43396 188.0
131.47731 172.0
131.530396 264.0
131.561768 80.0
131.77298 200.0
131.817581 152.0
131.849579 168.0
131.883865 152.0
131.940125 176.0
131.982162 56.0
132.019211 96.0
132.056534 1132.0
132.084198 1752.0
132.12854 84.0
132.183456 40.0
132.210922 348.0
132.252121 208.0
132.348267 68.0
132.384903 88.0
132.421555 80.0
132.458206 208.0
132.474243 216.0
132.527893 124.0
132.559006 152.0
132.614014 204.0
132.669037 48.0
132.703415 88.0
132.719467 196.0
132.735519 120.0
132.783676 120.0
132.827255 80.0
132.852493 168.0
132.883926 172.0
132.913162 172.0
132.945053 152.0
132.96051 168.0
133.062592 1396.0
133.099152 2416.0
133.153442 72.0
133.17157 136.0
133.240479 56.0
133.256561 80.0
133.35997 180.0
133.580719 212.0
133.68483 208.0
133.704971 164.0
133.783966 88.0
133.820068 116.0
133.989639 172.0
134.033997 164.0
134.059189 1424.0
134.095581 2024.0
134.133377 76.0
134.188705 220.0
134.261063 220.0
134.463364 196.0
134.482025 152.0
134.521606 164.0
134.555557 56.0
134.599426 200.0
134.980698 152.0
135.077042 1008.0
135.103104 844.0
135.111557 532.0
135.178589 184.0
135.276855 120.0
135.383362 96.0
135.409836 180.0
135.476013 64.0
135.513077 144.0
135.529297 84.0
135.596497 168.0
135.772705 156.0
135.809814 92.0
135.82605 160.0
135.86911 212.0
135.891006 208.0
135.925812 72.0
135.953659 136.0
136.076416 904.0
136.110641 304.0
136.197449 92.0
136.299667 84.0
136.360092 192.0
136.42749 132.0
136.464691 100.0
136.5112 120.0
136.532135 184.0
136.562256 172.0
136.62059 132.0
136.63681 180.0
136.655411 256.0
136.708939 92.0
136.776428 180.0
136.853668 208.0
137.056625 156.0
137.080551 180.0
137.086853 292.0
137.093765 112.0
137.186417 76.0
137.324387 144.0
137.342651 184.0
137.424316 92.0
137.440643 204.0
137.470154 156.0
137.496643 136.0
137.850937 104.0
137.93576 84.0
137.956802 168.0
137.998886 144.0
138.052673 72.0
138.090469 148.0
138.164948 100.0
138.359192 48.0
138.401337 116.0
138.4552 200.0
138.555298 168.0
138.591064 112.0
138.626205 52.0
138.669022 164.0
138.977951 192.0
139.058807 176.0
139.107025 132.0
139.132858 96.0
139.17276 128.0
139.506393 220.0
139.526169 192.0
139.56282 92.0
139.579269 244.0
139.600433 228.0
139.785278 160.0
139.901611 232.0
140.002319 88.0
140.127701 116.0
140.16069 212.0
140.188965 116.0
140.221954 124.0
140.262024 148.0
140.297394 116.0
140.353973 164.0
140.370483 148.0
140.445953 188.0
140.474258 84.0
140.6064 176.0
140.63707 148.0
140.66777 88.0
140.880295 56.0
140.932281 172.0
140.977173 196.0
140.996078 92.0
141.014984 208.0
141.03154 168.0
141.070053 5864.0
141.194153 108.0
141.215958 164.0
141.26326 160.0
141.284561 28.0
141.331879 156.0
141.375092 216.0
141.417068 176.0
141.516495 144.0
141.58754 96.0
141.620941 160.0
141.736786 172.0
141.79129 212.0
141.807877 148.0
141.85054 164.0
141.890854 60.0
141.914551 44.0
142.076828 6776.0
142.139893 64.0
142.244751 68.0
142.301086 180.0
142.490601 160.0
142.690948 216.0
142.748016 176.0
142.845535 152.0
142.924042 160.0
142.940704 200.0
142.997391 136.0
143.024002 112.0
143.045258 480.0
143.084091 7252.0
143.138275 132.0
143.193054 156.0
143.295486 124.0
143.474228 76.0
143.560074 68.0
143.657867 176.0
143.832062 148.0
143.882187 88.0
143.910843 124.0
143.949051 44.0
144.008759 72.0
144.054382 712.0
144.085098 1504.0
144.166336 180.0
144.187943 160.0
144.316406 172.0
144.355286 196.0
144.479675 176.0
144.513168 120.0
144.534698 108.0
144.608887 44.0
144.685486 148.0
144.733368 148.0
144.772858 180.0
144.820236 176.0
144.848328 188.0
144.87468 180.0
144.915405 48.0
144.984909 128.0
145.063797 2052.0
145.099487 4364.0
145.138321 156.0
145.17627 68.0
145.222549 132.0
145.25824 168.0
145.318222 64.0
145.361404 148.0
145.46257 164.0
145.560654 112.0
145.663925 152.0
145.779251 160.0
145.801926 256.0
145.860962 76.0
145.91626 100.0
145.952332 208.0
145.976379 188.0
146.069443 560.0
146.09761 2076.0
146.156296 176.0
146.195282 36.0
146.286743 132.0
146.303604 32.0
146.327682 72.0
146.399918 92.0
146.552414 144.0
146.786789 156.0
146.891602 28.0
147.028824 120.0
147.080795 5448.0
147.108566 1280.0
147.195007 152.0
147.265747 32.0
147.379288 176.0
147.430038 60.0
147.463867 236.0
147.524307 52.0
147.613754 64.0
147.662125 120.0
147.707626 184.0
147.862946 144.0
147.93129 220.0
148.003342 220.0
148.036514 184.0
148.075775 18360.0
148.110291 656.0
148.181702 44.0
148.256454 140.0
148.287735 92.0
148.302658 80.0
148.418442 104.0
148.461349 84.0
148.485596 48.0
148.546234 64.0
148.563217 168.0
148.621445 36.0
148.672409 64.0
148.742798 28.0
148.781631 28.0
148.944336 52.0
148.978348 104.0
149.020981 176.0
149.057312 148.0
149.080658 2628.0
149.12822 348.0
149.148453 204.0
149.211655 40.0
149.243256 160.0
149.326981 224.0
149.54248 64.0
149.674011 136.0
149.773804 124.0
149.978485 68.0
150.058395 128.0
150.090469 1632.0
150.21257 88.0
150.321594 140.0
150.383377 72.0
150.401855 176.0
150.441956 156.0
150.606461 120.0
150.759491 156.0
151.006409 188.0
151.058807 168.0
151.091141 212.0
151.1483 232.0
151.177673 72.0
151.199402 200.0
151.329437 184.0
151.34903 64.0
151.402893 152.0
151.432281 112.0
151.448898 92.0
151.495972 172.0
151.561905 132.0
151.615433 144.0
151.812164 176.0
151.836685 156.0
151.924988 48.0
151.956879 148.0
151.978973 116.0
152.061798 1176.0
152.104126 160.0
152.175323 56.0
152.248032 236.0
152.285828 96.0
152.339874 176.0
152.359528 140.0
152.438156 136.0
152.534012 184.0
152.567123 76.0
152.634811 172.0
152.824203 124.0
152.848816 192.0
153.068634 3692.0
153.102371 36.0
153.194336 144.0
153.250168 160.0
153.516388 140.0
153.548447 316.0
153.578049 116.0
153.629852 200.0
153.661926 32.0
153.6866 108.0
153.814926 56.0
153.896408 68.0
153.960602 56.0
154.007538 192.0
154.076385 3172.0
154.107559 164.0
154.148743 156.0
154.190369 176.0
154.336212 44.0
154.353531 96.0
154.719711 88.0
154.916443 248.0
154.957474 144.0
155.084793 7748.0
155.13591 76.0
155.204544 164.0
155.267334 128.0
155.311981 152.0
155.334305 40.0
155.384888 68.0
155.409607 68.0
155.676819 224.0
155.751328 144.0
155.768723 156.0
155.91748 188.0
155.923676 164.0
156.091827 4612.0
156.144043 204.0
156.221146 156.0
156.260956 196.0
156.325653 40.0
156.358414 120.0
156.412766 132.0
156.497406 68.0
156.53476 148.0
156.714096 112.0
156.741516 104.0
156.782745 176.0
156.868622 196.0
156.98082 64.0
157.020721 128.0
157.067154 588.0
157.100479 6224.0
157.147949 92.0
157.167587 188.0
157.250259 52.0
157.271942 64.0
157.28894 88.0
157.32515 36.0
157.371613 300.0
157.39006 48.0
157.420029 36.0
157.453491 100.0
157.468719 80.0
157.495163 188.0
157.537415 140.0
157.584885 136.0
157.627365 76.0
157.668289 148.0
157.71402 184.0
157.742325 64.0
157.827332 204.0
157.844833 88.0
157.864838 80.0
157.899857 136.0
157.969894 112.0
158.021271 52.0
158.069733 692.0
158.099472 2996.0
158.169098 304.0
158.232437 268.0
158.290253 68.0
158.337845 84.0
158.435532 196.0
158.498169 108.0
158.545776 68.0
158.708725 96.0
158.824081 56.0
158.869232 100.0
158.889313 152.0
158.967087 156.0
159.039871 40.0
159.08049 2996.0
159.115219 2836.0
159.178284 152.0
159.254974 48.0
159.298508 56.0
159.326141 92.0
159.406555 44.0
159.45932 124.0
159.519653 140.0
159.600098 108.0
159.660461 96.0
159.770294 60.0
159.806351 144.0
159.952316 112.0
160.076096 940.0
160.112289 1584.0
160.175049 124.0
160.221786 84.0
160.241928 64.0
160.279724 36.0
160.451126 52.0
160.53685 160.0
160.680634 244.0
160.973419 172.0
161.013824 68.0
161.096161 1284.0
161.233627 80.0
161.274063 84.0
161.327148 84.0
161.392883 212.0
161.914185 156.0
161.936981 204.0
162.057663 220.0
162.091034 2496.0
162.126114 564.0
162.218246 204.0
162.256989 196.0
162.334885 100.0
162.441406 44.0
162.535278 36.0
162.794205 92.0
162.885635 108.0
162.934799 140.0
162.959305 136.0
163.020935 96.0
163.047348 112.0
163.098267 544.0
163.148422 128.0
163.17189 144.0
163.203323 56.0
163.521301 36.0
163.635742 176.0
163.71225 96.0
163.862473 172.0
163.920227 156.0
164.088211 184.0
164.096176 120.0
164.108902 188.0
164.113129 176.0
164.136932 172.0
164.27829 100.0
164.298508 160.0
164.334213 172.0
164.362289 160.0
164.420975 204.0
164.461823 152.0
164.580704 148.0
164.870468 104.0
165.011063 184.0
165.069229 4836.0
165.128693 128.0
165.159378 68.0
165.30777 88.0
165.392227 148.0
165.515121 200.0
165.599625 44.0
165.735397 200.0
165.791779 152.0
165.927628 28.0
165.948151 180.0
166.02507 172.0
166.075638 3216.0
166.143066 172.0
166.195724 84.0
166.216003 84.0
166.30986 204.0
166.350937 76.0
166.849319 136.0
166.872467 36.0
166.991409 248.0
167.085632 5064.0
167.182953 216.0
167.268646 148.0
167.33815 64.0
167.356171 176.0
167.428284 44.0
167.46434 128.0
167.531311 136.0
167.554504 136.0
167.636948 180.0
167.660233 120.0
167.680771 244.0
167.786804 144.0
168.090698 2044.0
168.204376 40.0
168.23793 104.0
168.333603 72.0
168.454849 112.0
168.576294 112.0
168.723618 76.0
168.788254 68.0
168.832214 192.0
168.930511 64.0
169.010712 352.0
169.100021 5140.0
169.169159 180.0
169.209442 164.0
169.264389 32.0
169.339493 52.0
169.378342 116.0
169.525238 172.0
169.686737 152.0
169.764526 208.0
169.831955 160.0
169.878784 152.0
170.100601 1928.0
170.213455 72.0
170.247223 136.0
170.29657 36.0
170.326935 144.0
170.371887 192.0
170.566788 148.0
170.707184 100.0
170.863251 136.0
170.914658 160.0
170.949127 104.0
171.0298 212.0
171.079666 1936.0
171.115707 2928.0
171.187943 92.0
171.225082 44.0
171.34491 72.0
171.443924 108.0
171.50386 124.0
171.610748 228.0
171.628998 228.0
171.647263 140.0
171.715057 208.0
171.738541 60.0
171.910721 32.0
171.942047 148.0
171.993011 144.0
172.081985 592.0
172.112793 1636.0
172.22229 96.0
172.26059 264.0
172.359879 140.0
172.534424 152.0
172.712814 140.0
172.812225 44.0
172.943069 144.0
172.961395 36.0
173.095184 2200.0
173.12709 860.0
173.238968 136.0
173.262558 136.0
173.286133 32.0
173.451233 48.0
173.524643 236.0
173.63739 48.0
173.734451 108.0
173.800049 136.0
173.926834 128.0
174.090958 1376.0
174.127899 1924.0
174.156067 176.0
174.256912 148.0
174.312088 68.0
174.489166 128.0
174.515076 160.0
174.730164 52.0
174.748566 116.0
174.816986 112.0
174.890686 92.0
174.930161 60.0
175.030212 132.0
175.049957 128.0
175.074402 168.0
175.105362 468.0
175.341064 208.0
175.388504 156.0
175.412231 84.0
175.46759 144.0
175.673309 136.0
175.807648 48.0
175.932388 160.0
176.023285 180.0
176.078476 168.0
176.106888 860.0
176.140549 120.0
176.240936 204.0
176.317566 68.0
176.425949 148.0
176.542282 120.0
176.703644 60.0
176.740692 64.0
176.870361 72.0
177.064789 304.0
177.114105 244.0
177.145767 144.0
177.262344 144.0
177.675964 176.0
177.705154 164.0
177.824127 168.0
178.021027 40.0
178.077713 2116.0
178.118408 336.0
178.20166 76.0
178.286697 32.0
178.37175 60.0
178.427567 48.0
178.556137 148.0
178.637665 112.0
178.698853 192.0
178.893143 120.0
178.93573 160.0
179.050598 212.0
179.084396 3976.0
179.148788 36.0
179.23671 44.0
179.564621 156.0
179.625961 204.0
179.673981 148.0
179.770035 156.0
179.802063 56.0
179.860779 172.0
179.906158 116.0
179.929794 160.0
180.089569 2120.0
180.143845 44.0
180.181244 48.0
180.340103 196.0
180.389694 60.0
180.411072 108.0
180.603607 152.0
180.855133 52.0
180.93811 100.0
180.96489 184.0
181.065903 776.0
181.099396 4624.0
181.169327 132.0
181.345291 120.0
181.369415 48.0
181.423019 160.0
181.473969 148.0
181.56514 128.0
181.672424 136.0
181.938507 196.0
182.018661 64.0
182.070755 684.0
182.105453 2140.0
182.169067 172.0
182.246979 108.0
182.276535 108.0
182.303864 96.0
182.322327 112.0
182.382736 140.0
182.413605 80.0
182.626953 176.0
182.903183 192.0
182.978561 108.0
183.079391 840.0
183.115509 4508.0
183.342209 112.0
183.361069 80.0
183.392136 44.0
183.479675 88.0
183.555176 104.0
183.671143 48.0
183.722397 136.0
183.787155 40.0
183.811432 48.0
183.887009 36.0
183.912979 96.0
183.972382 248.0
184.084015 740.0
184.115906 1008.0
184.53804 180.0
184.684067 64.0
184.83287 164.0
184.868042 144.0
184.957367 56.0
185.095596 2876.0
185.130157 988.0
185.275269 200.0
185.528946 100.0
185.596725 80.0
185.659103 156.0
185.79744 148.0
185.876114 108.0
186.094223 612.0
186.128784 1140.0
186.313263 120.0
186.416504 188.0
186.452362 104.0
186.574158 124.0
187.110092 876.0
187.149002 652.0
187.333435 156.0
187.420609 120.0
187.521454 100.0
187.62471 136.0
187.780457 116.0
187.865021 284.0
187.946869 56.0
188.009644 112.0
188.074768 176.0
188.10997 1516.0
188.140839 344.0
188.329071 112.0
188.386826 144.0
188.424683 112.0
188.472473 180.0
188.635117 216.0
188.747208 148.0
188.80191 160.0
188.848404 152.0
189.02623 128.0
189.06868 596.0
189.119781 144.0
189.160339 52.0
189.264374 160.0
189.620499 84.0
189.828857 132.0
189.861771 88.0
189.955032 136.0
190.048233 160.0
190.075302 812.0
190.120789 168.0
190.173782 124.0
190.484146 156.0
190.616699 48.0
190.762375 132.0
190.888855 192.0
190.930099 68.0
191.084473 2224.0
191.119385 84.0
191.124435 236.0
191.144241 176.0
191.329086 132.0
191.805664 116.0
191.871826 104.0
191.953003 76.0
191.995911 140.0
192.039291 172.0
192.09137 3616.0
192.131073 136.0
192.313202 80.0
192.365646 228.0
192.418091 164.0
192.650085 172.0
192.81311 100.0
192.860092 76.0
192.87944 76.0
192.930756 144.0
193.099609 3856.0
193.142136 72.0
193.180862 192.0
193.296143 72.0
193.352417 64.0
193.474213 124.0
193.567307 64.0
193.673584 52.0
193.767776 56.0
193.823196 176.0
193.856445 136.0
194.014435 60.0
194.036606 120.0
194.058289 76.0
194.105209 2012.0
194.239059 184.0
194.319504 60.0
194.752579 204.0
194.783127 76.0
194.927597 104.0
194.988739 88.0
195.081482 1144.0
195.115143 3268.0
195.208359 64.0
195.28067 96.0
195.34465 64.0
195.36969 140.0
195.447586 76.0
195.561691 64.0
195.745438 128.0
195.876343 116.0
196.084869 408.0
196.125381 1456.0
196.180084 176.0
196.202393 84.0
196.241425 144.0
196.324951 88.0
196.475693 92.0
196.503601 36.0
196.598465 44.0
196.765945 160.0
197.096832 1400.0
197.131775 1500.0
197.285599 176.0
197.324738 96.0
197.422592 40.0
197.444977 84.0
197.590424 160.0
197.692566 128.0
197.889908 176.0
197.9487 136.0
197.993515 32.0
198.100494 504.0
198.129013 872.0
198.236603 228.0
198.262466 160.0
198.338135 44.0
198.47551 64.0
198.531601 96.0
198.68306 76.0
198.713928 240.0
198.78688 152.0
199.033905 56.0
199.070068 168.0
199.110718 840.0
199.144547 644.0
199.213654 96.0
199.289505 96.0
199.528412 172.0
199.663376 132.0
199.767456 184.0
199.860306 176.0
200.10675 1140.0
200.147812 420.0
200.217804 148.0
200.443176 156.0
200.634842 40.0
200.68277 128.0
201.074875 124.0
201.120468 476.0
201.433472 116.0
201.648224 28.0
201.947922 124.0
202.078033 1048.0
202.101395 184.0
202.123917 768.0
202.154449 160.0
202.259171 196.0
202.290314 140.0
202.749161 128.0
202.805847 60.0
202.961777 192.0
202.995804 168.0
203.041183 172.0
203.085617 1772.0
203.120132 392.0
203.142731 368.0
203.287994 48.0
203.674118 136.0
203.875839 124.0
204.09288 1516.0
204.13501 220.0
204.1772 216.0
204.248306 104.0
204.310883 60.0
204.345032 196.0
204.424698 116.0
204.521469 48.0
204.663818 156.0
204.791962 180.0
204.834686 56.0
204.920151 96.0
205.062637 156.0
205.100586 3396.0
205.177719 172.0
205.780151 92.0
205.812927 120.0
206.059662 176.0
206.108093 1664.0
206.147141 160.0
206.272888 64.0
206.467316 80.0
206.616058 120.0
206.71907 60.0
206.885086 144.0
206.998138 124.0
207.075836 372.0
207.116287 2640.0
207.268875 144.0
207.28894 84.0
207.363449 52.0
207.41217 108.0
207.460907 140.0
207.555527 60.0
207.624344 44.0
207.987381 220.0
208.115906 1272.0
208.198318 56.0
208.245468 136.0
208.327576 36.0
208.453995 120.0
208.543091 168.0
208.632202 76.0
208.658081 148.0
208.71846 156.0
208.75296 68.0
208.784607 56.0
208.82486 76.0
208.948563 132.0
209.046387 180.0
209.094208 960.0
209.131851 2760.0
209.224854 80.0
209.322739 40.0
209.488007 148.0
209.509964 172.0
209.636734 76.0
209.677094 32.0
209.733429 80.0
210.043274 172.0
210.100327 852.0
210.131149 1664.0
210.216385 96.0
210.291412 52.0
210.76503 72.0
210.854614 60.0
211.071182 136.0
211.110916 1332.0
211.148331 872.0
211.195786 128.0
211.249985 60.0
211.389633 32.0
211.470673 104.0
211.548828 28.0
211.583557 68.0
211.829712 88.0
211.85289 196.0
211.942703 124.0
212.07666 144.0
212.115128 696.0
212.145126 996.0
212.470398 64.0
212.534225 104.0
212.595169 52.0
212.839005 136.0
212.963882 132.0
213.088806 168.0
213.128082 1160.0
213.160019 800.0
213.21666 56.0
213.271881 52.0
213.356186 144.0
213.37944 68.0
213.52774 72.0
213.690643 76.0
213.754669 104.0
213.856522 184.0
213.952591 120.0
214.088867 164.0
214.124359 476.0
214.159302 776.0
214.319565 92.0
214.62854 208.0
214.686859 140.0
214.745193 144.0
214.786026 116.0
214.838531 28.0
214.930832 164.0
215.084137 1084.0
215.138504 928.0
215.428238 60.0
215.550949 128.0
215.735077 80.0
216.033371 92.0
216.091553 596.0
216.140152 308.0
216.165924 184.0
216.674515 156.0
216.941208 64.0
217.099899 1996.0
217.149399 48.0
217.17131 152.0
217.43692 88.0
217.624802 148.0
217.689392 72.0
217.748138 100.0
217.830383 56.0
217.921448 180.0
217.986099 136.0
218.006668 72.0
218.106659 1520.0
218.150375 184.0
218.215363 40.0
218.315338 176.0
218.427109 112.0
218.594818 44.0
218.670044 128.0
218.850906 72.0
218.942184 80.0
219.083298 316.0
219.115936 1764.0
219.160172 44.0
219.180801 44.0
219.758728 160.0
219.90332 80.0
219.980072 132.0
220.08992 368.0
220.119385 1696.0
220.160187 64.0
220.299011 84.0
220.343323 108.0
220.786713 108.0
221.095993 620.0
221.132187 1272.0
221.186142 80.0
221.49411 116.0
221.64267 244.0
221.923828 180.0
221.974228 60.0
222.131638 1060.0
222.288666 132.0
222.371765 48.0
222.576614 228.0
222.62709 72.0
222.676102 168.0
222.897415 32.0
222.942001 80.0
222.989548 104.0
223.025208 140.0
223.106796 1224.0
223.143906 752.0
223.224411 36.0
223.327347 268.0
223.480225 88.0
223.666412 104.0
223.873154 64.0
224.111969 468.0
224.143539 556.0
224.230652 68.0
224.287277 120.0
224.582474 68.0
224.660034 124.0
225.124908 880.0
225.162216 2432.0
225.245132 120.0
225.340729 28.0
225.370605 76.0
225.490143 44.0
225.537964 56.0
225.586517 184.0
225.730759 132.0
225.823563 116.0
226.076324 176.0
226.120438 572.0
226.166031 484.0
226.303818 32.0
226.40564 40.0
226.906052 132.0
227.087357 196.0
227.140976 796.0
227.319977 52.0
227.557114 92.0
227.710251 52.0
227.858673 88.0
227.91153 92.0
228.091293 236.0
228.136551 532.0
228.173767 272.0
228.90419 116.0
229.098694 324.0
229.150085 308.0
229.184326 52.0
229.359116 92.0
229.609375 164.0
229.850708 136.0
230.10965 584.0
230.149048 144.0
230.188797 144.0
230.276382 172.0
230.324707 88.0
230.366989 40.0
230.877808 152.0
230.947372 120.0
231.004852 48.0
231.11525 2208.0
231.16272 156.0
231.510315 124.0
231.622375 116.0
231.655701 100.0
231.722351 100.0
232.013763 104.0
232.082626 120.0
232.121384 1160.0
232.175201 140.0
232.340836 32.0
232.395447 152.0
232.48233 152.0
233.094925 324.0
233.101013 360.0
233.131058 1552.0
233.324844 68.0
233.534668 88.0
233.863266 124.0
234.103302 392.0
234.133926 776.0
234.223846 144.0
234.426697 92.0
234.563858 72.0
234.716293 116.0
234.993866 272.0
235.110825 428.0
235.145828 1228.0
235.210541 80.0
235.357697 100.0
235.467026 68.0
235.818375 92.0
235.93454 72.0
236.01709 48.0
236.060837 92.0
236.116196 288.0
236.146347 716.0
236.182236 172.0
236.705582 224.0
236.791687 204.0
236.87709 60.0
236.910797 132.0
237.033356 100.0
237.082382 264.0
237.124451 1212.0
237.153381 432.0
237.284683 48.0
237.723328 140.0
238.018021 32.0
238.094788 140.0
238.127548 252.0
238.157898 364.0
238.798599 180.0
238.971863 112.0
239.14061 764.0
239.830078 112.0
240.096161 304.0
240.139557 552.0
240.179565 472.0
240.255615 36.0
240.37085 128.0
240.440765 200.0
240.561142 128.0
241.1026 164.0
241.157471 424.0
241.788254 124.0
241.940948 160.0
241.983261 56.0
242.112579 288.0
242.152679 220.0
242.161453 284.0
242.190262 936.0
242.277496 140.0
242.829254 68.0
242.981247 60.0
243.049515 60.0
243.11554 276.0
243.166885 248.0
243.188004 360.0
243.294708 76.0
243.555557 56.0
243.931549 56.0
244.062119 140.0
244.124588 584.0
244.16951 168.0
244.345169 80.0
244.612793 44.0
244.777817 180.0
245.097473 180.0
245.130295 1476.0
245.177444 156.0
245.301239 232.0
245.622421 152.0
245.685532 108.0
245.815857 48.0
245.971909 48.0
246.006256 80.0
246.091034 104.0
246.137756 812.0
246.243561 188.0
246.69664 180.0
246.824829 40.0
246.868607 108.0
246.893631 36.0
247.113922 456.0
247.146729 1320.0
247.334793 64.0
247.425583 48.0
247.469406 100.0
247.660431 220.0
247.876617 76.0
248.055252 136.0
248.113022 544.0
248.14682 520.0
248.202606 68.0
248.259064 128.0
248.347794 124.0
248.437851 84.0
248.500595 140.0
248.600998 52.0
248.757935 84.0
248.848984 184.0
248.886658 60.0
248.990295 36.0
249.130508 812.0
249.153503 460.0
249.288742 208.0
249.391098 180.0
249.527634 96.0
250.015198 52.0
250.046448 116.0
250.123932 548.0
250.163361 668.0
250.254425 172.0
250.292221 60.0
250.437088 48.0
250.875092 72.0
250.966522 116.0
251.06427 104.0
251.104126 116.0
251.146439 596.0
251.176086 340.0
251.673309 60.0
251.834366 56.0
251.929138 48.0
252.140549 348.0
252.170837 648.0
252.510742 92.0
252.6436 92.0
252.849274 36.0
252.931564 44.0
252.953735 140.0
253.110703 148.0
253.15654 724.0
253.219711 72.0
253.400269 104.0
253.812317 104.0
254.008957 176.0
254.103348 168.0
254.159836 308.0
254.370712 84.0
255.115021 880.0
255.156616 248.0
255.188843 284.0
255.352539 64.0
255.410522 140.0
256.115997 176.0
256.141907 184.0
256.162506 172.0
256.855957 96.0
257.072906 148.0
257.134216 324.0
257.178558 152.0
257.268951 48.0
257.666809 128.0
257.717926 76.0
257.839355 156.0
258.096771 216.0
258.134216 548.0
258.174377 152.0
258.424561 116.0
258.866302 204.0
258.891907 120.0
259.105408 152.0
259.141632 332.0
259.712402 96.0
259.782959 64.0
260.150421 496.0
260.656281 60.0
260.688416 152.0
260.726959 172.0
260.784821 100.0
261.128052 512.0
261.162415 804.0
261.244659 156.0
261.885223 132.0
261.975433 48.0
262.129028 432.0
262.158722 756.0
262.387939 76.0
262.707214 132.0
262.733032 140.0
263.094482 196.0
263.144104 680.0
263.172302 444.0
263.64682 92.0
263.669434 80.0
263.708221 80.0
263.853699 108.0
263.892487 68.0
264.025055 128.0
264.054169 36.0
264.141449 384.0
264.176483 568.0
264.361511 64.0
264.465607 76.0
264.915192 156.0
265.086914 128.0
265.115112 216.0
265.163666 164.0
265.210052 140.0
265.394867 132.0
265.839264 56.0
265.93988 156.0
266.125488 112.0
266.1586 224.0
266.190826 160.0
266.816956 120.0
267.106384 140.0
267.170929 128.0
267.199432 168.0
267.366669 116.0
268.105957 152.0
268.141785 248.0
268.170715 348.0
268.207001 192.0
268.461304 148.0
268.575439 68.0
269.127533 144.0
269.163086 128.0
269.17041 316.0
270.055084 32.0
270.134308 296.0
270.145538 144.0
270.185638 756.0
270.670349 48.0
270.807892 92.0
271.151917 196.0
271.186462 332.0
271.473206 56.0
271.8078 40.0
271.878021 172.0
272.140076 324.0
273.136597 360.0
273.175262 168.0
274.050323 216.0
274.129028 168.0
274.158081 444.0
274.986877 52.0
275.124725 224.0
275.175476 508.0
275.287292 108.0
275.821167 164.0
276.140472 584.0
276.17395 560.0
276.331818 140.0
276.672699 68.0
276.864777 60.0
277.166565 724.0
277.225861 100.0
277.394897 76.0
277.610413 108.0
277.855865 72.0
278.164429 416.0
278.185944 576.0
278.469971 128.0
279.133911 256.0
279.166779 776.0
279.35083 128.0
279.400757 76.0
279.540497 116.0
279.58374 60.0
279.999908 68.0
280.168182 288.0
280.266022 204.0
280.473022 96.0
280.666412 84.0
280.796448 92.0
281.12674 144.0
281.178833 492.0
281.306976 36.0
281.834656 40.0
282.186279 376.0
282.226227 152.0
282.312683 56.0
283.170776 1596.0
283.229736 100.0
283.316833 56.0
283.39389 40.0
283.651947 36.0
283.87323 168.0
283.936951 140.0
284.176941 364.0
284.197937 192.0
284.232178 52.0
284.416748 124.0
285.027985 200.0
285.147736 132.0
285.175842 236.0
286.157379 172.0
286.596008 132.0
286.720703 156.0
287.047699 212.0
287.153564 144.0
287.168243 108.0
287.176239 324.0
287.945404 64.0
288.147583 692.0
288.394745 56.0
288.428558 156.0
288.962891 68.0
289.159973 220.0
289.568817 148.0
289.782227 124.0
289.843231 76.0
290.090637 108.0
290.152374 156.0
290.184113 252.0
290.283905 64.0
290.562042 76.0
290.59256 108.0
290.796173 164.0
290.942139 64.0
291.180328 280.0
291.46521 40.0
292.131592 52.0
292.204529 868.0
292.499115 88.0
292.774902 80.0
293.151672 160.0
293.192078 864.0
293.787231 140.0
293.985138 136.0
294.138733 84.0
294.184967 988.0
294.292358 72.0
294.476746 60.0
294.531403 240.0
294.558746 40.0
294.760315 52.0
295.016663 96.0
295.098694 56.0
295.190521 3504.0
295.238892 248.0
295.365448 32.0
295.403076 76.0
295.471497 52.0
295.540649 136.0
295.642578 44.0
295.739197 156.0
296.165314 1036.0
296.200165 1400.0
296.374146 88.0
296.464508 60.0
296.512482 60.0
296.594727 60.0
297.071381 192.0
297.180847 124.0
297.202026 700.0
297.287537 84.0
297.599915 36.0
297.933075 80.0
298.080811 104.0
298.156403 200.0
298.314514 68.0
298.448608 244.0
300.091003 88.0
300.167053 148.0
300.246185 68.0
300.301361 68.0
300.34964 120.0
302.205139 176.0
302.56131 112.0
303.17569 328.0
303.593872 48.0
304.163544 368.0
304.190674 328.0
305.121704 136.0
305.183868 228.0
305.716492 80.0
306.082031 96.0
306.179535 104.0
306.743988 56.0
306.813721 212.0
307.164917 192.0
307.281036 216.0
307.399689 144.0
307.958282 60.0
308.154968 184.0
308.204254 176.0
309.186737 448.0
309.303345 172.0
309.626587 76.0
309.696655 52.0
309.801727 44.0
309.889313 180.0
309.927856 100.0
310.008453 88.0
310.217133 8332.0
310.464203 48.0
310.537842 160.0
310.695709 68.0
310.786926 60.0
310.822021 128.0
310.895721 124.0
310.965912 84.0
311.077789 96.0
311.158966 184.0
311.220154 1912.0
311.274841 188.0
311.397766 80.0
311.664734 140.0
311.752594 124.0
312.191895 112.0
312.222931 488.0
312.272919 76.0
312.659943 56.0
312.916901 112.0
313.198639 136.0
313.406494 48.0
313.667267 100.0
313.981079 72.0
314.104523 72.0
314.570343 48.0
315.121277 56.0
315.867218 88.0
316.001648 88.0
316.203064 100.0
316.507812 52.0
317.730621 56.0
318.177795 140.0
318.778076 44.0
319.168457 160.0
319.446503 180.0
320.129883 144.0
320.199829 928.0
320.307953 124.0
320.963715 72.0
320.988678 64.0
321.186768 540.0
321.210754 572.0
321.341827 64.0
321.381073 88.0
321.787964 180.0
322.030792 140.0
322.185272 384.0
322.388062 36.0
323.18985 268.0
323.847778 64.0
323.955231 88.0
324.019714 128.0
324.191711 124.0
324.306396 148.0
324.840668 80.0
325.292847 172.0
325.619568 88.0
326.226837 128.0
326.424591 176.0
327.183838 360.0
327.291809 176.0
327.317017 64.0
327.367432 32.0
328.084442 172.0
328.239471 88.0
328.585754 124.0
329.007996 104.0
330.544128 48.0
331.058167 124.0
331.706726 64.0
331.90976 172.0
333.881622 120.0
334.078064 108.0
336.355621 108.0
336.706146 76.0
337.038574 88.0
337.495483 128.0
337.609314 88.0
337.663696 120.0
337.993805 256.0
338.048584 172.0
338.102722 188.0
338.142975 180.0
338.211243 13576.0
338.288147 164.0
338.357605 120.0
338.423035 72.0
338.460938 56.0
338.50174 64.0
338.669128 68.0
338.699524 84.0
338.801849 60.0
338.996277 112.0
339.135773 64.0
339.213989 2004.0
339.388519 64.0
339.480194 40.0
339.531525 48.0
339.615875 60.0
339.641571 112.0
340.026825 116.0
340.125916 60.0
340.16629 176.0
340.214813 448.0
340.485748 112.0
340.746552 36.0
341.117737 52.0
341.220215 128.0
341.316254 72.0
341.34201 100.0
341.474396 84.0
341.683472 124.0
342.457123 120.0
343.33429 52.0
343.802826 32.0
344.116577 72.0
344.981079 80.0
345.720856 116.0
346.368774 40.0
348.364532 84.0
349.111603 88.0
351.331573 64.0
352.563751 56.0
353.771912 72.0
355.147156 116.0
356.506256 88.0
357.224396 136.0
360.591614 84.0
364.742065 48.0
365.753876 104.0
367.945862 68.0
368.851257 76.0
377.030487 44.0
377.730316 60.0
378.763855 88.0
393.125122 88.0
394.270386 80.0
395.611267 64.0
397.688385 56.0
398.379333 76.0
400.81427 48.0
401.827026 60.0
404.004395 56.0
404.132416 144.0
404.576691 72.0
408.268188 124.0
416.84259 84.0
420.516022 136.0
430.645355 112.0
430.723846 144.0
435.840393 52.0
436.750854 96.0
441.70636 52.0
447.708405 100.0
461.919128 76.0
465.914581 60.0
471.166321 40.0
472.082672 44.0
472.90036 52.0
473.757721 40.0
476.06958 136.0
476.438782 88.0
477.738647 84.0
479.301697 88.0
486.180481 64.0
488.35968 40.0
494.187286 76.0
498.590668 84.0
505.010956 92.0
506.295441 68.0
508.87384 180.0
509.336395 44.0
513.865295 76.0
520.532715 104.0
525.631042 128.0
532.511902 48.0
535.321899 44.0
538.277832 48.0
544.571655 112.0
549.244873 56.0
551.401978 128.0
552.341797 152.0
553.671082 40.0
554.406616 88.0
561.302917 56.0
562.194519 68.0
564.06488 84.0
569.143677 48.0
572.596191 100.0
575.295044 32.0
576.159424 96.0
592.837158 136.0
607.822876 40.0
610.146118 60.0
616.939697 88.0
627.175659 52.0
627.21051 64.0
627.773926 56.0
639.130066 52.0
647.712769 36.0
653.719055 48.0
655.659363 72.0
661.011353 128.0
663.141785 84.0
678.825073 100.0
683.619873 88.0
699.27887 112.0
699.973755 84.0
708.297363 104.0
713.333191 56.0
720.500977 96.0
721.361389 76.0
737.80658 112.0
740.479675 112.0
744.900391 220.0
751.717041 72.0
753.546265 188.0
754.95105 100.0
755.591064 188.0
760.127869 196.0
760.77002 60.0
766.269714 56.0
790.32312 104.0
794.379395 216.0
796.220459 32.0
796.978821 156.0
799.323608 168.0
805.655396 92.0
806.282593 112.0
806.836548 52.0
814.157471 232.0
814.378967 120.0
814.509644 224.0
818.507812 236.0
821.106506 120.0
825.589722 68.0
831.427551 136.0
836.574768 20.0
836.96344 196.0
838.657166 208.0
839.729614 64.0
840.964355 244.0
845.802368 64.0
847.812134 152.0
849.766296 192.0
853.320801 136.0
857.675354 260.0
863.455688 36.0
863.794922 68.0
864.10498 88.0
868.164307 48.0
870.805359 136.0
876.093567 208.0
876.889038 156.0
878.55188 192.0
880.706543 200.0
882.976135 216.0
883.277832 168.0
889.357361 132.0
890.818115 180.0
894.40979 80.0
896.673157 148.0
901.238342 128.0
904.198486 164.0
904.282227 164.0
907.325317 132.0
909.160767 132.0
911.016174 224.0
912.795227 68.0
913.390625 176.0
914.106628 60.0
915.720032 176.0
916.304382 144.0
918.305725 192.0
918.522888 164.0
919.814209 32.0
926.902466 172.0
928.175415 108.0
929.552429 180.0
931.477051 180.0
931.701843 112.0
933.987549 104.0
934.364746 92.0
934.486389 36.0
936.885193 112.0
938.238159 148.0
938.713745 116.0
945.191284 172.0
945.390808 88.0
945.947754 48.0
948.036377 64.0
949.262451 132.0
949.452576 120.0
950.139526 204.0
950.483154 148.0
952.662781 232.0
956.235352 156.0
956.813965 140.0
957.509766 224.0
957.977905 180.0
959.124084 28.0
961.628357 144.0
964.828125 148.0
966.646606 132.0
968.980957 72.0
970.232849 60.0
974.111511 108.0
976.038208 212.0
976.355347 136.0
978.744995 220.0
979.616943 180.0
984.375854 176.0
987.694519 152.0
989.703491 208.0
990.64917 124.0
991.620422 200.0
992.021606 184.0
992.479309 204.0
995.861877 208.0
997.04303 260.0
998.696594 168.0
999.527039 252.0
1001.050415 132.0
1003.217896 136.0
1003.299866 168.0
1003.987122 164.0
1005.785339 124.0
1006.403992 84.0
1006.467163 164.0
1007.768311 64.0
1007.957886 80.0
1008.495056 60.0
1009.740662 164.0
1009.797546 180.0
1009.955688 84.0
1012.120117 132.0
1012.607727 152.0
1014.2995 36.0
1015.244202 208.0
1017.941284 68.0
1019.376953 160.0
1020.991638 188.0
1021.837708 116.0
1022.015869 156.0
1023.498962 128.0
1025.951904 188.0
1026.736206 160.0
1030.444946 136.0
1030.572754 128.0
1032.752686 200.0
1034.480469 184.0
1035.024658 136.0
1035.709961 116.0
1038.38269 56.0
1038.934326 48.0
1038.998535 144.0
1039.877563 212.0
1040.185669 92.0
1041.155273 44.0
1042.228027 160.0
1042.59436 108.0
1043.661499 140.0
1043.770752 168.0
1044.12439 136.0
1047.271729 200.0
1049.024414 144.0
1050.133545 160.0
1050.959351 184.0
1051.114136 48.0
1054.123413 168.0
1054.226807 124.0
1054.407715 96.0
1054.924805 152.0
1055.694214 168.0
1055.862427 148.0
1056.496338 108.0
1056.735718 48.0
1058.237305 136.0
1059.454834 100.0
1060.556519 56.0
1061.152954 160.0
1061.217773 128.0
1061.353882 168.0
1062.625244 144.0
1065.358398 120.0
1066.060181 148.0
1068.648193 204.0
1070.138672 160.0
1071.493408 184.0
1072.223267 168.0
1073.331421 132.0
1073.579224 208.0
1074.16626 152.0
1075.869507 164.0
1075.941406 228.0
1076.176392 32.0
1078.051147 116.0
1078.260254 196.0
1082.447144 60.0
1083.907959 176.0
1084.111084 68.0
1086.825928 112.0
1088.302734 208.0
1088.788696 132.0
1090.772949 88.0
1091.160889 108.0
1091.463257 136.0
1091.969727 268.0
1093.956909 212.0
1094.964355 120.0
1096.222656 240.0
1096.954224 168.0
1098.035645 140.0
1098.404907 152.0
1098.451172 188.0
1101.045166 120.0
1101.104614 164.0
1104.336548 204.0
1104.726807 228.0
1104.812866 196.0
1105.86499 180.0
1106.189331 132.0
1106.87793 160.0
1107.7323 160.0
1108.240479 220.0
1110.436646 112.0
1110.582642 188.0
1110.682129 164.0
1112.374146 76.0
1113.084595 216.0
1113.32373 56.0
1113.589355 256.0
1113.694946 196.0
1114.426392 152.0
1114.599121 172.0
1115.077637 136.0
1115.649292 216.0
1117.744385 188.0
1118.383301 136.0
1119.954712 100.0
1121.100708 60.0
1121.960449 136.0
1122.193848 160.0
1123.407715 144.0
1125.356445 108.0
1125.503418 200.0
1125.944092 180.0
1126.926147 216.0
1127.69458 88.0
1127.814941 188.0
1128.60376 48.0
1128.924805 144.0
1130.021729 60.0
1130.082031 192.0
1130.717651 36.0
1132.512085 80.0
1134.435303 120.0
1135.105713 232.0
1135.280029 196.0
1135.588623 60.0
1137.158569 132.0
1137.917114 180.0
1138.125366 144.0
1139.018555 184.0
1140.846436 148.0
1141.00769 160.0
1141.236328 172.0
1141.32373 156.0
1143.173584 192.0
1143.786133 156.0
1143.988037 168.0
1144.04187 224.0
1144.620972 164.0
1145.105835 128.0
1145.651367 152.0
1146.0354 152.0
1146.102783 160.0
1147.235107 112.0
1148.044189 168.0
1148.1521 144.0
1148.428711 236.0
1151.317383 160.0
1151.600952 188.0
1151.844238 72.0
1152.033325 168.0
1152.431885 108.0
1154.554565 196.0
1154.642456 144.0
1154.737183 188.0
1155.359497 156.0
1156.036133 168.0
1156.679077 176.0
1157.559204 196.0
1159.096924 124.0
1162.168579 140.0
1163.288452 188.0
1163.519287 152.0
1163.607544 152.0
1165.80835 156.0
1166.991089 196.0
1167.161133 144.0
1170.931152 260.0
1171.264893 140.0
1171.428467 128.0
1171.632812 196.0
1173.207153 88.0
1174.366333 172.0
1174.454956 248.0
1175.40332 56.0
1176.078979 72.0
1176.235962 156.0
1176.652344 172.0
1176.775269 148.0
1179.439575 164.0
1180.465088 140.0
1180.581421 164.0
1182.052246 136.0
1182.647583 196.0
1184.482666 52.0
1184.660767 152.0
1185.414551 152.0
1185.791382 176.0
1185.942261 216.0
1186.127319 140.0
1186.257568 176.0
1186.737427 236.0
1187.279175 192.0
1187.635864 248.0
1188.287598 160.0
1188.486572 144.0
1188.548218 156.0
1189.358154 128.0
1189.77002 264.0
1191.89917 164.0
1193.52832 156.0
1193.603882 148.0
1194.112793 156.0
1194.298584 184.0
1195.984375 152.0
1196.514282 180.0
1196.734741 184.0
1196.858643 156.0
1197.464722 160.0
1197.623047 160.0
1198.346436 204.0
1198.670288 200.0
1200.607422 128.0
1203.685303 228.0
1203.871704 156.0
1204.935425 160.0
1205.366577 256.0
1205.737061 76.0
1206.200073 188.0
1206.303833 128.0
1208.399292 224.0
1208.682983 92.0
1209.063599 40.0
1209.319702 36.0
1210.378906 132.0
1210.912109 120.0
1211.905396 276.0
1212.055176 128.0
1212.893799 196.0
1213.649536 104.0
1213.857544 160.0
1214.134888 168.0
1214.301392 112.0
1214.356812 232.0
1214.897949 92.0
1215.109863 220.0
1218.049561 140.0
1218.237061 124.0
1218.619263 128.0
1218.716431 156.0
1218.931885 224.0
1219.870239 152.0
1220.064819 60.0
1220.182983 144.0
1220.746216 132.0
1221.34436 248.0
1221.490479 144.0
1221.615723 192.0
1221.713013 180.0
1222.019165 208.0
1222.589844 176.0
1223.724365 152.0
1224.650635 128.0
1225.34729 224.0
1225.653809 180.0
1227.117554 140.0
1229.838257 92.0
1230.08252 212.0
1230.859009 176.0
1231.723511 172.0
1233.316772 144.0
1234.715088 172.0
1234.875977 160.0
1235.253662 184.0
1236.086182 156.0
1236.660156 196.0
1237.157104 180.0
1239.531494 144.0
1239.608521 264.0
1239.952026 132.0
1240.218262 184.0
1242.12561 72.0
1242.806152 104.0
1242.953491 164.0
1243.38855 176.0
1243.451782 172.0
1243.915039 216.0
1244.013306 132.0
1245.530029 216.0
1246.063965 176.0
1246.246704 164.0
1246.675293 200.0
1246.865112 272.0
1247.097046 192.0
1247.293823 172.0
1247.40625 200.0
1247.814575 212.0
1248.700073 204.0
1249.910034 164.0
1249.980469 144.0
1250.261963 184.0
1250.656128 164.0
1250.719482 184.0
1250.923584 136.0
1251.222778 152.0
1252.007935 172.0
1253.423828 160.0
1254.001709 152.0
1254.61499 164.0
1256.251099 72.0
1257.655396 180.0
1259.392334 180.0
1259.505371 144.0
1259.802124 188.0
1259.978638 116.0
1261.505127 176.0
1261.943481 172.0
1263.733032 140.0
1264.242432 28.0
1264.596313 104.0
1264.929077 172.0
1265.254639 188.0
1265.495361 160.0
1266.08313 172.0
1266.161011 60.0
1266.224731 148.0
1266.345215 200.0
1269.293335 132.0
1270.754517 144.0
1271.293823 108.0
1272.017822 220.0
1272.436646 68.0
1272.575439 144.0
1274.425415 112.0
1275.171509 72.0
1276.067261 152.0
1276.216553 160.0
1279.703003 164.0
1280.58606 192.0
1280.899414 176.0
1281.127441 152.0
1281.590454 156.0
1282.630981 176.0
1283.130005 188.0
1283.450928 140.0
1284.142578 156.0
1284.577759 136.0
1284.813599 132.0
1285.041504 40.0
1287.197144 56.0
1287.411377 180.0
1288.468506 40.0
1290.348145 196.0
1290.562622 192.0
1290.920166 148.0
1291.849976 48.0
1292.13623 120.0
1292.229248 192.0
1292.34375 160.0
1293.624756 156.0
1294.498291 52.0
1295.006714 136.0
1295.472412 60.0
1295.601318 92.0
1295.715942 156.0
1295.916626 208.0
1296.174561 180.0
1296.50415 136.0
1297.271118 188.0
1297.407349 228.0
1297.68689 132.0
1298.109985 164.0
1298.425537 136.0
1298.518799 220.0
1299.020874 184.0
1299.487183 164.0
1299.903442 116.0
1300.147339 124.0
1300.664185 124.0
1301.128418 216.0
1301.78418 160.0
1302.7323 176.0
1303.450806 216.0
1303.881958 180.0
1304.744507 144.0
1305.226318 60.0
1305.42041 184.0
1306.736816 124.0
1307.175659 232.0
1307.42041 168.0
1307.729858 72.0
1307.80896 80.0
1307.902588 180.0
1308.111328 212.0
1308.269775 164.0
1308.70166 152.0
1309.537109 128.0
1310.019653 140.0
1310.877075 32.0
1311.035645 224.0
1311.331177 144.0
1311.381592 120.0
1311.576172 60.0
1311.79248 156.0
1311.8573 152.0
1312.304321 108.0
1313.155273 172.0
1314.886841 172.0
1314.995117 140.0
1315.132202 176.0
1315.796387 220.0
1316.345093 172.0
1316.489502 140.0
1316.987915 80.0
1317.060181 56.0
1318.013794 156.0
1318.440186 100.0
1318.62085 176.0
1319.148438 260.0
1319.604004 216.0
1319.748535 160.0
1320.14624 224.0
1320.240234 140.0
1321.527832 264.0
1321.716064 148.0
1321.933105 180.0
1322.664062 188.0
1322.779907 180.0
1324.372925 60.0
1326.198853 252.0
1326.554077 200.0
1326.647949 172.0
1327.141357 160.0
1327.293579 244.0
1327.910034 136.0
1328.585938 176.0
1329.172363 140.0
1329.651367 212.0
1330.326416 152.0
1331.480835 52.0
1332.069214 200.0
1332.635864 152.0
1332.832031 144.0
1335.071045 40.0
1336.402222 192.0
1337.10083 140.0
1337.515747 180.0
1337.56665 144.0
1338.265625 192.0
1339.255981 156.0
1340.239502 172.0
1340.596558 156.0
1341.02478 168.0
1341.172363 228.0
1341.420166 164.0
1341.704468 112.0
1341.901367 184.0
1341.988892 224.0
1342.171143 164.0
1343.345337 128.0
1344.629517 156.0
1345.009155 116.0
1345.761108 180.0
1345.863281 160.0
1345.936279 176.0
1347.017212 44.0
1347.501587 156.0
1347.791626 148.0
1347.893921 124.0
1349.377808 168.0
1349.787231 172.0
1349.984619 148.0
1350.598999 120.0
1350.730713 120.0
1351.842773 136.0
1352.179443 88.0
1352.6698 168.0
1352.830933 156.0
1353.885254 152.0
1354.639771 136.0
1355.027954 216.0
1355.665527 180.0
1355.790039 124.0
1355.951294 180.0
1356.14917 200.0
1356.449707 144.0
1356.830933 164.0
1357.219604 172.0
1358.137329 144.0
1358.344849 212.0
1358.598389 160.0
1358.891846 212.0
1359.053345 144.0
1359.22937 236.0
1359.596313 208.0
1359.845825 120.0
1361.535034 172.0
1363.329834 136.0
1363.738647 184.0
1364.098877 144.0
1364.334106 212.0
1364.444336 136.0
1364.70166 76.0
1364.767822 156.0
1364.892822 124.0
1365.929932 116.0
1366.584595 180.0
1367.828369 160.0
1367.960938 164.0
1368.019775 196.0
1368.255371 36.0
1368.623535 180.0
1368.682373 180.0
1368.895996 240.0
1369.330444 124.0
1369.74292 172.0
1369.890259 176.0
1370.516479 212.0
1371.010254 148.0
1371.260864 196.0
1371.585205 188.0
1371.806274 172.0
1371.9021 164.0
1372.838501 168.0
1373.118774 212.0
1373.192505 80.0
1373.487549 196.0
1373.553955 108.0
1374.1073 216.0
1374.240112 148.0
1374.419678 164.0
1374.645874 132.0
1375.155151 112.0
1375.494629 164.0
1376.06311 56.0
1376.491455 148.0
1377.141357 264.0
1378.718872 92.0
1379.047607 164.0
1379.202881 144.0
1379.29895 80.0
1379.350708 144.0
1379.68335 148.0
1379.757202 132.0
1379.845947 40.0
1380.282227 124.0
1380.807251 40.0
1381.214111 152.0
1381.310303 176.0
1381.887329 124.0
1382.118164 212.0
1382.434937 220.0
1382.679077 144.0
1383.249023 144.0
1384.167114 144.0
1386.152344 152.0
1386.31543 148.0
1386.982422 120.0
1387.464233 196.0
1387.794556 268.0
1388.027832 164.0
1388.381592 164.0
1388.606201 160.0
1390.112305 180.0
1391.143921 140.0
1391.210815 160.0
1391.626587 208.0
1391.804688 192.0
1391.961792 240.0
1392.049805 184.0
1392.926147 204.0
1393.007324 236.0
1393.840088 172.0
1393.996094 120.0
1394.419678 112.0
1394.486572 172.0
1395.476685 108.0
1395.638916 192.0
1396.085083 172.0
1396.189209 132.0
1396.694946 64.0
1397.401611 160.0
1397.989502 192.0
1399.046509 228.0
1399.418701 236.0
1399.776123 280.0
1400.208008 148.0
1400.431519 160.0
1400.83374 132.0
1400.982788 128.0
1401.742676 160.0
1402.428345 176.0
1403.583984 44.0
1404.001587 188.0
1404.135742 148.0
1404.232788 124.0
1404.486328 76.0
1404.642944 128.0
1405.113037 144.0
1405.896484 56.0
1406.053223 104.0
1406.635376 156.0
1406.971313 168.0
1407.172241 164.0
1407.531372 128.0
1407.718018 40.0
1407.800171 156.0
1408.352783 164.0
1409.159668 200.0
1409.241821 144.0
1409.40625 200.0
1409.869507 212.0
1410.101196 180.0
1410.474976 164.0
1410.744019 112.0
1411.373047 176.0
1411.626343 140.0
1412.434082 156.0
1412.96521 92.0
1413.025024 132.0
1413.451538 172.0
1413.878174 84.0
1414.695068 196.0
1415.487671 184.0
1415.734741 132.0
1416.341431 204.0
1416.745972 160.0
1417.008179 176.0
1417.519165 296.0
1418.162231 128.0
1418.731934 76.0
1418.964355 188.0
1419.526733 156.0
1419.654175 104.0
1419.984131 216.0
1420.531738 148.0
1421.31958 36.0
1421.687256 220.0
1421.747314 116.0
1421.912354 164.0
1423.466431 180.0
1423.759277 176.0
1424.09729 164.0
1424.164795 40.0
1424.390137 68.0
1424.465332 164.0
1424.585449 212.0
1424.810913 128.0
1424.953491 148.0
1425.201538 132.0
1425.259766 172.0
1425.765137 176.0
1426.419067 156.0
1427.752319 260.0
1428.283936 168.0
1428.457031 132.0
1428.524658 140.0
1428.930542 152.0
1429.59314 148.0
1430.511353 72.0
1432.81958 200.0
1433.192505 140.0
1433.856934 176.0
1434.345703 152.0
1434.865845 112.0
1435.227783 164.0
1435.853638 292.0
1436.072388 160.0
1436.434448 200.0
1436.827515 180.0
1437.520874 192.0
1437.664307 40.0
1438.019043 164.0
1438.17749 104.0
1438.351074 48.0
1438.592651 180.0
1439.385498 160.0
1439.717773 184.0
1440.752563 208.0
1441.568604 152.0
1442.044678 152.0
1442.362183 216.0
1442.558716 152.0
1443.904663 192.0
1445.205811 188.0
1445.266357 200.0
1445.886841 36.0
1446.02124 220.0
1446.409058 240.0
1446.795166 140.0
1446.911987 212.0
1447.057129 196.0
1447.711426 52.0
1448.491455 192.0
1448.961182 160.0
1449.12793 196.0
1449.665894 180.0
1449.953857 152.0
1450.135742 160.0
1450.704224 120.0
1451.265259 208.0
1451.454834 176.0
1452.182861 240.0
1452.607666 168.0
1452.729126 136.0
1452.895996 144.0
1453.67749 172.0
1453.806519 168.0
1454.284668 168.0
1454.778076 188.0
1455.05896 108.0
1455.49939 144.0
1455.863892 152.0
1455.962524 228.0
1456.173218 168.0
1456.600586 160.0
1456.813232 164.0
1457.816284 88.0
1457.930176 68.0
1457.983398 144.0
1458.218994 156.0
1458.371094 96.0
1458.933594 32.0
1459.146484 188.0
1460.411987 204.0
1460.58374 124.0
1460.872803 144.0
1460.968506 160.0
1461.260864 36.0
1462.067383 80.0
1462.661133 152.0
1462.714355 144.0
1462.950317 144.0
1463.254883 192.0
1463.726929 108.0
1464.572388 160.0
1464.762817 176.0
1464.983643 252.0
1465.113159 156.0
1465.357056 112.0
1465.425537 104.0
1465.599854 184.0
1467.087036 60.0
1467.16333 128.0
1467.277588 184.0
1467.948608 188.0
1468.52063 132.0
1468.726562 80.0
1468.963013 56.0
1469.191895 92.0
1469.619141 188.0
1469.741211 164.0
1470.069336 148.0
1470.176147 132.0
1470.725708 192.0
1470.802002 128.0
1471.11499 188.0
1471.596069 44.0
1472.092407 196.0
1472.405518 140.0
1472.581177 200.0
1473.069946 164.0
1473.199829 200.0
1474.32312 152.0
1474.50647 156.0
1475.209717 148.0
1475.301392 120.0
1475.683716 180.0
1477.182739 164.0
1477.328003 132.0
1477.542236 180.0
1477.871216 176.0
1478.223267 152.0
1478.582886 160.0
1479.317749 136.0
1479.653198 136.0
1480.94104 188.0
1481.339478 132.0
1482.710938 140.0
1482.810547 124.0
1482.887207 172.0
1482.948608 64.0
1483.032837 56.0
1483.176392 176.0
1483.301147 148.0
1483.4646 164.0
1483.991089 76.0
1484.474243 140.0
1484.796265 172.0
1484.903687 164.0
1485.087769 52.0
1485.647705 120.0
1485.946899 212.0
1486.092773 120.0
1487.435791 132.0
1487.635376 48.0
1488.011597 80.0
1488.103638 140.0
1488.410767 216.0
1489.263306 120.0
1489.424561 144.0
1489.693481 64.0
1489.96228 40.0
1490.308105 200.0
1491.161133 96.0
1491.460815 112.0
1492.460327 156.0
1492.5448 176.0
1492.706299 176.0
1492.950073 200.0
1493.183105 128.0
1494.106201 80.0
1494.252441 152.0
1494.460083 196.0
1494.521729 212.0
1495.052612 140.0
1495.451782 148.0
1495.547607 152.0
1495.876221 100.0
1496.130249 168.0
1496.499878 144.0
1496.569092 180.0
1497.254517 128.0
1497.513428 352.0
1498.186523 180.0
1498.417603 240.0
1498.594849 172.0
1498.679565 324.0
1499.465698 180.0
1499.719971 156.0
1500.683594 180.0
1501.662964 184.0
1501.794189 196.0
1502.673584 140.0
1502.959106 124.0
1503.849854 176.0
1504.070435 172.0
1504.410034 132.0
1504.842407 148.0
1505.120361 128.0
1505.213013 100.0
