>compound MLS001075865-01!N-[2-[7-methoxy-6-[(Z)-(2,4,6-trioxo-1-prop-2-enyl-1,3-diazinan-5-ylidene)methyl]-1,3-benzodioxol-5-yl]ethyl]-N-methylbenzamide
>formula C26H25N3O7
>ionization [M+H]+
>parentmass 492.177
#inchi InChI=1S/C26H25N3O7/c1-4-11-29-25(32)19(23(30)27-26(29)33)14-18-17(13-20-22(21(18)34-3)36-15-35-20)10-12-28(2)24(31)16-8-6-5-7-9-16/h4-9,13-14H,1,10-12,15H2,2-3H3,(H,27,30,33)/b19-14-
#inchikey OPWCHZIQXUKNMP
#Ion_Source LC-ESI
#Instrument qTof
#Compound_Source NIH Natural Product Library
#PI Dorrestein
#Data_Collector VVP/LMS
#Scan -1
#Precursor_MZ 492.177
#ExactMass 491.169
#Charge 1
#CAS_Number N/A
#Pubmed_ID N/A
#Smiles COc1c2OCOc2cc(CCN(C)C(=O)c3ccccc3)c1/C=C\4/C(=O)NC(=O)N(CC=C)C4=O
#INCHI_AUX N/A
#Library_Class 1
#SpectrumID CCMSLIB00000079353
#IonMode Positive
#UpdateWorkflowName UPDATE-SINGLE-ANNOTATED-GOLD
#LibraryQualityString Gold
#TaskID b1d8e8f6646f4e71acdff9ca3d919d08
##Scan# 2096
#SpectrumFile p1-A05_GA5_01_17878.mzXML
#LibraryName NIH_Natural_Products_Library.mgf
#MQScore -1
#Organism NIH_Natural_Products_Library
#TIC_Query 0
#RT_Query -1
#MZErrorPPM -1
#SharedPeaks 0
#MassDiff 0
#LibMZ -1
#SpecMZ 492.177
#SpecCharge 0
#internalFilename spec-00000.mgf

>collision 10
95.127747 140.0
95.356941 196.0
95.833687 184.0
96.141777 128.0
96.706573 200.0
96.784874 208.0
97.069794 196.0
97.127831 140.0
97.147446 152.0
98.024307 372.0
98.170174 80.0
98.381287 128.0
98.564957 160.0
98.675644 164.0
98.946678 144.0
99.271614 168.0
99.31723 160.0
99.730209 56.0
99.746117 64.0
99.847511 188.0
99.996719 132.0
100.522827 112.0
100.832352 148.0
101.186401 188.0
101.362656 136.0
101.82605 144.0
101.912422 148.0
102.04306 180.0
102.216034 212.0
102.443535 160.0
102.94574 72.0
102.980072 204.0
103.054893 352.0
104.108101 136.0
104.490219 176.0
104.720238 140.0
104.860817 96.0
104.897217 172.0
104.903671 148.0
104.928291 156.0
104.944389 160.0
104.970894 228.0
105.002182 140.0
105.033981 32372.0
105.074913 144.0
105.148376 164.0
105.179527 76.0
105.2052 100.0
105.281067 120.0
105.32019 232.0
105.359924 132.0
105.381157 124.0
105.444504 84.0
105.516045 28.0
105.532394 32.0
105.56102 64.0
105.688026 44.0
105.728767 40.0
105.757416 56.0
105.771744 128.0
105.849541 88.0
105.921219 60.0
106.037178 2964.0
106.061661 332.0
106.1241 64.0
106.308701 40.0
106.373985 84.0
106.474983 124.0
106.738014 56.0
106.76886 164.0
106.789429 32.0
106.84156 104.0
106.873123 64.0
106.945793 92.0
107.003426 44.0
107.026077 60.0
107.055824 188.0
107.493973 60.0
107.85125 128.0
108.521957 116.0
108.606979 208.0
108.808266 84.0
108.859428 224.0
109.20723 44.0
109.88839 120.0
110.024048 384.0
110.672157 96.0
110.818764 104.0
110.852287 112.0
111.194107 60.0
111.288574 144.0
111.401978 156.0
111.662605 188.0
112.37458 180.0
112.439995 140.0
113.635536 64.0
115.055634 540.0
116.272949 164.0
116.322311 80.0
117.065453 268.0
118.072044 192.0
118.17997 156.0
118.513397 132.0
118.77137 196.0
119.546967 172.0
119.77774 132.0
119.823486 188.0
120.080704 248.0
120.143959 164.0
120.325996 48.0
120.567535 100.0
121.064125 116.0
121.467384 120.0
121.559532 168.0
123.462807 192.0
123.500404 60.0
124.293488 28.0
124.535461 132.0
124.673203 268.0
125.873863 148.0
127.048874 172.0
127.228401 84.0
127.830742 164.0
128.569885 200.0
129.032867 188.0
129.829926 112.0
129.879822 120.0
130.043182 120.0
130.074966 204.0
130.231628 164.0
130.99588 224.0
131.049179 320.0
131.246567 160.0
131.372009 32.0
131.979492 88.0
132.02066 160.0
132.336426 136.0
133.031052 88.0
133.064163 168.0
133.265305 160.0
133.709091 152.0
134.252762 240.0
134.338104 188.0
135.403625 124.0
136.075974 160.0
137.078537 128.0
137.416626 252.0
137.463287 320.0
138.059158 368.0
139.054611 284.0
139.122681 92.0
139.536133 136.0
139.799576 160.0
140.049118 116.0
140.138641 188.0
141.016449 152.0
141.591354 140.0
141.61467 132.0
141.759537 92.0
141.998978 188.0
143.0522 160.0
143.52803 192.0
143.652039 220.0
143.747467 104.0
143.819061 156.0
144.022018 272.0
144.284866 192.0
145.031708 212.0
145.064758 176.0
145.206375 136.0
145.55896 144.0
145.811722 120.0
146.059799 312.0
147.039963 128.0
147.06424 128.0
148.076599 172.0
149.083893 96.0
149.828415 76.0
151.039185 136.0
151.257935 228.0
151.398941 212.0
151.634125 180.0
151.680695 140.0
152.456253 120.0
152.8423 100.0
153.030212 208.0
153.601089 212.0
154.149155 188.0
155.04744 184.0
155.087097 212.0
155.446686 244.0
156.0448 184.0
156.077606 124.0
157.942978 204.0
158.036087 204.0
159.044281 432.0
159.068039 156.0
160.047424 328.0
160.074127 1052.0
160.33313 144.0
160.466721 176.0
161.054352 176.0
162.031113 176.0
162.09111 532.0
163.095581 172.0
163.603073 76.0
163.661621 188.0
164.051422 236.0
164.970383 80.0
165.054916 856.0
165.090561 176.0
165.205658 52.0
165.707413 152.0
165.832977 188.0
166.062683 316.0
166.749207 180.0
167.04747 224.0
167.091202 128.0
167.42067 116.0
167.559753 124.0
167.637054 92.0
167.820053 64.0
168.0625 88.0
168.088303 136.0
169.099319 204.0
170.042084 148.0
170.060211 152.0
170.462784 220.0
171.041229 292.0
171.076569 180.0
171.986282 92.0
172.041016 148.0
172.046234 144.0
172.108963 176.0
173.000473 120.0
173.063751 568.0
173.154953 44.0
174.029968 236.0
174.430084 140.0
175.032944 184.0
175.443542 44.0
175.514725 132.0
176.039825 136.0
176.076797 236.0
176.227356 168.0
177.050095 340.0
178.052429 152.0
178.073669 136.0
178.530777 200.0
179.028397 84.0
179.052368 196.0
179.081665 72.0
179.417404 140.0
179.556061 84.0
180.405121 224.0
181.061371 1508.0
181.106186 128.0
181.205292 76.0
181.312469 52.0
181.492065 128.0
182.065506 368.0
182.098541 160.0
183.069366 152.0
183.646088 132.0
184.044525 136.0
184.67511 212.0
185.062073 208.0
186.092346 36.0
187.035645 52.0
187.158142 160.0
187.743988 168.0
188.049423 644.0
188.437286 160.0
188.732468 136.0
188.811768 152.0
189.016937 52.0
189.053864 4728.0
189.315292 52.0
190.056793 796.0
190.083527 148.0
190.346344 80.0
190.384781 72.0
191.068069 328.0
191.093948 124.0
191.145554 124.0
191.526123 132.0
192.072922 148.0
192.554871 80.0
192.825623 148.0
193.035721 136.0
193.059418 324.0
195.081009 176.0
195.657654 96.0
196.0448 100.0
196.094971 96.0
196.173019 80.0
197.090118 148.0
197.110748 216.0
198.073456 140.0
199.009781 100.0
199.036789 136.0
199.062347 188.0
199.310303 76.0
199.360886 120.0
199.746063 240.0
200.027435 104.0
200.073471 148.0
200.579529 184.0
200.844574 204.0
201.058228 324.0
201.183182 56.0
202.049225 52.0
202.07338 180.0
202.846481 144.0
203.071548 1116.0
204.044373 192.0
204.068359 316.0
204.767181 136.0
204.995087 56.0
205.045319 224.0
205.0737 1952.0
205.204102 60.0
205.314362 184.0
205.43985 84.0
205.827988 88.0
205.99649 140.0
206.082016 712.0
206.416611 48.0
207.087708 1088.0
207.203705 64.0
207.940628 84.0
208.055435 52.0
208.100388 680.0
208.184631 140.0
208.276535 56.0
208.632858 68.0
208.95903 132.0
209.000977 100.0
209.088806 148.0
209.441437 168.0
209.501923 68.0
211.07518 176.0
211.922897 136.0
212.034958 328.0
212.537582 192.0
213.054138 696.0
213.095032 228.0
213.240311 180.0
214.025528 392.0
214.029221 508.0
214.053207 184.0
214.089798 172.0
214.357788 76.0
215.029358 124.0
215.050125 228.0
215.454819 212.0
216.042038 296.0
216.072815 152.0
216.105164 160.0
216.838821 116.0
217.048752 344.0
217.070389 356.0
217.140793 180.0
218.047958 100.0
218.082123 552.0
218.833344 48.0
218.951126 128.0
219.085556 572.0
219.446152 156.0
219.516922 60.0
219.581802 180.0
219.752884 20.0
219.986023 104.0
220.021454 212.0
220.097961 4572.0
220.331528 120.0
220.378799 36.0
220.554367 68.0
220.925735 84.0
221.098877 1540.0
221.632828 148.0
222.080933 164.0
222.10611 152.0
222.463699 68.0
222.615112 152.0
223.763687 48.0
224.03125 144.0
224.074677 156.0
224.618073 132.0
225.044815 108.0
225.088837 300.0
225.513809 108.0
226.054001 208.0
226.086975 380.0
226.324478 216.0
226.95369 168.0
227.03331 460.0
227.875092 140.0
228.064499 380.0
228.380112 60.0
228.494415 92.0
228.909775 184.0
228.96698 124.0
229.006134 112.0
229.049576 1996.0
229.10553 136.0
229.844177 128.0
230.053085 448.0
230.423874 52.0
230.614243 56.0
230.934723 76.0
231.016861 156.0
231.064835 3348.0
231.319 32.0
231.343216 48.0
231.449173 64.0
231.776291 116.0
231.967224 72.0
232.066895 632.0
232.143066 68.0
232.221909 60.0
232.337173 68.0
232.409988 56.0
232.910889 72.0
233.014175 52.0
233.038467 140.0
233.059738 196.0
233.467056 52.0
234.054337 156.0
234.075653 188.0
234.230972 196.0
234.919876 44.0
236.065186 108.0
237.053909 156.0
237.091599 324.0
238.063126 176.0
239.072815 172.0
240.084915 204.0
240.908997 188.0
241.037277 144.0
241.085098 128.0
241.638565 48.0
242.018936 144.0
242.043198 1184.0
242.369247 112.0
242.669891 72.0
243.021027 180.0
243.0513 152.0
243.108704 104.0
243.731369 204.0
244.056061 148.0
245.061081 204.0
246.077362 264.0
246.10788 108.0
247.061493 1268.0
247.893906 80.0
248.025543 100.0
248.061279 228.0
248.517334 168.0
248.803467 88.0
249.067871 180.0
249.534821 96.0
250.070221 68.0
250.120575 48.0
251.068909 100.0
252.066422 180.0
253.065903 132.0
254.045166 140.0
254.086487 152.0
254.127655 188.0
255.047836 380.0
255.100494 592.0
255.16301 180.0
256.063446 584.0
256.091919 200.0
256.656219 120.0
256.965576 148.0
257.047699 724.0
257.099609 92.0
257.961945 112.0
258.057678 188.0
258.112793 128.0
259.053131 156.0
259.085144 96.0
259.290222 76.0
259.652496 52.0
260.024628 116.0
260.054047 372.0
260.094116 192.0
260.143402 180.0
261.104065 176.0
261.126587 56.0
261.631775 144.0
263.075958 228.0
265.086975 132.0
265.33075 60.0
266.080139 248.0
267.107208 128.0
268.022003 128.0
268.065247 156.0
268.83374 176.0
269.049164 100.0
269.084106 248.0
269.731873 96.0
270.041382 144.0
270.078461 160.0
270.258392 64.0
271.008148 136.0
271.038391 176.0
271.044708 184.0
271.091248 256.0
272.057709 160.0
272.090454 248.0
273.063995 220.0
274.071899 392.0
275.59137 128.0
276.064056 160.0
276.087189 84.0
276.143433 208.0
277.305511 124.0
279.074799 76.0
281.086365 192.0
281.17334 76.0
281.580627 116.0
282.085175 168.0
282.964966 92.0
283.096497 276.0
283.31662 116.0
283.795868 80.0
284.054077 132.0
284.092163 136.0
285.010864 88.0
285.052277 184.0
285.095306 152.0
285.360413 60.0
285.383942 88.0
286.098145 316.0
287.050629 140.0
287.080994 152.0
287.367676 80.0
288.049622 120.0
288.073242 292.0
288.103668 176.0
289.086243 136.0
290.11377 152.0
290.591949 56.0
293.079651 148.0
294.083282 180.0
294.110596 132.0
295.108093 84.0
296.090149 188.0
296.15863 156.0
299.111115 148.0
300.048462 156.0
301.055969 104.0
301.121582 300.0
301.740112 96.0
306.077057 124.0
307.084137 164.0
307.785553 192.0
309.11731 128.0
310.104858 176.0
311.065918 64.0
311.093994 116.0
311.712128 68.0
311.786255 212.0
311.930023 160.0
312.121948 2620.0
312.232391 64.0
312.922058 44.0
313.02063 96.0
313.065979 132.0
313.125977 736.0
313.362305 60.0
314.060272 132.0
314.103424 428.0
315.103577 128.0
315.140472 136.0
315.762604 56.0
315.801483 208.0
316.066376 456.0
317.070251 320.0
317.398621 88.0
321.018433 64.0
321.171783 176.0
323.576691 192.0
324.092377 244.0
324.123322 368.0
324.235748 72.0
324.311035 40.0
324.741272 76.0
324.927795 56.0
325.081299 992.0
325.135895 376.0
325.387146 124.0
325.415894 48.0
325.979797 40.0
326.085297 352.0
326.130737 52.0
326.554993 148.0
326.623322 28.0
327.101685 564.0
327.118713 200.0
327.131622 424.0
328.098175 208.0
329.101227 160.0
329.648071 44.0
330.110779 140.0
332.1026 112.0
335.079712 148.0
335.611816 76.0
337.181458 108.0
339.051514 108.0
339.087372 256.0
340.100433 132.0
341.110535 116.0
342.092651 128.0
345.994629 156.0
347.298981 132.0
347.822144 56.0
348.026306 76.0
349.074127 140.0
352.085114 96.0
353.932343 120.0
354.108368 140.0
356.516846 64.0
357.107452 1980.0
357.961334 104.0
358.113525 392.0
358.356812 72.0
359.112732 172.0
359.978699 60.0
360.11557 196.0
360.280853 44.0
361.105774 184.0
363.096924 152.0
366.129578 164.0
370.139557 260.0
371.14682 176.0
373.181763 96.0
374.131989 60.0
376.101746 136.0
386.139343 212.0
395.564819 136.0
397.114044 128.0
402.087097 160.0
405.069794 104.0
411.899872 108.0
415.136505 148.0
417.167633 56.0
422.767517 72.0
423.086761 132.0
435.473663 36.0
443.143463 192.0
444.906342 76.0
448.10672 52.0
456.151489 72.0
460.147339 160.0
461.130981 128.0
462.130402 108.0
465.937469 36.0
474.170624 124.0
474.534454 36.0
475.171997 120.0
490.274963 128.0
492.186035 232.0
493.1745 108.0
495.329315 104.0
498.408112 72.0
535.922852 92.0
543.644836 116.0
556.828491 76.0
567.50238 68.0
627.770935 36.0
681.611633 236.0
714.888672 76.0
730.011353 144.0
746.85791 20.0
800.948242 44.0
855.328003 152.0
885.857178 148.0
896.352112 20.0
902.993286 232.0
911.313477 176.0
926.023071 188.0
932.736633 208.0
945.661072 112.0
951.109802 92.0
954.107483 20.0
959.617432 72.0
975.83844 156.0
982.003174 196.0
988.105957 140.0
991.042236 228.0
994.987122 196.0
1002.163086 84.0
1005.56189 64.0
1013.941528 172.0
1016.985779 220.0
1031.565674 220.0
1049.199829 108.0
1049.251465 120.0
1053.904785 68.0
1077.188354 96.0
1077.541138 180.0
1087.684692 208.0
1089.891235 148.0
1101.221802 268.0
1101.525635 148.0
1107.617554 128.0
1108.425781 180.0
1110.872192 172.0
1114.071777 192.0
1117.22937 184.0
1118.087769 184.0
1118.493774 100.0
1120.251587 172.0
1130.393066 140.0
1132.414795 160.0
1144.407959 156.0
1152.244751 96.0
1157.425537 196.0
1159.857544 212.0
1160.216797 168.0
1160.813477 200.0
1163.32373 212.0
1171.994751 116.0
1177.574829 116.0
1178.326172 172.0
1178.92749 156.0
1185.044556 124.0
1185.222778 192.0
1191.665283 36.0
1192.833496 160.0
1193.404175 184.0
1193.713501 140.0
1197.74646 152.0
1207.291382 216.0
1207.415771 192.0
1208.446411 172.0
1208.515625 124.0
1213.037842 288.0
1218.6521 160.0
1218.7771 148.0
1223.548218 180.0
1223.896362 184.0
1224.146973 168.0
1225.024536 48.0
1231.329834 224.0
1232.964478 168.0
1237.553223 188.0
1237.917236 148.0
1239.675537 148.0
1240.096069 88.0
1240.180054 120.0
1240.320312 56.0
1246.18689 232.0
1246.594482 168.0
1248.31665 216.0
1249.216919 116.0
1253.856812 208.0
1263.537354 64.0
1263.749634 156.0
1264.018555 136.0
1267.162109 180.0
1269.486938 164.0
1275.94812 160.0
1280.657715 132.0
1282.069336 148.0
1282.824829 176.0
1283.459351 144.0
1284.172485 104.0
1285.370972 188.0
1286.869751 184.0
1290.377686 256.0
1290.828125 200.0
1292.738037 124.0
1296.64209 116.0
1296.898926 176.0
1297.723267 184.0
1300.635742 28.0
1302.725342 60.0
1307.053345 104.0
1308.615112 200.0
1308.679932 188.0
1309.911377 208.0
1312.830322 52.0
1319.046509 184.0
1319.733276 168.0
1322.865845 212.0
1323.647705 148.0
1324.857178 112.0
1329.352417 200.0
1329.678955 128.0
1331.291992 208.0
1333.775269 136.0
1336.211304 232.0
1338.838867 124.0
1339.226074 124.0
1341.418091 172.0
1342.271118 36.0
1342.621094 172.0
1342.759644 104.0
1343.810059 168.0
1344.320801 156.0
1345.758667 104.0
1357.473145 176.0
1359.703247 196.0
1360.092163 76.0
1361.281494 184.0
1365.131958 116.0
1366.720825 116.0
1367.47876 44.0
1369.577148 172.0
1369.908569 152.0
1370.070679 72.0
1372.672363 152.0
1381.660767 144.0
1387.792969 228.0
1390.37439 140.0
1391.866455 244.0
1394.436646 160.0
1395.209717 160.0
1402.191528 172.0
1403.175415 120.0
1404.189575 188.0
1406.748779 164.0
1409.362671 212.0
1412.164673 196.0
1412.532349 44.0
1414.717407 200.0
1416.941528 160.0
1417.705811 144.0
1420.36731 120.0
1422.989136 52.0
1424.338013 124.0
1425.352173 112.0
1429.104004 116.0
1429.171753 260.0
1431.13623 188.0
1434.2323 176.0
1435.574341 180.0
1439.264038 168.0
1440.381836 128.0
1442.52771 168.0
1443.056885 132.0
1443.155151 184.0
1443.707153 120.0
1444.584473 188.0
1446.059937 172.0
1446.286987 152.0
1446.620117 172.0
1455.96106 200.0
1457.974121 260.0
1460.88623 80.0
1461.700195 108.0
1461.859985 132.0
1465.377686 204.0
1466.848511 220.0
1469.944824 116.0
1471.066772 104.0
1479.276489 132.0
1479.444946 116.0
1492.256592 148.0
1493.010132 72.0
1493.694702 104.0
1495.071777 156.0
1497.234985 168.0
