>compound MLS001159055-01!1-[2-[(3-methyl-6-oxo-7,8,9,10-tetrahydrobenzo[c]chromen-1-yl)oxy]acetyl]piperidine-4-carboxylic acid
>formula C22H25NO6
>ionization [M+H]+
>parentmass 400.176361
#inchi InChI=1S/C22H25NO6/c1-13-10-17(28-12-19(24)23-8-6-14(7-9-23)21(25)26)20-15-4-2-3-5-16(15)22(27)29-18(20)11-13/h10-11,14H,2-9,12H2,1H3,(H,25,26)
#inchikey BBYMKSSAUUNUNH
#Ion_Source LC-ESI
#Instrument qTof
#Compound_Source NIH Natural Product Library
#PI Dorrestein
#Data_Collector VVP/LMS
#Scan -1
#Precursor_MZ 400.176
#ExactMass 399.168
#Charge 1
#CAS_Number N/A
#Pubmed_ID N/A
#Smiles Cc1cc(OCC(=O)N2CCC(CC2)C(=O)O)c3c4CCCCc4c(=O)oc3c1
#INCHI_AUX N/A
#Library_Class 1
#SpectrumID CCMSLIB00000080168
#IonMode Positive
#UpdateWorkflowName UPDATE-SINGLE-ANNOTATED-GOLD
#LibraryQualityString Gold
#TaskID b1d8e8f6646f4e71acdff9ca3d919d08
##Scan# 2008
#SpectrumFile p2-A05_GA5_01_17982.mzXML
#LibraryName NIH_Natural_Products_Library.mgf
#MQScore -1
#Organism NIH_Natural_Products_Library
#TIC_Query 0
#RT_Query -1
#MZErrorPPM -1
#SharedPeaks 0
#MassDiff 0
#LibMZ -1
#SpecMZ 400.176
#SpecCharge 0
#internalFilename spec-00000.mgf

>collision 10
95.051758 176.0
95.055992 88.0
95.065575 148.0
95.173073 172.0
95.382896 132.0
95.69416 152.0
95.887016 188.0
95.931847 148.0
96.079689 592.0
96.204964 184.0
96.40419 196.0
96.421776 184.0
96.650581 132.0
96.750397 168.0
96.818932 72.0
96.854187 136.0
97.052124 60.0
97.091347 260.0
97.456467 56.0
97.503632 132.0
97.597992 132.0
97.644386 216.0
97.662888 132.0
97.69043 176.0
97.758919 192.0
97.87149 80.0
98.054398 180.0
98.212433 100.0
98.479828 180.0
98.665848 212.0
98.789238 188.0
98.86245 112.0
98.89016 240.0
99.00499 192.0
99.042953 736.0
99.062431 184.0
99.092148 56.0
99.193214 68.0
99.248726 180.0
99.359802 180.0
99.504684 80.0
99.621857 200.0
99.731148 84.0
99.751022 140.0
99.836517 116.0
100.0485 152.0
100.185616 156.0
100.304413 176.0
100.398125 104.0
100.63559 152.0
100.787392 112.0
100.817368 152.0
100.863335 176.0
100.887321 176.0
101.249496 196.0
101.267517 192.0
101.666489 148.0
101.825096 140.0
101.911476 152.0
101.959702 96.0
102.086357 112.0
102.116524 160.0
102.277489 256.0
102.563522 180.0
102.619965 180.0
102.720802 156.0
102.845909 172.0
103.332932 196.0
103.430077 208.0
104.04837 108.0
104.552475 152.0
104.593185 260.0
104.666473 120.0
104.687912 160.0
104.70517 156.0
105.07103 132.0
105.170036 140.0
105.216988 144.0
105.241486 60.0
105.464165 68.0
105.484604 160.0
105.72596 160.0
105.832405 180.0
106.065567 148.0
106.371597 184.0
106.437294 208.0
106.479179 172.0
106.761978 104.0
106.871002 120.0
106.889526 164.0
106.959496 68.0
107.021263 172.0
107.060013 388.0
107.111877 240.0
107.303535 160.0
107.332397 136.0
107.941559 188.0
108.063599 140.0
108.268524 172.0
108.732925 156.0
108.829552 164.0
108.9011 120.0
109.059013 164.0
109.080856 292.0
109.105507 208.0
109.185837 56.0
109.40432 204.0
109.468872 56.0
109.7752 156.0
109.98175 144.0
110.000778 104.0
110.036026 196.0
110.059814 132.0
110.094154 172.0
110.198936 148.0
110.219833 144.0
110.474907 216.0
110.700958 188.0
111.000618 132.0
111.049622 192.0
111.229301 76.0
111.968781 184.0
112.049469 164.0
112.075462 1372.0
112.125328 136.0
112.367828 112.0
112.481789 116.0
112.526115 120.0
112.581017 120.0
112.728897 156.0
113.016479 132.0
113.07972 180.0
113.27684 192.0
113.325615 116.0
113.44854 172.0
113.512146 116.0
113.609711 172.0
113.652145 140.0
113.700951 40.0
113.819717 216.0
113.928154 84.0
114.028023 236.0
114.05381 1452.0
114.090752 164.0
114.119431 132.0
114.376846 76.0
114.834961 164.0
114.864822 140.0
114.988579 136.0
115.050583 168.0
115.383759 156.0
115.507797 80.0
115.73465 228.0
115.835312 116.0
116.053909 196.0
116.397232 176.0
116.599167 184.0
116.702347 128.0
116.764709 40.0
116.969116 216.0
117.070312 284.0
117.100464 64.0
117.356911 128.0
117.41082 136.0
117.464737 76.0
117.548882 112.0
117.788536 176.0
118.008972 196.0
118.065193 156.0
118.17984 256.0
118.860931 172.0
118.901459 124.0
119.053001 204.0
119.092522 56.0
119.49469 160.0
119.734138 132.0
120.054497 200.0
120.349091 136.0
120.598129 144.0
120.845245 124.0
120.867126 136.0
121.000641 132.0
121.075775 3696.0
121.118896 92.0
121.206535 88.0
121.254745 256.0
121.335846 136.0
121.478401 176.0
121.768135 176.0
121.866989 164.0
122.003258 112.0
122.064636 216.0
122.095612 216.0
122.146194 128.0
122.317833 160.0
122.644081 184.0
122.663681 172.0
122.978859 144.0
123.040871 188.0
123.241905 116.0
123.261787 224.0
123.467384 108.0
123.575775 136.0
123.74398 124.0
123.783836 112.0
124.009193 128.0
124.047493 276.0
124.077881 732.0
124.167229 164.0
124.444618 156.0
124.655632 100.0
124.693413 124.0
125.022369 180.0
125.040375 164.0
125.083046 272.0
125.113831 112.0
125.269714 156.0
125.341309 148.0
125.403412 92.0
125.606316 136.0
125.735733 52.0
125.992516 204.0
126.030502 136.0
126.057312 172.0
126.090988 2208.0
126.155663 108.0
126.26075 224.0
126.457634 164.0
126.699478 168.0
126.845139 216.0
127.093742 184.0
127.19957 148.0
127.253448 124.0
127.424141 168.0
127.498299 140.0
127.783875 68.0
127.860382 128.0
127.979691 120.0
128.015717 180.0
128.03598 180.0
128.070465 12848.0
128.118027 100.0
128.145233 56.0
128.211716 104.0
128.25116 80.0
128.29512 64.0
128.315399 156.0
128.414627 136.0
128.520645 72.0
128.583832 72.0
128.610931 112.0
128.642532 156.0
128.778015 324.0
128.906784 124.0
129.071121 548.0
129.102142 72.0
129.137131 184.0
129.160004 108.0
129.352341 188.0
129.58049 92.0
129.76239 52.0
129.787338 152.0
129.807739 68.0
129.828156 244.0
129.898468 172.0
129.959213 124.0
130.085632 1476.0
130.118332 136.0
130.183609 140.0
130.279846 72.0
130.308838 168.0
130.563965 124.0
131.053391 164.0
131.083939 480.0
131.383987 148.0
131.534592 184.0
131.833801 32.0
131.898315 148.0
132.047592 248.0
132.087585 200.0
132.657791 152.0
132.821884 112.0
132.884827 188.0
133.020233 148.0
133.045532 208.0
133.067398 280.0
133.236099 136.0
133.592728 164.0
133.937729 144.0
133.981506 96.0
134.087494 184.0
134.21199 136.0
134.27655 152.0
134.408051 116.0
134.449585 132.0
134.518829 200.0
134.955475 104.0
135.008942 224.0
135.037003 176.0
135.541092 128.0
136.014297 224.0
136.05217 328.0
136.093155 144.0
136.327759 160.0
136.388184 136.0
136.448639 68.0
136.690536 144.0
136.709152 160.0
137.033813 140.0
137.059158 1472.0
137.247253 108.0
137.391861 72.0
137.627594 40.0
137.655609 116.0
137.699982 164.0
138.064484 208.0
138.130066 88.0
138.729553 224.0
138.856171 112.0
138.921844 76.0
139.288055 120.0
139.311539 104.0
139.459579 92.0
139.751602 96.0
139.774719 112.0
139.920654 192.0
139.996002 256.0
140.038635 192.0
140.069824 628.0
140.415497 220.0
140.542877 204.0
140.781296 164.0
140.892319 112.0
141.029373 64.0
141.048279 228.0
141.065979 148.0
141.242188 160.0
141.266937 320.0
141.400711 100.0
141.417282 168.0
141.701447 200.0
141.733261 156.0
141.784378 132.0
141.834152 132.0
141.933731 200.0
142.008835 156.0
142.049057 128.0
142.086166 12548.0
142.122696 204.0
142.230286 64.0
142.384048 168.0
142.407272 52.0
142.465378 36.0
142.5224 88.0
142.613235 232.0
142.705414 80.0
142.876663 64.0
143.090317 1052.0
143.15657 200.0
143.188492 148.0
143.315613 132.0
143.476807 72.0
143.617508 64.0
143.650909 180.0
143.669983 156.0
143.760391 140.0
143.839417 60.0
143.875229 184.0
143.954025 108.0
143.970734 56.0
144.0466 168.0
144.054703 128.0
144.059875 188.0
144.09256 508.0
144.264633 84.0
144.305603 116.0
144.465515 144.0
144.496613 132.0
144.743149 96.0
144.910812 128.0
144.946762 232.0
145.064087 1748.0
145.106506 172.0
145.143311 60.0
145.4384 56.0
145.489822 160.0
145.62088 96.0
145.678528 144.0
146.068237 380.0
146.10405 120.0
146.80014 52.0
146.937637 180.0
147.045258 712.0
147.338409 124.0
147.512405 224.0
147.863129 112.0
147.993851 188.0
148.037445 192.0
148.061234 192.0
148.11441 144.0
148.185196 144.0
148.306366 132.0
148.857086 176.0
148.976105 164.0
149.070801 4400.0
149.241013 64.0
149.313965 136.0
149.418564 156.0
149.450195 124.0
149.961609 68.0
150.034729 116.0
150.075256 620.0
150.102142 148.0
150.754791 72.0
151.044647 316.0
151.049408 176.0
151.074829 1132.0
151.077667 572.0
151.298676 140.0
151.344315 104.0
151.366348 36.0
151.420227 132.0
151.459412 76.0
151.638275 208.0
152.006149 124.0
152.061462 148.0
152.08075 340.0
152.131317 212.0
152.214798 132.0
152.322861 200.0
152.524353 116.0
152.551392 108.0
152.762878 60.0
152.797943 192.0
152.846527 132.0
152.876068 56.0
153.017838 4832.0
153.067902 636.0
153.117325 168.0
153.199615 108.0
153.240494 120.0
153.28978 184.0
153.800293 152.0
153.943497 92.0
154.020233 636.0
154.086273 284.0
154.420471 124.0
154.554062 80.0
154.70752 84.0
155.024551 160.0
155.064087 160.0
155.08432 696.0
155.191986 220.0
155.495758 152.0
155.602493 176.0
155.744049 148.0
155.766403 148.0
156.065933 384.0
156.093399 336.0
156.390533 212.0
156.512512 108.0
156.642029 148.0
157.098221 128.0
157.275391 120.0
158.073669 604.0
158.272888 144.0
158.297928 128.0
158.332993 112.0
158.378082 212.0
158.440704 136.0
158.651215 84.0
158.854355 156.0
158.942154 92.0
159.082108 664.0
159.113388 200.0
159.128799 180.0
159.313751 100.0
159.640503 56.0
159.995285 92.0
160.085114 304.0
160.123703 216.0
160.352966 212.0
161.026627 180.0
161.06102 1252.0
161.097351 120.0
161.339951 264.0
161.709274 72.0
162.061813 284.0
162.50499 204.0
162.570953 148.0
162.708023 176.0
162.86293 104.0
162.989227 224.0
163.038239 384.0
163.08403 628.0
163.160248 148.0
163.200928 64.0
163.445114 32.0
163.692032 132.0
164.090927 144.0
164.23233 132.0
164.30542 160.0
165.019424 516.0
165.056534 416.0
165.19278 304.0
165.247269 200.0
165.267593 84.0
165.330948 68.0
165.379578 108.0
165.438461 152.0
165.492218 60.0
166.022858 200.0
166.074905 200.0
166.230453 156.0
166.260178 48.0
166.810898 144.0
166.942032 52.0
167.037308 180.0
167.05777 172.0
167.082962 228.0
167.196716 72.0
167.474777 168.0
167.735031 196.0
167.972275 184.0
168.055069 164.0
168.090942 216.0
168.139984 88.0
168.375961 168.0
168.790985 128.0
168.946167 132.0
168.987564 44.0
169.065445 636.0
169.101166 672.0
169.316315 104.0
169.479523 36.0
169.816528 92.0
169.894348 136.0
170.031876 88.0
170.079391 2664.0
170.299301 64.0
170.416199 132.0
170.553925 48.0
170.876404 212.0
171.027466 164.0
171.048157 124.0
171.084274 812.0
171.114304 136.0
171.204376 232.0
171.237915 164.0
171.451874 76.0
171.483139 72.0
171.636948 164.0
171.756927 56.0
172.057022 204.0
172.086853 608.0
172.171921 228.0
172.289459 84.0
172.663254 196.0
172.932739 148.0
173.019119 112.0
173.060913 1204.0
173.09198 120.0
173.124481 168.0
173.194565 44.0
173.239105 168.0
173.301331 108.0
173.446121 44.0
173.773926 52.0
173.815903 112.0
174.067062 2412.0
174.126328 148.0
174.838165 244.0
175.040863 256.0
175.071808 328.0
175.110992 140.0
175.214706 92.0
175.34317 176.0
175.88475 184.0
176.044769 284.0
176.309753 156.0
176.341476 220.0
176.605881 64.0
176.809601 220.0
177.054184 1324.0
177.180313 172.0
177.405579 56.0
177.455948 72.0
177.593842 152.0
177.729141 96.0
178.065109 156.0
178.414383 224.0
178.486176 164.0
179.069656 316.0
179.460724 136.0
179.495377 108.0
179.591385 180.0
179.716782 188.0
180.023743 132.0
180.071823 100.0
180.72142 44.0
181.066269 200.0
181.098892 136.0
181.139069 168.0
181.664474 68.0
182.016083 140.0
182.072784 448.0
182.166473 156.0
182.241699 168.0
182.370697 136.0
182.905975 208.0
183.03064 236.0
183.081451 684.0
183.115997 32.0
183.202621 172.0
183.345001 140.0
183.72789 244.0
184.086258 848.0
184.135483 68.0
184.489456 28.0
184.724411 168.0
184.800476 36.0
184.908722 68.0
185.060791 232.0
185.095139 704.0
185.40976 220.0
185.908768 148.0
185.973907 108.0
186.033615 172.0
186.098068 324.0
186.272583 152.0
186.32692 196.0
186.66124 192.0
186.707474 168.0
187.075012 696.0
187.110703 808.0
187.67691 152.0
188.075699 136.0
188.114594 208.0
188.165298 104.0
188.771896 156.0
189.054016 696.0
189.090729 288.0
189.171356 168.0
189.283615 144.0
189.604126 128.0
189.9496 84.0
190.056534 160.0
190.405243 76.0
190.853165 152.0
191.075668 1452.0
191.246567 40.0
191.389725 96.0
191.476547 128.0
191.580673 168.0
191.632111 76.0
191.786438 68.0
192.051132 160.0
192.082977 360.0
192.763428 100.0
192.96167 116.0
193.015335 436.0
193.05368 120.0
193.092407 128.0
193.385681 128.0
193.573944 132.0
193.598862 180.0
194.092117 156.0
194.247437 112.0
194.2724 92.0
194.641541 144.0
194.941544 180.0
195.049942 76.0
195.074677 152.0
195.275162 56.0
195.868027 156.0
196.573395 144.0
196.877686 84.0
197.060974 316.0
197.097046 372.0
197.951538 224.0
198.074768 164.0
198.102783 120.0
199.031937 180.0
199.071915 140.0
199.109955 316.0
199.224915 48.0
199.411819 188.0
199.652161 136.0
200.047699 204.0
200.080154 564.0
200.119278 100.0
200.138992 188.0
200.243179 76.0
200.544662 40.0
200.589767 212.0
200.826614 112.0
200.863281 128.0
200.933807 252.0
201.056534 1000.0
201.090958 1676.0
201.232986 68.0
201.320526 172.0
201.419373 172.0
201.464569 48.0
201.61998 140.0
201.707596 96.0
201.832001 44.0
201.922485 132.0
201.979065 52.0
202.059555 524.0
202.098785 612.0
202.273346 72.0
202.338455 208.0
202.488541 196.0
202.692505 176.0
202.749176 136.0
203.070206 180.0
203.1017 132.0
203.202881 56.0
203.293686 160.0
203.540649 80.0
203.597443 128.0
203.674133 40.0
203.719574 68.0
203.915649 72.0
203.955429 284.0
204.037872 216.0
204.117493 112.0
204.259689 108.0
204.359268 200.0
204.419022 112.0
204.524323 36.0
204.54425 120.0
204.811905 64.0
206.075699 164.0
207.051163 108.0
207.074066 184.0
207.171463 172.0
207.306122 104.0
207.647293 100.0
207.805054 136.0
208.385025 148.0
208.885254 104.0
209.081619 1108.0
209.449448 124.0
209.489777 72.0
209.72319 148.0
210.043259 156.0
210.082718 336.0
210.886398 144.0
211.079147 916.0
211.731216 168.0
212.080368 652.0
212.310837 176.0
212.415253 104.0
212.464569 168.0
212.560318 160.0
212.682205 160.0
212.795425 152.0
212.89415 228.0
213.058563 320.0
213.089981 1212.0
213.309647 48.0
213.559708 164.0
214.051544 144.0
214.088959 440.0
214.232132 104.0
214.315323 72.0
214.363235 148.0
214.523544 204.0
214.555618 92.0
214.608093 88.0
214.654739 172.0
214.715988 116.0
214.885178 264.0
214.92894 160.0
214.95813 148.0
214.990128 124.0
215.019409 156.0
215.07106 18884.0
215.107361 6824.0
215.165359 64.0
215.25296 68.0
215.289322 92.0
215.342972 68.0
215.365082 92.0
215.387299 84.0
215.413589 112.0
215.436737 140.0
215.492462 72.0
215.553833 76.0
215.629807 48.0
215.714584 52.0
215.826477 44.0
215.860764 112.0
215.932373 140.0
215.968979 136.0
216.074265 2560.0
216.110931 568.0
216.151093 192.0
216.381592 60.0
216.460648 60.0
216.529999 112.0
216.586578 160.0
216.794601 60.0
216.815125 80.0
216.847351 72.0
216.941162 72.0
217.079041 184.0
217.121887 132.0
217.164917 160.0
217.254944 84.0
217.316559 64.0
217.378799 188.0
217.445679 92.0
217.466217 52.0
217.571899 168.0
217.613327 144.0
217.753952 148.0
217.856766 108.0
217.983109 112.0
218.074127 144.0
218.894028 216.0
219.873749 152.0
221.079132 788.0
221.115036 228.0
221.17128 232.0
221.322266 64.0
221.532547 140.0
221.704391 76.0
222.083893 140.0
222.573563 184.0
223.129181 48.0
223.867111 44.0
224.17395 56.0
224.403473 116.0
225.089172 624.0
225.304794 140.0
225.648483 84.0
226.052292 132.0
226.090927 184.0
226.139084 64.0
227.07074 364.0
227.106873 152.0
227.689133 164.0
227.845337 160.0
227.983551 136.0
228.078445 900.0
228.112793 136.0
228.31424 104.0
228.365372 128.0
228.524811 92.0
228.783646 128.0
228.886017 116.0
228.907089 168.0
228.980865 120.0
229.009491 156.0
229.039291 168.0
229.085815 9376.0
229.174286 68.0
229.220367 76.0
229.286667 72.0
229.316803 44.0
229.35936 72.0
229.421249 132.0
229.455475 64.0
229.488632 56.0
229.522812 60.0
229.54895 84.0
229.57608 52.0
229.618301 64.0
229.901901 40.0
230.010559 60.0
230.055084 144.0
230.092896 6876.0
230.348755 108.0
230.548172 68.0
230.60257 132.0
230.653961 80.0
230.702316 36.0
230.744644 144.0
230.771866 72.0
230.862579 88.0
230.907944 72.0
231.010788 208.0
231.053436 192.0
231.100693 2956.0
231.143906 72.0
231.219559 56.0
231.246796 36.0
231.271011 76.0
231.331558 68.0
231.358795 60.0
231.452652 60.0
231.598022 52.0
231.646484 80.0
231.777527 80.0
231.804047 56.0
232.102585 404.0
232.459045 100.0
232.608475 188.0
232.627502 88.0
232.890152 144.0
233.016998 164.0
233.14537 56.0
233.209198 36.0
233.394638 80.0
233.759659 164.0
233.81749 160.0
234.289459 44.0
234.774094 64.0
235.085266 144.0
235.326416 204.0
235.592117 96.0
235.894653 52.0
237.03627 172.0
237.410263 112.0
237.750778 112.0
238.077148 156.0
238.792282 176.0
239.082901 332.0
241.08963 1052.0
241.577667 88.0
241.722946 92.0
241.766403 116.0
241.88092 56.0
242.091461 136.0
242.184372 64.0
242.367157 144.0
242.435333 52.0
242.475616 236.0
242.612015 140.0
242.668365 156.0
243.027603 184.0
243.102219 16860.0
243.167252 44.0
243.200363 144.0
243.241745 56.0
243.278992 100.0
243.381454 48.0
243.490143 80.0
243.542938 44.0
243.60817 160.0
243.642349 84.0
243.704483 132.0
243.78688 60.0
243.813248 124.0
244.052612 100.0
244.104721 2012.0
244.141113 156.0
244.17038 160.0
244.204987 168.0
244.316971 68.0
244.372971 56.0
244.432098 64.0
244.466324 64.0
244.516113 64.0
244.544128 84.0
244.677979 56.0
244.724686 64.0
244.855911 84.0
244.98941 44.0
245.112823 884.0
245.455719 76.0
245.640945 32.0
245.821899 80.0
245.865433 80.0
245.922668 168.0
246.268341 48.0
246.362061 44.0
247.234421 100.0
247.30954 88.0
247.400314 32.0
247.478592 96.0
247.995483 88.0
248.13028 220.0
248.287064 32.0
248.823639 36.0
248.999496 56.0
249.074875 400.0
249.121994 184.0
249.609161 36.0
249.863937 156.0
250.783447 160.0
251.075394 180.0
252.301804 140.0
253.084671 248.0
253.131348 112.0
254.088013 104.0
254.900848 72.0
255.06929 120.0
255.102554 216.0
256.476227 108.0
256.616486 96.0
257.066254 64.0
257.089569 392.0
261.134979 140.0
261.421326 176.0
261.505005 176.0
262.104004 132.0
262.14267 140.0
262.997314 44.0
265.368591 52.0
265.404266 152.0
266.884888 88.0
267.122314 112.0
270.394989 148.0
270.938568 160.0
271.032562 232.0
271.097778 5112.0
271.695862 44.0
271.777893 72.0
271.830383 68.0
271.955109 68.0
272.004333 68.0
272.099365 1096.0
272.43454 88.0
272.779572 88.0
273.102966 200.0
273.493378 92.0
273.802856 164.0
273.980743 80.0
275.092102 136.0
275.125122 248.0
275.197754 108.0
276.124268 160.0
277.135986 112.0
277.275177 104.0
277.742676 148.0
278.13089 124.0
279.084351 112.0
279.154175 140.0
279.363739 240.0
282.168457 80.0
283.088623 148.0
283.128815 152.0
285.992737 148.0
286.649445 220.0
288.123932 132.0
289.111267 164.0
289.341461 44.0
290.134216 196.0
290.5242 56.0
291.950806 88.0
294.134918 1808.0
295.139557 488.0
296.143341 184.0
296.865051 148.0
298.386169 60.0
299.094818 108.0
299.180878 140.0
301.083466 716.0
303.347107 84.0
304.110229 56.0
305.444489 136.0
306.129517 156.0
306.377441 76.0
307.064148 176.0
308.128815 172.0
311.112671 148.0
312.015533 68.0
312.119843 96.0
313.324768 44.0
315.106445 192.0
318.12381 132.0
319.314148 64.0
321.112762 176.0
321.562286 108.0
325.095764 152.0
326.178314 336.0
326.215851 140.0
326.574829 44.0
327.18396 188.0
327.244171 36.0
328.21701 152.0
329.35022 124.0
330.148987 76.0
330.485382 60.0
331.705872 52.0
334.119232 200.0
336.770966 60.0
337.13266 148.0
338.588715 64.0
340.102966 116.0
340.21048 68.0
340.664795 88.0
341.55069 108.0
342.073212 40.0
343.098419 924.0
344.095673 180.0
345.087311 108.0
346.779083 164.0
348.753662 48.0
348.790833 56.0
351.341705 52.0
354.170349 1456.0
355.175995 380.0
355.258606 132.0
355.513733 60.0
356.186768 172.0
356.52771 160.0
356.602875 140.0
357.146729 396.0
358.143494 308.0
358.488373 68.0
362.53952 108.0
372.182526 440.0
373.195068 192.0
374.182434 108.0
374.717804 52.0
381.151276 168.0
382.165283 572.0
383.170013 268.0
385.243317 152.0
387.661346 44.0
392.082489 156.0
392.642303 44.0
392.859253 36.0
395.475159 160.0
399.260162 116.0
400.115662 132.0
400.176361 4500.0
400.263 112.0
400.451324 68.0
400.804718 44.0
401.104034 120.0
401.184418 1700.0
401.8414 80.0
402.120728 120.0
402.189331 480.0
402.268433 56.0
402.891388 88.0
403.184814 140.0
403.255035 116.0
403.558838 116.0
403.710785 36.0
404.254852 68.0
404.338898 96.0
405.292175 72.0
406.478882 60.0
410.501526 108.0
419.677917 120.0
430.304779 60.0
438.372528 44.0
442.440765 72.0
463.719421 44.0
474.175476 96.0
505.128693 20.0
519.349487 76.0
562.83728 56.0
575.706238 200.0
587.171509 68.0
588.353699 60.0
594.369873 44.0
595.471863 104.0
598.530701 72.0
616.307068 40.0
620.221619 120.0
627.195374 80.0
628.202698 72.0
633.030823 44.0
635.868347 56.0
678.264099 116.0
678.476624 128.0
698.514526 56.0
718.150452 60.0
795.464783 52.0
808.354553 148.0
813.103516 20.0
875.894104 44.0
884.763794 124.0
888.81781 72.0
891.852539 60.0
909.046875 180.0
915.689941 92.0
916.774353 48.0
924.425537 224.0
936.854248 140.0
939.085205 120.0
963.065918 116.0
967.772034 144.0
974.514038 184.0
992.920776 176.0
996.412842 236.0
1001.035889 200.0
1001.520813 48.0
1004.666321 84.0
1026.727295 196.0
1027.135498 168.0
1028.615845 220.0
1033.306519 104.0
1035.950562 76.0
1055.593994 272.0
1071.971924 152.0
1075.793945 208.0
1081.925903 52.0
1082.135376 136.0
1088.85022 68.0
1088.928955 196.0
1091.860229 212.0
1093.491821 144.0
1101.265137 52.0
1101.714355 240.0
1108.887085 176.0
1109.139038 132.0
1144.393066 68.0
1147.357422 188.0
1147.687866 156.0
1151.385742 156.0
1161.599365 156.0
1166.774048 176.0
1169.025391 244.0
1171.435669 68.0
1172.273682 52.0
1172.43042 60.0
1174.400757 152.0
1175.396729 112.0
1176.045044 128.0
1177.950195 140.0
1180.390015 180.0
1187.71814 268.0
1190.772339 136.0
1192.173828 176.0
1195.454102 208.0
1199.20752 120.0
1199.945068 180.0
1200.558716 64.0
1201.407104 152.0
1206.973877 136.0
1217.34021 144.0
1219.681641 164.0
1221.962524 96.0
1223.730347 172.0
1227.785889 44.0
1238.507202 56.0
1240.476196 152.0
1240.609375 192.0
1247.953003 184.0
1254.288818 124.0
1254.387573 192.0
1254.641357 160.0
1261.135498 100.0
1261.757568 152.0
1263.221436 140.0
1264.410156 116.0
1265.004761 132.0
1267.604004 60.0
1269.404541 108.0
1274.117432 44.0
1274.472656 104.0
1279.792969 68.0
1283.776245 212.0
1286.323242 208.0
1286.530273 160.0
1287.572754 160.0
1288.915771 188.0
1290.295166 184.0
1290.452515 208.0
1291.239136 180.0
1293.772095 200.0
1296.336304 48.0
1297.590576 180.0
1303.318115 140.0
1308.395874 68.0
1308.662231 168.0
1308.863892 44.0
1310.808716 164.0
1311.334839 220.0
1313.317627 188.0
1318.783325 216.0
1318.877319 180.0
1319.455566 188.0
1320.410034 132.0
1325.571655 144.0
1326.078979 168.0
1328.290405 80.0
1328.457275 164.0
1331.927002 156.0
1332.319336 84.0
1342.859497 160.0
1343.18042 172.0
1344.486328 192.0
1346.377197 212.0
1346.698486 184.0
1348.934448 152.0
1353.836548 208.0
1357.287964 120.0
1357.881958 248.0
1360.21521 200.0
1362.741455 208.0
1364.167236 80.0
1370.334351 156.0
1374.057617 136.0
1376.153564 196.0
1377.054565 136.0
1383.857788 192.0
1383.983643 176.0
1384.390869 216.0
1384.983398 228.0
1385.116699 108.0
1388.199829 168.0
1388.667114 100.0
1389.008301 104.0
1398.42981 148.0
1400.8125 136.0
1401.661865 160.0
1407.285889 184.0
1409.53418 116.0
1410.386108 140.0
1411.559814 84.0
1415.578247 184.0
1417.458374 160.0
1418.357788 296.0
1421.837891 172.0
1422.032959 104.0
1425.652832 148.0
1428.38208 220.0
1428.720581 152.0
1428.78833 84.0
1432.190796 112.0
1432.258545 224.0
1435.137329 164.0
1437.032715 228.0
1438.638062 120.0
1447.650513 144.0
1449.468506 252.0
1450.650879 140.0
1451.105713 48.0
1451.272583 184.0
1454.883911 124.0
1455.073608 124.0
1455.293823 196.0
1457.162231 124.0
1457.602905 160.0
1457.739746 120.0
1460.05835 56.0
1461.458008 144.0
1462.119995 172.0
1462.858276 36.0
1463.284668 44.0
1466.522095 168.0
1466.948975 176.0
1467.657959 128.0
1468.57312 156.0
1476.019043 204.0
1477.877686 148.0
1478.528198 180.0
1478.81897 128.0
1479.171021 188.0
1479.431396 60.0
1487.449585 140.0
1493.658325 100.0
1497.268066 132.0
1497.491455 240.0
1498.654663 236.0
1499.240234 140.0
1499.432983 96.0
1500.596924 156.0
1500.712524 172.0
1502.887573 168.0
1503.03418 208.0
1504.130127 168.0
