>compound MLS001331725-01!(9-oxo-10(9H)-acridinyl)acetic acid
>formula C15H11NO3
>ionization [M+H]+
>parentmass 254.079559
#inchi InChI=1S/C15H11NO3/c17-14(18)9-16-12-7-3-1-5-10(12)15(19)11-6-2-4-8-13(11)16/h1-8H,9H2,(H,17,18)
#inchikey UOMKBIIXHQIERR
#Ion_Source LC-ESI
#Instrument qTof
#Compound_Source NIH Pharmacologically Active Library
#PI Dorrestein
#Data_Collector VP/LMS
#Scan -1
#Precursor_MZ 254.083
#ExactMass 253.074
#Charge 1
#CAS_Number N/A
#Pubmed_ID N/A
#Smiles OC(=O)Cn1c2ccccc2c(=O)c3ccccc13
#INCHI_AUX N/A
#Library_Class 1
#SpectrumID CCMSLIB00000085099
#IonMode Positive
#UpdateWorkflowName UPDATE-SINGLE-ANNOTATED-GOLD
#LibraryQualityString Gold
#TaskID d252d724072548979f1f6f1ced849daf
##Scan# 1619
#SpectrumFile p3-E10_GE10_01_18279.mzXML
#LibraryName Pharm_Active_Library.mgf
#MQScore -1
#Organism Pharm_Active_Library
#TIC_Query 0
#RT_Query -1
#MZErrorPPM -1
#SharedPeaks 0
#MassDiff 0
#LibMZ -1
#SpecMZ 254.083
#SpecCharge 0
#internalFilename spec-00000.mgf

>collision 10
44.973984 200.0
45.024723 156.0
45.038082 120.0
45.149021 240.0
45.273487 44.0
45.394104 56.0
46.073868 176.0
46.298416 200.0
46.349895 160.0
46.518082 172.0
46.531658 172.0
46.542522 188.0
46.640343 192.0
46.74371 132.0
46.789993 160.0
46.847195 92.0
46.863544 136.0
47.027199 120.0
47.06406 136.0
47.330708 144.0
47.412907 196.0
47.599487 200.0
47.947552 188.0
47.973743 124.0
48.546196 140.0
48.844688 204.0
48.868477 212.0
49.346905 224.0
50.033009 208.0
50.592094 128.0
50.623245 144.0
50.823128 152.0
50.982178 168.0
51.316708 168.0
51.366627 124.0
51.426559 108.0
51.702412 164.0
52.022064 124.0
52.282238 68.0
52.60656 192.0
52.62822 224.0
52.997074 180.0
53.338139 80.0
53.359947 172.0
53.464684 72.0
53.477783 180.0
53.853977 212.0
54.03672 56.0
54.109901 128.0
54.369366 208.0
54.763409 156.0
54.791397 112.0
55.178093 148.0
55.244648 244.0
55.420837 132.0
55.618088 152.0
55.820545 136.0
56.310482 132.0
56.418076 192.0
56.666527 148.0
56.708485 156.0
56.843468 176.0
56.942554 196.0
57.05225 136.0
57.222263 156.0
57.270458 80.0
57.779205 164.0
58.320599 112.0
58.734783 20.0
58.756142 160.0
58.820236 140.0
58.939369 200.0
59.314342 96.0
59.49844 136.0
59.510723 100.0
59.615181 148.0
60.004631 148.0
60.322197 184.0
60.378334 136.0
60.742336 212.0
60.993904 176.0
61.05299 112.0
61.208614 160.0
61.35664 152.0
61.643848 136.0
61.678234 204.0
62.39468 120.0
62.484329 196.0
62.520519 164.0
62.718979 240.0
62.745781 72.0
62.830948 156.0
62.914597 160.0
63.001457 124.0
63.430328 216.0
63.487408 160.0
63.573078 224.0
63.684219 156.0
63.836796 148.0
64.349899 168.0
64.557632 88.0
64.842613 152.0
64.99176 216.0
65.131439 40.0
65.296242 192.0
65.688416 120.0
65.782021 136.0
65.959717 160.0
65.987198 204.0
66.48938 140.0
66.538078 52.0
66.658279 132.0
66.978798 132.0
67.136902 216.0
67.158104 136.0
67.288658 188.0
67.442223 180.0
68.477592 200.0
68.649002 188.0
68.747986 128.0
68.919724 216.0
69.007332 188.0
69.532471 192.0
69.71682 232.0
69.909737 180.0
69.999634 200.0
70.463097 132.0
70.625511 192.0
70.807953 168.0
70.918541 200.0
71.126541 180.0
71.582176 56.0
71.794525 144.0
71.838379 104.0
72.389397 156.0
73.288017 156.0
73.310173 104.0
73.44828 176.0
73.618958 252.0
73.80352 132.0
73.858246 196.0
73.933533 188.0
74.228195 268.0
74.372307 220.0
74.549217 84.0
74.643768 180.0
74.879539 172.0
74.915718 60.0
75.321114 44.0
75.360847 136.0
75.426521 196.0
75.554497 116.0
76.210808 164.0
76.658852 60.0
76.906509 220.0
77.07592 132.0
77.182549 220.0
77.620331 176.0
77.80983 168.0
77.887108 116.0
77.923996 168.0
78.018906 156.0
78.607216 212.0
79.011848 144.0
79.389145 208.0
79.54351 120.0
79.603882 196.0
80.4925 96.0
80.742699 160.0
80.823204 120.0
81.08287 148.0
82.215935 160.0
82.235794 160.0
82.324257 204.0
82.423615 224.0
82.656891 160.0
82.751015 132.0
82.765495 168.0
82.82164 180.0
82.899551 132.0
82.948486 164.0
83.286011 192.0
83.411392 256.0
83.802681 240.0
83.939392 152.0
84.193062 184.0
84.207672 184.0
84.288055 116.0
84.399567 112.0
84.653923 260.0
84.941689 156.0
85.070145 136.0
85.095848 64.0
85.424828 180.0
85.483704 216.0
85.818962 140.0
85.900108 60.0
85.977608 212.0
86.119774 140.0
87.216736 252.0
87.259491 212.0
87.523712 132.0
87.680199 196.0
88.416054 152.0
88.60144 168.0
88.712013 176.0
89.037979 184.0
89.282837 96.0
89.84417 224.0
89.887566 248.0
89.993271 172.0
90.199203 140.0
90.837372 116.0
90.947433 220.0
91.09745 160.0
91.22097 240.0
91.550148 120.0
91.622528 176.0
91.916168 128.0
91.994423 188.0
92.027008 120.0
92.061249 220.0
92.493362 120.0
92.719376 248.0
92.90538 128.0
93.281784 240.0
93.397163 176.0
93.479889 112.0
93.768951 180.0
95.039345 152.0
95.21212 144.0
95.385048 104.0
95.480324 124.0
95.704117 108.0
96.921051 224.0
97.032776 148.0
97.068069 136.0
97.246597 192.0
97.71431 120.0
97.741852 120.0
97.787117 128.0
97.806801 124.0
98.129112 172.0
98.416 100.0
98.46537 36.0
98.542412 128.0
99.003319 176.0
99.665894 168.0
100.372551 184.0
100.578041 192.0
100.719818 168.0
100.951668 80.0
101.538467 148.0
101.55452 136.0
101.747162 168.0
102.074684 164.0
102.137032 128.0
102.370506 96.0
102.451073 188.0
102.816048 260.0
103.211998 120.0
103.955444 212.0
104.026482 324.0
104.044754 44.0
104.203178 184.0
104.821754 120.0
104.944061 184.0
105.056236 168.0
105.070518 156.0
105.278725 192.0
105.577103 48.0
105.632324 104.0
105.71212 156.0
105.910614 156.0
106.012253 164.0
106.306427 176.0
106.427536 72.0
106.462448 80.0
107.081512 152.0
107.213371 56.0
107.349434 144.0
107.392746 152.0
108.712746 148.0
108.824837 196.0
109.067909 204.0
109.35495 232.0
109.629875 132.0
109.827942 236.0
109.878014 164.0
110.187012 136.0
110.452515 60.0
110.950928 164.0
111.043198 168.0
111.780609 64.0
111.881638 128.0
112.014313 164.0
112.685204 212.0
112.761276 172.0
113.26487 84.0
113.311478 224.0
113.708023 156.0
113.911865 184.0
114.754654 120.0
115.010658 228.0
115.348167 144.0
115.504272 188.0
115.542778 148.0
115.594131 144.0
116.131882 192.0
116.166206 160.0
116.309982 204.0
116.537628 156.0
116.73539 48.0
117.023735 196.0
117.120644 188.0
117.269325 228.0
118.332176 192.0
118.535789 180.0
118.743919 144.0
118.893616 160.0
119.228081 136.0
119.328072 188.0
119.946358 164.0
120.118629 300.0
120.147408 208.0
120.579353 116.0
120.629623 240.0
120.673347 92.0
120.949005 196.0
120.981842 216.0
121.747093 184.0
122.056953 160.0
122.587479 124.0
122.909439 88.0
123.039658 192.0
123.178795 168.0
123.236237 160.0
124.009872 144.0
124.649193 196.0
124.662003 220.0
124.774437 192.0
124.903427 140.0
124.925667 120.0
124.95459 72.0
125.179405 88.0
125.56942 248.0
125.745682 176.0
126.025047 208.0
126.290871 124.0
126.548225 136.0
126.8731 116.0
127.117584 228.0
127.488129 48.0
127.593781 184.0
127.735458 124.0
128.043839 128.0
128.06636 116.0
128.149704 248.0
128.519501 204.0
128.575912 180.0
129.095535 180.0
129.441772 100.0
129.53009 144.0
129.706848 52.0
129.926819 80.0
130.028259 168.0
130.103882 224.0
130.731201 144.0
130.974823 172.0
131.106964 160.0
131.264267 160.0
132.047607 192.0
132.377167 196.0
132.640656 116.0
132.830994 156.0
132.904404 156.0
133.683411 132.0
134.005783 160.0
134.024216 60.0
134.746414 196.0
134.783386 208.0
134.993744 160.0
135.190384 132.0
135.421906 164.0
135.516891 144.0
135.686096 96.0
136.133926 148.0
136.368576 204.0
137.540207 156.0
137.575226 128.0
137.60791 120.0
137.745697 116.0
138.445053 104.0
138.482529 256.0
138.569214 144.0
138.74498 164.0
139.049942 300.0
139.43042 280.0
139.555008 144.0
139.936172 176.0
139.983276 128.0
140.05397 296.0
140.072769 164.0
141.069778 148.0
142.02063 156.0
142.053772 208.0
142.22226 232.0
142.310089 40.0
142.395584 152.0
142.492981 176.0
142.78299 92.0
142.904312 116.0
143.428253 212.0
143.490234 128.0
143.545074 200.0
144.557953 140.0
144.641724 204.0
144.871628 112.0
144.91037 204.0
145.36795 216.0
146.031036 44.0
146.067123 152.0
146.091171 164.0
146.690826 64.0
147.086441 180.0
147.70813 204.0
148.421936 172.0
148.470428 148.0
148.832016 140.0
148.855255 224.0
149.21106 148.0
149.398331 92.0
149.588715 136.0
149.982773 132.0
150.309586 220.0
150.930038 168.0
151.035202 136.0
151.409683 140.0
151.882736 116.0
152.058731 648.0
152.216522 148.0
152.317215 68.0
152.501511 156.0
152.649017 148.0
152.848282 172.0
153.06572 576.0
153.141251 56.0
153.261963 140.0
154.061356 108.0
154.072357 168.0
154.142899 168.0
155.162689 212.0
155.909851 124.0
156.113708 64.0
156.151016 28.0
156.853195 312.0
157.015259 224.0
157.669388 192.0
158.016968 204.0
158.475174 184.0
158.69574 224.0
159.370941 112.0
160.029938 188.0
160.571747 52.0
160.718781 232.0
161.127106 128.0
161.569534 172.0
162.550125 144.0
162.628799 172.0
162.849701 212.0
162.951309 140.0
163.215668 212.0
163.302124 140.0
163.52858 188.0
163.55658 188.0
164.160416 184.0
164.27774 272.0
164.650406 144.0
165.005814 196.0
165.061798 160.0
165.107895 136.0
165.845276 156.0
165.865784 116.0
165.924744 148.0
165.945251 172.0
166.064331 2312.0
166.122223 160.0
166.301849 152.0
166.574036 180.0
166.818161 176.0
166.944153 64.0
166.987869 116.0
167.018738 140.0
167.071976 16096.0
167.119064 116.0
167.178253 60.0
167.212967 164.0
167.348145 60.0
167.407379 56.0
167.459259 208.0
167.494003 176.0
167.523285 80.0
167.626343 44.0
167.948624 164.0
168.074997 1184.0
168.108582 32.0
168.149872 156.0
168.167938 128.0
168.219574 120.0
168.353836 64.0
168.377075 84.0
168.80867 156.0
168.961273 52.0
169.049255 152.0
169.076187 192.0
169.163132 156.0
169.19162 148.0
169.225266 204.0
169.409164 140.0
169.483398 140.0
170.091171 112.0
170.156082 208.0
170.249557 264.0
170.428802 64.0
171.138901 76.0
171.17276 108.0
171.686142 176.0
172.286499 136.0
172.372726 368.0
172.699524 96.0
172.822479 168.0
172.948105 144.0
173.10257 56.0
175.056366 116.0
175.206512 44.0
175.259201 208.0
175.570267 120.0
175.593994 116.0
176.752609 156.0
176.804047 240.0
177.050262 188.0
177.209198 136.0
177.312546 248.0
177.768707 180.0
177.957169 180.0
178.004974 144.0
178.060333 288.0
178.082565 148.0
178.103241 176.0
179.071182 364.0
179.252838 88.0
179.724579 100.0
179.748581 140.0
179.783279 220.0
180.079788 10528.0
180.154434 128.0
180.362869 48.0
180.836304 152.0
181.058105 676.0
181.083252 1860.0
181.318405 32.0
181.358612 64.0
181.464737 252.0
181.535568 60.0
182.055695 180.0
182.088455 296.0
182.131393 80.0
182.18512 192.0
182.203934 32.0
182.252289 52.0
182.27916 148.0
182.35173 160.0
182.496902 76.0
182.542603 36.0
182.612534 176.0
182.87352 196.0
182.930054 116.0
183.069931 180.0
183.336777 232.0
183.374512 188.0
183.676498 196.0
183.706619 168.0
183.730453 148.0
183.981445 136.0
184.005737 56.0
184.067841 148.0
184.102951 112.0
184.129959 116.0
184.41095 84.0
184.481232 48.0
185.154999 120.0
185.67807 104.0
186.030823 72.0
186.329559 56.0
186.375748 200.0
186.952255 148.0
188.390671 164.0
189.801498 180.0
190.056595 184.0
190.572815 64.0
190.75145 112.0
190.792694 164.0
190.891678 152.0
191.07338 228.0
191.703781 140.0
191.841599 228.0
192.029099 112.0
192.078278 964.0
192.854675 148.0
193.077927 304.0
193.222473 184.0
193.352524 244.0
193.441101 136.0
193.729111 100.0
194.058487 744.0
194.092194 188.0
194.122696 76.0
194.216995 140.0
194.269699 188.0
194.53334 180.0
194.555557 32.0
194.588867 144.0
194.619415 168.0
194.751266 160.0
194.824539 192.0
194.877731 204.0
194.963715 144.0
195.021515 204.0
195.067215 47888.0
195.124161 56.0
195.152893 68.0
195.218353 156.0
195.333679 208.0
195.37262 64.0
195.394012 72.0
195.423111 80.0
195.452042 88.0
195.527054 72.0
195.553635 76.0
195.603333 84.0
195.642578 180.0
195.673203 40.0
195.726105 80.0
195.834717 40.0
195.856995 60.0
195.954498 44.0
196.070862 7456.0
196.185822 68.0
196.338257 72.0
196.383804 40.0
196.40892 92.0
196.482635 80.0
196.509354 60.0
196.553986 56.0
196.576309 144.0
196.620972 76.0
196.70192 40.0
196.763336 80.0
196.782883 44.0
196.956024 72.0
196.99234 60.0
197.074371 604.0
197.11528 80.0
197.137634 268.0
197.163986 112.0
197.229858 108.0
197.27179 148.0
197.294159 80.0
197.389221 88.0
197.489914 108.0
197.512695 108.0
197.633469 120.0
197.680161 104.0
197.853699 104.0
198.072128 140.0
198.537399 80.0
198.852951 128.0
198.910583 96.0
199.239151 100.0
199.596115 44.0
199.998428 156.0
200.136368 68.0
202.780609 100.0
202.96489 148.0
204.57016 60.0
204.803665 164.0
206.058884 212.0
206.236053 96.0
206.459076 56.0
207.063812 132.0
207.670578 64.0
207.845581 64.0
207.963257 132.0
208.000565 148.0
208.040756 168.0
208.074432 6912.0
208.144119 84.0
208.221664 68.0
208.447403 132.0
208.667068 104.0
209.015106 72.0
209.048492 220.0
209.082352 5268.0
209.337524 68.0
209.429688 56.0
209.559326 104.0
209.691879 68.0
209.985962 100.0
210.083694 540.0
210.78566 72.0
211.063156 144.0
211.093628 276.0
211.135452 112.0
211.170166 80.0
211.505814 160.0
211.583969 168.0
211.676636 52.0
212.337387 36.0
212.920761 156.0
213.132828 40.0
213.298477 104.0
213.632904 64.0
213.929749 64.0
216.929977 80.0
219.57637 84.0
220.807983 68.0
221.601334 92.0
221.835464 168.0
222.066757 132.0
224.070358 88.0
224.138885 132.0
224.29982 220.0
225.655197 80.0
226.080856 228.0
226.163773 104.0
228.938004 224.0
229.896683 92.0
232.053467 172.0
233.830566 176.0
234.94751 204.0
236.06488 332.0
237.067886 168.0
237.65358 80.0
237.675064 112.0
239.596741 220.0
240.293518 100.0
241.074356 676.0
242.08429 140.0
252.145081 132.0
252.669998 196.0
253.765854 44.0
253.876846 140.0
254.029099 96.0
254.079559 8900.0
254.61525 60.0
254.648071 56.0
254.705246 84.0
254.886337 144.0
254.924469 40.0
255.08165 1796.0
255.124725 236.0
255.242355 80.0
255.375931 88.0
255.449097 44.0
255.60817 40.0
256.083893 196.0
256.315094 76.0
256.850708 204.0
256.904968 72.0
256.962372 132.0
257.02301 80.0
257.095459 188.0
257.265564 160.0
258.748993 104.0
259.040436 44.0
259.085297 48.0
260.00235 48.0
260.798889 52.0
261.113983 164.0
264.039276 164.0
265.516144 36.0
269.275299 48.0
270.138245 132.0
278.229095 68.0
278.308777 28.0
285.123688 56.0
296.35321 108.0
302.137543 152.0
313.577728 100.0
314.029053 124.0
317.470276 96.0
317.683105 48.0
319.057495 136.0
320.548889 60.0
328.155304 96.0
333.069916 92.0
337.315155 120.0
341.032074 40.0
355.311249 144.0
360.995239 64.0
362.380676 64.0
362.752075 108.0
400.252228 148.0
408.054779 32.0
412.533905 124.0
430.257172 52.0
500.544525 52.0
506.722015 100.0
537.771423 140.0
561.281128 84.0
576.338196 48.0
584.889404 52.0
603.333862 136.0
626.266541 36.0
632.623352 44.0
670.268127 68.0
694.517029 92.0
715.294922 64.0
804.14209 204.0
1016.38916 176.0
1019.240295 208.0
1041.165161 212.0
1056.635864 100.0
1072.859497 60.0
1077.127441 56.0
1092.296265 100.0
1096.075439 68.0
1110.189331 64.0
1110.29541 148.0
1113.846436 48.0
1121.378662 132.0
1140.085205 232.0
1145.670166 160.0
1146.458496 72.0
1150.174805 48.0
1184.063965 112.0
1196.809692 148.0
1204.789673 56.0
1205.764038 192.0
1210.357544 176.0
1236.855957 188.0
1238.326294 116.0
1240.792969 152.0
1243.774536 136.0
1259.074707 184.0
1290.248657 168.0
1309.185059 180.0
1311.187988 156.0
1312.254883 108.0
1327.838745 192.0
1337.276855 56.0
1337.415161 44.0
1340.058716 120.0
1342.90918 136.0
1346.200684 188.0
1353.096069 120.0
1363.497925 100.0
1368.345581 188.0
1382.037354 208.0
1394.213867 208.0
1395.016602 224.0
1405.869141 148.0
1416.15686 184.0
1419.236938 176.0
1429.701294 132.0
1435.094971 164.0
1443.559937 116.0
1444.459961 176.0
1449.874512 204.0
1452.375854 240.0
1462.885254 144.0
1467.746216 256.0
1470.622437 192.0
1474.448975 196.0
1475.64917 164.0
1476.689209 140.0
1478.732056 156.0
1478.823975 164.0
1481.48877 136.0
1481.994385 208.0
1484.700439 180.0
1489.259521 92.0
1492.049072 152.0
1492.21814 224.0
1492.464233 128.0
1493.748657 200.0
1494.402588 164.0
1499.253906 120.0
