>compound 61-68-7
>formula C15H15NO2 
>ionization [M+H]+
>parentmass 242.117935
#inchi InChI=1S/C15H15NO2/c1-10-6-5-9-13(11(10)2)16-14-8-4-3-7-12(14)15(17)18/h3-9,16H,1-2H3,(H,17,18)
#inchikey HYYBABOKPJLUIN
#Ion_Source LC-ESI
#Instrument qTof
#Compound_Source Commercial
#PI Dorrestein
#Data_Collector Garg_Neha
#Scan -1
#Precursor_MZ 242.118
#ExactMass 241.11
#Charge 1
#CAS_Number N/A
#Pubmed_ID N/A
#Smiles N/A
#INCHI_AUX N/A
#Library_Class 1
#SpectrumID CCMSLIB00000077010
#IonMode Positive
#UpdateWorkflowName UPDATE-SINGLE-ANNOTATED-GOLD
#LibraryQualityString Gold
#TaskID 48f7f52fc6d249b5abbcc6e7b3df5969
##Scan# 2370
#SpectrumFile NCP002928_G2_H11_BA5_01_15699.mzXML
#LibraryName NIH_Clinical_Collection_2.mgf
#MQScore -1
#Organism NIHcollection2_04212014_2_mgf
#TIC_Query 0
#RT_Query -1
#MZErrorPPM -1
#SharedPeaks 0
#MassDiff 0
#LibMZ -1
#SpecMZ 242.118
#SpecCharge 0
#internalFilename spec-00000.mgf

>collision 10
45.571392 168.0
45.584827 172.0
45.921398 220.0
46.749191 152.0
46.918091 164.0
47.255436 176.0
48.465744 148.0
48.507324 176.0
48.862843 148.0
48.982567 148.0
50.255569 272.0
50.761967 164.0
51.047398 148.0
53.062023 212.0
53.345119 160.0
54.096397 204.0
54.33968 200.0
56.278687 164.0
58.43716 228.0
60.537132 192.0
60.848766 192.0
60.940403 188.0
61.284264 164.0
62.285515 280.0
63.019657 168.0
63.144539 220.0
65.218948 172.0
66.404083 176.0
66.439774 180.0
68.093353 172.0
68.127846 144.0
68.545761 144.0
68.577072 140.0
69.350609 216.0
71.044838 184.0
71.442986 144.0
71.944656 176.0
72.083694 200.0
72.413589 192.0
73.00341 164.0
73.650139 176.0
73.728729 168.0
74.604614 172.0
75.435539 140.0
75.563515 180.0
77.532967 144.0
77.701302 188.0
78.651588 220.0
78.966095 148.0
80.619514 144.0
80.699951 148.0
80.948677 168.0
81.287476 156.0
81.700729 196.0
82.075356 188.0
83.364212 152.0
83.409653 152.0
83.795456 144.0
84.494713 180.0
84.749207 164.0
85.127075 168.0
85.439545 196.0
85.955444 144.0
87.014183 208.0
87.121895 184.0
87.8386 188.0
88.438408 180.0
89.608337 144.0
90.566109 188.0
94.156258 140.0
96.325867 164.0
97.040184 204.0
97.320763 144.0
98.97113 144.0
99.127617 192.0
99.651459 192.0
100.664902 188.0
101.325394 144.0
101.832909 164.0
102.080818 168.0
104.48101 152.0
105.071823 144.0
107.179588 188.0
107.837906 164.0
108.865547 168.0
109.439415 216.0
109.472733 172.0
109.656059 164.0
110.14431 152.0
110.347015 172.0
110.467834 156.0
111.140839 180.0
111.954346 188.0
113.316788 164.0
114.540451 156.0
115.886353 148.0
116.530022 144.0
117.537193 204.0
117.911293 160.0
119.365936 240.0
121.287186 140.0
121.627174 192.0
121.917091 144.0
122.669838 168.0
122.733772 208.0
125.0755 164.0
126.889473 148.0
127.185593 152.0
127.965668 164.0
128.204437 212.0
128.630722 176.0
129.351807 148.0
129.408401 256.0
129.877502 140.0
130.29747 144.0
131.087021 144.0
133.513657 152.0
136.033371 132.0
136.162201 252.0
136.729477 200.0
139.884674 212.0
140.051865 168.0
140.134308 160.0
140.469086 168.0
141.288818 160.0
141.378723 160.0
141.646271 204.0
142.141785 148.0
142.431427 252.0
142.795334 196.0
143.223511 192.0
143.538101 176.0
144.888535 148.0
146.05394 144.0
148.383179 184.0
148.426819 168.0
150.099777 156.0
150.161713 180.0
151.055695 168.0
151.135452 240.0
151.228455 196.0
151.598267 156.0
152.064041 172.0
153.072052 384.0
153.856247 220.0
153.979706 176.0
154.067459 164.0
154.758652 148.0
155.070786 176.0
156.996582 212.0
157.054932 176.0
158.079254 168.0
159.059219 176.0
159.45607 144.0
160.384827 152.0
161.018112 212.0
161.098938 172.0
162.047668 156.0
162.813721 164.0
164.407394 244.0
164.551651 148.0
165.209702 200.0
165.524521 184.0
166.067322 160.0
166.583771 148.0
167.071686 320.0
168.092514 156.0
169.053818 164.0
169.675461 220.0
170.094406 140.0
170.332016 196.0
171.50293 184.0
173.303513 156.0
174.182373 160.0
174.279572 184.0
175.345352 200.0
177.184479 220.0
178.061569 140.0
178.069397 160.0
178.077026 304.0
179.054092 168.0
179.07428 1072.0
179.179703 152.0
180.081894 6688.0
180.12941 152.0
180.201538 204.0
180.250549 152.0
180.639984 152.0
181.087769 3144.0
181.295959 176.0
182.060699 128.0
182.086655 548.0
182.26738 168.0
183.068268 1008.0
183.106705 316.0
184.070175 392.0
184.107956 184.0
184.126892 176.0
186.771484 192.0
189.394608 200.0
190.066269 160.0
191.077469 132.0
192.079147 240.0
192.513458 204.0
193.088165 176.0
193.3871 148.0
194.065811 224.0
194.097641 744.0
194.709595 152.0
195.066788 228.0
195.092239 308.0
195.102875 172.0
196.075226 616.0
196.11084 248.0
196.221527 104.0
196.281906 144.0
196.960083 188.0
197.077103 252.0
198.115387 156.0
199.659164 300.0
200.129105 204.0
200.427673 168.0
200.602417 148.0
201.822052 152.0
204.08345 340.0
204.961411 172.0
205.528839 176.0
206.095474 192.0
206.520142 176.0
207.070007 496.0
207.101349 264.0
207.490906 228.0
208.075577 9144.0
208.365723 132.0
208.420837 184.0
208.898102 148.0
208.957901 164.0
208.98584 136.0
209.084061 59380.0
209.151672 160.0
209.174561 104.0
209.495422 120.0
209.535706 108.0
209.58287 196.0
209.671799 96.0
209.840027 112.0
209.959763 128.0
210.044693 204.0
210.087372 8368.0
211.08931 1004.0
211.356201 164.0
212.538406 148.0
212.994217 236.0
214.122742 212.0
214.761032 168.0
215.181244 148.0
215.274216 200.0
217.100769 188.0
217.637756 184.0
218.050003 112.0
218.771942 140.0
219.624222 168.0
219.715668 164.0
220.10527 212.0
220.377014 216.0
220.604584 144.0
220.776077 164.0
221.080811 176.0
222.090881 2572.0
222.162262 156.0
222.280945 152.0
222.361069 140.0
222.498215 196.0
222.989746 184.0
223.09877 1992.0
223.326691 156.0
223.421875 216.0
223.445755 140.0
223.561722 196.0
223.585526 188.0
223.646713 108.0
223.815048 200.0
223.850479 148.0
223.872223 112.0
223.899567 128.0
223.964996 124.0
224.011581 256.0
224.108002 181976.0
224.272156 148.0
224.335571 184.0
224.406677 144.0
224.488739 112.0
224.570953 112.0
224.598114 356.0
224.675537 172.0
224.699844 188.0
224.793671 108.0
225.110596 20940.0
225.225357 168.0
225.402161 132.0
225.4655 204.0
225.503799 128.0
225.557831 176.0
225.870361 144.0
226.113159 1992.0
226.35994 112.0
226.459549 204.0
226.494415 120.0
226.541412 280.0
226.608231 208.0
226.650177 152.0
226.688614 136.0
226.731216 136.0
226.768433 184.0
226.823227 180.0
226.846588 124.0
227.118637 120.0
234.098724 140.0
234.882004 172.0
236.090286 172.0
241.016098 156.0
241.065536 152.0
241.109131 1004.0
241.93158 164.0
242.117935 16704.0
243.120026 1696.0
244.118423 388.0
244.923096 112.0
244.967438 108.0
253.546829 160.0
338.768707 152.0
373.230408 104.0
1217.078491 204.0
1531.219482 152.0
1599.894165 148.0
1664.102295 148.0
1730.906616 176.0
1815.033081 172.0
1892.253662 188.0
1900.279419 148.0
1918.168335 232.0
1926.982544 152.0
1958.660889 184.0
1971.303833 192.0
