>compound MLS000876794-01!5-methoxy-2,2-dimethylpyrano[3,2-g]chromen-8-one
>formula C15H14O4
>ionization [M+H]+
>parentmass 259.097504
#inchi InChI=1S/C15H14O4/c1-15(2)7-6-10-12(19-15)8-11-9(14(10)17-3)4-5-13(16)18-11/h4-8H,1-3H3
#inchikey JSJIIHRNDMLJGK
#Ion_Source LC-ESI
#Instrument qTof
#Compound_Source NIH Natural Product Library
#PI Dorrestein
#Data_Collector VVP/LMS
#Scan -1
#Precursor_MZ 259.097
#ExactMass 258.089
#Charge 1
#CAS_Number N/A
#Pubmed_ID N/A
#Smiles COc1c2C=CC(C)(C)Oc2cc3oc(=O)ccc13
#INCHI_AUX N/A
#Library_Class 1
#SpectrumID CCMSLIB00000080519
#IonMode Positive
#UpdateWorkflowName UPDATE-SINGLE-ANNOTATED-GOLD
#LibraryQualityString Gold
#TaskID b1d8e8f6646f4e71acdff9ca3d919d08
##Scan# 2304
#SpectrumFile p2-B10_GB10_01_17998.mzXML
#LibraryName NIH_Natural_Products_Library.mgf
#MQScore -1
#Organism NIH_Natural_Products_Library
#TIC_Query 0
#RT_Query -1
#MZErrorPPM -1
#SharedPeaks 0
#MassDiff 0
#LibMZ -1
#SpecMZ 259.097
#SpecCharge 0
#internalFilename spec-00000.mgf

>collision 10
95.012878 204.0
95.066399 104.0
95.192581 120.0
95.217827 48.0
95.351883 136.0
95.3927 92.0
95.425751 132.0
95.587189 152.0
95.630005 180.0
95.733864 196.0
95.766296 180.0
95.820839 248.0
96.077736 192.0
96.22065 132.0
96.261658 144.0
96.320244 172.0
96.470711 128.0
96.496124 80.0
96.509811 60.0
96.578873 216.0
96.611511 156.0
96.666298 80.0
96.76416 240.0
96.867958 216.0
96.989449 120.0
97.065903 76.0
97.099243 124.0
97.165939 148.0
97.205177 224.0
97.301353 192.0
97.42115 164.0
97.458481 224.0
97.647194 152.0
97.712105 148.0
97.905006 116.0
98.029114 112.0
98.159218 128.0
98.437454 128.0
98.842682 152.0
98.999062 68.0
99.038673 176.0
99.236183 228.0
99.339973 164.0
99.435211 248.0
99.570213 112.0
99.760963 220.0
100.014114 136.0
100.085258 184.0
100.180855 168.0
100.256569 128.0
100.328323 200.0
100.378174 120.0
100.539185 168.0
100.589653 288.0
100.701469 148.0
100.751411 168.0
100.923286 216.0
100.985283 28.0
101.04129 132.0
101.057297 84.0
101.091316 40.0
101.173378 104.0
101.319572 120.0
101.421768 96.0
101.461861 212.0
101.712616 204.0
101.746742 144.0
101.79493 176.0
101.837105 148.0
101.871254 152.0
101.947037 184.0
102.045448 272.0
102.094353 132.0
102.261337 136.0
102.303177 240.0
102.327766 212.0
102.440544 124.0
102.478821 168.0
102.64814 148.0
102.712677 116.0
102.801445 176.0
102.843834 136.0
102.912468 56.0
103.022713 232.0
103.054718 696.0
103.10437 212.0
103.132668 80.0
103.187248 204.0
103.24791 92.0
103.264084 196.0
103.326797 48.0
103.440125 80.0
103.644714 196.0
103.796692 68.0
103.835228 168.0
103.894051 140.0
104.054131 176.0
104.074684 132.0
104.103111 132.0
104.233116 220.0
104.271126 176.0
104.641945 204.0
104.672485 44.0
104.815071 128.0
105.034538 328.0
105.070572 556.0
105.19442 140.0
105.249542 176.0
105.285866 188.0
105.447701 148.0
105.46814 168.0
105.551956 184.0
105.596947 244.0
105.819328 160.0
105.878151 260.0
106.04985 156.0
106.080177 132.0
106.105606 164.0
106.147835 176.0
106.334518 76.0
106.355042 200.0
106.378975 188.0
106.676109 184.0
106.823547 188.0
107.013908 160.0
107.049194 232.0
107.087013 216.0
107.104256 184.0
107.138512 176.0
107.218872 188.0
107.350807 140.0
107.462189 148.0
107.509651 160.0
107.559181 176.0
107.625252 248.0
107.734711 164.0
107.941391 128.0
107.986893 156.0
108.020378 336.0
108.04274 140.0
108.0924 104.0
108.117226 128.0
108.142067 144.0
108.417519 148.0
108.487984 100.0
108.523537 136.0
108.581291 164.0
108.645065 156.0
108.793762 196.0
108.830307 176.0
108.848999 44.0
108.863533 144.0
108.894684 196.0
108.977776 168.0
109.027435 192.0
109.053528 400.0
109.09832 180.0
109.150299 212.0
109.196045 164.0
109.287575 252.0
109.308388 164.0
109.533234 196.0
109.58532 140.0
109.741211 176.0
109.985718 252.0
110.021202 216.0
110.036774 156.0
110.376389 112.0
110.642105 108.0
110.732147 160.0
110.855751 64.0
110.943779 160.0
110.971031 156.0
111.000389 196.0
111.05072 116.0
111.073792 144.0
111.289955 56.0
111.380257 120.0
111.468491 112.0
111.491608 144.0
111.533646 176.0
111.675774 208.0
111.786972 204.0
111.809166 148.0
111.842842 184.0
111.973381 156.0
112.066071 144.0
112.251495 132.0
112.257294 128.0
112.352798 52.0
112.376205 128.0
112.49382 204.0
112.739197 128.0
112.811058 40.0
113.027763 208.0
113.113556 168.0
113.134727 168.0
113.182541 168.0
113.399506 140.0
113.63913 196.0
113.660347 264.0
113.768585 72.0
113.806801 76.0
113.851891 172.0
113.902374 152.0
113.966103 140.0
114.048981 156.0
114.108505 168.0
114.209503 168.0
114.364906 204.0
114.544769 192.0
114.747215 164.0
114.883705 44.0
114.983994 112.0
115.003204 124.0
115.055931 3372.0
115.180428 156.0
115.216743 116.0
115.344955 40.0
115.364197 32.0
115.610168 128.0
115.682938 172.0
115.723618 168.0
115.798569 128.0
115.856758 168.0
115.877823 232.0
115.907822 144.0
115.989258 228.0
116.059059 912.0
116.111473 176.0
116.128632 148.0
116.171532 432.0
116.201569 144.0
116.257355 176.0
116.353943 40.0
116.4291 152.0
116.489998 136.0
116.527908 200.0
116.650406 140.0
116.684799 240.0
116.760063 48.0
116.852554 56.0
116.968765 92.0
117.069855 3200.0
117.153954 184.0
117.2229 216.0
117.434174 48.0
117.535568 140.0
117.56794 116.0
117.617577 136.0
117.63269 68.0
117.948059 36.0
117.98481 108.0
118.015083 128.0
118.045349 160.0
118.072304 364.0
118.147011 80.0
118.179459 228.0
118.227066 140.0
118.495567 168.0
118.638603 208.0
118.692802 216.0
118.73745 232.0
118.770882 220.0
118.803421 28.0
118.862 172.0
118.916252 72.0
119.009598 132.0
119.048485 796.0
119.079086 200.0
119.285507 200.0
119.357246 220.0
119.378998 192.0
119.537796 116.0
119.616142 176.0
119.674927 236.0
119.770538 208.0
120.021538 152.0
120.052544 148.0
120.08461 184.0
120.39888 264.0
120.490623 208.0
120.748558 176.0
121.000198 144.0
121.026451 496.0
121.066963 212.0
121.214851 168.0
121.295944 180.0
121.346359 92.0
121.447235 176.0
121.462593 100.0
121.493301 128.0
121.532791 72.0
121.690819 164.0
121.868729 192.0
121.92366 180.0
121.949432 160.0
121.991798 52.0
122.040169 92.0
122.147926 144.0
122.211731 148.0
122.47924 140.0
122.522163 164.0
122.570633 164.0
122.746979 160.0
123.038635 212.0
123.106667 108.0
123.144211 40.0
123.22374 280.0
123.312126 132.0
123.332504 172.0
123.369598 196.0
123.451408 220.0
123.466888 160.0
123.557571 168.0
123.615105 164.0
123.898514 160.0
124.075806 168.0
124.260582 240.0
124.326454 100.0
124.357521 148.0
124.459641 76.0
124.566238 148.0
124.737343 60.0
124.788475 212.0
124.828499 236.0
125.068771 180.0
125.099937 148.0
125.20459 216.0
125.237991 176.0
125.416245 60.0
125.514336 116.0
125.546318 176.0
125.886986 160.0
126.023247 68.0
126.041122 160.0
126.058998 192.0
126.079109 160.0
126.155106 212.0
126.231125 144.0
126.30114 156.0
126.470505 244.0
126.665306 116.0
126.723557 84.0
127.05545 836.0
127.086777 176.0
127.398842 160.0
127.830536 220.0
127.869736 176.0
128.024124 184.0
128.063065 6412.0
128.105209 128.0
128.162064 120.0
128.28775 100.0
128.318741 80.0
128.362152 136.0
128.583237 136.0
128.603546 108.0
128.623856 120.0
128.714157 104.0
128.761581 164.0
128.822571 152.0
128.840637 192.0
128.919724 184.0
129.028229 112.0
129.070084 4548.0
129.111877 40.0
129.170685 200.0
129.306442 36.0
129.326813 208.0
129.39473 152.0
129.412842 92.0
129.657486 136.0
129.80484 180.0
130.015442 232.0
130.047577 192.0
130.075287 424.0
130.158829 52.0
130.385986 128.0
130.483734 64.0
130.822708 196.0
130.9935 80.0
131.049835 2456.0
131.085648 812.0
131.126358 220.0
131.253311 56.0
131.506531 156.0
131.595566 160.0
131.632095 152.0
131.958832 156.0
132.052124 472.0
132.091385 212.0
132.269958 140.0
132.440826 32.0
132.618118 28.0
132.651672 112.0
132.83136 104.0
132.879532 76.0
132.923126 248.0
132.95755 224.0
133.023224 184.0
133.065979 184.0
133.089294 124.0
133.361771 52.0
133.435333 36.0
133.571014 152.0
133.681442 188.0
133.794235 60.0
133.900146 124.0
134.04071 168.0
134.319641 148.0
134.409103 200.0
134.474228 196.0
134.53656 120.0
134.677414 144.0
134.822968 176.0
134.839142 144.0
135.007751 208.0
135.041153 800.0
135.061111 192.0
135.132812 128.0
135.151337 128.0
135.32756 144.0
135.512527 68.0
135.584366 168.0
135.663162 100.0
135.707214 144.0
136.016617 312.0
136.04361 156.0
136.071472 136.0
136.217773 88.0
136.259598 308.0
136.387405 136.0
136.419144 196.0
136.557144 212.0
136.573639 128.0
136.615295 180.0
136.733963 72.0
136.775848 196.0
136.873627 188.0
136.908554 116.0
137.026184 404.0
137.052979 120.0
137.181168 156.0
137.363052 204.0
137.391052 68.0
137.421799 132.0
137.493713 220.0
137.6548 56.0
137.811295 152.0
137.855682 160.0
137.925797 128.0
138.014938 160.0
138.054398 188.0
138.07077 196.0
138.114182 204.0
138.183044 208.0
138.271591 124.0
138.314087 132.0
138.367935 148.0
138.393692 176.0
138.522491 172.0
138.548264 200.0
138.592773 196.0
138.639648 108.0
138.665421 104.0
138.874084 136.0
138.999207 180.0
139.055496 208.0
139.115784 192.0
139.217239 112.0
139.392929 160.0
139.409378 140.0
139.442276 240.0
139.54805 196.0
139.682098 80.0
139.759735 180.0
139.806808 144.0
139.860931 156.0
140.035172 132.0
140.070496 168.0
140.108185 248.0
140.178879 192.0
140.207153 172.0
140.518402 132.0
140.575043 180.0
140.626953 140.0
140.801666 192.0
140.985947 140.0
141.045029 156.0
141.071671 1436.0
141.165604 108.0
141.257843 124.0
141.608154 200.0
141.918594 56.0
142.008698 160.0
142.05246 144.0
142.077744 508.0
142.117828 124.0
142.140091 304.0
142.17952 148.0
142.248352 164.0
142.340942 132.0
142.40744 176.0
142.471573 140.0
142.590393 80.0
142.6922 212.0
142.818634 156.0
142.875717 176.0
142.901901 148.0
142.96138 52.0
143.047119 328.0
143.086258 2616.0
143.244705 128.0
143.387665 212.0
143.634918 184.0
143.95784 136.0
144.013718 168.0
144.058029 1204.0
144.086227 520.0
144.175232 92.0
144.218246 44.0
144.242157 40.0
144.385605 56.0
144.696472 192.0
144.739777 136.0
144.835571 192.0
144.883484 144.0
144.905045 176.0
144.952957 152.0
144.988358 172.0
145.028 356.0
145.064835 8640.0
145.09726 140.0
145.341415 96.0
145.360611 64.0
145.425415 56.0
145.487823 68.0
145.588669 176.0
145.670883 104.0
145.701553 40.0
145.790466 128.0
145.927475 180.0
145.953918 212.0
145.985184 172.0
146.004425 176.0
146.041473 208.0
146.066422 1076.0
146.117477 196.0
146.155975 232.0
146.454483 148.0
146.497849 120.0
146.589401 64.0
146.712326 180.0
146.746078 108.0
146.828064 48.0
146.994019 176.0
147.010834 136.0
147.045898 4360.0
147.07933 284.0
147.122437 200.0
147.203751 188.0
147.248001 120.0
147.274567 112.0
147.315628 168.0
147.359116 180.0
147.389084 236.0
147.424347 40.0
147.448517 132.0
147.477524 204.0
147.625992 168.0
147.736252 176.0
147.799164 44.0
147.869339 184.0
147.944382 48.0
148.051727 452.0
148.123581 136.0
148.348938 224.0
148.484726 60.0
148.552628 176.0
148.584167 172.0
148.873016 136.0
148.989227 156.0
149.056412 152.0
149.224152 228.0
149.291 100.0
149.363968 156.0
149.390717 144.0
149.626984 196.0
149.665741 144.0
149.685211 152.0
149.743668 40.0
149.872772 112.0
150.002213 180.0
150.031509 188.0
150.053131 176.0
150.16774 136.0
150.216522 72.0
150.236038 128.0
150.294601 172.0
150.394653 76.0
150.461624 192.0
150.494736 96.0
150.558228 96.0
150.597305 88.0
150.787872 176.0
150.812317 168.0
150.839203 100.0
150.866104 92.0
151.05159 164.0
151.054672 336.0
151.093536 152.0
151.126419 156.0
151.294968 116.0
151.431335 176.0
151.458282 184.0
151.512177 148.0
151.634689 176.0
151.884781 140.0
151.990265 296.0
152.063049 1288.0
152.120346 72.0
152.203827 52.0
152.589569 168.0
152.62645 164.0
152.658417 140.0
152.823227 180.0
152.95311 164.0
152.993042 104.0
153.022583 192.0
153.07048 2100.0
153.478394 140.0
153.648575 340.0
153.692993 224.0
153.843536 248.0
154.008987 144.0
154.046036 124.0
154.079025 612.0
154.107803 68.0
154.248657 220.0
154.340134 148.0
154.471207 140.0
154.731064 144.0
154.753342 164.0
155.054108 908.0
155.085541 552.0
155.192612 68.0
155.238998 92.0
155.314606 140.0
155.365494 168.0
155.472198 156.0
155.509415 276.0
155.603745 172.0
155.777588 112.0
156.056152 828.0
156.140472 76.0
156.267334 200.0
156.344482 144.0
156.363174 176.0
156.496323 184.0
156.860168 84.0
156.884979 164.0
157.004654 192.0
157.065125 1852.0
157.093994 380.0
157.226685 68.0
157.403931 152.0
157.453873 220.0
157.611252 176.0
157.701218 140.0
157.758713 76.0
157.783707 148.0
157.851212 208.0
157.873718 128.0
158.035416 612.0
158.070557 620.0
158.326691 116.0
158.344223 48.0
158.65744 144.0
158.742676 156.0
158.820435 136.0
158.863068 56.0
159.046082 1152.0
159.080566 2684.0
159.135605 128.0
159.171783 208.0
159.224518 96.0
159.40036 180.0
159.709595 84.0
159.832855 208.0
159.990601 184.0
160.05069 480.0
160.084671 536.0
160.109772 212.0
160.175247 172.0
160.200439 112.0
160.316345 96.0
160.36171 60.0
160.41716 168.0
160.480194 220.0
160.515488 252.0
160.53566 80.0
160.588623 44.0
160.606277 204.0
160.697098 96.0
160.962128 192.0
161.059113 1268.0
161.09436 188.0
161.19812 180.0
161.242523 132.0
161.277908 44.0
161.535141 132.0
161.576309 144.0
161.604141 56.0
161.723068 172.0
161.824341 52.0
161.900299 124.0
161.925629 100.0
162.031403 116.0
162.062408 140.0
162.092819 200.0
162.447769 212.0
162.485825 68.0
162.643158 116.0
162.676163 116.0
162.785324 120.0
162.808182 224.0
162.869141 192.0
162.935181 208.0
163.001251 132.0
163.037521 396.0
163.069946 124.0
163.141235 160.0
163.202057 140.0
163.298691 220.0
163.362274 248.0
163.466599 64.0
163.49968 168.0
163.558212 204.0
163.843414 144.0
164.031998 136.0
164.121231 220.0
164.184982 108.0
164.235992 104.0
164.285507 116.0
164.332932 164.0
164.915161 136.0
164.950943 104.0
165.011154 112.0
165.035309 216.0
165.071335 460.0
165.204102 108.0
165.32692 180.0
165.350479 136.0
165.378113 144.0
165.639282 132.0
165.726379 204.0
165.760727 200.0
165.793243 224.0
165.957062 216.0
166.000656 180.0
166.059631 92.0
166.085281 208.0
166.146851 152.0
166.226395 96.0
166.27771 168.0
166.318787 192.0
166.488235 120.0
166.763138 152.0
166.891663 112.0
167.051926 140.0
167.075989 180.0
167.09407 396.0
167.210648 96.0
167.336777 104.0
167.419174 96.0
167.483566 248.0
167.604645 128.0
167.676804 148.0
167.74231 224.0
167.82373 128.0
167.854675 124.0
167.893356 40.0
167.955261 152.0
168.007721 248.0
168.054306 124.0
168.086838 48.0
168.458618 164.0
168.523193 224.0
169.064835 1244.0
169.102448 164.0
169.617889 112.0
169.643814 236.0
169.737152 96.0
169.768265 160.0
169.820129 124.0
169.851257 172.0
169.993958 136.0
170.032104 240.0
170.072617 704.0
170.219788 160.0
170.256149 128.0
170.323669 184.0
170.583527 224.0
170.625122 128.0
171.043442 720.0
171.080978 6364.0
171.12204 176.0
171.155884 116.0
171.193924 144.0
171.244431 80.0
171.395523 192.0
171.494553 128.0
171.536255 80.0
171.588776 168.0
171.645767 176.0
171.885742 192.0
171.919662 184.0
171.961426 44.0
172.052063 548.0
172.084854 760.0
172.157227 156.0
172.193787 180.0
172.310791 136.0
172.502106 172.0
172.758377 96.0
172.785339 144.0
172.802078 148.0
172.910141 160.0
172.962479 84.0
173.032227 192.0
173.060272 10264.0
173.103867 168.0
173.165009 80.0
173.190292 76.0
173.219101 152.0
173.242676 228.0
173.278381 76.0
173.350098 236.0
173.368439 132.0
173.452316 60.0
173.551941 100.0
173.648956 204.0
173.698792 56.0
173.761765 148.0
173.81424 56.0
173.832596 68.0
173.898209 108.0
173.989029 172.0
174.030136 360.0
174.063919 2176.0
174.257965 68.0
174.28949 144.0
174.497131 116.0
174.527786 116.0
174.800797 160.0
174.949646 220.0
174.986496 56.0
175.039108 1468.0
175.073807 404.0
175.114609 192.0
175.165573 84.0
175.513458 112.0
175.608398 56.0
175.785141 32.0
176.04454 328.0
176.104584 140.0
176.144211 164.0
176.204971 140.0
176.231384 108.0
176.500992 216.0
176.604126 68.0
176.683487 212.0
176.704651 216.0
176.946701 204.0
177.049286 216.0
177.085846 180.0
177.223587 40.0
177.287186 148.0
177.600037 124.0
177.706146 172.0
177.759216 156.0
177.780441 172.0
178.021301 164.0
178.053635 208.0
178.12294 164.0
178.566818 52.0
178.697159 196.0
178.888779 108.0
179.032272 172.0
179.067688 232.0
179.189713 80.0
179.219025 52.0
179.263916 236.0
179.493561 128.0
179.563705 200.0
179.65625 84.0
179.717621 148.0
179.765656 172.0
179.792328 172.0
179.904434 120.0
179.95784 156.0
179.997879 40.0
180.05777 588.0
180.110046 56.0
180.358551 140.0
180.390625 216.0
180.470825 92.0
180.676773 164.0
180.815903 48.0
180.877472 48.0
181.06488 780.0
181.098587 196.0
181.461472 64.0
181.531189 124.0
181.735046 212.0
181.904114 216.0
182.040024 232.0
182.074066 380.0
182.11087 120.0
182.309677 196.0
182.398376 108.0
182.449448 156.0
182.471924 100.0
182.546249 172.0
182.963287 204.0
183.041214 1044.0
183.075409 676.0
183.106003 180.0
183.186813 100.0
183.262238 116.0
183.544556 168.0
183.590591 168.0
183.639648 140.0
183.763733 128.0
183.941849 228.0
184.05191 3192.0
184.08493 172.0
184.195663 156.0
184.443008 196.0
184.549698 132.0
184.709259 88.0
184.798538 108.0
184.914886 76.0
185.060989 1944.0
185.105331 380.0
185.199173 144.0
185.220856 76.0
185.253357 168.0
185.502655 172.0
185.537903 152.0
185.980057 180.0
186.062561 492.0
186.107651 180.0
186.180969 176.0
186.218994 136.0
186.468948 120.0
186.501572 116.0
186.555923 100.0
186.60582 184.0
186.833313 88.0
186.879562 156.0
186.999298 88.0
187.040787 1680.0
187.07634 3052.0
187.154465 220.0
187.45137 68.0
187.578323 188.0
187.633987 136.0
187.876709 60.0
187.896973 124.0
188.041855 868.0
188.082108 496.0
188.13324 248.0
188.253372 116.0
188.389938 96.0
188.619476 184.0
188.799927 64.0
188.860092 128.0
189.01329 76.0
189.054504 408.0
189.098129 208.0
189.328094 128.0
189.363708 44.0
189.415741 76.0
189.434921 136.0
189.80217 108.0
189.89267 140.0
189.972214 172.0
190.023102 172.0
190.065491 76.0
190.095673 156.0
190.2686 180.0
190.732849 156.0
190.928055 140.0
191.037277 400.0
191.142624 100.0
191.379349 176.0
191.464706 256.0
191.602432 116.0
191.734695 80.0
191.767761 60.0
191.800842 160.0
191.908356 104.0
191.952469 460.0
192.036591 144.0
192.060028 92.0
192.14003 80.0
192.300079 36.0
192.393921 92.0
192.438095 68.0
192.457428 60.0
192.479507 96.0
192.540268 40.0
192.636932 36.0
193.04599 176.0
193.153854 176.0
193.613297 60.0
193.665924 224.0
193.765656 96.0
193.940231 84.0
194.46167 112.0
194.506073 140.0
194.583801 192.0
195.067184 160.0
195.11557 148.0
195.275726 152.0
195.348038 192.0
195.517761 148.0
195.65416 164.0
195.876938 144.0
195.963303 204.0
195.987778 148.0
196.074753 132.0
196.197403 108.0
196.267105 152.0
196.579514 188.0
196.666031 80.0
196.693954 132.0
196.724655 204.0
196.77211 172.0
197.058945 204.0
197.092621 196.0
197.196716 180.0
197.356049 136.0
197.459518 184.0
197.574203 148.0
197.602173 128.0
198.068512 1112.0
198.142517 120.0
198.234985 200.0
198.307846 204.0
198.341476 188.0
198.417175 48.0
198.462036 72.0
198.537735 140.0
198.607864 56.0
198.649933 56.0
198.916519 228.0
199.076767 4528.0
199.21698 112.0
199.245071 200.0
199.26474 32.0
199.460709 164.0
199.551422 136.0
199.776398 120.0
199.857986 80.0
199.897385 124.0
199.922714 88.0
199.967743 156.0
199.990265 160.0
200.048401 1864.0
200.078339 768.0
200.125381 80.0
200.16481 124.0
200.260559 176.0
200.299988 172.0
200.446487 184.0
200.492706 140.0
200.567673 108.0
200.784775 96.0
200.832718 148.0
200.863739 136.0
200.945557 108.0
200.996338 144.0
201.055954 31376.0
201.144592 68.0
201.171326 80.0
201.266449 52.0
201.301208 268.0
201.34639 60.0
201.377457 64.0
201.455414 80.0
201.498917 48.0
201.533691 52.0
201.556747 112.0
201.595993 136.0
201.657166 56.0
201.775101 128.0
201.879974 256.0
201.934235 140.0
201.977737 212.0
202.019104 76.0
202.059204 3212.0
202.112457 36.0
202.137924 36.0
202.160568 28.0
202.197357 80.0
202.27475 104.0
202.332001 92.0
202.437988 64.0
202.548447 72.0
202.579803 176.0
202.649155 92.0
202.675934 76.0
202.837463 140.0
202.981934 284.0
203.034744 11524.0
203.098343 28.0
203.190689 72.0
203.206894 132.0
203.262878 32.0
203.30545 128.0
203.36116 184.0
203.414764 240.0
203.472916 120.0
203.495636 104.0
203.526855 136.0
203.557327 104.0
203.610214 144.0
203.671692 160.0
203.719406 116.0
203.748398 192.0
203.80806 36.0
203.859207 68.0
203.910355 164.0
204.036911 868.0
204.075241 96.0
204.10936 184.0
204.183289 96.0
204.240601 80.0
204.265778 116.0
204.408035 40.0
204.604416 244.0
204.708786 128.0
204.813782 192.0
204.921799 100.0
205.04512 112.0
205.097229 36.0
205.636826 88.0
205.70993 216.0
205.784744 56.0
206.213226 112.0
206.341858 116.0
206.46196 160.0
206.559204 84.0
206.622131 68.0
206.65361 216.0
206.736588 44.0
207.062958 108.0
207.197586 168.0
207.335114 120.0
207.469833 236.0
207.538651 64.0
207.578796 88.0
207.630402 116.0
207.770966 44.0
207.980438 128.0
208.006271 124.0
208.299164 76.0
208.362366 152.0
208.454315 112.0
208.540527 36.0
209.060135 392.0
209.22226 156.0
209.455505 196.0
209.487198 164.0
210.069153 316.0
210.170471 160.0
210.233963 160.0
210.346527 140.0
210.496658 216.0
210.733505 160.0
210.98494 164.0
211.039719 128.0
211.083191 188.0
211.158432 188.0
211.277023 60.0
211.580902 180.0
211.708298 192.0
211.7836 200.0
211.940033 120.0
211.965332 160.0
212.044891 792.0
212.107101 172.0
212.418396 176.0
212.778244 224.0
212.818893 108.0
212.876968 96.0
212.943756 96.0
213.054718 9936.0
213.152924 76.0
213.391266 132.0
213.475586 64.0
213.603561 88.0
213.90036 64.0
213.949844 172.0
214.022629 100.0
214.059662 1308.0
214.095428 184.0
214.141205 56.0
214.313309 136.0
214.401321 52.0
214.622864 44.0
214.752808 188.0
214.797852 48.0
215.034363 276.0
215.070694 4356.0
215.15387 28.0
215.291107 128.0
215.343674 36.0
215.39624 80.0
215.422531 140.0
215.510178 44.0
215.62999 60.0
215.700134 128.0
215.774979 60.0
215.884338 204.0
215.986694 144.0
216.041611 756.0
216.07756 988.0
216.115417 64.0
216.323212 148.0
216.605743 148.0
217.049866 336.0
217.083221 360.0
217.174469 188.0
217.398865 92.0
217.419403 136.0
217.613144 176.0
217.768768 96.0
218.062759 136.0
218.092514 176.0
218.244843 132.0
218.444824 148.0
218.839188 240.0
218.95108 136.0
219.057602 192.0
219.216217 188.0
219.481506 100.0
219.587662 152.0
219.626007 128.0
220.021439 192.0
220.310837 88.0
220.674362 120.0
220.875458 188.0
221.195023 172.0
221.314163 164.0
221.562225 208.0
221.757797 120.0
222.042419 144.0
222.680511 180.0
222.793579 124.0
222.876572 100.0
223.010315 116.0
223.041916 132.0
223.08165 184.0
223.498016 168.0
223.652771 152.0
223.76886 96.0
223.798645 148.0
223.992218 124.0
224.185867 168.0
224.242493 168.0
224.609238 136.0
224.645035 152.0
224.69873 60.0
225.059479 120.0
225.134521 136.0
225.215164 100.0
225.645477 232.0
225.918259 168.0
225.989426 88.0
226.0634 2396.0
226.109116 64.0
226.145035 48.0
226.336624 60.0
226.482162 108.0
226.525314 124.0
226.594208 112.0
226.690094 156.0
226.714066 88.0
226.845947 208.0
226.890915 68.0
226.950882 88.0
227.016312 224.0
227.071167 19856.0
227.13382 140.0
227.184158 184.0
227.229813 72.0
227.27301 128.0
227.295822 52.0
227.33606 68.0
227.347336 72.0
227.35704 80.0
227.425766 120.0
227.481903 104.0
227.758148 104.0
227.809219 60.0
227.845261 160.0
227.899353 36.0
227.928772 96.0
227.977478 92.0
228.038971 944.0
228.075043 3008.0
228.139771 100.0
228.175858 164.0
228.223953 196.0
228.251022 48.0
228.31337 180.0
228.40741 164.0
228.441269 140.0
228.506088 244.0
228.549042 144.0
228.612 60.0
228.637268 120.0
228.666168 112.0
228.687241 100.0
228.722748 80.0
228.730713 144.0
228.777542 120.0
228.815704 192.0
228.828293 84.0
228.832199 112.0
228.858826 240.0
228.894684 152.0
228.92749 284.0
228.948776 124.0
228.955643 196.0
228.977493 148.0
229.014145 500.0
229.051315 91652.0
229.145447 60.0
229.165222 308.0
229.200439 224.0
229.25528 124.0
229.265488 204.0
229.30867 276.0
229.343842 40.0
229.387177 116.0
229.455383 92.0
229.481308 160.0
229.546555 556.0
229.624664 56.0
229.650955 84.0
229.681793 96.0
229.701263 112.0
229.725327 88.0
229.77356 72.0
229.810516 72.0
229.832779 124.0
229.847275 60.0
229.854309 92.0
229.909897 96.0
229.965897 116.0
230.013855 96.0
230.054367 11248.0
230.110947 192.0
230.132782 168.0
230.156418 192.0
230.221222 64.0
230.226898 52.0
230.306351 44.0
230.336563 60.0
230.360718 100.0
230.39093 56.0
230.418121 92.0
230.486771 72.0
230.518723 68.0
230.589279 100.0
230.626633 92.0
230.653839 32.0
230.686264 44.0
230.723358 56.0
230.747543 80.0
230.780807 60.0
230.811951 204.0
230.848587 144.0
230.96666 88.0
231.056335 1412.0
231.087509 188.0
231.097748 208.0
231.171005 40.0
231.245316 36.0
231.276932 252.0
231.414505 72.0
231.438812 68.0
231.507019 48.0
231.528229 272.0
231.562622 100.0
231.658463 40.0
231.687149 136.0
231.740265 92.0
231.770569 100.0
231.797546 84.0
231.837296 200.0
232.0009 104.0
232.079727 120.0
232.131271 72.0
232.288986 80.0
232.310226 104.0
232.349655 64.0
232.380005 52.0
232.440689 164.0
232.503723 88.0
232.66832 60.0
232.74118 32.0
232.762054 140.0
232.823166 116.0
232.844437 144.0
233.145203 36.0
233.51001 40.0
233.680359 40.0
233.774689 132.0
233.932953 88.0
234.133911 64.0
234.225281 84.0
234.612289 140.0
234.795242 36.0
234.944702 176.0
235.359772 32.0
235.668274 56.0
235.958618 48.0
236.090103 92.0
236.249161 84.0
236.405197 32.0
236.876694 48.0
237.977676 56.0
238.367767 48.0
238.951965 92.0
239.050415 108.0
239.179688 72.0
239.25972 132.0
239.570755 40.0
240.063904 60.0
240.341522 40.0
241.088882 792.0
241.591721 84.0
242.052628 264.0
242.087646 176.0
242.153046 88.0
242.534149 116.0
242.772873 72.0
242.826859 176.0
242.921753 144.0
242.983795 140.0
243.067169 14120.0
243.191696 80.0
243.254669 56.0
243.381073 40.0
243.409012 68.0
243.468018 36.0
243.523926 44.0
243.554977 72.0
243.645065 116.0
243.756912 56.0
243.820053 96.0
244.002457 56.0
244.072052 6212.0
244.236786 68.0
244.400574 108.0
244.609085 52.0
244.736725 128.0
244.895554 60.0
244.976532 68.0
245.074997 588.0
245.11618 180.0
245.306854 64.0
245.356735 44.0
245.712265 104.0
245.768417 52.0
245.812103 144.0
245.89119 200.0
245.918213 64.0
246.077164 148.0
246.196075 64.0
247.763123 28.0
247.9198 92.0
248.459106 88.0
250.719879 56.0
251.022507 100.0
251.154968 164.0
251.290619 176.0
251.388428 40.0
253.006714 36.0
253.475479 136.0
255.679337 156.0
255.848038 80.0
255.873505 100.0
256.647736 144.0
258.759644 152.0
258.868958 144.0
259.015839 160.0
259.097504 9244.0
259.172821 116.0
259.299683 68.0
259.306763 40.0
259.486908 56.0
259.560669 56.0
259.602356 52.0
259.640839 80.0
259.7659 60.0
259.855743 72.0
259.913483 36.0
259.964844 84.0
260.101868 1444.0
260.160614 148.0
260.308319 56.0
260.510651 60.0
260.873779 56.0
261.105743 496.0
261.195343 60.0
261.581482 128.0
261.653412 168.0
261.745667 80.0
261.849518 80.0
261.987244 80.0
262.135437 64.0
262.357849 64.0
263.319397 72.0
264.15979 64.0
270.65921 100.0
272.824585 100.0
275.018433 92.0
276.303864 120.0
278.923645 112.0
283.640198 76.0
284.542603 60.0
287.045898 96.0
301.82901 80.0
302.631744 116.0
302.860321 100.0
306.257263 88.0
310.717743 56.0
314.454742 76.0
315.896362 64.0
316.207733 72.0
316.352844 48.0
317.355469 84.0
318.277985 68.0
320.6828 116.0
321.303284 80.0
329.517731 52.0
335.174286 52.0
340.243591 68.0
342.147919 96.0
342.704071 64.0
347.581116 104.0
350.473938 120.0
351.529205 92.0
352.406677 64.0
358.074768 76.0
367.258392 64.0
367.372803 48.0
374.433228 80.0
379.735779 88.0
381.665802 88.0
383.039612 108.0
385.196716 64.0
388.045685 100.0
388.928345 52.0
390.743835 32.0
394.276886 124.0
398.330109 56.0
401.338806 76.0
402.28833 96.0
407.088898 56.0
410.674713 76.0
412.091644 68.0
416.454498 28.0
418.129578 40.0
419.469604 96.0
422.20517 36.0
426.52243 84.0
427.386078 80.0
428.707855 76.0
429.664459 104.0
430.089478 108.0
432.141113 120.0
434.293304 88.0
435.235352 60.0
435.904114 68.0
436.756378 64.0
443.068085 72.0
450.649506 96.0
453.463531 48.0
453.535583 40.0
470.737671 64.0
472.251617 68.0
478.84436 64.0
481.578979 52.0
482.286804 112.0
483.555176 92.0
486.729034 108.0
488.636566 96.0
489.833984 96.0
490.48172 148.0
492.308258 60.0
503.816681 44.0
515.566528 36.0
520.14093 44.0
528.206299 44.0
537.744995 108.0
537.994263 64.0
541.087036 72.0
547.196777 68.0
552.648193 32.0
571.355469 92.0
573.264709 40.0
580.295959 60.0
580.756287 28.0
585.090637 76.0
590.911011 80.0
592.169556 64.0
594.579102 72.0
596.040771 100.0
597.231812 96.0
619.849976 80.0
631.839417 172.0
634.774475 88.0
635.587036 92.0
639.83905 132.0
646.906677 60.0
655.724365 48.0
667.483276 104.0
668.414307 88.0
672.217163 40.0
673.290894 56.0
686.816406 80.0
687.734741 64.0
692.869751 108.0
695.785645 92.0
698.533997 104.0
715.420288 156.0
718.484558 76.0
723.9953 176.0
748.93158 60.0
758.811584 84.0
775.575439 52.0
786.946167 128.0
795.326416 84.0
819.992432 120.0
821.315186 48.0
823.352722 68.0
831.484375 52.0
842.300781 116.0
843.624023 188.0
850.163147 104.0
858.056213 72.0
867.99585 248.0
879.780518 100.0
899.065002 144.0
910.805725 100.0
913.053589 172.0
915.683533 204.0
917.340515 60.0
935.349426 220.0
944.300232 88.0
947.305542 196.0
957.070435 60.0
962.440857 132.0
990.332458 48.0
992.143372 164.0
994.564636 124.0
995.299133 172.0
996.982605 92.0
998.070068 164.0
1021.342896 152.0
1024.519287 60.0
1026.699097 156.0
1027.866455 164.0
1029.973267 140.0
1040.12854 120.0
1047.407349 264.0
1048.296387 164.0
1048.521973 156.0
1054.278442 128.0
1056.547974 92.0
1057.984619 96.0
1059.921143 196.0
1063.9552 88.0
1068.803711 88.0
1074.876465 52.0
1086.201172 64.0
1090.298096 64.0
1095.845093 156.0
1096.042847 120.0
1100.494873 64.0
1102.727661 64.0
1105.763306 116.0
1106.385498 112.0
1106.835815 168.0
1109.280396 164.0
1112.351685 140.0
1113.174927 204.0
1117.082886 196.0
1123.21106 40.0
1123.491211 32.0
1124.191772 232.0
1141.003784 156.0
1141.286133 84.0
1143.977173 160.0
1149.483521 172.0
1152.400391 48.0
1161.590088 248.0
1161.804077 160.0
1162.496094 152.0
1170.666992 288.0
1182.196777 172.0
1186.285645 168.0
1187.012451 196.0
1191.34314 204.0
1196.101562 156.0
1198.801392 160.0
1201.062622 120.0
1209.907715 100.0
1211.389648 164.0
1212.311157 124.0
1215.570312 172.0
1222.247803 140.0
1222.943726 196.0
1223.396118 180.0
1223.967041 224.0
1224.050659 156.0
1225.583008 92.0
1225.785034 92.0
1227.339478 180.0
1229.289429 108.0
1230.067261 184.0
1231.093506 204.0
1232.21814 132.0
1232.35083 160.0
1232.637329 128.0
1233.53894 92.0
1235.636841 144.0
1236.364502 180.0
1240.09729 84.0
1242.270996 116.0
1244.516724 136.0
1245.366455 196.0
1248.353271 184.0
1249.077637 152.0
1250.534058 240.0
1250.794556 92.0
1251.08313 132.0
1251.787231 176.0
1254.26001 152.0
1254.591309 128.0
1254.640747 204.0
1261.5448 140.0
1262.053711 184.0
1262.718506 168.0
1267.518066 152.0
1268.084961 164.0
1273.967163 200.0
1274.244263 152.0
1274.670532 144.0
1275.423828 180.0
1275.473633 68.0
1276.916992 200.0
1280.603638 252.0
1292.060303 64.0
1296.198608 196.0
1297.467285 148.0
1297.774658 176.0
1299.374878 216.0
1304.31543 36.0
1308.019775 164.0
1309.056519 172.0
1311.095215 192.0
1312.745972 108.0
1313.849487 152.0
1315.776367 120.0
1315.834106 196.0
1317.06897 216.0
1318.094849 144.0
1319.540405 180.0
1320.827515 100.0
1323.664551 216.0
1324.366943 204.0
1326.714722 240.0
1326.968506 132.0
1328.868652 80.0
1329.775635 120.0
1332.395874 124.0
1335.668213 48.0
1337.174316 204.0
1339.038086 152.0
1339.50415 156.0
1341.121826 136.0
1345.235718 100.0
1345.52771 176.0
1346.871338 220.0
1347.243896 160.0
1347.908691 124.0
1348.522583 80.0
1350.467407 252.0
1352.794189 52.0
1353.562866 104.0
1353.731323 148.0
1356.302856 196.0
1357.505127 236.0
1358.025879 228.0
1358.649414 180.0
1359.390381 104.0
1360.799683 72.0
1363.150024 156.0
1366.510254 176.0
1367.702393 56.0
1369.145386 140.0
1371.974731 156.0
1372.033813 188.0
1376.394165 56.0
1376.696899 128.0
1378.565796 172.0
1379.068359 184.0
1382.011475 164.0
1382.499878 196.0
1383.23999 248.0
1384.743042 148.0
1386.358032 136.0
1389.197754 148.0
1389.472168 144.0
1389.960327 188.0
1391.483398 168.0
1392.433838 136.0
1395.710938 124.0
1397.324951 132.0
1397.823486 204.0
1399.125977 188.0
1401.464478 188.0
1402.917725 148.0
1414.728271 140.0
1415.791382 152.0
1416.862549 88.0
1418.885986 152.0
1419.538208 120.0
1420.295654 196.0
1424.424072 156.0
1424.807129 120.0
1426.362671 124.0
1427.512939 152.0
1428.422974 136.0
1429.318237 132.0
1429.854736 148.0
1432.623413 160.0
1433.0 68.0
1434.567505 164.0
1434.748535 160.0
1435.012329 204.0
1437.192017 148.0
1437.788208 168.0
1439.682983 236.0
1440.884033 124.0
1443.098389 52.0
1443.665527 100.0
1444.414185 140.0
1445.261475 240.0
1445.515137 48.0
1446.161987 184.0
1448.274414 116.0
1448.983643 188.0
1450.070068 128.0
1452.155029 160.0
1453.300415 80.0
1453.85437 152.0
1453.960571 160.0
1455.3573 132.0
1455.48645 152.0
1456.557251 180.0
1456.997803 196.0
1457.370117 124.0
1459.878418 108.0
1460.39563 84.0
1461.39209 164.0
1462.008423 52.0
1463.363403 112.0
1463.614624 52.0
1465.122559 92.0
1465.18042 116.0
1468.331543 112.0
1470.673828 44.0
1471.444824 136.0
1471.773071 228.0
1471.887573 176.0
1476.327271 256.0
1478.874878 116.0
1481.57019 196.0
1481.623779 144.0
1484.022583 164.0
1485.241943 144.0
1489.486572 200.0
1490.154907 164.0
1490.900269 176.0
1491.61499 208.0
1491.884033 184.0
1492.594482 120.0
1494.428345 116.0
1494.883667 152.0
1498.317627 148.0
1500.668213 268.0
1502.049805 180.0
1502.758301 184.0
1503.514526 52.0
