>compound MLS000859911-01!N-Acetyl-5-hydroxytryptamine
>formula C12H14N2O2
>ionization [M+H]+
>parentmass 219.113
#inchi InChI=1S/C12H14N2O2/c1-8(15)13-5-4-9-7-14-12-3-2-10(16)6-11(9)12/h2-3,6-7,14,16H,4-5H2,1H3,(H,13,15)
#inchikey MVAWJSIDNICKHF
#Ion_Source LC-ESI
#Instrument qTof
#Compound_Source NIH Pharmacologically Active Library
#PI Dorrestein
#Data_Collector VP/LMS
#Scan -1
#Precursor_MZ 219.113
#ExactMass 218.106
#Charge 1
#CAS_Number N/A
#Pubmed_ID N/A
#Smiles CC(=O)NCCc1c[nH]c2ccc(O)cc12
#INCHI_AUX N/A
#Library_Class 1
#SpectrumID CCMSLIB00000085908
#IonMode Positive
#UpdateWorkflowName UPDATE-SINGLE-ANNOTATED-GOLD
#LibraryQualityString Gold
#TaskID d252d724072548979f1f6f1ced849daf
##Scan# 1212
#SpectrumFile p4-G10_GG10_01_18406.mzXML
#LibraryName Pharm_Active_Library.mgf
#MQScore -1
#Organism Pharm_Active_Library
#TIC_Query 0
#RT_Query -1
#MZErrorPPM -1
#SharedPeaks 0
#MassDiff 0
#LibMZ -1
#SpecMZ 219.113
#SpecCharge 0
#internalFilename spec-00000.mgf

>collision 10
45.359383 40.0
46.024017 88.0
46.269558 180.0
46.694843 140.0
46.850025 240.0
47.237114 176.0
47.71637 140.0
47.819546 172.0
47.864975 68.0
47.947636 120.0
48.238884 212.0
48.446468 144.0
48.587879 116.0
48.83654 192.0
49.133263 192.0
49.205837 208.0
49.277069 84.0
49.434345 144.0
49.657845 136.0
49.758884 172.0
49.900791 92.0
49.966896 232.0
49.978153 168.0
50.011929 72.0
50.47044 156.0
50.569469 180.0
50.796188 132.0
51.06039 176.0
51.125835 220.0
51.262169 224.0
51.406586 164.0
51.990482 156.0
52.144157 140.0
52.203102 264.0
52.71632 212.0
52.775585 124.0
52.875404 76.0
53.450096 204.0
53.836411 148.0
54.180157 144.0
54.555862 240.0
54.567627 192.0
54.738312 160.0
54.816387 136.0
55.386692 120.0
55.435585 132.0
55.782906 56.0
55.793312 172.0
55.840897 40.0
55.940594 76.0
56.050808 152.0
56.341766 176.0
56.679916 152.0
56.711391 144.0
56.78936 148.0
56.813362 188.0
56.891399 144.0
56.913921 128.0
57.136372 168.0
57.871418 156.0
58.089661 172.0
58.132145 140.0
58.471054 84.0
58.498451 132.0
59.047775 136.0
59.323402 140.0
59.446106 212.0
59.771893 60.0
60.092396 212.0
60.68634 116.0
60.999138 204.0
61.167961 188.0
61.436005 172.0
61.678055 200.0
61.980114 164.0
62.414928 144.0
62.550236 212.0
62.56572 172.0
63.019997 124.0
63.255867 196.0
63.577633 164.0
63.650658 132.0
63.834991 232.0
64.30658 188.0
64.583 136.0
64.659805 168.0
64.771889 232.0
64.810341 148.0
64.876053 128.0
65.488297 132.0
65.607544 208.0
65.694633 184.0
66.602783 148.0
66.627151 140.0
66.952484 200.0
67.356987 104.0
67.456673 48.0
67.915176 180.0
67.93322 232.0
68.013626 156.0
68.186096 48.0
68.460846 148.0
68.676758 172.0
68.876488 132.0
68.912834 152.0
69.202286 164.0
69.233749 92.0
69.344757 212.0
69.686615 48.0
70.087624 156.0
70.135956 148.0
70.234337 140.0
70.558311 188.0
70.749039 136.0
70.903145 180.0
71.077553 108.0
71.119507 128.0
71.543129 140.0
71.649231 124.0
72.013611 180.0
72.147102 188.0
72.17585 172.0
72.621254 208.0
72.889496 160.0
72.92009 144.0
72.993195 176.0
73.05442 220.0
73.199097 160.0
73.270638 168.0
73.832237 164.0
73.974258 160.0
74.111275 76.0
74.183617 232.0
74.275864 136.0
74.658882 140.0
74.915352 220.0
75.02565 200.0
75.224045 176.0
75.663162 152.0
75.973389 100.0
76.24601 152.0
76.331192 188.0
76.714241 140.0
76.949768 140.0
77.030998 180.0
77.098251 220.0
77.27137 228.0
77.311615 176.0
77.698868 116.0
77.728699 192.0
78.208496 140.0
78.539764 52.0
78.610855 192.0
78.673882 116.0
79.036209 216.0
79.463234 208.0
79.578606 160.0
79.85228 192.0
79.985725 92.0
80.17453 172.0
80.790565 184.0
80.831718 148.0
81.833336 120.0
82.19384 208.0
82.237152 116.0
82.419228 176.0
82.477394 168.0
82.692635 128.0
83.149376 176.0
83.202019 88.0
83.443657 144.0
84.101311 176.0
84.262016 172.0
84.338768 252.0
84.669945 184.0
84.723061 220.0
85.124756 248.0
85.262543 48.0
85.931 140.0
86.156242 212.0
86.400284 196.0
86.470596 188.0
86.587242 216.0
86.754013 168.0
86.852295 44.0
87.210663 108.0
87.273872 136.0
87.532524 180.0
87.627525 176.0
87.661064 172.0
88.206062 160.0
88.527885 196.0
88.576584 180.0
89.013588 136.0
89.034241 152.0
89.383911 52.0
89.51757 52.0
90.046715 168.0
90.469208 72.0
91.051262 320.0
91.129227 52.0
91.190033 88.0
91.351662 76.0
91.928993 152.0
92.127571 100.0
92.303413 176.0
92.347404 140.0
92.552177 180.0
92.571327 144.0
92.897163 284.0
93.05838 192.0
93.104469 140.0
93.139038 224.0
93.335075 108.0
93.527466 160.0
93.540939 164.0
93.616028 224.0
93.693077 160.0
94.040848 172.0
94.426613 124.0
94.835159 132.0
95.040497 200.0
95.832115 132.0
95.931511 132.0
96.025108 140.0
96.120705 176.0
96.251488 164.0
96.515289 184.0
96.58374 196.0
97.061615 152.0
97.295105 176.0
97.603584 68.0
97.831818 188.0
98.028786 76.0
98.39962 52.0
98.433189 180.0
98.502319 76.0
99.22863 184.0
99.456772 40.0
99.506401 172.0
99.522285 56.0
99.693123 228.0
99.726913 160.0
99.834274 156.0
99.876045 88.0
100.090988 180.0
100.601402 192.0
101.369469 152.0
101.800781 160.0
101.981598 92.0
102.222946 80.0
102.518974 144.0
103.053291 708.0
103.077972 52.0
103.527077 172.0
103.816879 64.0
104.047462 772.0
104.603203 172.0
104.808907 60.0
104.839478 48.0
105.03418 168.0
105.069588 2460.0
105.131111 28.0
105.276054 60.0
105.329163 260.0
105.64193 164.0
105.736053 120.0
105.764709 188.0
106.072868 436.0
106.560417 208.0
106.753639 112.0
107.04895 252.0
107.286942 144.0
107.507645 164.0
107.87117 168.0
107.960762 208.0
108.042824 172.0
108.844963 192.0
109.067261 164.0
109.348061 180.0
109.450073 164.0
109.477142 180.0
109.541718 160.0
109.608383 176.0
109.656319 168.0
109.708931 168.0
110.070572 744.0
110.558571 172.0
110.682083 220.0
110.883827 212.0
111.067711 180.0
111.447708 136.0
111.840988 68.0
112.593704 168.0
112.673973 68.0
113.058823 212.0
113.325645 128.0
114.13649 156.0
114.170517 240.0
114.202415 172.0
114.773178 132.0
114.824356 216.0
114.892616 128.0
114.922485 152.0
114.956627 160.0
115.05442 11016.0
115.127419 180.0
115.242767 148.0
115.257729 72.0
115.587036 52.0
115.863243 184.0
115.918953 92.0
115.976822 200.0
115.996117 200.0
116.054726 1268.0
116.081879 180.0
116.105469 76.0
116.646561 92.0
116.668053 104.0
116.833656 152.0
116.860069 104.0
116.885292 132.0
116.908966 136.0
116.930489 92.0
116.980331 180.0
117.057251 8660.0
117.328369 260.0
117.404472 44.0
117.803787 72.0
117.851318 216.0
117.868607 96.0
118.022079 48.0
118.039383 120.0
118.06218 984.0
118.14753 48.0
118.175652 184.0
118.251396 160.0
118.452774 76.0
118.506935 224.0
118.645645 136.0
118.728043 112.0
118.886421 96.0
118.901611 132.0
118.925484 156.0
119.057343 104.0
119.218697 84.0
119.290421 48.0
119.56884 188.0
119.843231 64.0
119.908607 56.0
120.046143 192.0
120.080391 132.0
120.165932 208.0
120.22921 48.0
120.677025 80.0
120.709831 72.0
121.213318 100.0
121.757378 88.0
121.886993 156.0
121.939735 124.0
122.073845 160.0
122.421555 152.0
123.0439 364.0
123.129494 212.0
123.368141 44.0
123.649063 52.0
124.001221 120.0
124.107628 152.0
125.776222 184.0
125.901253 44.0
126.489304 140.0
126.527359 220.0
126.885834 224.0
127.054047 152.0
127.229095 116.0
127.320122 164.0
127.973305 172.0
128.048294 120.0
128.182785 128.0
128.877792 148.0
129.638123 144.0
129.653992 184.0
129.971481 104.0
129.987366 184.0
130.012329 44.0
130.065125 2780.0
130.228012 56.0
130.384796 160.0
130.423431 108.0
130.548477 152.0
130.575775 168.0
130.846558 140.0
131.049057 2184.0
131.07309 2180.0
131.265823 36.0
131.36618 124.0
131.678894 128.0
131.754288 64.0
131.815979 76.0
131.875397 172.0
132.042892 680.0
132.080414 5184.0
132.195587 48.0
132.834839 48.0
133.030594 228.0
133.053787 3420.0
133.079376 1700.0
133.475632 52.0
133.54924 72.0
133.588333 132.0
133.666565 112.0
133.760925 92.0
134.061218 744.0
135.187332 56.0
135.585678 120.0
135.66217 60.0
137.061356 160.0
137.678116 196.0
137.922272 168.0
137.969315 136.0
138.066895 1536.0
138.348312 232.0
138.638763 160.0
138.723145 148.0
139.062927 308.0
139.824799 40.0
139.954269 100.0
140.04892 756.0
140.324203 204.0
140.340698 84.0
140.383148 92.0
140.446823 84.0
141.056427 684.0
141.678452 196.0
141.7211 76.0
141.742432 148.0
142.064774 2808.0
142.190643 196.0
142.221497 68.0
142.473221 168.0
142.815536 104.0
143.00589 144.0
143.071365 2508.0
143.270218 68.0
143.291656 68.0
143.329788 136.0
143.429886 228.0
143.483215 96.0
143.675278 80.0
144.046082 456.0
144.077332 484.0
144.100494 200.0
144.492599 68.0
144.971497 88.0
145.051788 776.0
145.52803 156.0
145.934097 168.0
146.059204 424.0
146.100052 140.0
147.063736 172.0
147.315094 72.0
147.51326 244.0
147.931763 40.0
148.031036 136.0
148.078903 180.0
149.086594 184.0
150.057587 176.0
150.452835 152.0
150.965958 164.0
151.357498 88.0
152.596634 188.0
153.885239 80.0
153.996368 112.0
154.255829 168.0
154.629333 212.0
154.782822 132.0
155.018158 140.0
155.799759 172.0
156.015976 144.0
156.073166 156.0
156.167664 104.0
156.453842 32.0
156.994553 156.0
157.046631 224.0
157.893631 152.0
158.060699 1128.0
158.28154 52.0
158.88559 152.0
159.06665 5584.0
159.111481 72.0
159.139099 44.0
159.272202 80.0
159.28978 200.0
159.493317 120.0
159.601639 48.0
159.920929 152.0
159.966248 164.0
160.014084 128.0
160.075226 20728.0
160.132431 100.0
160.155106 64.0
160.208008 56.0
160.298706 72.0
160.325516 44.0
160.654236 76.0
160.868744 68.0
160.947006 140.0
161.077103 2372.0
161.336105 40.0
161.783905 28.0
161.804153 48.0
161.910507 52.0
161.953751 56.0
162.05098 204.0
162.079453 220.0
162.367096 104.0
162.397141 132.0
162.483002 80.0
163.0522 152.0
163.66275 52.0
164.39946 40.0
165.813751 76.0
166.090683 60.0
168.247208 124.0
168.417648 60.0
169.051086 152.0
171.051071 292.0
172.588928 100.0
174.088745 212.0
176.092087 164.0
179.057358 176.0
182.060822 120.0
183.066071 116.0
184.078857 216.0
185.178635 104.0
196.65654 176.0
202.081635 152.0
205.067963 176.0
219.090286 176.0
221.123917 148.0
225.427399 40.0
226.27092 56.0
243.99411 96.0
250.302185 56.0
259.98584 144.0
277.150757 56.0
320.694855 32.0
324.875153 216.0
328.966949 108.0
429.667633 44.0
500.478943 80.0
529.611267 68.0
616.825806 72.0
659.891846 132.0
866.61615 136.0
867.923279 76.0
869.548279 96.0
873.285156 136.0
897.841675 52.0
899.094543 196.0
914.305481 156.0
920.883362 36.0
935.375671 124.0
937.324646 156.0
940.966125 180.0
942.700867 80.0
948.950684 228.0
954.040466 96.0
955.682617 180.0
971.896545 176.0
975.231567 204.0
984.433777 168.0
993.202393 152.0
998.182922 212.0
1000.34729 160.0
1004.165894 124.0
1019.830627 168.0
1019.957764 152.0
1026.451904 216.0
1027.051392 172.0
1056.661255 100.0
1062.771362 276.0
1075.984131 84.0
1082.254517 108.0
1083.53833 152.0
1088.516846 192.0
1096.450806 144.0
1097.34729 176.0
1104.016724 176.0
1124.066284 252.0
1124.680298 152.0
1129.090088 208.0
1129.625244 140.0
1131.967773 136.0
1141.880249 152.0
1146.242798 172.0
1160.085205 64.0
1162.024902 72.0
1162.391357 68.0
1163.422974 132.0
1168.411499 132.0
1169.166748 92.0
1171.12085 180.0
1172.469849 144.0
1175.293213 172.0
1176.460327 144.0
1176.562744 204.0
1176.630981 152.0
1181.449219 164.0
1184.454468 184.0
1184.708008 136.0
1184.755981 64.0
1194.387329 172.0
1197.905029 176.0
1198.407959 196.0
1200.765625 124.0
1204.41687 164.0
1205.598389 124.0
1206.379517 168.0
1208.551147 52.0
1218.751099 164.0
1222.081787 116.0
1224.971069 136.0
1236.583374 168.0
1244.498047 168.0
1248.159058 148.0
1251.557739 144.0
1254.284302 164.0
1261.512939 68.0
1271.450928 156.0
1272.771362 144.0
1273.126343 92.0
1273.353638 44.0
1273.55249 60.0
1274.739014 148.0
1279.946167 152.0
1283.430664 160.0
1284.243652 196.0
1288.78418 200.0
1293.132202 164.0
1293.554565 168.0
1293.861206 204.0
1296.455444 152.0
1298.864624 196.0
1299.445679 220.0
1300.938477 212.0
1304.350708 208.0
1304.688599 184.0
1305.889526 104.0
1306.644897 204.0
1309.603638 192.0
1311.15271 60.0
1315.921021 172.0
1317.574951 112.0
1318.666138 76.0
1319.815552 124.0
1325.577637 184.0
1326.606934 196.0
1328.492432 68.0
1330.710449 80.0
1330.800415 144.0
1331.453979 128.0
1332.020508 144.0
1335.677002 168.0
1339.433105 144.0
1341.342407 184.0
1342.873657 152.0
1343.559326 176.0
1345.551758 152.0
1345.909546 172.0
1347.458008 128.0
1351.311279 80.0
1351.940552 124.0
1352.138184 136.0
1353.69751 172.0
1355.660889 168.0
1360.061523 192.0
1360.634155 208.0
1360.85437 68.0
1363.991455 196.0
1368.803223 112.0
1370.011108 132.0
1370.895386 208.0
1375.438721 120.0
1377.550659 52.0
1378.939941 188.0
1379.923096 268.0
1381.010132 144.0
1382.637939 148.0
1384.755493 168.0
1385.370239 164.0
1387.282227 188.0
1388.639282 216.0
1395.352417 140.0
1406.064453 172.0
1408.707764 156.0
1410.217163 212.0
1411.076782 168.0
1411.69751 160.0
1414.959961 188.0
1417.79895 184.0
1418.900879 128.0
1428.032471 188.0
1428.784668 196.0
1430.72644 204.0
1430.944702 176.0
1431.012573 280.0
1439.374756 268.0
1440.356689 168.0
1442.691772 116.0
1443.269043 148.0
1446.496948 136.0
1448.988525 160.0
1449.678101 156.0
1449.761475 224.0
1451.990479 116.0
1453.067627 156.0
1454.180298 244.0
1456.643433 144.0
1456.924438 140.0
1458.185913 216.0
1458.573486 228.0
1459.20459 164.0
1459.348999 88.0
1460.291992 216.0
1461.32666 52.0
1462.270264 144.0
1465.537231 172.0
1466.649902 136.0
1469.967651 180.0
1470.730835 160.0
1471.181274 100.0
1475.459595 196.0
1476.369507 148.0
1477.149658 192.0
1480.892822 128.0
1482.540039 152.0
1485.03186 176.0
1485.476807 260.0
1486.044434 172.0
1488.562256 172.0
1488.746582 140.0
1489.522339 196.0
1491.812378 160.0
1493.088745 172.0
1494.134888 224.0
1494.665894 156.0
1497.375732 188.0
1498.330933 132.0
1498.592896 156.0
1499.517578 112.0
1499.895386 180.0
1500.820435 132.0
1504.137939 296.0
1505.018188 188.0
1505.249756 148.0
