>compound MLS001074327-01!N'-(4-hydroxy-3-methoxybenzylidene)isonicotinohydrazide hydrate
>formula C14H13N3O3
>ionization [M+H]+
>parentmass 272.101776
#inchi InChI=1S/C14H13N3O3/c1-20-13-8-10(2-3-12(13)18)9-16-17-14(19)11-4-6-15-7-5-11/h2-9,18H,1H3,(H,17,19)
#inchikey PSWOBQSIXLVPDV
#origInchi InChI=1S/C14H13N3O3.H2O/c1-20-13-8-10(2-3-12(13)18)9-16-17-14(19)11-4-6-15-7-5-11;/h2-9,18H,1H3,(H,17,19);1H2
#Ion_Source LC-ESI
#Instrument qTof
#Compound_Source NIH Pharmacologically Active Library
#PI Dorrestein
#Data_Collector VP/LMS
#Scan -1
#Precursor_MZ 272.106
#ExactMass 271.096
#Charge 1
#CAS_Number N/A
#Pubmed_ID N/A
#Smiles COc1cc(C=NNC(=O)c2ccncc2)ccc1O.O
#INCHI_AUX N/A
#Library_Class 1
#SpectrumID CCMSLIB00000084861
#IonMode Positive
#UpdateWorkflowName UPDATE-SINGLE-ANNOTATED-GOLD
#LibraryQualityString Gold
#TaskID d252d724072548979f1f6f1ced849daf
##Scan# 1287
#SpectrumFile p3-B09_GB9_01_18242.mzXML
#LibraryName Pharm_Active_Library.mgf
#MQScore -1
#Organism Pharm_Active_Library
#TIC_Query 0
#RT_Query -1
#MZErrorPPM -1
#SharedPeaks 0
#MassDiff 0
#LibMZ -1
#SpecMZ 272.106
#SpecCharge 0
#internalFilename spec-00000.mgf

>collision 10
45.20348 108.0
45.71207 148.0
45.752453 228.0
45.807667 168.0
46.664345 104.0
46.86306 140.0
46.914852 168.0
47.159195 168.0
47.233032 172.0
47.465858 52.0
47.486431 144.0
47.684139 112.0
47.838196 116.0
47.858849 200.0
48.720516 80.0
48.835892 224.0
49.674 148.0
50.400475 168.0
50.785545 160.0
50.900497 144.0
51.117989 128.0
51.281769 172.0
51.370174 160.0
51.578663 132.0
51.684494 32.0
51.95385 140.0
52.012688 120.0
52.283054 144.0
53.463837 152.0
53.575954 180.0
53.845806 128.0
53.901321 188.0
54.356728 176.0
54.543247 188.0
54.802261 176.0
55.016117 184.0
56.494823 116.0
56.785419 136.0
56.801918 232.0
57.040676 220.0
57.643539 224.0
57.94313 56.0
57.99617 188.0
58.226791 144.0
58.854195 184.0
58.979469 208.0
59.13089 164.0
59.247265 168.0
59.340755 132.0
59.445057 200.0
59.45887 92.0
59.624737 172.0
60.069717 188.0
60.083603 204.0
60.545776 164.0
60.572105 56.0
60.596893 128.0
60.643383 100.0
60.868332 168.0
60.994175 180.0
62.675041 56.0
63.262569 116.0
63.306904 208.0
64.059761 188.0
64.629723 96.0
65.380722 180.0
66.164902 132.0
66.619286 212.0
67.349052 156.0
67.445457 180.0
67.468346 148.0
67.836678 136.0
68.081154 176.0
68.385307 152.0
68.44622 212.0
68.761086 96.0
69.166031 84.0
69.354858 228.0
70.079422 192.0
70.15609 64.0
70.702278 152.0
70.801048 188.0
70.918327 140.0
70.970299 192.0
71.228752 180.0
71.501129 160.0
71.908989 184.0
73.268951 168.0
73.593338 220.0
74.732811 232.0
74.927361 180.0
75.396706 208.0
75.599037 136.0
76.435455 184.0
76.69146 208.0
77.04744 148.0
78.027122 68.0
78.938705 164.0
79.19355 160.0
79.951653 232.0
80.117249 156.0
80.543587 148.0
80.713364 148.0
80.783119 168.0
80.980011 196.0
81.370934 188.0
81.523613 108.0
81.649452 104.0
82.056404 164.0
82.244019 36.0
82.42823 160.0
83.125389 132.0
83.212013 160.0
84.448029 76.0
84.874718 252.0
85.190392 148.0
85.42202 168.0
85.44593 112.0
85.919411 212.0
86.451553 216.0
87.282593 204.0
87.695877 148.0
88.325111 148.0
89.036194 212.0
89.381355 92.0
89.637444 212.0
89.950516 144.0
89.992317 224.0
91.029694 180.0
91.101868 184.0
91.130363 184.0
91.880493 200.0
92.027451 140.0
92.07901 180.0
92.369537 236.0
92.45372 152.0
92.731422 80.0
92.754417 116.0
93.045006 1192.0
93.193893 48.0
93.307289 212.0
93.357285 184.0
93.686417 100.0
93.771202 196.0
93.79818 136.0
94.039284 244.0
94.054825 156.0
94.24012 184.0
94.276833 196.0
94.625008 136.0
94.683098 120.0
95.002914 152.0
95.028137 120.0
95.059692 1232.0
95.077232 188.0
95.132935 132.0
95.222252 200.0
95.539131 192.0
95.813591 156.0
96.043648 556.0
96.061531 348.0
96.35009 96.0
97.556778 184.0
97.92131 188.0
98.041481 216.0
98.471565 36.0
98.528854 184.0
99.124405 188.0
99.503242 116.0
99.745605 100.0
100.370735 172.0
100.688034 128.0
100.923828 188.0
101.17392 80.0
101.408279 152.0
101.466415 200.0
101.652946 224.0
102.040604 132.0
102.094894 128.0
102.761635 148.0
102.81813 180.0
103.031166 168.0
103.428513 248.0
103.48925 144.0
103.616844 72.0
104.061005 92.0
104.469498 220.0
104.919556 136.0
105.044952 8764.0
105.205162 124.0
105.317474 36.0
105.41349 88.0
105.517738 76.0
106.028427 408.0
106.048866 676.0
106.111465 40.0
106.179131 208.0
106.347366 172.0
106.365845 48.0
106.534225 60.0
106.583534 104.0
106.624634 216.0
106.704803 52.0
106.838478 100.0
107.043175 176.0
107.679474 80.0
107.743507 164.0
107.824089 180.0
107.902641 172.0
108.016258 196.0
108.511322 108.0
108.619156 136.0
109.024025 228.0
109.05143 192.0
109.217377 100.0
109.283943 60.0
109.598351 68.0
109.740082 44.0
110.036194 296.0
110.15538 36.0
110.383186 164.0
110.732674 40.0
110.77037 100.0
111.051247 84.0
111.086906 64.0
111.116272 84.0
112.245758 196.0
113.484818 44.0
113.605705 140.0
113.762733 100.0
115.439545 84.0
115.987625 60.0
116.360893 144.0
116.560646 60.0
116.629417 140.0
117.018784 104.0
117.517296 188.0
117.566284 180.0
117.596497 36.0
118.022072 148.0
118.201599 124.0
118.836464 240.0
119.023232 280.0
119.092621 96.0
119.664536 148.0
119.858383 200.0
120.055542 1380.0
120.128731 72.0
120.34697 180.0
120.460533 32.0
120.589447 52.0
120.646286 48.0
120.766548 124.0
120.889061 136.0
120.932831 184.0
120.961288 68.0
121.010765 180.0
121.039864 22428.0
121.063782 516.0
121.094849 80.0
121.132088 36.0
121.162758 184.0
121.178093 80.0
121.248215 72.0
121.441147 136.0
121.62207 96.0
121.770363 64.0
121.862625 96.0
121.902176 216.0
121.968109 72.0
122.043564 864.0
122.181412 72.0
122.251823 80.0
122.29364 76.0
122.412521 52.0
122.557899 64.0
122.804802 92.0
122.845642 68.0
122.893044 280.0
122.937172 204.0
122.976898 68.0
123.055641 4984.0
123.088661 172.0
123.204338 32.0
123.23085 68.0
123.26178 76.0
123.315659 148.0
123.339134 100.0
124.058357 268.0
124.116791 164.0
124.860107 120.0
125.004707 132.0
125.059525 220.0
125.874062 68.0
127.024429 76.0
127.633049 148.0
129.20961 128.0
130.063919 112.0
131.073685 176.0
131.65538 172.0
132.046173 168.0
133.03833 120.0
134.052872 200.0
134.999084 208.0
135.032379 2296.0
135.13324 136.0
136.038147 156.0
136.89035 132.0
136.995163 224.0
137.046295 904.0
137.540802 40.0
137.571152 52.0
138.05246 200.0
138.958939 168.0
143.071243 116.0
144.079376 204.0
145.044403 128.0
146.635544 80.0
148.049835 280.0
149.055542 112.0
150.051712 536.0
150.251007 168.0
150.558563 44.0
151.051285 176.0
151.169708 208.0
152.071899 1672.0
152.742355 56.0
153.079529 104.0
154.058685 72.0
154.718979 112.0
155.120285 92.0
156.083572 152.0
156.638565 152.0
157.084106 200.0
158.064117 140.0
158.296906 112.0
158.705338 56.0
159.254913 164.0
159.722427 64.0
163.034531 172.0
163.375229 124.0
167.04361 156.0
168.213501 60.0
169.084534 148.0
170.097961 188.0
171.064941 172.0
172.079407 424.0
172.105164 176.0
173.025467 152.0
174.087387 176.0
174.410538 120.0
181.842468 160.0
182.057251 124.0
183.116852 124.0
184.055298 136.0
184.076904 208.0
185.532532 104.0
186.080139 212.0
187.051056 172.0
191.299515 76.0
192.085938 168.0
193.055634 140.0
193.098114 328.0
194.711502 48.0
197.957596 236.0
198.052826 100.0
198.124268 184.0
199.065247 120.0
200.072723 512.0
200.226685 148.0
200.999084 136.0
201.075272 140.0
208.115219 188.0
208.232956 184.0
212.082214 292.0
214.066101 204.0
215.094025 488.0
216.10022 136.0
216.832626 44.0
218.903702 32.0
222.09256 124.0
227.031509 152.0
227.082489 40.0
228.081299 164.0
229.082886 312.0
231.839874 140.0
234.956497 28.0
239.059204 120.0
239.093048 116.0
240.079514 132.0
240.847351 72.0
244.103729 652.0
245.110367 136.0
246.71109 72.0
247.916122 144.0
249.359741 48.0
251.457291 140.0
256.077606 152.0
257.076111 308.0
258.079498 104.0
266.051575 104.0
267.87915 68.0
270.085724 172.0
271.65802 80.0
272.061676 132.0
272.101776 1980.0
272.633179 60.0
272.715332 48.0
273.109314 116.0
273.149353 76.0
274.123871 144.0
275.083649 100.0
275.585602 64.0
275.902893 124.0
309.167847 108.0
517.078735 68.0
576.415833 40.0
649.675232 44.0
723.863281 84.0
825.721069 184.0
871.92572 192.0
903.435608 168.0
909.697815 132.0
951.485046 128.0
953.831665 172.0
962.289917 188.0
967.656433 176.0
977.600098 84.0
978.701904 60.0
979.729492 240.0
989.090088 140.0
993.98468 196.0
1005.576599 136.0
1024.784546 132.0
1026.192993 212.0
1039.061035 156.0
1039.407471 264.0
1040.569214 128.0
1046.477783 220.0
1051.518677 64.0
1053.720581 156.0
1066.298096 188.0
1074.561401 156.0
1074.75708 128.0
1076.206177 164.0
1077.068115 156.0
1078.237671 116.0
1078.440308 136.0
1084.920654 216.0
1089.238525 200.0
1107.019531 236.0
1114.169678 152.0
1121.242676 192.0
1122.062622 148.0
1130.699463 164.0
1131.020752 156.0
1132.346436 172.0
1132.922485 132.0
1133.384766 84.0
1138.153687 180.0
1144.770386 60.0
1148.052246 148.0
1151.872314 216.0
1152.17627 244.0
1154.366211 148.0
1161.185791 148.0
1161.836914 168.0
1162.250732 88.0
1168.862183 56.0
1182.189209 160.0
1185.921631 136.0
1187.409424 196.0
1190.367188 172.0
1191.459229 184.0
1192.895508 140.0
1193.816772 176.0
1193.913086 184.0
1196.080322 148.0
1198.614746 172.0
1200.703491 156.0
1201.952026 172.0
1203.912476 140.0
1211.548584 144.0
1212.865112 216.0
1216.020996 76.0
1220.369507 144.0
1223.500366 140.0
1227.611206 56.0
1234.021118 248.0
1235.356812 128.0
1236.063477 116.0
1240.489746 164.0
1251.512695 188.0
1255.811401 244.0
1258.351807 204.0
1259.77124 188.0
1267.192505 172.0
1270.694824 192.0
1271.432739 60.0
1273.804199 140.0
1277.884888 196.0
1281.152588 188.0
1283.697021 148.0
1286.58667 124.0
1288.229248 148.0
1289.200928 212.0
1289.286621 192.0
1291.202637 172.0
1291.939331 208.0
1293.706909 144.0
1293.907349 136.0
1309.655273 124.0
1312.473022 124.0
1313.994873 164.0
1314.831787 188.0
1316.196167 224.0
1318.312744 140.0
1320.250122 184.0
1322.623169 236.0
1328.594238 192.0
1333.161255 180.0
1335.05127 140.0
1335.393188 256.0
1336.66626 164.0
1336.797241 228.0
1337.248413 120.0
1347.807983 152.0
1348.136719 152.0
1352.25415 124.0
1353.959961 120.0
1357.066895 240.0
1358.181641 176.0
1358.636353 100.0
1361.190552 164.0
1362.233521 168.0
1365.467529 132.0
1365.688232 84.0
1366.048706 156.0
1367.387817 204.0
1369.36084 232.0
1371.947266 200.0
1373.827759 56.0
1377.075562 160.0
1378.405273 124.0
1378.930054 40.0
1381.473511 180.0
1383.901001 120.0
1399.03894 132.0
1401.727661 128.0
1401.995972 132.0
1402.547485 164.0
1402.897827 132.0
1405.799194 132.0
1408.031372 184.0
1411.880127 132.0
1412.987183 136.0
1416.071167 172.0
1416.595581 144.0
1419.293579 136.0
1423.217773 156.0
1424.885132 44.0
1427.064697 184.0
1432.754395 80.0
1435.173706 136.0
1435.686523 192.0
1436.191772 124.0
1441.295166 132.0
1442.134033 128.0
1443.033569 176.0
1444.205688 164.0
1445.295044 140.0
1445.771729 176.0
1447.671875 60.0
1447.785522 132.0
1450.884521 88.0
1453.926147 40.0
1456.743042 128.0
1460.650146 248.0
1461.53418 184.0
1462.194702 116.0
1464.813843 196.0
1465.941528 148.0
1466.21582 212.0
1466.581665 156.0
1468.274292 172.0
1468.945435 104.0
1470.28064 204.0
1471.524902 196.0
1474.022583 184.0
1474.396973 40.0
1475.918213 184.0
1476.667603 252.0
1485.13855 188.0
1487.356079 96.0
1493.141479 212.0
1493.310791 224.0
1494.010742 40.0
1497.23584 176.0
1497.397583 188.0
