>compound NCGC00160272-01!5-(3-Furan-2-yl-acryloyl)-2,2-dimethyl-4,6-dioxo-cyclohexanecarboxylic acid methyl ester
>formula C17H18O6
>ionization [M+H]+
>parentmass 319.118
#inchi InChI=1S/C17H18O6/c1-17(2)9-12(19)13(15(20)14(17)16(21)22-3)11(18)7-6-10-5-4-8-23-10/h4-8,13-14H,9H2,1-3H3/b7-6+
#inchikey OZNNWTQYFYFKJQ
#Ion_Source LC-ESI
#Instrument qTOF
#Compound_Source Prestwick Phytochem Lib
#PI Dorrestein
#Data_Collector VVP/LMS
#Scan -1
#Precursor_MZ 319.118
#ExactMass 318.11
#Charge 1
#CAS_Number N/A
#Pubmed_ID N/A
#Smiles COC(=O)C1C(=O)C(C(=O)\C=C\C2=CC=CO2)C(=O)CC1(C)C
#INCHI_AUX N/A
#Library_Class 1
#SpectrumID CCMSLIB00000078679
#IonMode Positive
#UpdateWorkflowName UPDATE-SINGLE-ANNOTATED-GOLD
#LibraryQualityString Gold
#TaskID 67c915c6594c435cadc1fe2b5358144d
##Scan# 2483
#SpectrumFile p1-A02_GA2_01_17875.mzXML
#LibraryName phytochem_lib.mgf
#MQScore -1
#Organism phytochem_lib
#TIC_Query 0
#RT_Query -1
#MZErrorPPM -1
#SharedPeaks 0
#MassDiff 0
#LibMZ -1
#SpecMZ 319.118
#SpecCharge 0
#internalFilename spec-00000.mgf

>collision 10
95.051018 196.0
95.472488 164.0
95.910118 96.0
96.897331 148.0
97.063919 288.0
97.802567 128.0
99.659431 120.0
99.882072 188.0
100.40387 48.0
100.551498 196.0
101.025749 232.0
101.141083 52.0
101.55983 60.0
102.853554 136.0
103.492348 176.0
103.707069 228.0
103.808434 184.0
105.036789 124.0
105.852203 160.0
106.192375 80.0
107.049576 484.0
107.430588 124.0
108.050323 180.0
109.02829 336.0
109.063866 172.0
109.091324 116.0
109.569946 272.0
109.638702 176.0
111.646263 76.0
112.446785 212.0
114.141449 136.0
114.175468 156.0
114.496811 140.0
114.558571 32.0
114.83139 104.0
115.207047 220.0
115.908775 96.0
115.960205 180.0
119.049461 148.0
119.349312 144.0
119.828125 180.0
120.408325 136.0
120.614227 164.0
120.685829 52.0
120.788612 136.0
120.978981 216.0
121.028694 17976.0
121.097214 84.0
121.218575 120.0
121.274681 84.0
121.329475 52.0
121.393059 88.0
121.531242 152.0
121.616821 68.0
122.010002 84.0
122.031273 664.0
122.104546 72.0
122.522751 64.0
122.643936 180.0
122.721092 72.0
122.747551 68.0
122.7696 144.0
122.837967 104.0
122.915184 120.0
122.932838 44.0
123.043495 184.0
123.478477 68.0
124.242622 44.0
125.063416 224.0
127.006348 172.0
132.434845 80.0
134.033691 144.0
135.003159 80.0
135.044617 320.0
136.610413 184.0
137.063553 584.0
138.393356 192.0
139.07785 188.0
140.110107 212.0
140.834259 144.0
141.057632 380.0
141.150925 60.0
143.03688 188.0
145.026535 168.0
145.175171 160.0
145.92189 108.0
146.564484 212.0
149.06395 196.0
151.039124 1144.0
152.038193 188.0
152.99675 132.0
154.099106 124.0
154.984833 156.0
157.018158 140.0
161.024658 136.0
161.673233 68.0
162.433289 140.0
163.039337 520.0
163.266312 144.0
164.040298 132.0
165.054047 804.0
166.542679 48.0
169.004486 176.0
169.047852 232.0
171.075439 168.0
171.656418 208.0
174.733887 148.0
175.0392 168.0
178.563995 188.0
182.325424 160.0
183.066254 584.0
186.153214 164.0
189.015259 176.0
191.761322 136.0
192.257721 168.0
192.81279 64.0
193.049973 2800.0
193.135513 104.0
193.208176 112.0
194.048538 592.0
195.050232 212.0
196.441605 164.0
198.130005 68.0
203.031509 120.0
204.03093 216.0
205.04689 184.0
206.017151 76.0
206.054291 132.0
206.28862 84.0
207.035339 172.0
207.754745 108.0
211.059296 1280.0
211.888657 52.0
212.068314 180.0
213.685684 64.0
219.007416 164.0
219.069275 156.0
219.405212 64.0
225.075638 172.0
225.107697 104.0
225.768082 76.0
226.082184 44.0
229.063446 92.0
230.717056 160.0
231.027512 508.0
231.082977 176.0
231.104156 156.0
232.026138 148.0
243.153503 128.0
244.692093 104.0
244.953674 72.0
245.077103 324.0
245.417999 52.0
252.774155 96.0
253.119171 176.0
259.110077 148.0
273.025787 176.0
287.091736 320.0
289.157043 128.0
301.102417 132.0
315.109863 96.0
316.72998 104.0
335.561462 96.0
345.062805 124.0
346.991608 120.0
387.510773 80.0
394.448517 20.0
396.205444 56.0
426.621185 52.0
488.290375 72.0
620.360229 100.0
781.637451 84.0
876.989502 184.0
944.296326 168.0
964.52417 56.0
987.966736 176.0
1017.611877 176.0
1019.30127 252.0
1075.61731 184.0
1095.650024 132.0
1135.84082 204.0
1149.072388 108.0
1151.569946 212.0
1152.677734 256.0
1161.810791 124.0
1167.985352 108.0
1176.134155 188.0
1183.49646 176.0
1183.934692 84.0
1189.240967 204.0
1199.123779 196.0
1202.44104 128.0
1210.141235 204.0
1212.052734 116.0
1215.325317 100.0
1219.853149 32.0
1225.232178 204.0
1238.692993 156.0
1240.157349 68.0
1273.913086 152.0
1276.997803 160.0
1289.602661 180.0
1291.08252 164.0
1291.611694 164.0
1294.273804 148.0
1294.474365 132.0
1297.125 128.0
1299.104126 260.0
1322.724365 220.0
1349.772583 208.0
1355.313354 80.0
1367.311646 100.0
1373.603638 220.0
1374.282227 132.0
1379.658569 56.0
1392.372925 140.0
1399.109253 172.0
1402.975464 240.0
1404.600952 148.0
1405.05603 136.0
1420.13562 224.0
1429.142212 280.0
1436.064819 156.0
1441.991333 164.0
1458.604736 176.0
1465.895508 152.0
1468.022217 168.0
1471.615845 120.0
1486.66394 164.0
1500.847656 200.0
