>compound MLS001141340-01!(2R)-3-benzylsulfanyl-2-[[2-(7-methyl-2-oxo-4-propylchromen-5-yl)oxyacetyl]amino]propanoic acid
>formula C25H27NO6S
>ionization [M+H]+
>parentmass 470.16318503609057
#inchi InChI=1S/C25H27NO6S/c1-3-7-18-12-23(28)32-21-11-16(2)10-20(24(18)21)31-13-22(27)26-19(25(29)30)15-33-14-17-8-5-4-6-9-17/h4-6,8-12,19H,3,7,13-15H2,1-2H3,(H,26,27)(H,29,30)/t19-/m0/s1
#inchikey LWLBUSOQAXVEBV
#Ion_Source LC-ESI
#Instrument qTof
#Compound_Source NIH Natural Product Library
#PI Dorrestein
#Data_Collector VVP/LMS
#Scan -1
#Precursor_MZ 470.164
#ExactMass 469.156
#Charge 1
#CAS_Number N/A
#Pubmed_ID N/A
#Smiles CCCc1cc(=O)oc2cc(C)cc(OCC(=O)N[C@@H](CSCc3ccccc3)C(=O)O)c12
#INCHI_AUX N/A
#Library_Class 1
#SpectrumID CCMSLIB00000080021
#IonMode Positive
#UpdateWorkflowName UPDATE-SINGLE-ANNOTATED-GOLD
#LibraryQualityString Gold
#TaskID b1d8e8f6646f4e71acdff9ca3d919d08
##Scan# 2321
#SpectrumFile p2-A03_GA3_01_17980.mzXML
#LibraryName NIH_Natural_Products_Library.mgf
#MQScore -1
#Organism NIH_Natural_Products_Library
#TIC_Query 0
#RT_Query -1
#MZErrorPPM -1
#SharedPeaks 0
#MassDiff 0
#LibMZ -1
#SpecMZ 470.164
#SpecCharge 0
#internalFilename spec-00000.mgf

>collision 10
95.659431 116.0
95.872818 224.0
95.935089 20.0
95.957504 64.0
96.051117 196.0
97.236847 96.0
97.991966 148.0
98.471321 188.0
98.651138 44.0
99.205437 76.0
99.999992 120.0
100.791718 200.0
100.833687 236.0
100.971634 124.0
101.047653 64.0
102.072617 148.0
102.342247 220.0
102.459068 116.0
102.638451 148.0
102.868454 100.0
102.935081 152.0
103.056274 204.0
103.094666 40.0
103.116898 224.0
103.238205 148.0
103.60862 52.0
104.194939 212.0
104.956169 108.0
105.069893 400.0
105.656731 80.0
106.039658 140.0
106.068161 172.0
106.133957 164.0
107.046326 104.0
107.060738 68.0
107.161674 168.0
107.685646 140.0
108.552795 124.0
109.028198 244.0
109.064026 200.0
109.567123 136.0
109.694244 180.0
110.896156 84.0
111.030342 244.0
111.452286 232.0
111.477501 136.0
111.593117 136.0
111.723511 132.0
111.955048 72.0
113.042244 180.0
113.692833 120.0
113.873299 56.0
114.971878 144.0
115.054993 1444.0
115.082878 224.0
115.153351 52.0
115.240936 188.0
115.521011 52.0
115.59803 144.0
116.014084 332.0
116.060555 224.0
116.505005 128.0
116.629639 176.0
116.870506 132.0
117.016724 180.0
117.04055 60.0
117.069542 684.0
117.365921 144.0
117.434929 184.0
118.072067 184.0
118.325241 96.0
118.715271 140.0
119.08857 300.0
119.227615 132.0
119.273262 136.0
119.342827 108.0
119.545128 68.0
119.65831 48.0
120.076698 72.0
120.131233 108.0
120.825951 148.0
120.987907 200.0
121.063377 756.0
121.37352 204.0
121.393257 164.0
121.781715 148.0
122.628815 80.0
122.657471 48.0
123.025864 136.0
123.08548 136.0
123.85733 108.0
124.107765 148.0
124.596054 72.0
124.831657 196.0
125.027428 112.0
125.060814 168.0
125.100883 88.0
125.149864 180.0
125.214439 120.0
125.29686 124.0
125.46624 140.0
126.066666 156.0
126.408813 140.0
127.022713 184.0
127.1147 184.0
128.062576 548.0
128.14679 236.0
129.043472 796.0
129.069458 692.0
129.144592 92.0
129.60643 52.0
129.873932 244.0
130.006897 260.0
130.069077 268.0
130.148544 136.0
130.243927 120.0
130.719101 164.0
131.051544 148.0
131.086197 388.0
131.430054 204.0
131.596664 176.0
132.057953 192.0
132.332901 152.0
132.699493 176.0
133.066132 332.0
133.103317 152.0
133.169922 164.0
133.234238 216.0
133.889801 124.0
134.021118 164.0
134.068054 160.0
134.951294 180.0
135.020676 288.0
135.079544 176.0
135.136337 176.0
135.26593 160.0
135.356232 128.0
136.437454 164.0
137.060226 156.0
137.345657 68.0
137.392303 96.0
137.959808 152.0
138.057343 168.0
138.94342 76.0
139.443588 196.0
140.446625 184.0
140.526825 52.0
140.741623 192.0
141.071747 500.0
141.23082 60.0
141.315979 196.0
142.074829 1004.0
142.173782 128.0
142.347092 88.0
143.050858 176.0
143.087723 372.0
144.053802 200.0
144.093033 144.0
145.065567 376.0
145.103836 272.0
145.141388 72.0
145.614151 208.0
146.025146 152.0
146.072128 292.0
146.090088 216.0
146.136185 152.0
146.482483 44.0
146.815094 76.0
147.022568 188.0
147.043549 280.0
147.082886 260.0
147.109467 188.0
147.508057 132.0
147.774078 196.0
148.048004 176.0
148.120117 192.0
148.163879 108.0
149.042221 1420.0
149.07547 224.0
149.092072 172.0
149.15155 68.0
150.044937 448.0
150.23764 112.0
150.476822 152.0
150.706406 56.0
151.034836 420.0
152.918411 60.0
153.499817 172.0
154.950729 112.0
155.087021 456.0
155.134125 192.0
156.087524 144.0
156.38855 68.0
157.063278 196.0
157.098816 780.0
157.183563 52.0
157.693024 124.0
158.023117 148.0
158.070587 440.0
158.115707 116.0
158.328506 48.0
158.493835 212.0
159.048416 188.0
159.077072 132.0
159.108337 184.0
159.329346 76.0
159.661148 128.0
160.018463 192.0
160.049911 180.0
160.091492 560.0
160.230026 196.0
160.262772 192.0
160.439209 232.0
160.5905 64.0
160.762054 216.0
160.996841 176.0
161.057236 1576.0
161.096695 436.0
161.211578 52.0
161.73764 212.0
161.950333 176.0
162.019135 328.0
162.067108 612.0
162.097885 248.0
162.371078 136.0
162.391357 36.0
162.830444 132.0
163.078049 376.0
163.109421 176.0
163.578934 184.0
163.972794 160.0
164.260925 164.0
164.868607 176.0
165.123703 92.0
166.063965 256.0
166.128357 80.0
166.413239 168.0
167.084045 124.0
168.517548 44.0
169.107162 224.0
170.453125 56.0
170.824921 212.0
171.080536 504.0
171.147644 52.0
171.932297 112.0
172.052368 240.0
172.090103 660.0
172.805069 180.0
172.983032 136.0
173.053162 204.0
173.096191 624.0
173.121796 156.0
173.268494 252.0
174.018585 144.0
174.064346 236.0
174.10524 172.0
174.922958 204.0
175.075836 1880.0
175.110168 464.0
175.18103 88.0
176.045578 548.0
176.076263 200.0
176.114853 184.0
176.447784 72.0
176.558853 44.0
176.659363 60.0
176.770493 176.0
177.016678 200.0
177.05513 2320.0
177.090836 284.0
177.538727 48.0
177.968613 60.0
178.053329 320.0
178.085464 176.0
179.016312 148.0
179.085556 152.0
179.469299 128.0
180.067078 184.0
181.233429 196.0
181.493423 184.0
182.239609 148.0
182.422363 132.0
182.468079 96.0
183.052673 180.0
183.218948 168.0
183.353683 264.0
183.383331 184.0
183.682632 120.0
184.036163 148.0
184.306274 192.0
184.408966 128.0
185.093567 160.0
185.627243 140.0
186.055222 180.0
186.509613 164.0
187.037308 168.0
187.072113 520.0
187.111816 668.0
187.276917 100.0
187.764786 140.0
187.890274 176.0
187.914825 36.0
188.007599 60.0
188.052719 144.0
188.084061 324.0
188.116776 128.0
188.630341 144.0
188.657684 112.0
188.693222 144.0
189.053864 1432.0
189.087845 700.0
189.166504 60.0
189.914566 116.0
190.061371 2044.0
190.094223 528.0
190.666855 56.0
190.716339 32.0
190.77681 72.0
191.063797 380.0
191.111832 192.0
191.170135 36.0
191.34079 84.0
191.362808 112.0
191.431656 60.0
191.836685 220.0
191.957993 52.0
192.070145 120.0
192.197983 64.0
192.529236 112.0
193.050217 200.0
193.167725 40.0
194.639389 200.0
195.042236 72.0
196.083221 204.0
196.420593 168.0
196.54335 124.0
196.618698 116.0
196.978882 172.0
197.030029 208.0
197.098129 152.0
198.0737 312.0
198.212708 108.0
198.336014 124.0
198.728638 44.0
198.756699 136.0
198.955978 228.0
199.068283 188.0
199.273331 176.0
199.661255 120.0
200.083771 156.0
200.69191 276.0
200.966553 124.0
201.055252 4836.0
201.088852 960.0
201.134842 184.0
201.267532 84.0
201.340942 104.0
201.470886 60.0
201.764801 172.0
201.801559 96.0
202.058762 532.0
202.095169 392.0
202.143814 64.0
202.516495 132.0
202.582672 124.0
202.817871 120.0
202.840546 136.0
202.973801 124.0
203.010666 80.0
203.070801 8840.0
203.105484 1832.0
203.234756 52.0
203.27562 60.0
203.314209 32.0
203.34259 44.0
203.365295 64.0
203.430588 36.0
203.573502 120.0
203.796951 76.0
203.927689 60.0
203.97316 44.0
204.074554 1308.0
204.103745 300.0
204.317261 92.0
204.658798 76.0
205.065247 172.0
205.117477 152.0
205.396927 76.0
205.506348 108.0
205.967819 52.0
206.083923 144.0
206.307877 76.0
206.427963 80.0
206.751236 148.0
207.097656 188.0
207.507462 64.0
207.963577 200.0
207.995148 212.0
208.072662 144.0
208.230591 160.0
209.041306 112.0
209.074509 152.0
210.416214 100.0
211.949173 120.0
212.150894 160.0
212.621964 140.0
212.758392 216.0
213.08783 148.0
213.764069 76.0
214.059937 204.0
214.095932 96.0
215.067749 624.0
215.108078 156.0
215.817612 128.0
216.075089 892.0
216.133514 160.0
216.4189 96.0
216.572647 112.0
217.023956 140.0
217.047531 320.0
217.087158 3528.0
217.26152 100.0
217.46106 56.0
217.534454 84.0
217.942688 56.0
217.975006 52.0
218.013199 156.0
218.051407 184.0
218.094116 1648.0
218.3013 140.0
218.407181 156.0
218.4366 80.0
218.474838 96.0
218.542511 40.0
218.866287 156.0
219.100494 4888.0
219.263977 52.0
219.393677 68.0
219.420212 44.0
219.78595 64.0
219.827255 68.0
220.033875 168.0
220.104095 1036.0
220.813995 40.0
220.858353 204.0
221.024033 204.0
221.100967 156.0
221.130569 132.0
221.151291 64.0
222.093521 164.0
222.200317 124.0
224.070984 160.0
224.109131 188.0
224.198517 116.0
225.070923 128.0
226.118881 192.0
227.011642 164.0
227.107422 180.0
227.380646 108.0
228.059433 200.0
228.676025 120.0
229.052399 144.0
229.085922 248.0
229.117813 140.0
230.089798 136.0
230.23172 120.0
231.062515 132.0
231.101913 3540.0
231.64119 116.0
231.677551 100.0
231.750259 76.0
231.980225 164.0
232.057007 156.0
232.105164 544.0
233.003311 84.0
233.113998 260.0
233.258591 44.0
233.772598 160.0
234.110519 136.0
234.738266 140.0
235.077332 160.0
236.201218 72.0
237.089142 168.0
237.217865 32.0
237.791458 88.0
238.089264 76.0
241.086838 160.0
242.811249 188.0
243.05571 160.0
243.103073 360.0
244.0858 192.0
244.408005 60.0
245.83519 120.0
247.050629 144.0
248.535706 124.0
249.024261 300.0
254.113693 144.0
255.097427 184.0
255.12735 200.0
257.077026 224.0
258.089294 156.0
258.40274 88.0
258.431519 20.0
259.097046 880.0
260.095001 176.0
261.05545 164.0
261.116547 128.0
262.059753 172.0
262.08551 84.0
262.140289 120.0
264.841217 92.0
265.152283 56.0
268.885956 96.0
270.107941 72.0
272.047913 144.0
272.130676 156.0
275.096313 204.0
275.902374 120.0
276.037933 108.0
276.123077 336.0
276.732819 112.0
277.105255 628.0
277.750214 32.0
278.11853 220.0
278.523621 108.0
279.131836 144.0
279.943787 100.0
280.093658 60.0
280.143616 124.0
280.856995 48.0
281.153931 116.0
282.326538 112.0
286.057617 160.0
286.081177 152.0
287.06839 120.0
290.077545 136.0
290.243652 176.0
291.013092 128.0
291.079559 200.0
292.066925 228.0
292.18985 108.0
292.38382 84.0
292.458679 92.0
293.117218 176.0
293.146332 204.0
294.07431 124.0
297.274231 88.0
299.994873 212.0
300.063812 116.0
300.121277 312.0
301.119751 96.0
301.143921 40.0
302.138672 84.0
302.970367 76.0
303.136688 100.0
304.156342 136.0
305.083832 120.0
305.636841 144.0
307.047699 136.0
307.110474 120.0
309.147339 184.0
310.13147 144.0
312.12204 80.0
316.982788 84.0
318.046753 128.0
318.088806 196.0
318.298828 92.0
319.108948 80.0
319.148071 192.0
321.099548 144.0
321.152924 224.0
325.476196 72.0
332.091309 52.0
333.089508 164.0
333.137848 180.0
334.115387 344.0
334.158325 136.0
335.112244 168.0
335.607941 64.0
338.066742 300.0
339.095428 188.0
341.198792 172.0
346.125305 580.0
347.129303 196.0
348.130646 136.0
350.104095 312.0
355.154724 136.0
358.112823 124.0
361.911896 36.0
363.192841 132.0
364.088043 120.0
365.084259 236.0
366.1651 48.0
367.594696 36.0
369.115051 60.0
371.332397 56.0
374.098969 180.0
376.026276 156.0
378.090851 176.0
378.117157 240.0
379.099091 196.0
380.085815 180.0
390.166809 176.0
392.127136 156.0
393.113068 140.0
407.151764 140.0
413.091827 44.0
421.471191 112.0
424.147736 104.0
425.164886 160.0
429.13031 76.0
433.64035 72.0
459.496033 72.0
467.022705 52.0
469.171509 184.0
469.296539 116.0
469.348267 120.0
470.167175 160.0
471.165344 140.0
473.548828 76.0
482.94162 84.0
506.065704 84.0
529.936707 56.0
540.240295 84.0
589.514893 132.0
655.55896 124.0
669.143188 108.0
675.281311 20.0
695.915405 76.0
723.105652 132.0
724.996216 52.0
752.863525 192.0
756.313416 52.0
757.151062 172.0
758.175537 144.0
759.008789 172.0
769.722412 144.0
769.948792 60.0
772.662842 220.0
777.33374 124.0
778.943787 44.0
783.511047 116.0
784.949036 48.0
788.527466 140.0
805.462524 236.0
812.084961 48.0
815.474548 184.0
817.943115 172.0
830.353394 120.0
838.845947 228.0
839.209106 200.0
840.766602 84.0
843.521667 172.0
844.394775 196.0
847.022522 184.0
850.025696 212.0
850.205627 80.0
850.658325 236.0
851.076355 184.0
854.610291 148.0
855.000183 136.0
860.981628 128.0
861.349609 116.0
862.874878 60.0
864.898926 232.0
865.279419 180.0
867.745972 192.0
869.611389 136.0
870.580078 204.0
871.108704 212.0
873.136536 224.0
874.972412 80.0
876.633423 168.0
876.957581 228.0
879.871582 132.0
880.987793 168.0
882.258362 196.0
897.845032 192.0
903.196472 192.0
903.980225 132.0
907.712158 180.0
909.656067 224.0
912.124939 68.0
912.197083 104.0
916.114563 196.0
916.578491 52.0
921.755798 152.0
922.160706 164.0
923.908264 164.0
923.999023 200.0
927.31134 120.0
927.511353 140.0
929.567322 232.0
931.898987 132.0
937.107117 76.0
939.161499 76.0
939.899658 160.0
941.627319 220.0
944.395996 168.0
944.98938 152.0
946.397156 172.0
948.05719 184.0
949.442627 108.0
952.824829 168.0
953.082825 144.0
954.078491 44.0
957.314941 72.0
959.748962 184.0
959.872253 152.0
961.636658 160.0
962.754089 120.0
964.212097 244.0
966.073242 128.0
970.532471 136.0
971.952881 208.0
973.343262 196.0
978.460388 112.0
978.541321 176.0
984.009155 164.0
985.408142 140.0
986.951965 140.0
988.514954 156.0
988.684692 172.0
988.96637 188.0
991.534241 124.0
997.1073 144.0
998.113159 212.0
1001.845398 148.0
1002.393555 144.0
1003.857605 140.0
1006.499939 208.0
1008.123413 196.0
1010.538818 44.0
1013.16626 168.0
1013.983643 100.0
1017.250244 200.0
1017.599365 184.0
1021.33606 48.0
1021.800415 164.0
1023.066895 144.0
1024.512451 144.0
1024.557129 28.0
1025.710449 124.0
1026.022827 144.0
1030.09436 164.0
1031.084717 116.0
1036.011597 220.0
1037.314697 136.0
1037.902344 112.0
1038.152344 212.0
1040.160522 128.0
1043.147583 216.0
1048.238525 176.0
1050.140259 196.0
1051.133789 128.0
1051.25 172.0
1052.312622 244.0
1053.73584 204.0
1054.415161 136.0
1057.039917 200.0
1062.755005 184.0
1062.839355 212.0
1069.402954 180.0
1069.51355 164.0
1070.249268 160.0
1078.475586 48.0
1081.301147 164.0
1082.112793 160.0
1082.420532 216.0
1083.357178 188.0
1085.211792 136.0
1086.694092 132.0
1087.310913 188.0
1087.855713 216.0
1088.840698 176.0
1089.734009 164.0
1091.6073 168.0
1092.297852 208.0
1092.482056 176.0
1092.982056 204.0
1093.422974 96.0
1095.003052 144.0
1096.518433 168.0
1098.199707 208.0
1098.252441 164.0
1099.129883 84.0
1100.536133 164.0
1101.189575 220.0
1103.932129 244.0
1104.17688 184.0
1105.394165 152.0
1106.108887 172.0
1107.916748 164.0
1108.632324 140.0
1110.024414 128.0
1113.54834 136.0
1117.363892 144.0
1117.616699 192.0
1118.728149 188.0
1122.152466 140.0
1124.70752 204.0
1129.538574 116.0
1132.972656 184.0
1133.77002 60.0
1134.064941 200.0
1134.795654 172.0
1135.660645 164.0
1142.431641 220.0
1144.962402 124.0
1146.606323 176.0
1146.754517 140.0
1149.067505 180.0
1149.857056 152.0
1151.639404 136.0
1152.328491 156.0
1153.612549 156.0
1153.680176 52.0
1155.45874 216.0
1155.736206 164.0
1157.407959 136.0
1162.919556 176.0
1164.155151 116.0
1169.560059 68.0
1172.107178 148.0
1172.27063 48.0
1172.897705 244.0
1177.585205 212.0
1179.607666 64.0
1179.717041 48.0
1180.045166 212.0
1180.147827 120.0
1181.2146 128.0
1182.165649 168.0
1184.137329 196.0
1185.007324 152.0
1188.991333 128.0
1189.094238 176.0
1189.458008 128.0
1190.28186 188.0
1190.728271 212.0
1191.435669 220.0
1192.095337 168.0
1193.621338 144.0
1196.270142 172.0
1196.579956 244.0
1201.590454 180.0
1202.653198 160.0
1203.046631 224.0
1203.281372 168.0
1203.495361 180.0
1203.778442 276.0
1206.300293 168.0
1206.846436 192.0
1207.261353 72.0
1207.399658 40.0
1208.776245 32.0
1212.834717 228.0
1214.505737 188.0
1214.928833 148.0
1216.920654 176.0
1219.636963 172.0
1222.182251 144.0
1223.330566 116.0
1223.476807 184.0
1224.08252 256.0
1224.897339 96.0
1227.427246 184.0
1227.706177 168.0
1227.929321 192.0
1228.682739 180.0
1236.879761 232.0
1238.315186 160.0
1240.942993 172.0
1243.236694 132.0
1244.998779 136.0
1245.448242 60.0
1245.736206 252.0
1245.813477 152.0
1250.609131 104.0
1252.320068 184.0
1252.721558 164.0
1254.997925 172.0
1255.078857 204.0
1256.366211 220.0
1260.581421 176.0
1261.422363 204.0
1261.740601 72.0
1262.66687 136.0
1263.310547 176.0
1265.957642 216.0
1266.50293 192.0
1267.679077 176.0
1268.82019 144.0
1271.742798 140.0
1272.189941 156.0
1274.498169 220.0
1277.612183 168.0
1278.893066 200.0
1279.462524 188.0
1279.825684 116.0
1280.459473 208.0
1280.893921 176.0
1281.121826 136.0
1282.177368 140.0
1282.746582 208.0
1283.495117 172.0
1284.62915 160.0
1285.107178 220.0
1285.207031 152.0
1285.834961 148.0
1286.313232 184.0
1286.605957 164.0
1288.320923 156.0
1288.941406 144.0
1289.484619 212.0
1294.88623 84.0
1295.466431 180.0
1296.727539 188.0
1297.250732 228.0
1300.399658 160.0
1302.927246 212.0
1307.219727 140.0
1308.803345 184.0
1309.012207 172.0
1310.546387 200.0
1312.406006 168.0
1313.408447 116.0
1314.259766 176.0
1315.335083 140.0
1316.649048 36.0
1317.176392 136.0
1317.486938 132.0
1317.710938 160.0
1318.144409 164.0
1320.110718 120.0
1321.354736 204.0
1323.547852 216.0
1325.722778 156.0
1328.505127 200.0
1329.818481 180.0
1335.420288 176.0
1337.894287 140.0
1338.418579 232.0
1338.69519 136.0
1339.736816 152.0
1340.465332 172.0
1341.18689 180.0
1349.428711 144.0
1352.032715 184.0
1352.310913 172.0
1353.562744 160.0
1354.251099 112.0
1355.709106 152.0
1356.456665 140.0
1357.417114 224.0
1357.86438 128.0
1358.495239 180.0
1359.155518 120.0
1359.500366 200.0
1359.603149 200.0
1360.858398 172.0
1362.026001 92.0
1363.282349 136.0
1366.591309 184.0
1368.033691 76.0
1370.368286 184.0
1370.751465 200.0
1372.379517 204.0
1372.564819 184.0
1372.71228 220.0
1373.154785 196.0
1373.980957 152.0
1375.936646 156.0
1378.137573 188.0
1379.371704 160.0
1381.60498 160.0
1381.937988 180.0
1383.062744 152.0
1383.447754 152.0
1388.983154 176.0
1389.673096 192.0
1389.799194 176.0
1391.038574 104.0
1395.644775 176.0
1399.826538 108.0
1401.405762 104.0
1402.508667 188.0
1402.590576 176.0
1403.544922 180.0
1404.014648 184.0
1406.573853 136.0
1407.193481 196.0
1407.790771 156.0
1408.201538 108.0
1409.344482 164.0
1409.919922 188.0
1410.383301 176.0
1411.287842 116.0
1414.572144 208.0
1414.654419 168.0
1415.111206 152.0
1416.047241 204.0
1416.203735 172.0
1418.025146 80.0
1421.737427 136.0
1423.178711 124.0
1424.680786 196.0
1427.078247 120.0
1431.593018 196.0
1437.495483 152.0
1437.947632 232.0
1441.255859 172.0
1441.512817 48.0
1441.701782 76.0
1442.933838 176.0
1443.599243 160.0
1444.378174 164.0
1446.383423 56.0
1450.86792 144.0
1451.739868 148.0
1452.566528 128.0
1452.72583 188.0
1454.539429 192.0
1455.002563 204.0
1459.971802 116.0
1460.960693 120.0
1463.868164 28.0
1468.166138 180.0
1470.64563 164.0
1471.470093 68.0
1473.63147 156.0
1473.952393 144.0
1476.467407 68.0
1478.785522 72.0
1479.175903 180.0
1483.205078 204.0
1484.769165 152.0
1486.019409 168.0
1487.436035 184.0
1487.822998 28.0
1490.126953 196.0
1490.380493 132.0
1492.05603 160.0
1492.279053 244.0
1492.540405 244.0
1494.386353 156.0
1494.547974 204.0
1496.495239 192.0
1496.89563 128.0
1499.075684 172.0
1499.14502 180.0
1499.237549 84.0
1501.588867 144.0
