>compound MLS001332609-01!1-(5-ISOQUINOLINESULFONYL)-3-METHYLPIPERAZINE DIHYDROCHLORIDE
>formula C14H17N3O2S
>ionization [M+H]+
>parentmass 292.109528
#inchi InChI=1S/C14H17N3O2S/c1-11-9-16-7-8-17(11)20(18,19)14-4-2-3-12-10-15-6-5-13(12)14/h2-6,10-11,16H,7-9H2,1H3
#inchikey BDVFVCGFMNCYPV
#origInchi InChI=1S/C14H17N3O2S.ClH/c1-11-9-16-7-8-17(11)20(18,19)14-4-2-3-12-10-15-6-5-13(12)14;/h2-6,10-11,16H,7-9H2,1H3;1H
#Ion_Source LC-ESI
#Instrument qTof
#Compound_Source NIH Pharmacologically Active Library
#PI Dorrestein
#Data_Collector VP/LMS
#Scan -1
#Precursor_MZ 292.116
#ExactMass 291.104
#Charge 1
#CAS_Number N/A
#Pubmed_ID N/A
#Smiles CC1CNCCN1S(=O)(=O)c2cccc3cnccc23.Cl
#INCHI_AUX N/A
#Library_Class 3
#SpectrumID CCMSLIB00000086121
#IonMode Positive
#UpdateWorkflowName UPDATE-SINGLE-ANNOTATED-BRONZE
#LibraryQualityString Bronze
#TaskID d252d724072548979f1f6f1ced849daf
##Scan# 1151
#SpectrumFile p5-F02_GF2_01_18465.mzXML
#LibraryName Pharm_Active_Library.mgf
#MQScore -1
#Organism Pharm_Active_Library
#TIC_Query 0
#RT_Query -1
#MZErrorPPM -1
#SharedPeaks 0
#MassDiff 0
#LibMZ -1
#SpecMZ 292.116
#SpecCharge 0
#internalFilename spec-00000.mgf

>collision 10
45.727177 148.0
45.844341 88.0
46.876961 112.0
46.901493 84.0
47.065201 172.0
48.169399 176.0
50.642578 116.0
51.552204 184.0
52.893574 84.0
54.179436 180.0
56.680557 168.0
58.11451 72.0
58.313442 220.0
59.204414 164.0
59.244236 172.0
60.216373 140.0
60.52721 176.0
60.592262 120.0
61.011284 208.0
61.148167 128.0
62.074566 136.0
64.093178 108.0
64.198387 152.0
64.282936 268.0
65.69809 140.0
66.812675 232.0
67.373482 200.0
67.496063 164.0
69.475815 116.0
69.719894 160.0
70.327789 268.0
71.790771 88.0
71.979767 160.0
72.23497 196.0
73.912483 128.0
74.827316 124.0
75.538322 192.0
75.784157 140.0
77.129395 124.0
79.55864 204.0
81.094475 180.0
81.591705 128.0
83.068924 68.0
83.770607 128.0
83.825264 148.0
84.605164 148.0
85.08548 168.0
85.351898 92.0
85.897034 260.0
86.094521 252.0
90.001228 64.0
92.103569 168.0
92.7714 196.0
92.991989 172.0
93.35701 188.0
93.794052 196.0
93.809471 176.0
94.442612 148.0
95.155952 200.0
96.844704 80.0
97.072922 208.0
98.025429 156.0
99.092262 1064.0
99.457291 220.0
100.093025 192.0
101.033531 300.0
101.867477 192.0
101.921722 176.0
102.042313 40.0
102.448845 72.0
102.999542 132.0
103.053551 344.0
104.05146 680.0
104.341072 216.0
104.650322 232.0
104.925369 136.0
104.945755 156.0
105.055862 400.0
108.492355 140.0
109.654297 160.0
110.296417 136.0
112.260201 168.0
112.92968 136.0
114.905243 208.0
115.050362 144.0
116.04689 648.0
116.829086 184.0
117.056091 356.0
117.643677 104.0
117.796997 172.0
118.060677 216.0
119.059731 96.0
120.041176 176.0
122.104118 104.0
123.115677 212.0
123.447159 152.0
128.049698 1264.0
128.071411 160.0
128.380356 168.0
129.057922 1876.0
129.089432 204.0
129.213837 80.0
129.460556 80.0
129.97966 220.0
130.029266 172.0
130.065033 624.0
131.03009 124.0
131.06871 152.0
131.737305 144.0
132.043549 732.0
132.077896 156.0
133.047226 212.0
135.99501 112.0
138.375092 208.0
139.771637 184.0
140.336929 132.0
143.071548 180.0
144.04248 164.0
144.082001 188.0
145.049942 456.0
145.255157 84.0
145.283951 36.0
146.060638 1208.0
146.968079 180.0
147.063904 852.0
148.02681 132.0
154.08812 144.0
156.05365 928.0
157.058914 144.0
158.026398 156.0
158.11647 44.0
158.144012 164.0
161.046799 280.0
162.077255 208.0
163.247894 148.0
165.565079 192.0
166.062271 52.0
167.072083 924.0
168.075882 284.0
169.01712 156.0
169.075546 148.0
174.008514 148.0
178.027374 132.0
183.036011 144.0
192.011276 132.0
192.090393 140.0
192.120728 52.0
193.798904 176.0
194.027145 668.0
195.031586 192.0
195.056076 88.0
195.403687 196.0
196.02533 156.0
196.230865 48.0
196.537674 68.0
198.408768 40.0
201.569565 44.0
202.041733 360.0
202.092651 136.0
202.234146 168.0
205.068726 180.0
205.114334 112.0
209.034958 304.0
212.969894 80.0
213.722824 128.0
221.041061 128.0
222.027573 128.0
223.034073 196.0
234.185654 160.0
235.052261 144.0
236.051407 112.0
237.058228 184.0
246.105484 44.0
249.063324 292.0
292.109528 776.0
293.120361 144.0
295.014587 100.0
333.165985 52.0
339.506104 68.0
392.599213 92.0
511.602509 44.0
720.285706 44.0
832.352356 156.0
900.424316 204.0
928.112366 196.0
932.975464 216.0
933.097107 176.0
938.765808 156.0
944.084778 148.0
1046.653442 172.0
1059.765381 192.0
1062.027832 132.0
1103.646973 64.0
1117.788574 116.0
1138.370728 52.0
1171.996582 176.0
1174.368896 128.0
1178.710693 144.0
1179.934204 156.0
1200.988403 240.0
1202.389038 208.0
1232.338989 168.0
1240.702393 164.0
1242.294312 208.0
1253.318115 140.0
1256.60376 212.0
1274.104858 208.0
1277.92981 164.0
1305.317993 120.0
1308.390259 48.0
1310.096924 184.0
1346.232544 76.0
1364.764038 176.0
1368.47229 188.0
1380.810303 172.0
1383.510986 76.0
1388.668213 176.0
1389.921997 92.0
1395.522339 204.0
1431.476318 188.0
1450.856445 128.0
1491.990479 128.0
1494.274536 164.0
