>compound 58-14-0
>formula C12H13ClN4 
>ionization [M+H]+
>parentmass 249.091232
#inchi InChI=1S/C12H13ClN4/c1-2-9-10(11(14)17-12(15)16-9)7-3-5-8(13)6-4-7/h3-6H,2H2,1H3,(H4,14,15,16,17)
#inchikey WKSAUQYGYAYLPV
#Ion_Source LC-ESI
#Instrument qTof
#Compound_Source Commercial
#PI Dorrestein
#Data_Collector Garg_Neha
#Scan -1
#Precursor_MZ 249.09
#ExactMass 248.083
#Charge 1
#CAS_Number N/A
#Pubmed_ID N/A
#Smiles N/A
#INCHI_AUX N/A
#Library_Class 1
#SpectrumID CCMSLIB00000077032
#IonMode Positive
#UpdateWorkflowName UPDATE-SINGLE-ANNOTATED-GOLD
#LibraryQualityString Gold
#TaskID 48f7f52fc6d249b5abbcc6e7b3df5969
##Scan# 1092
#SpectrumFile NCP003017_A2_B11_BA6_01_15701.mzXML
#LibraryName NIH_Clinical_Collection_2.mgf
#MQScore -1
#Organism NIHcollection2_04212014_2_mgf
#TIC_Query 0
#RT_Query -1
#MZErrorPPM -1
#SharedPeaks 0
#MassDiff 0
#LibMZ -1
#SpecMZ 249.09
#SpecCharge 0
#internalFilename spec-00000.mgf

>collision 10
45.124886 196.0
48.170864 204.0
50.141144 200.0
52.728874 200.0
54.455429 144.0
54.898418 164.0
56.144161 200.0
57.313435 164.0
58.894264 148.0
59.163399 144.0
59.367188 152.0
59.76812 168.0
60.091686 144.0
60.326435 192.0
62.667553 152.0
63.848461 164.0
65.374695 188.0
66.912437 244.0
67.140564 160.0
70.824959 148.0
73.189384 208.0
73.397263 140.0
74.324364 188.0
75.706879 164.0
76.719872 152.0
80.86779 144.0
81.29792 176.0
82.167007 144.0
83.44931 148.0
84.10331 200.0
84.913857 148.0
86.021545 160.0
86.285721 172.0
87.249779 236.0
88.335136 184.0
88.655304 164.0
89.118797 172.0
89.158257 176.0
90.213791 160.0
94.322044 180.0
97.249702 208.0
99.442551 152.0
99.917473 172.0
101.436424 132.0
103.05529 260.0
103.526604 144.0
103.816391 148.0
104.570122 224.0
106.286751 176.0
106.596825 204.0
106.814751 208.0
111.001015 168.0
111.197052 192.0
114.435638 172.0
115.530487 140.0
115.727386 160.0
116.044487 152.0
117.054062 164.0
117.129761 176.0
118.170311 164.0
118.204933 156.0
118.970024 180.0
123.004639 168.0
125.013588 176.0
125.701263 164.0
127.019035 160.0
127.053696 248.0
127.983162 144.0
128.062347 816.0
129.067459 308.0
130.022202 196.0
130.065842 192.0
130.449219 212.0
131.348679 176.0
134.039688 264.0
135.190277 144.0
137.082901 156.0
138.643967 220.0
140.045547 180.0
141.451538 268.0
141.475204 152.0
141.906387 164.0
142.048691 144.0
142.735062 148.0
143.052567 176.0
144.636505 148.0
145.064453 248.0
149.012711 384.0
150.017792 148.0
151.730011 196.0
152.024445 588.0
152.933701 148.0
154.027802 116.0
154.06575 764.0
155.072021 1036.0
155.742569 180.0
155.946304 204.0
156.065353 204.0
157.076324 116.0
158.068619 192.0
160.215347 260.0
160.999786 216.0
162.161041 180.0
163.030197 2468.0
164.003769 164.0
164.030991 548.0
164.879196 152.0
165.02713 540.0
166.020996 264.0
166.051773 148.0
168.905655 188.0
169.07901 152.0
169.112656 140.0
170.084656 156.0
171.093277 292.0
172.003052 200.0
172.100067 304.0
174.765305 152.0
174.865311 204.0
174.936371 236.0
175.017639 148.0
175.547638 148.0
176.622559 216.0
176.643723 188.0
176.985123 276.0
177.021652 12412.0
177.915726 172.0
178.024399 1396.0
179.01889 4216.0
179.989807 180.0
180.056503 304.0
182.071457 140.0
182.646805 128.0
183.928314 196.0
186.482529 220.0
188.023499 156.0
188.204224 160.0
189.503876 120.0
190.04155 596.0
191.045761 320.0
191.219711 140.0
192.040131 748.0
193.256256 200.0
194.044571 344.0
195.92157 160.0
196.08696 940.0
197.091675 792.0
197.840149 248.0
198.089676 1184.0
199.094025 276.0
200.032593 228.0
204.655807 192.0
205.016754 152.0
205.071732 164.0
207.014435 172.0
207.067383 1776.0
207.33815 160.0
208.066727 156.0
209.065491 740.0
209.640091 208.0
210.873245 180.0
211.126831 144.0
212.233002 164.0
213.072891 212.0
213.11116 664.0
213.164764 160.0
214.11763 320.0
215.031982 312.0
215.75885 220.0
216.01619 232.0
216.038605 296.0
216.850693 156.0
217.041245 464.0
217.531204 148.0
218.448044 192.0
218.477463 172.0
218.771744 164.0
219.051498 152.0
219.579102 184.0
221.061371 184.0
221.192368 172.0
222.149506 176.0
222.582825 140.0
222.835297 176.0
223.076019 156.0
223.346619 152.0
224.934814 144.0
227.326187 192.0
228.780914 168.0
230.841675 188.0
232.062851 744.0
233.059845 16204.0
234.06366 3560.0
234.804825 168.0
235.05542 3884.0
235.32663 176.0
235.584839 124.0
235.628998 140.0
236.05954 796.0
236.346771 184.0
236.952774 128.0
237.81543 156.0
239.632843 140.0
239.857819 144.0
245.900024 200.0
246.187332 144.0
247.076691 168.0
247.509995 164.0
247.96196 116.0
248.450256 156.0
248.999634 196.0
249.035217 148.0
249.091232 107244.0
249.263031 168.0
249.452713 200.0
249.493454 100.0
249.608475 152.0
249.873306 100.0
249.98671 188.0
250.093292 11080.0
250.516449 120.0
250.656387 112.0
250.874908 284.0
251.018066 176.0
251.048935 188.0
251.088348 20468.0
251.281754 152.0
251.395828 104.0
251.645874 96.0
251.753876 168.0
251.886902 144.0
251.973175 188.0
252.090042 824.0
253.005585 116.0
253.880997 220.0
253.980179 196.0
261.852661 164.0
267.366211 140.0
269.201599 140.0
485.342102 180.0
908.203186 216.0
1155.363892 140.0
1461.069214 204.0
1470.029663 156.0
1498.546509 152.0
1534.548584 200.0
1544.873169 212.0
1575.0354 176.0
1699.79834 184.0
1708.063354 140.0
1766.111816 140.0
1768.956787 252.0
1803.469971 180.0
1878.548218 244.0
1904.412598 156.0
1911.410889 228.0
1914.753784 216.0
