>compound MLS002154123-01!Piretanide55837-27-9
>formula C17H18N2O5S
>ionization [M+H]+
>parentmass 363.102783
#inchi InChI=1S/C17H18N2O5S/c18-25(22,23)15-11-12(17(20)21)10-14(19-8-4-5-9-19)16(15)24-13-6-2-1-3-7-13/h1-3,6-7,10-11H,4-5,8-9H2,(H,20,21)(H2,18,22,23)
#inchikey UJEWTUDSLQGTOA
#Ion_Source LC-ESI
#Instrument qTof
#Compound_Source NIH Pharmacologically Active Library
#PI Dorrestein
#Data_Collector VP/LMS
#Scan -1
#Precursor_MZ 363.095
#ExactMass 362.094
#Charge 1
#CAS_Number N/A
#Pubmed_ID N/A
#Smiles NS(=O)(=O)c1cc(cc(N2CCCC2)c1Oc3ccccc3)C(=O)O
#INCHI_AUX N/A
#Library_Class 1
#SpectrumID CCMSLIB00000085312
#IonMode Positive
#UpdateWorkflowName UPDATE-SINGLE-ANNOTATED-GOLD
#LibraryQualityString Gold
#TaskID d252d724072548979f1f6f1ced849daf
##Scan# 1982
#SpectrumFile p3-H03_GH3_01_18308.mzXML
#LibraryName Pharm_Active_Library.mgf
#MQScore -1
#Organism Pharm_Active_Library
#TIC_Query 0
#RT_Query -1
#MZErrorPPM -1
#SharedPeaks 0
#MassDiff 0
#LibMZ -1
#SpecMZ 363.095
#SpecCharge 0
#internalFilename spec-00000.mgf

>collision 10
45.081238 36.0
45.535431 96.0
45.664467 172.0
45.906898 184.0
46.054016 252.0
46.286644 112.0
46.495422 144.0
46.544296 180.0
46.616295 212.0
46.685631 172.0
46.703312 132.0
46.884403 164.0
47.031925 152.0
47.191559 120.0
47.383183 112.0
47.535389 108.0
47.56284 168.0
47.755219 116.0
47.981068 120.0
48.077629 132.0
48.690971 184.0
48.902317 156.0
49.383709 204.0
50.063026 292.0
50.119377 92.0
50.533104 196.0
50.999691 44.0
51.305759 88.0
51.441292 188.0
51.617126 128.0
52.767403 132.0
52.873005 188.0
52.900505 188.0
52.967121 156.0
52.987404 156.0
53.803349 124.0
54.286228 172.0
54.543175 144.0
54.942272 180.0
54.968834 256.0
55.168236 172.0
55.507313 204.0
55.534008 148.0
55.624523 128.0
55.636402 156.0
55.841473 144.0
56.170673 112.0
56.674522 212.0
56.743473 184.0
56.798962 148.0
56.917534 172.0
57.200195 196.0
57.317673 220.0
57.869022 136.0
58.097885 116.0
58.52346 140.0
59.065266 112.0
59.411488 196.0
59.643379 172.0
59.909611 116.0
60.448494 132.0
61.326008 160.0
61.360306 92.0
62.071774 164.0
62.23497 56.0
62.258526 68.0
62.388947 104.0
62.590347 172.0
62.763687 140.0
62.885166 156.0
63.047844 128.0
63.088943 216.0
63.130054 204.0
63.304138 96.0
63.502796 140.0
63.6562 36.0
63.749928 64.0
64.203667 132.0
64.447906 164.0
64.955437 128.0
65.254158 40.0
65.703529 164.0
66.139862 148.0
66.332634 216.0
66.540298 188.0
66.626373 224.0
66.67025 100.0
67.209282 136.0
67.776703 128.0
68.239586 220.0
68.407402 100.0
68.633125 156.0
68.644669 136.0
68.712296 168.0
68.85096 28.0
69.562973 164.0
69.742378 220.0
70.607742 160.0
70.786819 144.0
70.914146 148.0
70.940964 116.0
71.113747 36.0
71.438065 220.0
72.417145 184.0
72.544235 112.0
72.556107 44.0
72.695198 100.0
72.735931 84.0
72.895584 196.0
73.867462 164.0
73.959869 160.0
74.318054 148.0
74.740768 164.0
74.952568 160.0
75.143967 140.0
75.382263 76.0
76.016083 120.0
76.346169 216.0
76.433151 232.0
78.031914 140.0
78.088188 176.0
78.248322 104.0
78.290588 160.0
78.317009 132.0
78.435066 92.0
78.468567 160.0
78.524994 148.0
79.016098 164.0
79.505173 136.0
79.61525 32.0
80.298691 176.0
80.493217 152.0
80.59861 124.0
81.236015 196.0
81.347282 196.0
81.780495 64.0
82.23111 240.0
82.361122 188.0
82.386406 132.0
83.741493 108.0
84.027702 204.0
84.106171 100.0
84.979141 164.0
85.685181 196.0
86.523689 64.0
86.558868 152.0
86.577393 132.0
86.877678 68.0
86.912926 52.0
86.994591 132.0
87.172905 68.0
87.353264 132.0
87.59713 216.0
87.91597 88.0
87.990639 60.0
88.076546 60.0
88.276535 156.0
88.59848 172.0
89.528297 100.0
89.745003 192.0
89.795921 60.0
90.054512 140.0
90.464851 220.0
90.506508 124.0
90.84008 144.0
90.952042 148.0
91.705292 180.0
91.880737 168.0
92.004791 44.0
92.092628 144.0
92.153763 32.0
92.222565 120.0
92.34111 140.0
92.586098 236.0
92.616737 216.0
93.284538 156.0
93.9123 56.0
94.058945 196.0
94.259811 232.0
94.350662 180.0
94.433815 148.0
94.883087 104.0
95.195488 148.0
95.244049 152.0
95.401451 144.0
95.428673 112.0
95.551208 136.0
95.625153 168.0
95.755608 132.0
95.790665 112.0
96.079597 176.0
96.153351 68.0
96.411156 176.0
96.516716 144.0
96.904282 152.0
96.921913 168.0
97.059128 172.0
97.076782 64.0
98.020386 148.0
98.450447 208.0
98.525513 196.0
98.568977 144.0
98.66188 132.0
98.752846 172.0
99.025986 160.0
99.442368 120.0
99.490013 160.0
99.652878 196.0
99.927261 48.0
99.941193 208.0
100.126328 188.0
100.200035 216.0
100.249847 32.0
100.535034 180.0
100.578941 88.0
101.437119 144.0
101.499268 172.0
101.603569 228.0
101.748077 196.0
102.097717 96.0
102.544685 96.0
102.853302 148.0
102.907806 208.0
104.033508 156.0
104.047714 172.0
104.767677 148.0
104.851227 196.0
105.057175 200.0
105.124512 204.0
105.342979 216.0
105.455368 120.0
105.772423 180.0
106.067406 168.0
106.251976 160.0
107.049515 80.0
107.325645 92.0
107.527817 208.0
107.717789 104.0
108.036148 100.0
108.788437 220.0
109.760422 156.0
110.091911 168.0
110.685822 64.0
111.722694 164.0
111.897377 128.0
112.221855 80.0
112.453911 188.0
113.041451 184.0
113.107063 68.0
113.59446 60.0
114.034004 228.0
114.106285 32.0
114.276443 112.0
114.5383 152.0
114.80899 184.0
114.979675 76.0
115.052773 868.0
115.118439 60.0
115.30645 212.0
115.329956 128.0
115.49247 168.0
115.871384 152.0
116.060005 232.0
116.461334 148.0
116.889168 76.0
117.044159 180.0
117.066772 156.0
117.941666 152.0
118.056259 144.0
118.080048 192.0
118.554192 120.0
119.029282 108.0
119.046654 140.0
119.181335 100.0
119.372627 208.0
119.690338 168.0
120.043556 208.0
120.646004 100.0
120.726913 72.0
120.860352 120.0
121.039848 196.0
121.073219 152.0
121.25235 176.0
121.792114 156.0
121.862411 48.0
122.165817 164.0
122.372704 200.0
123.012062 164.0
123.054008 140.0
123.195358 120.0
123.49157 212.0
123.637596 124.0
123.81028 232.0
123.845718 156.0
124.051804 120.0
124.238091 172.0
124.406754 176.0
124.880798 196.0
125.267395 152.0
125.878532 172.0
126.046066 140.0
126.166771 188.0
127.078331 212.0
127.096283 124.0
127.201767 188.0
127.221977 184.0
128.057571 348.0
128.572556 168.0
128.836746 148.0
128.988159 176.0
129.068604 164.0
129.182632 52.0
129.927994 144.0
130.002869 212.0
130.063828 364.0
130.261703 128.0
131.050613 332.0
131.142334 92.0
131.347549 88.0
131.573486 168.0
131.710495 196.0
132.080994 152.0
132.172333 68.0
132.398972 128.0
132.48143 172.0
132.770248 196.0
132.834473 172.0
132.949188 216.0
132.969849 100.0
132.985916 112.0
133.043304 112.0
133.709915 124.0
134.696793 100.0
134.96489 128.0
135.25177 140.0
135.318909 88.0
135.884445 124.0
136.070129 80.0
137.033035 156.0
137.452759 136.0
137.508759 144.0
137.793655 176.0
138.053131 216.0
138.312836 124.0
138.535309 128.0
139.05162 752.0
139.951553 164.0
140.044571 164.0
140.063766 224.0
140.142349 120.0
140.479492 128.0
140.975342 168.0
141.001694 132.0
141.068924 4796.0
141.391586 136.0
141.533615 136.0
141.929337 212.0
142.072052 1252.0
142.128586 68.0
142.396851 100.0
142.520386 112.0
143.07457 140.0
143.150772 132.0
143.684708 92.0
143.765839 88.0
144.043732 208.0
144.083786 152.0
144.234665 208.0
144.848953 88.0
145.357254 72.0
145.508469 152.0
145.571335 132.0
145.681396 44.0
146.054001 152.0
146.09729 176.0
147.172256 240.0
147.271271 148.0
147.454773 164.0
147.791046 116.0
147.931427 140.0
148.036514 276.0
148.355377 180.0
148.522705 136.0
148.830917 160.0
149.024323 232.0
149.042252 64.0
149.711227 180.0
149.840332 184.0
149.918304 140.0
149.935364 112.0
149.962173 188.0
150.025558 60.0
150.157227 184.0
150.41832 164.0
150.877594 108.0
150.938721 132.0
151.019424 232.0
151.05368 156.0
151.308197 152.0
151.969955 156.0
152.043076 176.0
152.064041 160.0
152.259628 80.0
152.296478 140.0
153.067749 248.0
153.177109 48.0
153.667709 52.0
154.071533 412.0
155.047546 408.0
155.084274 128.0
155.575912 108.0
155.70256 68.0
156.050461 200.0
156.083069 212.0
156.515762 244.0
156.814713 52.0
156.89946 148.0
157.062271 156.0
157.281143 136.0
157.32753 172.0
157.793289 240.0
158.015884 144.0
158.065933 164.0
158.872726 100.0
159.018265 136.0
159.040863 132.0
159.073486 224.0
159.364822 112.0
159.651398 36.0
159.958359 148.0
160.041443 132.0
160.071289 132.0
160.275711 128.0
161.013519 224.0
161.64183 248.0
161.98111 72.0
162.013916 444.0
162.090042 156.0
162.665787 172.0
162.909576 144.0
163.018845 136.0
163.044601 148.0
164.034973 140.0
164.37616 176.0
164.917603 116.0
165.037766 120.0
165.063599 280.0
165.127274 124.0
165.244949 60.0
165.439453 140.0
165.646881 184.0
165.669937 160.0
166.047852 800.0
166.068588 452.0
166.185272 176.0
166.765671 36.0
166.963638 212.0
167.045853 552.0
167.070663 1316.0
167.12056 148.0
167.43721 124.0
167.591766 164.0
167.756714 172.0
168.006882 112.0
168.055832 1992.0
168.078522 1764.0
168.135895 60.0
168.246887 52.0
168.306274 168.0
168.605942 132.0
168.626617 80.0
168.68866 48.0
169.063644 3316.0
169.265625 60.0
169.338135 76.0
169.39772 72.0
169.656876 56.0
169.895462 48.0
169.968124 124.0
170.025208 144.0
170.066879 620.0
170.28627 168.0
170.500488 180.0
170.924377 272.0
171.002457 88.0
171.042908 156.0
171.424362 136.0
171.961624 124.0
172.07431 144.0
173.043884 196.0
173.481415 124.0
174.043686 184.0
174.062851 140.0
174.373901 168.0
174.915756 128.0
175.086899 232.0
175.949173 120.0
176.028397 176.0
176.060074 192.0
177.039978 348.0
177.067734 168.0
177.651886 192.0
177.892395 232.0
178.049057 204.0
178.069687 476.0
178.647125 44.0
178.785492 164.0
178.987808 152.0
179.068665 196.0
179.08754 344.0
179.758194 164.0
179.830261 108.0
179.886322 164.0
179.985107 240.0
180.080475 876.0
180.161377 136.0
180.947678 136.0
181.009262 196.0
181.03479 136.0
181.062485 1340.0
181.089661 420.0
181.11908 52.0
181.228912 124.0
181.446014 96.0
181.58815 56.0
181.649841 120.0
181.923569 96.0
182.070435 788.0
182.135712 172.0
182.251236 56.0
182.366791 236.0
182.444748 100.0
182.990921 92.0
183.067596 692.0
183.098801 320.0
183.171356 120.0
183.365372 52.0
184.067215 372.0
184.106186 232.0
184.263977 140.0
184.977951 80.0
185.054703 256.0
185.153946 176.0
186.054703 168.0
186.081421 168.0
186.812439 64.0
186.921265 212.0
187.152649 72.0
187.446838 52.0
188.101425 140.0
188.738007 164.0
188.989655 112.0
189.074432 208.0
189.271591 64.0
189.35376 184.0
189.452362 164.0
189.929352 136.0
190.08992 196.0
190.313568 44.0
190.60199 196.0
191.084335 544.0
191.61731 120.0
192.06813 740.0
192.146683 60.0
192.237732 156.0
192.5 172.0
192.737564 256.0
193.051407 308.0
193.087585 588.0
193.143967 184.0
193.188232 160.0
193.337646 196.0
193.958084 172.0
194.06012 800.0
194.095444 348.0
194.296402 56.0
195.00174 44.0
195.061234 1144.0
195.092651 284.0
196.007278 124.0
196.075867 4840.0
196.137405 236.0
196.170853 64.0
196.282379 88.0
196.304688 28.0
196.324203 148.0
196.393936 44.0
196.533432 40.0
196.625519 40.0
196.999695 120.0
197.077667 1076.0
197.226044 184.0
197.553207 64.0
197.875061 68.0
198.034683 144.0
198.075455 216.0
198.096313 144.0
198.133514 144.0
198.443832 28.0
198.560654 128.0
199.051376 132.0
199.127487 52.0
199.277451 88.0
199.35614 252.0
199.842606 136.0
200.06778 72.0
200.798004 140.0
201.073486 184.0
201.602234 188.0
202.072189 120.0
203.03476 200.0
203.086044 176.0
203.704636 64.0
204.064728 1468.0
204.150879 184.0
204.202072 192.0
204.569138 196.0
205.030579 176.0
205.066452 192.0
205.084549 372.0
205.438339 172.0
206.079559 732.0
206.443756 108.0
206.684052 220.0
207.024704 176.0
207.066681 976.0
207.374252 132.0
208.011032 124.0
208.072617 876.0
208.112595 568.0
208.220642 56.0
208.341293 56.0
209.0802 1588.0
209.116364 304.0
209.149368 176.0
209.425797 72.0
209.772263 64.0
210.048737 144.0
210.085632 420.0
210.126144 3524.0
210.168152 56.0
210.233078 28.0
210.305237 40.0
210.380295 96.0
210.513107 48.0
211.04747 168.0
211.088181 168.0
211.132217 384.0
211.597443 72.0
211.675629 52.0
211.884171 60.0
211.913147 76.0
212.039902 152.0
212.069641 316.0
212.140305 260.0
212.176895 92.0
212.281281 128.0
212.466919 56.0
212.736832 56.0
212.803604 56.0
213.052689 152.0
213.091141 156.0
214.0159 60.0
214.855515 192.0
214.922623 144.0
215.083267 176.0
215.76088 144.0
215.991913 128.0
216.088455 156.0
217.089844 548.0
218.026764 184.0
218.055649 184.0
218.093765 176.0
218.099838 312.0
218.338409 164.0
218.561981 192.0
218.812164 160.0
219.074341 132.0
219.368988 100.0
219.569489 28.0
220.05658 128.0
220.080933 348.0
220.109406 432.0
220.697571 76.0
221.025909 196.0
221.048798 136.0
221.084518 812.0
221.118927 420.0
221.295273 124.0
221.455185 156.0
221.490738 76.0
221.579605 44.0
221.75444 28.0
222.021286 164.0
222.050064 452.0
222.089249 1628.0
222.414566 68.0
222.499023 108.0
222.528717 132.0
223.096909 524.0
223.185379 76.0
223.390594 68.0
223.750702 164.0
224.196213 128.0
224.525467 36.0
225.050674 356.0
225.247787 144.0
225.863571 104.0
226.043091 156.0
226.070023 176.0
226.120895 156.0
226.570068 204.0
226.908737 136.0
227.013687 144.0
227.046677 140.0
227.071899 172.0
227.8181 80.0
228.02243 160.0
228.066574 144.0
228.11261 32.0
228.338135 56.0
229.024384 148.0
229.069946 160.0
229.102783 152.0
229.238297 120.0
229.521667 44.0
230.034561 208.0
230.983444 48.0
232.8992 128.0
233.266891 140.0
234.025848 260.0
234.039139 92.0
234.049576 204.0
234.088669 392.0
234.161484 68.0
234.194992 72.0
235.057785 176.0
235.080566 124.0
235.10051 212.0
235.442444 64.0
235.476044 108.0
235.7724 140.0
235.92218 124.0
235.968033 184.0
236.00473 148.0
236.038361 84.0
236.067169 284.0
236.105347 13980.0
236.171463 164.0
236.308411 136.0
236.338135 76.0
236.399338 80.0
236.442184 152.0
236.469727 60.0
236.592163 120.0
236.782028 56.0
236.841034 188.0
236.907608 56.0
236.935181 80.0
236.956635 72.0
237.035065 80.0
237.057755 124.0
237.110748 4980.0
237.232452 64.0
237.345901 40.0
237.505386 92.0
237.600479 36.0
237.667984 44.0
237.815292 72.0
237.870544 148.0
237.935013 56.0
237.979172 136.0
238.045761 332.0
238.064911 200.0
238.120316 4032.0
238.214478 68.0
238.257492 84.0
238.478745 84.0
238.574036 132.0
238.737 68.0
238.903107 112.0
238.9431 92.0
239.02002 104.0
239.060532 244.0
239.122223 584.0
239.364792 48.0
239.423309 68.0
239.638931 96.0
239.709808 96.0
239.842331 64.0
239.944061 40.0
240.062424 1212.0
240.095657 184.0
240.132172 144.0
240.687683 48.0
241.008926 164.0
241.068085 428.0
241.102722 204.0
241.144897 28.0
241.364395 72.0
242.066849 104.0
242.308456 32.0
243.176743 56.0
243.536926 60.0
244.077682 112.0
244.551605 108.0
245.419754 104.0
245.700455 40.0
246.093918 316.0
246.124954 68.0
246.190521 132.0
246.340454 72.0
246.56543 92.0
248.074295 184.0
248.168213 216.0
248.23407 96.0
248.908752 56.0
249.077072 244.0
249.91777 136.0
250.07019 184.0
251.125473 224.0
251.989334 104.0
252.046204 144.0
252.068329 312.0
252.125793 264.0
253.045731 120.0
253.074219 132.0
253.123184 164.0
253.172394 108.0
253.340271 32.0
254.080414 148.0
254.107864 316.0
254.555069 108.0
255.047531 144.0
255.079819 164.0
255.103027 140.0
256.064301 152.0
256.129425 36.0
257.906769 56.0
258.021851 204.0
258.856995 92.0
259.033142 140.0
260.024445 264.0
261.911346 68.0
262.036987 136.0
262.084015 172.0
262.749542 140.0
262.984039 204.0
264.101898 1368.0
265.102173 344.0
266.085388 180.0
267.089783 148.0
267.139374 32.0
267.380157 64.0
267.50058 64.0
267.891388 44.0
268.015045 208.0
268.064056 52.0
268.096649 236.0
268.148804 156.0
269.05661 392.0
269.71228 84.0
269.833221 224.0
270.06369 292.0
270.109222 192.0
270.693787 144.0
271.053772 180.0
272.041382 152.0
272.507751 100.0
273.484467 60.0
274.090454 132.0
274.901672 36.0
277.011139 32.0
278.065582 140.0
280.050568 120.0
280.093567 1556.0
281.096619 412.0
281.167511 76.0
281.240936 100.0
281.431244 64.0
281.604889 40.0
281.695099 80.0
282.058838 164.0
282.110229 5656.0
282.27832 72.0
282.808594 68.0
282.955902 80.0
283.036255 120.0
283.113983 1408.0
283.213776 60.0
284.038361 76.0
284.122223 152.0
284.273224 116.0
284.521606 64.0
284.692871 156.0
284.917908 88.0
285.001923 172.0
285.028809 148.0
285.126251 180.0
285.213654 84.0
285.469177 40.0
285.52298 76.0
286.002136 128.0
286.030151 192.0
286.373138 64.0
287.321777 80.0
287.963135 40.0
288.027313 124.0
288.061096 168.0
289.529083 80.0
292.013489 148.0
293.68927 88.0
294.385529 108.0
295.010803 88.0
298.102509 164.0
300.150726 144.0
303.026581 92.0
304.029633 1164.0
305.008179 184.0
305.042419 184.0
306.042969 132.0
309.050293 172.0
326.96225 164.0
329.053009 192.0
329.17218 148.0
332.706116 72.0
340.014038 60.0
341.248352 128.0
346.059326 280.0
347.086121 120.0
348.470642 88.0
350.085022 144.0
351.919678 56.0
352.352936 52.0
353.706726 68.0
361.244324 92.0
362.080872 116.0
363.102783 740.0
364.093842 248.0
365.097961 276.0
371.657227 64.0
387.019348 144.0
388.622498 112.0
411.73349 196.0
412.097046 48.0
415.128937 72.0
428.788361 172.0
438.091095 140.0
443.552948 96.0
455.125763 72.0
460.615601 100.0
462.5784 28.0
511.059387 132.0
550.950623 76.0
551.99762 52.0
565.4245 44.0
575.71759 72.0
587.617493 40.0
657.928162 52.0
673.570923 72.0
683.520386 112.0
721.805176 88.0
732.873657 88.0
772.287842 72.0
815.227234 76.0
823.09436 48.0
835.256226 84.0
854.05896 20.0
880.668213 104.0
911.248108 124.0
925.246826 44.0
926.936768 172.0
942.490417 156.0
957.286499 220.0
984.031311 88.0
998.626587 76.0
1047.780762 164.0
1062.800781 120.0
1072.569214 112.0
1087.758667 184.0
1112.382202 204.0
1115.697266 96.0
1117.053833 48.0
1121.768677 152.0
1125.578369 56.0
1161.146606 120.0
1174.703125 136.0
1190.088745 192.0
1196.159424 200.0
1196.290283 92.0
1223.86731 84.0
1224.758667 44.0
1229.269653 168.0
1239.962891 96.0
1258.273926 76.0
1261.332886 48.0
1275.19751 124.0
1275.332642 124.0
1279.067017 180.0
1284.625488 144.0
1291.855103 40.0
1292.928345 208.0
1298.9104 160.0
1300.303345 132.0
1301.868408 116.0
1325.465454 52.0
1329.591919 80.0
1342.170044 168.0
1356.397583 96.0
1357.475342 148.0
1376.572144 180.0
1377.591431 136.0
1378.241699 192.0
1393.446167 140.0
1394.085205 152.0
1394.709473 160.0
1403.121704 136.0
1403.658569 188.0
1404.866943 108.0
1405.314575 128.0
1411.402222 140.0
1426.750488 168.0
1428.397461 184.0
1432.221436 224.0
1433.999634 132.0
1453.904053 192.0
1468.689819 152.0
1476.641235 188.0
1479.036133 148.0
1484.307251 164.0
1485.595825 140.0
1501.626587 56.0
1502.667969 48.0
1504.450806 120.0
