>compound MLS001146946-01!
>formula C15H10ClFN2O
>ionization [M+H]+
>parentmass 289.05365
#inchi InChI=1S/C15H10ClFN2O/c16-9-5-6-13-11(7-9)15(18-8-14(20)19-13)10-3-1-2-4-12(10)17/h1-7H,8H2,(H,19,20)
#inchikey UVCOILFBWYKHHB
#Ion_Source LC-ESI
#Instrument qTof
#Compound_Source NIH Pharmacologically Active Library
#PI Dorrestein
#Data_Collector VP/LMS
#Scan -1
#Precursor_MZ 289.054
#ExactMass 288.047
#Charge 1
#CAS_Number N/A
#Pubmed_ID N/A
#Smiles Fc1ccccc1C2=NCC(=O)Nc3ccc(Cl)cc23
#INCHI_AUX N/A
#Library_Class 1
#SpectrumID CCMSLIB00000085042
#IonMode Positive
#UpdateWorkflowName UPDATE-SINGLE-ANNOTATED-GOLD
#LibraryQualityString Gold
#TaskID d252d724072548979f1f6f1ced849daf
##Scan# 1925
#SpectrumFile p3-E02_GE2_01_18271.mzXML
#LibraryName Pharm_Active_Library.mgf
#MQScore -1
#Organism Pharm_Active_Library
#TIC_Query 0
#RT_Query -1
#MZErrorPPM -1
#SharedPeaks 0
#MassDiff 0
#LibMZ -1
#SpecMZ 289.054
#SpecCharge 0
#internalFilename spec-00000.mgf

>collision 10
45.137093 180.0
45.189735 168.0
45.200439 208.0
45.248627 172.0
45.282104 216.0
45.417484 144.0
45.456394 132.0
45.50069 84.0
45.515461 228.0
45.565159 184.0
45.663292 152.0
45.71711 220.0
45.727879 160.0
45.861225 236.0
45.913811 200.0
45.923252 80.0
45.943489 44.0
46.120396 152.0
46.158253 144.0
46.259727 172.0
46.529522 140.0
46.556683 180.0
46.666199 144.0
46.692593 232.0
46.748375 148.0
46.808273 276.0
46.825977 188.0
46.850498 128.0
46.935005 232.0
46.947277 44.0
46.995022 164.0
47.078293 140.0
47.205391 176.0
47.478569 192.0
47.571228 128.0
47.722363 128.0
47.767746 172.0
47.833801 100.0
47.854454 152.0
48.242149 144.0
48.311298 116.0
48.369419 148.0
48.437275 140.0
48.446972 116.0
48.616138 248.0
48.63002 144.0
48.700832 100.0
48.750851 244.0
48.866268 128.0
48.938648 108.0
48.979038 188.0
49.278988 228.0
49.409294 184.0
49.446804 52.0
49.563042 60.0
49.73695 120.0
49.770645 216.0
49.829639 28.0
49.885857 164.0
49.926636 188.0
49.96743 160.0
49.994164 116.0
50.015278 196.0
50.043434 232.0
50.098362 152.0
50.181141 228.0
50.468155 172.0
50.820858 176.0
50.920231 176.0
50.933018 176.0
50.955746 164.0
50.96809 204.0
51.012596 224.0
51.029655 176.0
51.095081 124.0
51.132545 184.0
51.290188 196.0
51.333549 204.0
51.477097 208.0
51.524235 180.0
51.552811 164.0
51.631443 148.0
51.649929 160.0
51.771698 188.0
51.816105 140.0
51.869133 124.0
51.882034 188.0
51.935093 76.0
51.986744 120.0
52.001099 140.0
52.095871 200.0
52.195045 88.0
52.249706 160.0
52.274166 128.0
52.402325 208.0
52.464298 76.0
52.670666 212.0
52.712566 148.0
52.725571 152.0
52.786293 172.0
52.79958 224.0
52.868752 92.0
52.923763 108.0
53.004883 164.0
53.044014 148.0
53.13393 204.0
53.158535 180.0
53.441959 184.0
53.507458 124.0
53.568626 128.0
53.60651 140.0
53.667736 192.0
53.728992 180.0
53.758179 68.0
53.889603 192.0
53.945141 160.0
53.971458 100.0
54.070934 80.0
54.135353 200.0
54.334705 36.0
54.460957 116.0
54.578529 200.0
54.659435 172.0
54.680038 140.0
54.855328 152.0
55.219158 148.0
55.348808 136.0
55.368713 164.0
55.387318 160.0
55.437695 164.0
55.528133 128.0
55.60677 180.0
55.792454 72.0
55.899551 180.0
55.917408 196.0
55.935272 100.0
55.984406 192.0
56.036545 112.0
56.075291 160.0
56.208023 240.0
56.227421 44.0
56.382751 104.0
56.436569 200.0
56.454514 136.0
56.506866 212.0
56.527817 232.0
56.545776 148.0
56.559246 132.0
56.610153 148.0
56.689552 176.0
56.857525 192.0
56.889046 164.0
56.964134 188.0
56.979156 120.0
56.994183 116.0
57.033257 160.0
57.100922 164.0
57.121689 248.0
57.144547 168.0
57.179661 192.0
57.19722 132.0
57.219803 76.0
57.286068 96.0
57.382526 52.0
57.445869 120.0
57.633087 104.0
57.690521 128.0
57.776726 108.0
57.859966 164.0
57.940681 164.0
57.993275 64.0
58.043308 124.0
58.099426 116.0
58.242126 204.0
58.377396 124.0
58.397167 164.0
58.424549 132.0
58.541756 180.0
58.552418 128.0
58.891022 160.0
58.924629 136.0
58.979649 176.0
59.036221 144.0
59.051514 192.0
59.187721 128.0
59.297443 204.0
59.308754 132.0
59.472881 152.0
59.483627 180.0
59.509727 164.0
59.534298 204.0
59.595741 180.0
59.621868 160.0
59.654148 44.0
59.666447 36.0
59.734112 68.0
59.771038 160.0
59.807976 120.0
59.868793 208.0
59.900372 64.0
59.925018 180.0
60.080742 148.0
60.102345 188.0
60.174889 96.0
60.241299 140.0
60.33712 112.0
60.361858 148.0
60.420635 156.0
60.431465 168.0
60.44849 204.0
60.46706 44.0
60.570805 80.0
60.590942 116.0
60.640533 148.0
60.665333 148.0
60.73822 148.0
60.800285 104.0
60.885788 220.0
60.983559 148.0
61.036419 184.0
61.08152 168.0
61.13131 176.0
61.226826 148.0
61.265221 136.0
61.27924 148.0
61.383678 192.0
61.496529 192.0
61.600632 184.0
61.727234 108.0
61.900936 148.0
61.924931 136.0
61.987095 236.0
62.052933 152.0
62.085121 144.0
62.212963 120.0
62.239655 128.0
62.293053 184.0
62.414074 208.0
62.464405 208.0
62.606064 156.0
62.650169 96.0
62.691135 152.0
62.711624 124.0
62.740002 72.0
62.769958 216.0
62.893021 212.0
63.158485 208.0
63.261345 168.0
63.27243 64.0
63.389645 88.0
63.435608 144.0
63.588108 200.0
63.662506 196.0
63.684742 104.0
63.772133 80.0
63.816647 144.0
63.843681 176.0
63.885036 252.0
64.052185 116.0
64.098396 156.0
64.139832 136.0
64.155777 116.0
64.18766 108.0
64.206802 200.0
64.253059 164.0
64.308914 76.0
64.820702 60.0
64.844734 132.0
64.910469 120.0
64.92971 44.0
65.115891 180.0
65.366692 112.0
65.448792 156.0
65.466499 260.0
65.521271 156.0
65.537384 136.0
65.788986 44.0
65.805138 452.0
65.816437 216.0
65.889122 100.0
65.953766 128.0
65.966698 148.0
66.010353 220.0
66.039459 168.0
66.058876 144.0
66.290413 52.0
66.354874 172.0
66.377953 172.0
66.470413 140.0
66.528 200.0
66.614922 164.0
66.733559 208.0
66.81443 228.0
66.829529 72.0
66.901138 160.0
66.976051 172.0
67.016777 104.0
67.117844 140.0
67.156982 164.0
67.210823 148.0
67.269577 124.0
67.382263 216.0
67.475426 200.0
67.510643 148.0
67.607925 212.0
67.676682 168.0
67.748749 60.0
67.779877 124.0
67.906113 120.0
67.981583 100.0
68.052986 192.0
68.11129 180.0
68.310196 124.0
68.328293 168.0
68.433632 176.0
68.530815 208.0
68.641258 152.0
68.762955 208.0
68.867363 176.0
69.088875 164.0
69.100456 48.0
69.270981 284.0
69.365433 100.0
69.39196 128.0
69.441711 232.0
69.459961 160.0
69.512306 156.0
69.574463 124.0
69.604355 76.0
69.783806 140.0
69.79628 240.0
69.883606 104.0
69.916893 72.0
69.968491 148.0
70.221786 64.0
70.348602 128.0
70.392021 160.0
70.460503 224.0
70.652771 168.0
70.676193 160.0
70.731422 200.0
70.75444 64.0
71.064934 400.0
71.096817 180.0
71.160606 352.0
71.25634 140.0
71.451607 172.0
71.473251 104.0
71.532158 216.0
71.628143 100.0
71.661835 164.0
71.677002 140.0
72.213867 112.0
72.229088 96.0
72.40004 144.0
72.445778 192.0
72.696823 140.0
72.710304 44.0
72.739159 180.0
72.801979 216.0
72.966805 44.0
73.116501 164.0
73.2425 128.0
73.40271 172.0
73.429993 96.0
73.539192 164.0
73.745865 112.0
73.778351 120.0
73.80912 224.0
73.868988 128.0
73.959679 120.0
74.016174 140.0
74.029877 208.0
74.045288 200.0
74.106094 148.0
74.1241 220.0
74.156662 168.0
74.359047 236.0
74.46035 84.0
74.508446 204.0
74.734634 144.0
74.759499 220.0
74.790474 156.0
74.959259 100.0
75.043724 180.0
75.09201 128.0
75.316399 184.0
75.36132 96.0
75.40625 136.0
75.478859 124.0
75.537666 112.0
75.624184 128.0
75.709023 108.0
75.755791 168.0
75.797371 136.0
76.008926 244.0
76.062729 120.0
76.21904 192.0
76.272919 132.0
76.415527 80.0
76.499069 176.0
76.704628 52.0
76.774368 164.0
76.788322 164.0
76.854614 144.0
76.919189 156.0
76.996017 156.0
77.182793 160.0
77.251305 160.0
77.338715 132.0
77.498085 76.0
77.585716 132.0
77.597992 96.0
77.6408 232.0
77.664635 128.0
77.796242 204.0
78.114326 120.0
78.154793 152.0
78.167107 40.0
78.256882 140.0
78.323807 120.0
78.593544 168.0
78.754204 228.0
78.907944 168.0
79.010529 292.0
79.031761 100.0
79.132652 148.0
79.184006 168.0
79.212349 196.0
79.269043 76.0
79.423294 176.0
79.547508 148.0
79.565262 204.0
79.648727 136.0
79.730461 40.0
79.745392 96.0
79.791451 336.0
79.894424 172.0
79.929634 176.0
80.00795 152.0
80.086304 152.0
80.171829 176.0
80.189651 140.0
80.255615 160.0
80.423309 152.0
80.61084 176.0
80.789642 196.0
80.918503 108.0
81.004471 172.0
81.146049 172.0
81.169357 164.0
81.303909 132.0
81.341644 168.0
81.406235 96.0
81.587502 200.0
81.681229 188.0
81.744202 184.0
81.963898 136.0
82.005348 160.0
82.026978 124.0
82.093689 160.0
82.250961 216.0
82.273499 172.0
82.31205 164.0
82.351776 140.0
82.369843 140.0
82.469223 120.0
82.494537 104.0
82.593994 136.0
82.657799 164.0
82.707718 212.0
82.876419 120.0
82.921722 224.0
83.170219 168.0
83.20945 164.0
83.475449 136.0
83.560944 156.0
83.69928 112.0
83.742989 128.0
83.788528 96.0
83.90699 132.0
83.928871 220.0
84.100365 176.0
84.153305 152.0
84.262505 156.0
84.310402 156.0
84.381805 204.0
84.434731 128.0
84.507896 96.0
84.535347 128.0
84.548157 188.0
84.56646 116.0
84.703796 148.0
84.868736 164.0
84.998978 208.0
85.15686 180.0
85.309639 168.0
85.399483 132.0
85.664558 232.0
85.863632 204.0
86.007545 100.0
86.064781 64.0
86.116493 128.0
86.392517 136.0
86.428925 204.0
86.45208 180.0
86.665939 200.0
86.715973 88.0
86.779007 164.0
86.885201 172.0
86.949669 116.0
87.143555 372.0
87.236443 144.0
87.256172 252.0
87.42585 204.0
87.440338 132.0
87.56694 124.0
87.702957 116.0
88.033195 164.0
88.087364 124.0
88.200073 164.0
88.328506 164.0
88.371536 68.0
88.446396 132.0
88.504433 204.0
88.686157 176.0
88.727402 40.0
88.877449 124.0
89.037506 200.0
89.121651 152.0
89.189209 212.0
89.299294 216.0
89.3246 84.0
89.60511 168.0
89.627724 232.0
89.655991 176.0
89.769104 120.0
89.931358 164.0
90.226051 156.0
90.430351 112.0
90.447388 148.0
90.46064 208.0
90.576149 144.0
90.596992 144.0
90.678474 72.0
90.830162 224.0
90.909851 176.0
91.04464 200.0
91.088326 164.0
91.358276 172.0
91.452301 204.0
91.722 80.0
91.857391 144.0
91.87265 176.0
92.046341 152.0
92.130386 52.0
92.178154 156.0
92.195351 56.0
92.28405 180.0
92.378914 124.0
92.455444 124.0
92.641182 204.0
92.726326 212.0
92.77533 144.0
92.953712 128.0
93.057365 44.0
93.130341 148.0
93.189896 192.0
93.284065 144.0
93.613083 216.0
93.653526 144.0
93.805763 236.0
93.834679 140.0
93.933037 128.0
93.994774 188.0
94.26899 204.0
94.321175 72.0
94.543602 136.0
94.590057 112.0
94.609413 140.0
94.65976 148.0
94.676041 164.0
94.750793 148.0
94.847694 168.0
94.905853 108.0
94.997009 152.0
95.094032 120.0
95.228004 116.0
95.371788 100.0
95.416504 216.0
95.539024 116.0
95.56237 208.0
95.595451 140.0
95.612968 36.0
95.714203 200.0
95.766785 168.0
95.815483 204.0
95.8564 176.0
96.008461 148.0
96.09819 212.0
96.184067 116.0
96.203583 180.0
96.223106 192.0
96.318802 192.0
96.418205 192.0
96.484909 128.0
96.612038 180.0
96.627686 192.0
96.64138 136.0
96.870445 112.0
96.944901 176.0
97.045609 192.0
97.121361 160.0
97.347069 164.0
97.496368 204.0
97.557304 164.0
97.715691 376.0
97.887856 140.0
97.982407 116.0
98.037575 64.0
98.098679 228.0
98.145996 168.0
98.300972 220.0
98.372894 128.0
98.392632 244.0
98.412376 152.0
98.428177 64.0
98.53286 180.0
98.600044 204.0
98.774048 128.0
98.792107 152.0
98.921776 180.0
98.981857 156.0
99.245399 128.0
99.372345 172.0
99.421951 68.0
99.572449 140.0
99.61525 224.0
99.680122 176.0
99.769501 124.0
99.813309 164.0
99.847115 188.0
99.872971 196.0
99.886894 132.0
100.119774 140.0
100.223366 192.0
100.263069 156.0
100.506508 128.0
100.574364 152.0
100.606308 100.0
100.678192 124.0
100.760086 36.0
100.77607 188.0
100.941978 128.0
101.001984 156.0
101.140053 196.0
101.266197 168.0
101.745461 148.0
101.792786 176.0
101.936279 148.0
101.986526 160.0
102.034218 432.0
102.084038 152.0
102.22184 132.0
102.340599 120.0
102.413101 88.0
102.598495 164.0
102.709412 36.0
102.751778 136.0
102.784058 108.0
102.820381 160.0
102.891037 208.0
102.929398 144.0
103.040283 840.0
103.198143 48.0
103.281059 140.0
103.333656 176.0
103.351868 156.0
103.497604 80.0
103.564438 72.0
103.604958 128.0
103.637375 168.0
103.66777 192.0
103.78331 144.0
103.858353 156.0
103.953705 192.0
104.049301 3244.0
104.09581 120.0
104.131546 188.0
104.152679 124.0
104.175026 164.0
104.319809 184.0
104.392509 196.0
104.412842 144.0
104.457596 136.0
104.55526 132.0
104.614288 268.0
104.638718 76.0
104.817963 188.0
104.895416 116.0
104.919174 204.0
104.944344 152.0
105.003479 140.0
105.055191 2192.0
105.091202 200.0
105.16671 132.0
105.236122 72.0
105.358665 36.0
105.475151 124.0
105.511948 184.0
105.536484 40.0
105.62442 96.0
105.69194 60.0
105.759476 192.0
105.833176 56.0
105.851608 212.0
105.917145 140.0
105.966309 200.0
106.027786 148.0
106.058655 188.0
106.099533 104.0
106.249245 156.0
106.401123 172.0
106.46067 188.0
106.750435 184.0
106.768944 156.0
106.812134 140.0
106.869743 144.0
106.966469 168.0
106.987053 160.0
107.03054 332.0
107.147697 184.0
107.25898 160.0
107.333199 136.0
107.388748 180.0
107.494102 160.0
107.568405 152.0
107.608322 144.0
108.040039 220.0
108.06234 180.0
108.151192 176.0
108.426804 132.0
108.505577 180.0
108.544968 148.0
108.587524 232.0
108.692116 120.0
108.831322 180.0
108.864548 152.0
108.97049 216.0
109.043991 4104.0
109.084793 124.0
109.271965 92.0
109.342781 140.0
109.517616 136.0
109.548157 248.0
109.69265 112.0
109.730179 136.0
109.801079 184.0
109.840706 152.0
109.940857 40.0
110.028526 96.0
110.048546 652.0
110.209709 188.0
110.304291 140.0
110.318924 100.0
110.35865 212.0
110.427658 80.0
110.4674 48.0
110.498787 168.0
110.540634 140.0
110.710197 156.0
110.831703 136.0
110.912689 180.0
110.997116 164.0
111.524261 104.0
111.54528 108.0
111.684067 148.0
111.742966 208.0
111.919769 140.0
112.000389 200.0
112.027184 132.0
112.113579 144.0
112.168381 208.0
112.34552 220.0
112.486908 144.0
112.556587 88.0
112.919968 152.0
113.014732 1920.0
113.131683 212.0
113.203674 132.0
113.256622 136.0
113.288399 60.0
113.305344 188.0
113.468262 92.0
113.579575 168.0
113.757065 76.0
113.791031 120.0
113.892967 220.0
113.963074 156.0
114.010101 368.0
114.050209 172.0
114.435272 148.0
114.588356 160.0
114.644028 60.0
114.761269 216.0
114.814575 268.0
114.831642 120.0
114.867905 88.0
114.927643 152.0
114.980988 180.0
115.011436 716.0
115.03862 136.0
115.071739 172.0
115.14325 176.0
115.185966 168.0
115.245789 192.0
115.538704 252.0
115.746323 140.0
115.842705 192.0
115.969955 228.0
116.007713 176.0
116.123505 100.0
116.222191 116.0
116.241501 96.0
116.300087 176.0
116.488991 208.0
116.533531 180.0
116.593697 48.0
116.711937 128.0
116.828079 148.0
116.862503 88.0
117.060539 264.0
117.075615 168.0
117.239342 184.0
117.316734 212.0
117.407501 188.0
117.470055 32.0
117.56144 136.0
117.901894 128.0
117.981873 196.0
118.051064 112.0
118.10746 160.0
118.193962 144.0
118.28907 200.0
118.341026 104.0
118.375671 176.0
118.390831 140.0
118.453644 164.0
118.54248 116.0
118.605331 160.0
118.68338 128.0
118.82653 232.0
118.971947 212.0
119.032738 192.0
119.39566 252.0
119.547714 112.0
119.628479 72.0
119.746071 168.0
119.861534 184.0
119.920372 44.0
119.966148 176.0
119.994492 92.0
120.017433 176.0
120.042023 160.0
120.079536 152.0
120.142799 204.0
120.175522 56.0
120.310844 120.0
120.347961 132.0
120.376343 112.0
120.450607 208.0
120.489929 188.0
120.546738 144.0
120.562035 216.0
120.583893 172.0
120.962303 128.0
120.99514 116.0
121.039688 244.0
121.194458 140.0
121.464119 156.0
121.486053 92.0
121.500679 60.0
121.738472 192.0
121.780205 188.0
121.852692 136.0
121.884758 196.0
121.993347 180.0
122.040192 1348.0
122.094498 140.0
122.186882 84.0
122.235291 148.0
122.261696 80.0
122.343628 200.0
122.433418 188.0
122.497299 76.0
122.565598 132.0
122.66037 204.0
122.72197 136.0
122.755173 204.0
122.792664 156.0
122.816231 228.0
122.843399 208.0
122.885315 264.0
122.930016 140.0
122.999115 504.0
123.02356 700.0
123.06189 208.0
123.121513 108.0
123.236382 108.0
123.282791 184.0
123.362358 84.0
123.422058 196.0
123.506096 144.0
123.528214 176.0
123.56813 188.0
123.601227 132.0
123.807106 164.0
123.900139 124.0
123.920074 112.0
123.948883 224.0
124.001213 216.0
124.037537 192.0
124.055443 592.0
124.119293 228.0
124.17057 112.0
124.277054 84.0
124.352509 180.0
124.547905 84.0
124.910233 184.0
124.998787 156.0
125.014465 156.0
125.033249 236.0
125.054871 112.0
125.108292 128.0
125.248589 240.0
125.302055 52.0
125.368904 144.0
125.388962 116.0
125.915497 176.0
125.991486 236.0
126.038368 352.0
126.134468 156.0
126.349152 196.0
126.702888 84.0
126.743225 224.0
126.956184 192.0
126.996483 280.0
127.014076 248.0
127.054878 160.0
127.153206 200.0
127.313011 196.0
127.362427 168.0
127.432068 52.0
127.571411 196.0
127.656853 104.0
127.681587 248.0
127.859329 188.0
127.93586 88.0
128.170105 152.0
128.185867 160.0
128.271515 196.0
128.341415 172.0
128.404663 156.0
128.456436 172.0
128.585052 172.0
128.657288 144.0
128.771637 248.0
129.007019 336.0
129.012604 156.0
129.044403 792.0
129.140869 168.0
129.19162 156.0
129.220047 96.0
129.364883 156.0
129.727356 156.0
129.795364 124.0
129.886093 244.0
129.924652 168.0
129.954147 72.0
130.052017 996.0
130.090317 108.0
130.106216 232.0
130.148209 80.0
130.224289 140.0
130.247009 136.0
130.326523 216.0
130.35379 168.0
130.385605 60.0
130.452255 124.0
130.535645 168.0
130.742676 132.0
130.763153 132.0
130.790466 116.0
130.861038 56.0
130.879257 140.0
130.913406 60.0
130.989731 244.0
131.055634 252.0
131.21875 148.0
131.257523 172.0
131.321365 220.0
131.389801 256.0
131.444565 128.0
131.497055 112.0
131.764236 92.0
131.791656 168.0
131.867065 136.0
132.042969 184.0
132.08429 192.0
132.127747 228.0
132.191818 120.0
132.283371 100.0
132.528427 192.0
132.544479 108.0
132.608643 180.0
132.650055 116.0
132.691162 100.0
132.753082 172.0
132.982498 140.0
133.050858 1400.0
133.134033 140.0
133.313217 164.0
133.425858 160.0
133.653564 148.0
133.785538 244.0
133.812378 136.0
133.888367 164.0
133.939041 208.0
133.959778 108.0
134.03772 1644.0
134.134903 208.0
134.273254 144.0
134.319382 176.0
134.365524 120.0
134.43013 108.0
134.450897 40.0
134.517838 172.0
134.693344 164.0
134.746475 224.0
134.859634 112.0
134.942932 172.0
134.979935 248.0
135.014618 44.0
135.043839 128.0
135.185806 152.0
135.222839 112.0
135.301544 128.0
135.336273 164.0
135.387222 176.0
135.484512 132.0
135.549377 40.0
135.614273 128.0
135.829926 180.0
136.003952 248.0
136.053528 548.0
136.289612 192.0
136.322311 172.0
136.529053 80.0
136.55928 220.0
136.624222 240.0
136.684906 220.0
136.740768 196.0
136.93634 76.0
136.994568 120.0
137.055145 192.0
137.171677 288.0
137.192657 180.0
137.264938 176.0
137.346573 188.0
137.58226 184.0
137.668655 128.0
137.715363 148.0
137.738174 136.0
137.967743 252.0
137.98645 236.0
138.010483 3304.0
138.065948 28.0
138.110397 44.0
138.141129 140.0
138.168869 204.0
138.196945 56.0
138.299927 164.0
138.402939 176.0
138.483078 172.0
138.576263 160.0
138.645187 180.0
138.801285 108.0
138.827072 40.0
139.008469 608.0
139.075775 224.0
139.233078 152.0
139.291809 184.0
139.322342 100.0
139.479797 168.0
139.569138 92.0
139.587952 60.0
139.722015 168.0
139.753876 164.0
139.773773 84.0
139.900879 64.0
140.025757 49076.0
140.100571 156.0
140.116089 200.0
140.149872 200.0
140.169983 140.0
140.229401 60.0
140.258438 280.0
140.313171 156.0
140.369751 52.0
140.42662 76.0
140.473526 48.0
140.50766 128.0
140.561447 76.0
140.588928 84.0
140.638718 136.0
140.671005 128.0
140.702057 120.0
140.79454 116.0
140.822876 156.0
140.878662 240.0
140.912643 180.0
140.988922 72.0
141.028442 2456.0
141.099365 68.0
141.123001 96.0
141.184494 116.0
141.20105 108.0
141.217606 76.0
141.236526 240.0
141.316956 140.0
141.350082 72.0
141.475525 64.0
141.495468 252.0
141.544189 180.0
141.622345 152.0
141.679199 156.0
141.707626 116.0
141.804794 176.0
141.845093 76.0
141.883026 48.0
141.937561 316.0
141.953308 196.0
142.022232 10096.0
142.086502 140.0
142.119476 172.0
142.186646 28.0
142.247437 112.0
142.283966 64.0
142.345703 108.0
142.389053 176.0
142.438339 80.0
142.516739 52.0
142.547623 144.0
142.616547 124.0
142.773468 168.0
142.827545 180.0
142.909058 184.0
142.92572 52.0
142.954269 152.0
142.989975 68.0
143.023788 876.0
143.074249 188.0
143.099472 120.0
143.152451 128.0
143.170044 88.0
143.216156 116.0
143.259048 60.0
143.292389 124.0
143.38295 80.0
143.430618 88.0
143.468765 40.0
143.525986 228.0
143.542679 100.0
143.702484 164.0
143.771683 88.0
143.934021 192.0
143.962677 128.0
143.979401 52.0
144.115555 72.0
144.156174 88.0
144.182465 124.0
144.304382 140.0
144.388123 192.0
144.490936 100.0
144.512466 184.0
144.536392 88.0
144.617767 56.0
144.653671 156.0
144.682404 120.0
144.764542 132.0
144.782471 192.0
144.821289 140.0
144.895554 196.0
145.08728 148.0
145.319931 48.0
145.491592 152.0
145.509537 228.0
145.611542 168.0
145.656036 32.0
145.706482 112.0
145.881912 128.0
146.045441 48.0
146.199417 244.0
146.353485 172.0
146.642563 196.0
146.84993 292.0
147.055008 108.0
147.074326 160.0
147.168472 176.0
147.2883 136.0
147.36171 188.0
147.569565 180.0
147.591324 216.0
147.772736 160.0
147.792099 112.0
147.867111 140.0
147.884048 132.0
147.937302 184.0
148.07048 72.0
148.128616 120.0
148.480072 224.0
148.533447 100.0
148.734848 156.0
148.793106 172.0
148.91452 40.0
149.045105 196.0
149.079727 176.0
149.197632 180.0
149.23288 140.0
149.337448 152.0
149.439621 160.0
149.47612 144.0
149.60025 192.0
149.6465 132.0
149.812119 144.0
149.841354 176.0
150.010361 1804.0
150.040009 180.0
150.192398 128.0
150.352127 60.0
150.387924 124.0
151.011292 368.0
151.032669 156.0
151.053879 108.0
151.365524 92.0
151.397354 156.0
151.416946 164.0
151.615402 156.0
151.92926 76.0
152.007187 484.0
152.064728 508.0
152.14032 216.0
152.221344 40.0
152.479294 152.0
152.594833 224.0
152.736221 204.0
152.875259 160.0
153.004684 260.0
153.062469 156.0
153.266785 192.0
153.461517 60.0
153.599625 132.0
153.634155 184.0
153.678574 40.0
154.016785 176.0
154.083496 124.0
154.192215 224.0
154.239182 168.0
154.367737 72.0
154.607712 156.0
154.634933 152.0
154.788422 56.0
154.882538 228.0
154.994034 108.0
155.072601 328.0
155.735809 136.0
155.999207 184.0
156.019104 140.0
156.07132 200.0
156.215561 216.0
156.28772 32.0
156.775787 212.0
156.91539 92.0
156.967743 32.0
157.046814 244.0
157.077484 108.0
157.514328 212.0
157.606781 116.0
157.749237 152.0
157.879257 80.0
157.931778 84.0
157.994308 216.0
158.045029 2248.0
158.091904 56.0
158.257111 188.0
158.439941 100.0
158.599777 200.0
158.74826 172.0
158.853592 116.0
159.045425 264.0
159.119614 216.0
159.189926 48.0
159.5065 160.0
159.637238 188.0
160.057724 128.0
160.090225 156.0
160.319473 120.0
160.387527 128.0
160.422821 40.0
160.455582 144.0
160.664917 132.0
160.705292 116.0
160.826416 136.0
160.887009 192.0
161.02829 240.0
161.063782 300.0
161.154724 48.0
161.285202 204.0
161.662994 184.0
161.738922 128.0
161.776886 188.0
161.868042 176.0
161.931351 188.0
162.030792 552.0
162.068146 100.0
162.35968 172.0
162.534714 136.0
162.60936 156.0
162.755814 156.0
163.004898 680.0
163.040985 212.0
163.062943 184.0
163.16716 68.0
163.245987 176.0
163.548752 244.0
163.59967 200.0
163.951172 204.0
164.015488 384.0
164.067398 184.0
164.104111 220.0
164.208679 156.0
164.269897 184.0
164.297958 168.0
164.402573 92.0
164.499557 168.0
164.721725 208.0
164.887817 96.0
164.964493 116.0
165.020157 14672.0
165.141846 116.0
165.179306 96.0
165.227905 56.0
165.312347 140.0
165.401932 72.0
165.435211 68.0
165.460815 92.0
165.537949 64.0
165.604218 100.0
165.88562 224.0
165.914276 208.0
165.961075 112.0
165.978378 164.0
166.005768 4016.0
166.070084 268.0
166.098923 88.0
166.124146 72.0
166.188705 40.0
166.214371 40.0
166.263031 108.0
166.352966 116.0
166.414581 52.0
166.437698 136.0
166.473648 52.0
166.681717 88.0
166.738266 88.0
166.75882 180.0
166.839828 124.0
166.897644 84.0
166.915649 108.0
167.016296 3828.0
167.075104 116.0
167.093124 80.0
167.126572 104.0
167.29129 68.0
167.35376 164.0
167.435486 120.0
167.546249 60.0
167.584885 56.0
167.742096 84.0
167.770462 72.0
167.829758 192.0
167.855545 124.0
168.017349 1260.0
168.057114 312.0
168.103195 80.0
168.245148 200.0
168.485336 36.0
168.707596 100.0
168.738617 96.0
168.759293 204.0
169.006058 260.0
169.043243 216.0
169.068054 156.0
169.300125 156.0
169.481598 152.0
169.561798 116.0
169.766602 36.0
169.828857 360.0
170.016342 248.0
170.051117 332.0
170.618286 256.0
170.7509 60.0
171.008484 344.0
171.056046 668.0
171.624847 228.0
171.936325 156.0
172.059204 112.0
172.220917 188.0
173.015884 204.0
173.070877 200.0
173.348541 132.0
173.395706 164.0
173.922913 212.0
174.025299 68.0
174.064148 268.0
174.259064 156.0
174.408859 116.0
174.975555 172.0
175.000778 220.0
175.019211 132.0
175.074509 152.0
175.403854 120.0
175.90506 112.0
175.955215 124.0
176.047638 172.0
176.124237 180.0
176.262894 144.0
176.351471 152.0
176.488937 172.0
176.555054 100.0
176.61853 44.0
176.95462 152.0
177.054779 1272.0
177.476593 120.0
177.513718 164.0
177.842697 152.0
177.871902 208.0
177.917023 144.0
177.943573 176.0
177.983398 144.0
178.01915 164.0
178.063278 1576.0
178.113541 156.0
178.254349 72.0
178.626572 112.0
178.647858 124.0
178.79155 204.0
178.847443 224.0
179.004517 132.0
179.025818 76.0
179.071747 4200.0
179.104263 124.0
179.153671 68.0
179.180313 40.0
179.262909 72.0
179.368698 180.0
179.471588 156.0
179.525833 160.0
179.646866 72.0
179.713562 96.0
179.873688 76.0
179.969803 124.0
179.991165 84.0
180.020538 200.0
180.046082 156.0
180.075851 1248.0
180.104309 132.0
180.464111 60.0
180.545731 192.0
180.616547 80.0
180.643295 208.0
180.822205 200.0
180.951065 132.0
180.989914 220.0
181.014694 176.0
181.04657 144.0
181.0625 248.0
181.111755 128.0
181.208191 140.0
181.259094 140.0
181.357269 152.0
181.902786 32.0
182.051575 284.0
182.082687 80.0
182.28418 132.0
182.327179 84.0
182.675186 248.0
182.717087 128.0
182.869217 164.0
182.937759 180.0
182.991608 32.0
183.022461 148.0
183.060501 1724.0
183.118179 76.0
183.145111 184.0
183.279816 40.0
183.379532 188.0
183.42804 144.0
183.487671 100.0
183.800232 152.0
183.999969 148.0
184.066025 296.0
184.210617 44.0
184.288971 104.0
184.337601 184.0
184.372742 40.0
184.415985 36.0
184.551147 176.0
184.764816 48.0
184.829758 104.0
184.910934 212.0
185.030472 176.0
185.06189 436.0
185.108566 164.0
185.230453 144.0
185.265671 120.0
185.355072 208.0
185.533966 68.0
185.653275 120.0
185.976135 48.0
186.024994 156.0
186.043884 160.0
186.064362 240.0
186.353622 100.0
186.573761 116.0
186.628143 128.0
186.89743 104.0
187.051987 380.0
187.142395 128.0
187.254044 136.0
187.341217 124.0
187.597382 260.0
188.074753 136.0
188.104553 140.0
188.192932 168.0
188.449631 180.0
188.484421 148.0
188.530106 172.0
188.634735 116.0
188.722229 96.0
188.774185 104.0
188.886322 132.0
188.916412 176.0
189.00943 168.0
189.054047 212.0
189.214722 240.0
189.244827 116.0
189.275253 180.0
189.463943 208.0
189.568054 176.0
189.899796 204.0
190.060959 508.0
190.138489 76.0
190.212601 144.0
190.243774 68.0
190.344391 124.0
190.440506 132.0
190.459732 80.0
190.674057 124.0
190.753769 68.0
190.877487 144.0
190.968246 52.0
190.998489 224.0
191.065033 172.0
191.21312 128.0
191.405823 140.0
191.465118 192.0
191.700577 132.0
192.028656 124.0
192.066986 160.0
192.948196 208.0
193.016602 964.0
193.073898 484.0
193.136246 132.0
193.224777 28.0
193.324387 44.0
193.435104 80.0
193.839478 168.0
194.018082 136.0
194.056702 156.0
194.230392 108.0
194.549515 220.0
194.63559 72.0
194.982849 56.0
195.012741 748.0
195.044281 508.0
195.068085 228.0
195.191345 212.0
195.494278 200.0
195.681061 168.0
195.859299 100.0
195.92894 224.0
196.016998 192.0
196.051086 720.0
196.263397 96.0
196.29686 164.0
196.333115 32.0
196.670715 104.0
196.690247 124.0
197.063171 1088.0
197.103592 108.0
197.16507 192.0
197.271286 64.0
197.447449 144.0
197.472626 172.0
197.531357 168.0
197.626602 192.0
197.86438 228.0
197.928787 44.0
198.02681 44.0
198.070007 4000.0
198.149857 56.0
198.214508 172.0
198.276154 140.0
198.306992 48.0
198.477997 168.0
198.526215 104.0
198.573349 48.0
198.78096 136.0
199.027969 208.0
199.075272 696.0
199.123459 40.0
199.381927 56.0
199.502808 148.0
199.730576 48.0
199.919083 236.0
200.030502 128.0
200.067291 104.0
200.09079 148.0
200.45256 92.0
200.504868 164.0
200.606354 164.0
200.783981 52.0
201.032883 216.0
201.057648 112.0
201.252426 68.0
201.755341 168.0
202.032028 168.0
202.06456 204.0
202.185287 228.0
202.332489 164.0
202.471237 56.0
202.496719 84.0
202.703537 132.0
203.021042 180.0
203.043732 48.0
203.083435 136.0
203.233795 36.0
203.813049 100.0
203.832932 128.0
203.955139 40.0
204.014847 204.0
204.051575 296.0
204.353195 236.0
204.495575 168.0
204.894241 32.0
204.917038 128.0
205.019623 164.0
205.074356 4128.0
205.127411 176.0
205.151642 100.0
205.336075 92.0
205.384567 40.0
205.455887 64.0
205.552902 96.0
205.586212 148.0
205.695602 224.0
205.759567 168.0
206.024002 168.0
206.082596 9044.0
206.162659 76.0
206.306931 168.0
206.344101 68.0
206.404144 192.0
206.449905 140.0
206.667297 132.0
206.687332 96.0
206.859055 48.0
206.919174 88.0
206.953537 96.0
207.014343 180.0
207.084595 2012.0
207.131622 44.0
207.174072 44.0
207.541367 52.0
207.583939 192.0
207.608414 112.0
207.678589 60.0
208.02005 128.0
208.056091 1508.0
208.12915 32.0
208.24115 148.0
208.295731 48.0
208.462372 48.0
208.502609 92.0
208.680832 60.0
208.775726 52.0
208.977081 192.0
208.999451 140.0
209.061752 1100.0
209.285065 44.0
209.423294 288.0
209.737381 116.0
209.864227 104.0
209.93631 176.0
210.067932 1216.0
210.129578 84.0
210.294067 44.0
210.322922 128.0
210.377777 132.0
210.605896 68.0
210.666565 180.0
210.756134 164.0
210.955551 216.0
211.007584 104.0
211.078278 5428.0
211.120361 172.0
211.159744 232.0
211.247635 44.0
211.390381 344.0
211.458862 112.0
211.493591 76.0
211.716522 164.0
211.809219 44.0
211.864258 200.0
211.901917 108.0
211.988846 164.0
212.020721 144.0
212.077576 744.0
212.11058 80.0
212.168564 80.0
212.21785 36.0
212.30484 180.0
212.44696 64.0
212.470169 220.0
212.684921 132.0
212.730545 100.0
212.817459 116.0
212.838791 88.0
212.94043 80.0
213.027863 180.0
213.078827 400.0
213.084518 140.0
213.167038 180.0
213.358871 180.0
213.604004 196.0
213.771912 204.0
213.865036 124.0
214.040863 11056.0
214.095047 72.0
214.135818 60.0
214.188248 80.0
214.211548 152.0
214.307693 52.0
214.396576 48.0
214.433014 64.0
214.482559 108.0
214.543777 144.0
214.582535 216.0
214.677902 44.0
214.765396 52.0
214.907623 176.0
214.940445 100.0
215.042206 2284.0
215.14183 120.0
215.23497 40.0
215.375443 68.0
215.457245 160.0
215.539062 100.0
215.644257 112.0
215.771378 148.0
215.813812 140.0
215.924942 48.0
215.971741 96.0
216.03772 4144.0
216.202881 28.0
216.255569 124.0
216.359253 136.0
216.416046 92.0
216.466354 124.0
216.567993 136.0
216.606934 52.0
216.724121 44.0
216.797379 76.0
216.867722 108.0
217.022049 1412.0
217.087616 156.0
217.228394 124.0
217.275345 128.0
217.307617 132.0
217.328156 88.0
217.35997 76.0
217.583496 84.0
217.666306 80.0
217.718567 68.0
217.876053 156.0
217.927139 152.0
217.953583 72.0
218.020065 436.0
218.050476 132.0
218.218124 52.0
218.332794 200.0
218.409271 200.0
218.524002 180.0
218.950836 40.0
219.015518 884.0
219.133484 112.0
219.254288 56.0
219.316544 164.0
219.749695 100.0
219.852982 52.0
220.03009 168.0
220.071411 224.0
220.952194 180.0
221.026886 196.0
221.056732 144.0
221.458389 124.0
221.615402 120.0
221.668732 136.0
221.843613 172.0
222.027451 188.0
222.160934 56.0
222.232132 248.0
222.321152 160.0
222.567535 180.0
222.597244 236.0
222.618027 156.0
222.781387 156.0
223.010193 116.0
223.070206 192.0
223.182617 164.0
223.212357 212.0
223.23912 196.0
223.369995 148.0
223.5345 192.0
223.715103 132.0
223.846191 152.0
223.938522 144.0
224.071472 1616.0
224.11499 168.0
224.153015 104.0
224.281174 160.0
224.537598 116.0
224.662872 136.0
224.832947 128.0
224.908493 180.0
224.955338 176.0
225.015396 296.0
225.080826 4636.0
225.274872 88.0
225.366302 132.0
225.454147 76.0
225.481033 116.0
225.524063 148.0
225.579407 88.0
225.588638 80.0
225.699265 168.0
225.747116 144.0
225.894409 228.0
225.934052 72.0
225.989883 76.0
226.023575 384.0
226.088898 40164.0
226.153503 168.0
226.279739 56.0
226.311676 24.0
226.336624 152.0
226.378418 96.0
226.410599 108.0
226.492355 80.0
226.513153 72.0
226.521606 68.0
226.642151 32.0
226.683548 280.0
226.751068 144.0
226.780014 72.0
226.821976 56.0
226.862686 76.0
226.911911 84.0
226.989868 80.0
227.091827 4956.0
227.150024 164.0
227.202835 60.0
227.237732 152.0
227.292557 84.0
227.384293 84.0
227.417542 80.0
227.482697 140.0
227.529953 36.0
227.559982 52.0
227.593002 112.0
227.620041 64.0
227.695114 48.0
227.749176 88.0
227.821274 60.0
227.854324 40.0
227.893372 96.0
227.947464 48.0
228.042084 1452.0
228.075867 948.0
228.124802 52.0
228.154861 60.0
228.202423 88.0
228.287155 108.0
228.320435 60.0
228.357834 64.0
228.38942 88.0
228.422501 80.0
228.474991 88.0
228.509506 100.0
228.539841 56.0
228.581741 104.0
228.6073 124.0
228.708374 76.0
228.750519 164.0
228.780609 156.0
228.876968 48.0
229.006454 40.0
229.04425 336.0
229.111893 176.0
229.159668 84.0
229.301727 40.0
229.337906 52.0
229.467529 48.0
229.681641 104.0
229.717834 92.0
229.88681 144.0
230.03981 300.0
230.165649 108.0
230.255127 116.0
230.484711 92.0
230.678146 104.0
230.762253 112.0
230.84584 112.0
231.034988 152.0
231.101547 120.0
231.3013 176.0
231.389084 152.0
231.849518 168.0
232.030563 1452.0
232.173904 64.0
232.52887 68.0
232.674576 104.0
232.765671 40.0
232.823364 68.0
233.034317 340.0
233.081589 104.0
233.121094 168.0
233.148438 108.0
233.312576 52.0
233.525436 64.0
233.582764 128.0
234.045013 604.0
234.077347 1024.0
234.118927 36.0
234.167648 112.0
234.225525 260.0
234.402237 36.0
234.475372 168.0
234.54155 124.0
234.923615 100.0
234.951065 132.0
235.042328 316.0
235.05397 296.0
235.058594 316.0
235.073685 152.0
235.085876 268.0
235.222672 168.0
235.705231 32.0
235.757172 120.0
236.045639 444.0
236.073273 1984.0
236.111816 44.0
236.148514 52.0
236.299438 120.0
236.341248 76.0
236.4888 112.0
236.602753 176.0
236.671829 64.0
236.872437 248.0
236.929108 84.0
237.060623 596.0
237.122574 116.0
237.20491 256.0
237.269287 208.0
237.398071 196.0
237.491196 160.0
237.54837 72.0
238.030228 160.0
238.054916 220.0
238.196075 112.0
238.257523 92.0
238.42038 88.0
238.475693 80.0
238.546402 140.0
238.654007 100.0
238.71405 68.0
239.035355 344.0
239.067886 212.0
239.103134 156.0
239.22934 56.0
239.346329 76.0
239.484924 60.0
239.789948 72.0
239.830017 104.0
239.853195 116.0
239.874115 112.0
239.99649 220.0
240.041199 980.0
240.743256 36.0
240.922409 108.0
240.993469 132.0
241.051529 1976.0
241.089264 76.0
241.283997 72.0
241.312286 80.0
241.395309 152.0
241.503555 128.0
241.664429 44.0
241.769638 100.0
241.885315 128.0
241.995605 220.0
242.044678 420.0
242.305328 56.0
242.531555 144.0
243.014984 176.0
243.047729 592.0
243.257416 144.0
243.502716 156.0
243.695328 184.0
243.897324 72.0
244.031219 1456.0
244.152283 80.0
244.223816 88.0
244.531845 216.0
244.594101 176.0
244.699951 28.0
244.790237 40.0
244.830734 212.0
244.992706 204.0
245.038864 3124.0
245.369797 104.0
245.503891 60.0
245.922668 176.0
246.035614 472.0
246.184204 76.0
246.240417 56.0
246.612228 204.0
246.659119 132.0
247.038635 840.0
247.175171 160.0
247.237762 112.0
247.497574 80.0
247.676086 212.0
247.817062 108.0
248.041443 276.0
248.20575 196.0
248.616699 136.0
249.024841 256.0
249.197617 80.0
249.464752 68.0
249.750916 172.0
250.022095 156.0
250.998062 84.0
251.044876 340.0
251.436569 128.0
252.01445 152.0
252.061859 144.0
252.216721 52.0
253.079514 312.0
253.11412 164.0
253.352768 120.0
254.083237 992.0
254.145401 72.0
254.920212 192.0
254.96788 36.0
255.08577 176.0
255.460724 124.0
255.623001 112.0
256.011383 164.0
256.080505 164.0
256.801758 76.0
257.248505 32.0
257.523102 140.0
258.23587 224.0
258.287048 176.0
258.571808 112.0
258.597412 148.0
259.042084 1724.0
259.084167 96.0
259.792664 72.0
259.824738 136.0
259.856812 148.0
259.927734 192.0
260.046356 2852.0
260.103943 44.0
260.130402 160.0
260.219513 84.0
260.248413 176.0
260.293365 64.0
260.341522 216.0
260.373657 160.0
260.399323 56.0
260.733459 176.0
260.759186 248.0
261.057129 9864.0
261.13858 124.0
261.177185 168.0
261.241516 40.0
261.338043 44.0
261.366974 116.0
261.406403 148.0
261.450653 48.0
261.47641 152.0
261.608368 80.0
261.675995 48.0
261.717834 64.0
261.904388 52.0
261.936859 128.0
261.962616 112.0
262.053986 1032.0
262.384796 76.0
262.44928 32.0
262.578278 52.0
262.89444 72.0
263.052246 3476.0
263.11911 80.0
263.339966 72.0
263.485352 120.0
263.520874 228.0
263.553192 36.0
263.582275 112.0
263.665039 104.0
263.869934 92.0
263.899048 100.0
263.921692 76.0
264.033875 168.0
264.058167 428.0
264.199829 56.0
264.461945 44.0
265.119415 32.0
265.813385 180.0
265.910767 68.0
266.050323 84.0
266.108765 64.0
266.196442 96.0
267.109741 208.0
267.298431 148.0
268.34729 112.0
269.003021 216.0
269.046661 484.0
269.404724 32.0
269.731506 44.0
269.823029 132.0
270.045624 220.0
270.307129 136.0
271.044281 848.0
271.315948 164.0
272.031433 656.0
272.169006 128.0
272.267517 168.0
272.602631 148.0
272.84256 68.0
272.92804 144.0
273.037933 296.0
273.908813 180.0
274.455902 72.0
274.732941 108.0
275.776428 84.0
276.613281 124.0
277.060364 232.0
277.315521 140.0
277.81955 104.0
277.849396 92.0
278.287506 132.0
278.639587 136.0
278.716003 216.0
278.739258 156.0
278.862213 164.0
279.923492 40.0
281.617706 56.0
282.011993 124.0
282.687561 132.0
282.848206 232.0
283.186401 160.0
283.213196 80.0
284.292908 108.0
285.549286 176.0
285.707367 160.0
285.865509 132.0
286.158356 152.0
286.249298 208.0
286.757996 52.0
287.351501 92.0
287.780151 88.0
287.979401 100.0
288.0242 164.0
288.065063 144.0
288.347687 148.0
288.380066 116.0
288.425415 128.0
288.487183 164.0
288.57077 104.0
288.629913 132.0
288.679871 168.0
288.719574 152.0
288.824432 56.0
288.862671 160.0
288.895447 76.0
288.993256 260.0
289.05365 42684.0
289.130249 188.0
289.162445 160.0
289.226624 60.0
289.284637 28.0
289.320099 116.0
289.353333 108.0
289.3815 120.0
289.443756 132.0
289.467468 56.0
289.535187 44.0
289.579224 156.0
289.626862 92.0
289.659668 96.0
289.694397 140.0
289.773804 128.0
289.829926 68.0
289.885712 104.0
289.992432 84.0
290.001404 80.0
290.011627 52.0
290.055267 8116.0
290.107086 36.0
290.149323 68.0
290.186951 144.0
290.243927 76.0
290.280762 72.0
290.348572 44.0
290.475891 64.0
290.728333 60.0
290.79303 112.0
290.843964 120.0
290.898254 240.0
290.992279 144.0
291.050293 9080.0
291.106903 100.0
291.139343 40.0
291.172485 116.0
291.201599 180.0
291.310303 48.0
291.411072 124.0
291.457184 96.0
291.528534 192.0
291.584381 60.0
291.61499 80.0
291.640625 96.0
291.693176 36.0
291.740753 112.0
291.770264 156.0
291.798279 136.0
291.852966 84.0
291.93457 88.0
292.000092 136.0
292.052887 1672.0
292.128632 132.0
292.174622 112.0
292.24411 128.0
292.271332 96.0
292.492554 64.0
292.529999 88.0
292.805786 76.0
292.863708 52.0
293.03064 100.0
293.053497 56.0
293.170349 144.0
293.224854 132.0
293.369659 56.0
293.436218 140.0
293.644226 40.0
293.840302 108.0
294.1185 248.0
294.149231 100.0
294.218903 116.0
294.24823 124.0
294.272125 100.0
294.59317 36.0
294.921204 76.0
296.361969 44.0
297.802826 64.0
298.672455 60.0
298.837585 96.0
299.570892 76.0
299.736267 72.0
301.976807 84.0
302.537384 80.0
302.890625 68.0
309.798584 56.0
310.043854 52.0
312.438629 128.0
313.044037 128.0
313.840424 88.0
313.981476 68.0
315.906525 48.0
317.805511 68.0
324.841125 88.0
327.947937 80.0
335.535309 116.0
337.086578 116.0
338.707367 88.0
340.706665 96.0
343.659454 68.0
346.265625 72.0
347.815521 112.0
348.487701 68.0
348.740387 88.0
350.936829 104.0
352.231842 72.0
355.084015 44.0
358.693665 92.0
358.972656 64.0
361.976898 56.0
366.059143 44.0
377.085327 52.0
378.787842 108.0
389.837646 64.0
390.726288 100.0
393.141724 100.0
393.92746 88.0
415.004761 116.0
425.967072 56.0
426.127289 76.0
429.762939 120.0
430.489471 56.0
433.994354 44.0
441.828796 68.0
452.811371 92.0
456.018951 92.0
458.427826 64.0
474.131683 32.0
474.755951 56.0
480.942841 104.0
481.270264 52.0
490.130829 100.0
498.027863 72.0
516.437256 120.0
524.54718 68.0
530.63208 64.0
540.891724 52.0
546.130432 116.0
550.390015 140.0
558.229736 128.0
563.499634 192.0
596.168335 56.0
600.38916 32.0
607.206848 48.0
608.998352 76.0
610.433411 48.0
621.384338 32.0
632.657837 180.0
656.380615 104.0
657.553955 44.0
660.46637 72.0
673.527832 84.0
678.081116 56.0
703.292664 92.0
716.177551 120.0
739.535156 140.0
742.997925 36.0
744.604675 188.0
748.422241 144.0
751.474548 84.0
757.904724 92.0
758.688477 80.0
759.944458 196.0
766.443726 44.0
773.961487 68.0
774.831116 80.0
779.141907 40.0
780.16449 148.0
781.282288 84.0
782.946655 84.0
798.713806 44.0
812.356079 72.0
821.971497 156.0
831.121338 244.0
837.46814 52.0
862.85144 320.0
865.566406 144.0
869.611572 104.0
871.202881 48.0
873.230835 80.0
888.370483 148.0
901.081238 144.0
904.112915 180.0
906.915894 132.0
920.21698 176.0
922.645813 128.0
926.070862 216.0
928.058594 168.0
928.440613 112.0
928.828796 164.0
930.728394 180.0
932.143738 120.0
933.061584 152.0
936.061279 172.0
937.023682 132.0
939.19397 180.0
940.200684 56.0
943.187378 172.0
946.962646 108.0
948.494507 176.0
950.230042 196.0
951.046204 136.0
954.130066 92.0
957.890198 72.0
958.617188 104.0
959.911743 92.0
967.158813 184.0
969.723145 80.0
970.206604 160.0
970.820496 160.0
985.717529 92.0
987.086548 168.0
987.355408 232.0
988.312561 128.0
994.717712 144.0
998.661316 240.0
1000.658752 160.0
1002.49176 156.0
1002.680847 156.0
1005.209717 116.0
1009.555969 140.0
1019.159668 64.0
1029.185547 164.0
1034.946655 112.0
1037.022339 108.0
1040.235962 84.0
1044.309937 216.0
1048.501343 148.0
1051.10022 48.0
1065.396484 216.0
1066.020264 164.0
1066.553223 160.0
1067.808105 240.0
1068.731812 108.0
1069.278564 196.0
1069.330566 168.0
1075.020142 208.0
1078.592773 112.0
1079.148438 160.0
1080.515381 288.0
1082.308838 84.0
1082.904785 196.0
1084.254395 216.0
1085.781982 32.0
1090.049194 160.0
1090.581543 140.0
1091.107422 156.0
1091.311279 224.0
1092.876709 180.0
1092.929321 204.0
1092.995117 100.0
1093.547974 144.0
1094.950317 144.0
1097.098511 148.0
1097.177612 120.0
1097.421509 128.0
1105.599487 176.0
1106.155518 160.0
1108.168823 160.0
1109.607056 156.0
1110.508911 216.0
1117.051758 68.0
1127.687378 116.0
1128.569824 136.0
1128.690186 120.0
1130.221924 148.0
1132.163208 200.0
1135.051514 216.0
1138.977783 172.0
1145.60376 240.0
1147.828003 180.0
1152.627441 148.0
1153.066772 60.0
1156.739624 184.0
1162.935059 176.0
1163.294922 116.0
1164.680176 156.0
1165.651733 108.0
1168.861328 100.0
1168.970215 152.0
1169.187988 100.0
1170.481445 200.0
1175.020996 124.0
1178.919922 172.0
1179.719604 208.0
1179.808472 156.0
1180.239258 168.0
1186.3396 160.0
1190.065063 140.0
1191.129517 112.0
1191.926514 124.0
1196.817261 140.0
1198.752808 44.0
1205.025146 148.0
1205.232422 96.0
1209.340454 212.0
1210.931641 64.0
1212.595703 228.0
1216.382935 136.0
1216.737061 184.0
1217.111938 176.0
1217.66748 56.0
1217.771729 204.0
1224.093506 128.0
1225.075562 196.0
1227.989258 216.0
1229.151123 268.0
1229.468384 120.0
1231.262695 192.0
1231.430298 120.0
1231.611938 116.0
1234.659302 116.0
1235.631592 112.0
1243.402832 48.0
1243.908203 144.0
1244.160889 116.0
1244.750732 144.0
1245.523193 132.0
1246.436523 220.0
1246.506836 120.0
1248.911255 144.0
1249.319336 132.0
1250.804199 188.0
1251.057617 160.0
1251.543335 208.0
1252.261719 164.0
1252.987305 84.0
1254.241699 200.0
1254.439087 176.0
1255.200439 236.0
1255.553101 92.0
1260.197998 156.0
1260.408691 192.0
1260.742065 164.0
1265.644409 128.0
1265.814331 156.0
1266.600586 160.0
1268.322998 228.0
1268.627197 220.0
1269.662476 160.0
1269.740479 184.0
1270.045532 124.0
1270.939331 108.0
1271.031616 144.0
1271.194824 188.0
1273.509277 188.0
1277.04895 140.0
1278.569946 176.0
1279.041382 152.0
1280.337158 100.0
1285.227417 200.0
1287.626099 140.0
1288.426147 40.0
1288.797729 124.0
1290.119873 36.0
1292.508789 176.0
1293.338989 60.0
1297.55127 204.0
1298.87085 72.0
1300.183838 156.0
1300.291504 68.0
1302.955566 172.0
1303.904175 104.0
1305.644043 192.0
1306.032349 184.0
1306.845337 168.0
1310.409424 172.0
1310.459839 148.0
1311.533569 196.0
1314.165894 160.0
1315.29895 132.0
1317.104126 208.0
1317.949463 176.0
1320.139771 132.0
1321.08728 132.0
1323.859497 128.0
1324.228882 48.0
1324.728638 156.0
1327.120361 112.0
1327.294434 168.0
1327.852783 200.0
1328.099365 52.0
1329.01355 192.0
1329.97876 64.0
1331.808472 140.0
1332.505981 132.0
1335.602783 228.0
1337.429199 164.0
1337.669434 196.0
1338.426636 200.0
1339.744873 232.0
1340.458984 168.0
1340.539185 48.0
1340.961792 180.0
1341.209717 188.0
1351.016968 132.0
1351.265747 40.0
1351.697388 112.0
1353.908203 40.0
1354.911743 160.0
1355.087646 100.0
1357.044556 196.0
1358.467407 36.0
1358.944214 236.0
1359.252441 156.0
1359.560669 200.0
1362.718262 52.0
1363.276733 120.0
1363.734619 132.0
1364.195435 188.0
1365.335205 192.0
1365.798584 232.0
1367.476196 128.0
1369.051758 168.0
1369.198975 176.0
1370.790283 144.0
1370.959717 224.0
1372.234985 92.0
1372.389893 264.0
1372.832275 248.0
1373.518188 132.0
1374.005127 296.0
1374.329712 196.0
1377.947632 136.0
1380.349976 136.0
1381.030396 132.0
1381.148682 112.0
1381.666504 76.0
1383.768433 112.0
1383.90918 188.0
1384.931152 116.0
1385.5979 156.0
1386.67981 88.0
1391.835693 156.0
1393.633301 192.0
1394.450684 208.0
1396.130981 216.0
1396.547485 96.0
1397.827148 68.0
1398.824463 148.0
1403.421265 204.0
1404.263916 188.0
1405.502319 180.0
1406.256104 100.0
1406.771118 76.0
1411.238892 136.0
1411.777344 120.0
1412.787109 188.0
1413.071411 176.0
1414.134033 180.0
1414.433472 252.0
1414.935059 148.0
1415.024902 168.0
1415.159668 44.0
1415.309326 108.0
1416.140625 144.0
1418.733398 212.0
1419.858154 176.0
1421.621216 132.0
1421.71875 204.0
1422.446777 164.0
1422.979858 200.0
1423.911011 80.0
1424.534424 156.0
1424.63208 112.0
1424.707275 108.0
1425.195557 108.0
1425.293335 144.0
1425.751709 136.0
1426.13501 148.0
1426.300415 188.0
1426.804077 32.0
1427.398071 176.0
1427.67627 172.0
1428.684204 208.0
1429.654907 148.0
1429.93335 160.0
1430.580688 96.0
1431.898438 208.0
1432.403076 140.0
1432.877686 92.0
1433.284546 60.0
1433.668945 156.0
1434.226685 164.0
1435.470581 152.0
1436.277588 100.0
1437.318726 224.0
1440.376465 100.0
1440.988403 108.0
1442.220215 88.0
1442.885498 132.0
1443.278687 204.0
1443.361816 140.0
1443.845825 172.0
1445.455933 168.0
1446.781738 140.0
1447.1073 204.0
1448.955322 160.0
1449.32666 64.0
1449.758545 108.0
1452.563965 308.0
1452.799072 212.0
1453.019165 180.0
1453.231567 240.0
1454.726685 160.0
1455.015137 112.0
1456.199829 80.0
1456.366943 204.0
1456.534058 176.0
1458.023193 152.0
1458.137207 124.0
1459.619629 228.0
1460.174805 176.0
1460.661621 144.0
1460.958252 108.0
1461.78772 140.0
1462.092041 156.0
1462.388916 188.0
1462.94458 52.0
1463.02832 104.0
1466.12854 168.0
1466.31897 164.0
1468.331787 240.0
1469.941528 116.0
1470.193359 144.0
1471.16272 136.0
1473.58374 156.0
1473.690796 112.0
1474.164551 180.0
1474.439697 156.0
1474.508423 188.0
1475.234619 148.0
1475.43335 180.0
1477.52124 144.0
1480.261475 172.0
1483.701782 188.0
1484.069824 144.0
1485.780151 172.0
1487.284302 132.0
1487.338013 160.0
1487.729492 128.0
1491.63208 100.0
1492.447021 160.0
1494.908569 164.0
1496.178589 176.0
1496.987061 136.0
1497.680176 104.0
1498.31189 80.0
1498.642334 172.0
1501.256348 228.0
1502.31311 172.0
1502.459717 260.0
1502.606323 156.0
1502.853149 176.0
