>compound MLS001157807-01!4-[[2-(6-oxobenzo[c]chromen-3-yl)oxypropanoylamino]methyl]cyclohexane-1-carboxylic acid
>formula C24H25NO6
>ionization [M+H]+
>parentmass 424.176
#inchi InChI=1S/C24H25NO6/c1-14(22(26)25-13-15-6-8-16(9-7-15)23(27)28)30-17-10-11-19-18-4-2-3-5-20(18)24(29)31-21(19)12-17/h2-5,10-12,14-16H,6-9,13H2,1H3,(H,25,26)(H,27,28)/t14?,15-,16-
#inchikey DBFROQUVDRUPBV
#Ion_Source LC-ESI
#Instrument qTof
#Compound_Source NIH Natural Product Library
#PI Dorrestein
#Data_Collector VVP/LMS
#Scan -1
#Precursor_MZ 424.176
#ExactMass 423.168
#Charge 1
#CAS_Number N/A
#Pubmed_ID N/A
#Smiles CC(Oc1ccc2c(c1)oc(=O)c3ccccc32)C(=O)NC[C@H]4CC[C@@H](CC4)C(=O)O
#INCHI_AUX N/A
#Library_Class 1
#SpectrumID CCMSLIB00000080552
#IonMode Positive
#UpdateWorkflowName UPDATE-SINGLE-ANNOTATED-GOLD
#LibraryQualityString Gold
#TaskID b1d8e8f6646f4e71acdff9ca3d919d08
##Scan# 1991
#SpectrumFile p2-E10_GE10_01_18034.mzXML
#LibraryName NIH_Natural_Products_Library.mgf
#MQScore -1
#Organism NIH_Natural_Products_Library
#TIC_Query 0
#RT_Query -1
#MZErrorPPM -1
#SharedPeaks 0
#MassDiff 0
#LibMZ -1
#SpecMZ 424.176
#SpecCharge 0
#internalFilename spec-00000.mgf

>collision 10
95.047867 144.0
95.085297 3304.0
95.112854 208.0
95.15168 52.0
95.231293 52.0
95.672707 200.0
95.80513 176.0
95.877228 132.0
96.037102 48.0
96.084274 312.0
96.165871 32.0
96.31427 144.0
96.595749 52.0
96.814209 192.0
97.010895 168.0
97.028542 180.0
97.089325 164.0
97.269836 228.0
97.438721 44.0
97.481949 140.0
97.678558 144.0
97.869461 156.0
97.928535 212.0
98.062462 144.0
98.182777 144.0
98.391937 152.0
98.601318 200.0
98.650734 220.0
98.886124 112.0
99.220894 164.0
99.719131 160.0
99.816544 152.0
100.099113 128.0
100.268448 88.0
100.957886 200.0
101.019211 108.0
102.130493 176.0
102.331734 48.0
102.956833 108.0
103.057838 160.0
103.20134 168.0
103.24987 160.0
103.632462 228.0
103.733795 200.0
103.934578 88.0
103.981255 296.0
104.105095 140.0
104.35096 208.0
104.808922 160.0
104.945488 188.0
105.069397 352.0
105.120903 180.0
105.225006 96.0
105.365929 136.0
105.459923 140.0
105.824059 128.0
106.065796 180.0
106.182671 136.0
106.297554 168.0
106.451508 196.0
106.733025 172.0
106.825577 124.0
106.951103 200.0
107.010803 260.0
107.157028 176.0
107.249763 148.0
107.29924 112.0
107.495186 208.0
107.614243 136.0
108.05307 88.0
108.096527 140.0
108.311844 164.0
108.751419 48.0
108.853149 200.0
109.433273 96.0
109.733299 120.0
109.816772 148.0
110.027473 220.0
110.061844 268.0
110.101837 540.0
110.152771 188.0
110.313675 156.0
111.036057 148.0
111.104454 656.0
111.382378 160.0
111.736023 88.0
111.792358 112.0
111.868134 144.0
111.939713 204.0
112.038712 188.0
112.074951 220.0
112.111847 740.0
112.390808 44.0
112.578682 208.0
113.080605 184.0
113.111389 164.0
113.59462 72.0
113.690094 140.0
113.881172 160.0
113.976776 180.0
114.451111 196.0
114.593819 144.0
114.679054 96.0
114.8283 204.0
114.988319 124.0
115.051697 220.0
115.246712 184.0
115.430534 156.0
115.61451 104.0
115.700127 68.0
115.826477 184.0
115.963608 56.0
116.053642 136.0
116.068649 192.0
116.272446 144.0
116.773033 156.0
117.044189 172.0
117.32428 92.0
117.626297 160.0
117.779602 176.0
117.887634 200.0
118.036789 152.0
118.651703 168.0
118.948906 180.0
118.964096 148.0
119.535721 180.0
119.67067 128.0
119.746887 152.0
119.78392 160.0
119.938629 124.0
119.953888 180.0
120.004028 124.0
120.082535 188.0
120.24617 76.0
120.381523 144.0
120.42083 116.0
120.497292 124.0
120.573769 64.0
121.057243 128.0
121.359634 228.0
121.554855 124.0
121.576797 180.0
121.717293 168.0
122.073853 180.0
122.097107 1060.0
122.332901 56.0
122.755928 132.0
122.804451 56.0
122.947853 116.0
123.077316 228.0
123.101295 272.0
123.371948 296.0
124.013885 88.0
124.074715 248.0
124.123604 148.0
124.200134 148.0
124.324379 148.0
124.726387 196.0
125.077797 476.0
125.496658 172.0
125.833565 228.0
125.96756 164.0
126.053947 380.0
126.088028 200.0
126.314041 172.0
126.50425 152.0
127.479256 192.0
128.060349 136.0
128.242859 68.0
128.308228 144.0
128.450302 220.0
128.484131 80.0
128.687256 204.0
128.707581 224.0
128.797913 172.0
128.838577 60.0
129.068237 300.0
129.100769 184.0
129.655426 236.0
129.730225 136.0
129.80278 144.0
130.029633 208.0
130.054596 176.0
130.138596 120.0
130.258957 164.0
130.33847 232.0
130.486221 180.0
130.524872 104.0
131.025604 224.0
131.050659 148.0
131.128143 136.0
131.26265 208.0
131.684845 152.0
131.71225 180.0
131.87471 120.0
132.297379 160.0
132.726105 104.0
132.792603 108.0
133.05191 160.0
134.087021 216.0
134.174606 160.0
134.26915 224.0
134.292206 184.0
134.366028 188.0
134.402939 132.0
134.442169 172.0
134.469528 136.0
134.869446 164.0
134.985046 228.0
135.046951 156.0
135.123825 168.0
135.179352 136.0
135.576645 180.0
135.612442 152.0
135.846634 168.0
135.886078 240.0
135.90181 148.0
135.995132 216.0
136.664429 184.0
136.738892 156.0
137.799896 208.0
137.825607 236.0
137.884018 160.0
137.993881 192.0
138.091156 1368.0
138.127029 2232.0
138.216095 116.0
138.424423 96.0
139.05304 852.0
139.09317 160.0
139.13266 208.0
139.191208 80.0
139.522507 260.0
139.677704 96.0
139.697937 160.0
139.745926 192.0
139.802399 164.0
139.960114 64.0
140.034744 128.0
140.050034 164.0
140.075256 140.0
140.107285 11024.0
140.155624 36.0
140.24263 48.0
140.28241 256.0
140.381912 200.0
140.476257 44.0
140.518723 88.0
140.556473 80.0
140.600571 88.0
140.820877 52.0
140.868118 76.0
140.94136 76.0
140.990982 76.0
141.069244 956.0
141.110504 1372.0
141.154099 76.0
141.18248 48.0
141.440369 96.0
141.46405 72.0
141.575333 60.0
141.707977 40.0
141.726929 96.0
141.86676 68.0
141.942566 144.0
142.072723 196.0
142.089691 204.0
142.248688 88.0
142.338913 48.0
142.483795 104.0
142.557449 140.0
142.747635 148.0
142.961731 96.0
142.997421 80.0
143.042648 200.0
143.084351 180.0
143.218857 168.0
143.260376 192.0
143.40947 160.0
143.452377 176.0
143.523895 60.0
143.655075 108.0
144.082397 132.0
144.366837 148.0
144.953323 216.0
145.063583 180.0
145.399384 164.0
145.521805 84.0
146.084167 92.0
146.500641 212.0
146.66449 112.0
147.026276 124.0
147.487579 148.0
147.543182 140.0
147.608459 100.0
147.651993 152.0
148.138504 172.0
148.160309 188.0
148.519073 168.0
149.20874 92.0
150.116943 48.0
150.175476 180.0
150.710114 152.0
151.051559 224.0
151.338715 52.0
152.061523 1760.0
152.107147 436.0
152.273026 132.0
152.329514 32.0
152.378647 44.0
152.828598 32.0
153.064209 300.0
153.116364 184.0
153.215134 184.0
153.266876 132.0
154.075378 192.0
154.130493 132.0
154.177444 44.0
154.392532 176.0
154.444473 192.0
154.954422 56.0
155.046112 180.0
155.084595 820.0
155.338684 116.0
155.420563 176.0
156.049988 168.0
156.091232 200.0
156.255386 180.0
156.55658 140.0
156.930344 140.0
157.037582 204.0
157.058594 184.0
157.19725 72.0
157.681732 140.0
157.759216 172.0
158.029312 148.0
158.123444 324.0
158.800873 108.0
159.036728 144.0
159.114258 172.0
159.813263 80.0
160.522339 176.0
160.61438 140.0
161.058624 124.0
162.002167 36.0
162.045227 160.0
162.149124 216.0
162.506683 136.0
162.643723 192.0
162.669098 104.0
162.973862 132.0
163.719177 44.0
163.852951 224.0
164.070816 148.0
164.267166 108.0
164.49939 196.0
164.910629 92.0
164.966873 108.0
165.070892 996.0
165.10733 176.0
165.153534 160.0
165.30101 56.0
165.468292 164.0
165.63475 48.0
165.757721 208.0
166.049973 192.0
166.074722 540.0
166.121994 864.0
166.221863 68.0
166.432343 184.0
166.838287 144.0
167.006516 188.0
167.049591 3092.0
167.08432 1684.0
167.129074 3016.0
167.203201 92.0
167.512512 156.0
167.654221 208.0
167.703705 100.0
167.75827 152.0
167.806305 52.0
168.004883 212.0
168.052032 496.0
168.086853 500.0
168.135345 544.0
168.25264 84.0
168.286209 144.0
168.340424 188.0
168.792648 192.0
168.883163 144.0
169.063858 1116.0
169.204041 132.0
169.29985 40.0
169.47081 68.0
169.685928 44.0
169.779678 128.0
170.059875 180.0
170.207458 220.0
170.467224 188.0
170.682968 196.0
170.820816 108.0
170.966522 168.0
171.044128 960.0
171.080261 3280.0
171.448303 60.0
171.521286 64.0
171.641205 132.0
171.956863 56.0
172.044525 172.0
172.082779 432.0
172.275421 156.0
172.33551 164.0
172.868942 144.0
172.986725 56.0
173.033844 40.0
173.08699 160.0
173.13858 68.0
173.219772 132.0
174.792419 76.0
175.830719 196.0
175.896957 164.0
176.064453 112.0
176.11586 116.0
177.071228 1168.0
177.144836 148.0
177.168686 136.0
177.187225 100.0
177.221664 216.0
177.738724 188.0
178.014786 56.0
178.043991 104.0
178.328278 148.0
178.65094 128.0
179.035965 216.0
179.057266 160.0
179.225098 52.0
179.510315 164.0
179.603653 48.0
179.850449 196.0
179.913208 100.0
181.660706 200.0
182.060623 132.0
182.358841 64.0
182.412598 224.0
183.04631 340.0
183.079651 2416.0
183.656631 136.0
183.75914 48.0
183.796906 152.0
183.907562 108.0
184.05722 220.0
184.092621 332.0
184.133484 1364.0
185.055557 380.0
185.10228 144.0
185.141754 176.0
185.484512 156.0
185.763809 152.0
185.932037 64.0
185.997177 144.0
186.148636 132.0
186.241547 100.0
186.352936 108.0
186.597549 96.0
186.853195 180.0
187.493088 104.0
187.836639 104.0
187.921204 204.0
188.677734 148.0
189.057022 220.0
189.400177 152.0
190.280457 184.0
190.335373 136.0
190.857452 244.0
192.000244 144.0
192.339615 36.0
192.568787 164.0
192.601929 264.0
192.78981 176.0
193.06398 584.0
193.996582 132.0
194.029861 220.0
194.075424 128.0
194.117294 3100.0
194.776352 40.0
194.918045 208.0
195.044998 1040.0
195.080383 724.0
195.120682 736.0
195.209915 116.0
195.5354 48.0
196.047012 924.0
196.075699 124.0
196.109146 184.0
196.128662 144.0
196.237381 56.0
196.32341 136.0
196.418655 92.0
196.499557 44.0
196.533035 128.0
196.6642 88.0
196.686523 196.0
196.775864 68.0
197.06517 240.0
197.345825 180.0
197.717865 148.0
198.056656 404.0
198.334045 32.0
198.692993 128.0
198.97084 84.0
199.13089 200.0
199.515854 128.0
199.937775 216.0
200.123566 168.0
201.16951 152.0
201.475555 88.0
201.644043 140.0
202.107819 204.0
202.288956 160.0
202.586288 184.0
202.801651 124.0
203.178802 200.0
203.249725 128.0
203.703979 160.0
203.871613 136.0
205.061234 236.0
205.11824 96.0
206.071411 168.0
206.162857 148.0
207.009628 92.0
207.141373 104.0
207.40213 144.0
207.422195 144.0
207.70607 108.0
207.901169 176.0
208.084869 128.0
208.228455 152.0
208.351974 88.0
209.059296 124.0
209.260788 40.0
210.261047 96.0
210.292801 68.0
210.367844 48.0
210.725952 100.0
210.844681 136.0
211.017014 188.0
211.03624 204.0
211.074554 3564.0
211.391006 176.0
211.758667 132.0
212.045624 2052.0
212.27742 68.0
212.509476 52.0
212.587814 128.0
212.666183 120.0
212.918777 208.0
213.054535 6408.0
213.131699 248.0
213.264511 68.0
213.426559 156.0
213.514557 52.0
213.546539 68.0
213.709442 136.0
213.962662 208.0
214.008041 136.0
214.055328 1312.0
214.230591 52.0
214.300507 60.0
214.664856 56.0
214.957596 80.0
215.064133 360.0
215.286438 52.0
215.324402 96.0
215.514282 108.0
215.584412 120.0
215.675018 124.0
215.809494 96.0
216.587936 56.0
216.848709 32.0
217.001144 184.0
217.094971 92.0
217.168289 68.0
217.438217 128.0
219.512222 184.0
220.22937 116.0
220.956573 92.0
221.059891 1324.0
221.092682 140.0
222.061127 284.0
222.479874 40.0
222.530334 44.0
222.690689 276.0
223.044601 204.0
223.082916 176.0
223.502274 76.0
223.648102 156.0
223.773132 144.0
223.942871 140.0
224.051941 284.0
224.237823 100.0
224.461411 96.0
225.05426 360.0
225.099991 156.0
226.071091 192.0
226.829285 188.0
227.06015 188.0
227.123138 60.0
229.099655 172.0
229.37233 72.0
229.746246 80.0
229.773407 124.0
229.960495 176.0
230.703568 160.0
231.009003 200.0
231.193573 84.0
232.326782 140.0
233.073669 148.0
233.140518 180.0
234.467407 124.0
234.927826 112.0
237.828705 40.0
238.396881 88.0
238.458344 88.0
238.569 52.0
238.711365 160.0
238.818085 116.0
238.907288 212.0
238.962799 172.0
239.002655 120.0
239.027008 188.0
239.070328 22844.0
239.154587 168.0
239.206223 56.0
239.248886 116.0
239.307373 56.0
239.396667 60.0
239.441803 104.0
239.581482 68.0
239.670822 36.0
239.746597 68.0
239.809509 52.0
239.86499 76.0
239.892731 164.0
239.938965 176.0
239.982132 32.0
240.016052 108.0
240.07338 4620.0
240.114243 84.0
240.178925 96.0
240.235031 44.0
240.336838 56.0
240.373871 40.0
240.410904 72.0
240.444855 72.0
240.476227 72.0
240.538666 92.0
240.568314 56.0
240.670197 200.0
240.966705 56.0
241.07756 396.0
241.186111 68.0
241.217026 40.0
241.331406 96.0
241.396347 36.0
241.421082 76.0
241.461288 152.0
241.486038 136.0
241.50769 276.0
241.560272 88.0
241.609772 44.0
241.702591 104.0
241.736618 76.0
241.758286 108.0
241.866608 112.0
241.922333 80.0
241.950195 148.0
242.073639 172.0
242.207214 48.0
242.486069 60.0
242.72168 84.0
242.758896 72.0
242.82402 104.0
243.171509 132.0
243.376389 96.0
243.572037 204.0
243.7771 52.0
248.401093 100.0
249.060272 388.0
249.374466 56.0
250.551346 112.0
253.483475 68.0
253.584885 140.0
254.11763 76.0
257.552582 48.0
261.348297 124.0
264.109833 52.0
266.119049 80.0
267.064056 1264.0
268.065704 176.0
268.094421 316.0
268.713043 88.0
269.036133 120.0
269.05899 140.0
269.10144 132.0
269.803864 60.0
269.964081 272.0
273.820221 76.0
274.304596 88.0
276.944702 148.0
277.448395 180.0
279.085205 160.0
279.857117 76.0
282.828278 192.0
283.122925 92.0
283.615417 112.0
284.092407 3332.0
284.155334 52.0
284.444427 56.0
284.665527 84.0
284.95575 140.0
285.091797 728.0
285.135864 76.0
285.946381 36.0
286.101227 156.0
287.017639 136.0
287.878113 120.0
290.562286 196.0
291.934509 116.0
292.778503 92.0
293.65097 52.0
296.091217 120.0
299.370911 88.0
300.498047 128.0
302.184113 64.0
307.124023 156.0
311.197479 148.0
311.843842 84.0
312.026642 72.0
313.892761 68.0
319.161713 88.0
329.086975 100.0
334.099335 64.0
336.972198 56.0
341.094971 144.0
341.12439 48.0
342.662689 32.0
343.363068 104.0
350.760132 96.0
351.666504 44.0
353.045105 92.0
363.100647 48.0
364.847321 60.0
367.448486 116.0
369.385345 88.0
371.460449 52.0
371.85675 28.0
372.148499 40.0
375.164764 152.0
375.839691 156.0
377.616699 36.0
377.856537 172.0
378.170715 1488.0
379.091705 64.0
379.175018 292.0
379.847748 60.0
380.068878 120.0
380.173645 128.0
381.14444 40.0
386.361176 116.0
389.866577 68.0
409.147247 52.0
416.271576 56.0
417.828278 124.0
462.086823 180.0
486.826141 80.0
488.861481 60.0
497.631226 84.0
525.981873 56.0
545.146667 56.0
565.856262 48.0
593.377747 104.0
612.39209 128.0
622.113525 52.0
628.244507 64.0
690.041077 48.0
721.055969 64.0
781.894104 140.0
836.153198 144.0
847.233826 88.0
848.995911 72.0
859.950867 64.0
894.2547 140.0
896.047119 76.0
896.404602 36.0
909.88031 172.0
914.617249 140.0
932.4599 168.0
945.621399 184.0
961.761597 76.0
973.785583 172.0
980.84137 116.0
981.901306 172.0
998.680237 64.0
1003.081543 132.0
1006.469421 48.0
1012.983459 192.0
1021.489563 80.0
1023.78717 184.0
1041.374756 160.0
1064.105347 148.0
1066.118896 136.0
1082.243896 144.0
1083.448975 132.0
1092.317627 196.0
1093.153198 192.0
1097.731323 72.0
1098.311768 156.0
1098.654785 128.0
1105.056519 144.0
1107.956299 164.0
1110.548096 152.0
1111.669312 156.0
1116.552002 152.0
1119.413574 152.0
1121.745483 216.0
1142.370483 68.0
1148.189941 216.0
1154.220215 224.0
1157.46814 216.0
1178.465332 156.0
1194.761841 152.0
1198.355591 204.0
1199.48584 184.0
1202.810547 188.0
1205.677612 172.0
1206.437134 72.0
1211.772949 116.0
1221.937134 44.0
1222.111084 112.0
1224.05188 148.0
1225.494873 112.0
1232.926392 228.0
1237.368042 112.0
1239.728516 104.0
1246.605591 144.0
1251.296997 248.0
1253.071899 164.0
1258.862793 164.0
1269.236328 104.0
1269.966675 144.0
1273.430298 152.0
1281.611084 156.0
1296.968628 192.0
1302.033936 76.0
1302.407471 84.0
1305.591309 184.0
1308.9375 72.0
1314.574463 148.0
1315.043457 240.0
1315.447754 132.0
1320.46936 104.0
1322.813721 216.0
1322.86438 148.0
1323.334961 148.0
1326.696533 160.0
1331.398193 124.0
1335.577271 128.0
1337.236084 216.0
1344.954712 148.0
1346.896973 160.0
1354.95105 188.0
1360.649414 260.0
1363.396484 116.0
1363.683105 32.0
1366.69812 172.0
1367.794678 148.0
1371.543945 52.0
1373.829834 120.0
1374.294556 124.0
1374.94397 160.0
1375.010376 120.0
1376.353882 192.0
1384.058472 96.0
1384.732422 220.0
1385.310181 116.0
1389.557983 208.0
1392.579224 140.0
1397.678955 124.0
1397.879883 188.0
1402.579224 128.0
1403.883911 96.0
1405.368286 152.0
1405.875732 164.0
1410.012939 144.0
1414.717773 156.0
1414.942261 176.0
1415.923218 240.0
1420.1427 184.0
1421.192993 240.0
1430.293701 152.0
1430.71521 156.0
1434.331055 116.0
1438.442017 184.0
1440.94165 224.0
1444.350952 144.0
1446.727051 188.0
1447.060181 168.0
1449.696045 36.0
1453.381226 196.0
1454.276733 196.0
1455.164917 184.0
1459.75415 116.0
1463.551147 164.0
1466.407837 220.0
1468.466309 144.0
1475.369019 144.0
1480.120239 128.0
1481.215454 200.0
1486.628174 180.0
1487.656616 248.0
1488.574341 224.0
1492.104736 172.0
1493.719604 176.0
1501.40625 212.0
1503.072388 136.0
1503.898193 144.0
