>compound MLS002154119-01!Tridihexethyl chloride4310-35-4
>formula C21H36NO
>ionization [M+H]+
>parentmass 319.2869662240905
#inchi InChI=1S/C21H36NO/c1-4-22(5-2,6-3)18-17-21(23,19-13-9-7-10-14-19)20-15-11-8-12-16-20/h7,9-10,13-14,20,23H,4-6,8,11-12,15-18H2,1-3H3/q+1
#inchikey NPRHVSBSZMAEIN
#origInchi InChI=1S/C21H36NO.ClH/c1-4-22(5-2,6-3)18-17-21(23,19-13-9-7-10-14-19)20-15-11-8-12-16-20;/h7,9-10,13-14,20,23H,4-6,8,11-12,15-18H2,1-3H3;1H/q+1;/p-1
#Ion_Source LC-ESI
#Instrument qTof
#Compound_Source NIH Pharmacologically Active Library
#PI Dorrestein
#Data_Collector VP/LMS
#Scan -1
#Precursor_MZ 318.28
#ExactMass 318.28
#Charge 1
#CAS_Number N/A
#Pubmed_ID N/A
#Smiles CC[N+](CC)(CC)CCC(O)(C1CCCCC1)c2ccccc2.[Cl-]
#INCHI_AUX N/A
#Library_Class 1
#SpectrumID CCMSLIB00000086154
#IonMode Positive
#UpdateWorkflowName UPDATE-SINGLE-ANNOTATED-GOLD
#LibraryQualityString Gold
#TaskID d252d724072548979f1f6f1ced849daf
##Scan# 1746
#SpectrumFile p5-G03_GG3_01_18472.mzXML
#LibraryName Pharm_Active_Library.mgf
#MQScore -1
#Organism Pharm_Active_Library
#TIC_Query 0
#RT_Query -1
#MZErrorPPM -1
#SharedPeaks 0
#MassDiff 0
#LibMZ -1
#SpecMZ 318.28
#SpecCharge 0
#internalFilename spec-00000.mgf

>collision 10
44.889591 172.0
44.914619 420.0
44.938061 140.0
44.981339 204.0
45.005371 128.0
45.109577 156.0
45.163063 200.0
45.229965 196.0
45.247368 168.0
45.302277 168.0
45.312996 140.0
45.324417 152.0
45.358559 148.0
45.426949 136.0
45.446178 132.0
45.454868 232.0
45.51284 148.0
45.549103 188.0
45.563877 104.0
45.577316 172.0
45.638195 136.0
45.736008 140.0
45.749725 104.0
45.764278 56.0
45.81815 152.0
45.866665 136.0
45.877449 48.0
45.88958 124.0
45.900368 120.0
45.942017 132.0
46.021805 160.0
46.035309 148.0
46.055569 128.0
46.146111 120.0
46.180519 144.0
46.190739 144.0
46.220501 152.0
46.252983 100.0
46.274643 136.0
46.347782 200.0
46.36269 132.0
46.373531 100.0
46.387085 176.0
46.396576 132.0
46.407421 184.0
46.44545 200.0
46.467098 180.0
46.476597 184.0
46.499664 132.0
46.515953 112.0
46.537857 120.0
46.548538 188.0
46.568909 208.0
46.604229 180.0
46.632767 132.0
46.651798 68.0
46.666752 168.0
46.714413 180.0
46.726597 76.0
46.834137 104.0
46.884285 208.0
46.898178 72.0
46.936348 248.0
46.949986 88.0
46.964989 220.0
46.981319 144.0
47.012741 184.0
47.029118 120.0
47.044132 136.0
47.060516 76.0
47.126076 112.0
47.150494 152.0
47.187046 204.0
47.231342 60.0
47.262806 196.0
47.347679 236.0
47.412067 180.0
47.431255 212.0
47.442223 232.0
47.457832 208.0
47.475132 180.0
47.504559 184.0
47.551708 176.0
47.587414 164.0
47.602081 212.0
47.623077 120.0
47.645332 160.0
47.670479 180.0
47.680672 156.0
47.73605 144.0
47.753925 80.0
47.805145 208.0
47.815838 208.0
47.836487 52.0
47.888809 120.0
47.924625 124.0
47.942539 188.0
47.963215 168.0
47.972977 144.0
47.987011 184.0
48.007332 132.0
48.030945 168.0
48.044575 156.0
48.14901 212.0
48.211647 108.0
48.252937 156.0
48.295982 108.0
48.319366 164.0
48.330879 192.0
48.352711 128.0
48.370705 140.0
48.439941 224.0
48.48304 224.0
48.499107 160.0
48.512001 128.0
48.614635 112.0
48.675716 196.0
48.710438 236.0
48.722939 152.0
48.746559 180.0
48.760456 136.0
48.785439 148.0
48.824409 108.0
48.898144 204.0
48.917633 156.0
48.949654 80.0
49.005371 136.0
49.052753 140.0
49.100887 176.0
49.126663 180.0
49.153172 120.0
49.176895 152.0
49.197834 172.0
49.259277 184.0
49.352448 216.0
49.387875 204.0
49.406059 140.0
49.456436 164.0
49.473236 48.0
49.532047 84.0
49.551662 88.0
49.572678 220.0
49.58477 208.0
49.639965 48.0
49.670528 96.0
49.697475 136.0
49.721272 188.0
49.742386 196.0
49.770962 192.0
49.814003 124.0
49.842102 160.0
49.898865 96.0
49.908165 176.0
49.925724 80.0
49.975677 128.0
49.996155 152.0
50.08971 136.0
50.110508 184.0
50.140434 184.0
50.206696 124.0
50.220798 224.0
50.243824 132.0
50.268768 180.0
50.280056 80.0
50.349083 148.0
50.376072 180.0
50.404327 140.0
50.455715 168.0
50.475002 128.0
50.497631 168.0
50.532997 120.0
50.545731 128.0
50.596684 64.0
50.627834 156.0
50.656162 160.0
50.668251 232.0
50.695057 208.0
50.724178 176.0
50.776642 80.0
50.801395 160.0
50.833702 208.0
50.839401 152.0
50.846714 92.0
50.851143 188.0
50.921406 44.0
50.966866 68.0
50.995289 192.0
51.030827 152.0
51.069221 160.0
51.083076 200.0
51.08902 148.0
51.091236 84.0
51.153172 168.0
51.167408 180.0
51.183071 172.0
51.193977 152.0
51.221523 104.0
51.233746 200.0
51.250568 228.0
51.261417 184.0
51.288494 56.0
51.319859 132.0
51.358154 192.0
51.450718 172.0
51.466824 100.0
51.515381 40.0
51.551102 180.0
51.565392 36.0
51.576824 208.0
51.591122 152.0
51.625435 144.0
51.644833 128.0
51.682655 148.0
51.715569 48.0
51.735611 140.0
51.751358 392.0
51.787159 176.0
51.838734 156.0
51.860912 168.0
51.886036 156.0
51.92701 160.0
51.932545 92.0
51.938118 200.0
51.942513 156.0
51.946838 260.0
52.066078 236.0
52.088375 108.0
52.104179 252.0
52.200481 84.0
52.216301 192.0
52.267773 200.0
52.279896 196.0
52.300404 172.0
52.338619 148.0
52.423607 196.0
52.436577 132.0
52.452435 100.0
52.502895 156.0
52.543285 256.0
52.559155 140.0
52.603897 152.0
52.638546 232.0
52.677917 184.0
52.81197 180.0
52.86116 184.0
52.96685 136.0
52.997597 208.0
53.17318 144.0
53.185799 200.0
53.20322 184.0
53.216286 96.0
53.242424 132.0
53.27438 244.0
53.296173 64.0
53.367393 72.0
53.384842 236.0
53.428478 184.0
53.464855 48.0
53.48814 180.0
53.51289 164.0
53.616402 148.0
53.692123 140.0
53.730049 156.0
53.751316 132.0
53.806686 164.0
53.821865 172.0
53.85997 92.0
53.870193 148.0
53.937412 188.0
53.954956 188.0
54.006138 156.0
54.031006 120.0
54.076366 156.0
54.093933 188.0
54.12175 76.0
54.14518 152.0
54.19059 92.0
54.214035 136.0
54.244812 64.0
54.296131 256.0
54.34454 48.0
54.390034 140.0
54.422329 248.0
54.45372 192.0
54.503117 208.0
54.51276 192.0
54.535446 156.0
54.560436 168.0
54.572197 168.0
54.630314 340.0
54.678112 96.0
54.706078 184.0
54.726688 148.0
54.744358 140.0
54.767605 204.0
54.783283 168.0
54.841595 224.0
54.915314 156.0
54.953671 124.0
54.981377 180.0
54.987473 128.0
54.990913 168.0
55.029747 220.0
55.043957 212.0
55.188515 40.0
55.213654 108.0
55.289104 44.0
55.373489 96.0
55.389782 144.0
55.413486 124.0
55.44659 188.0
55.466835 92.0
55.521694 204.0
55.533405 192.0
55.558777 52.0
55.586967 212.0
55.63121 188.0
55.683464 64.0
55.704258 160.0
55.754776 144.0
55.783195 132.0
55.812752 128.0
55.872242 108.0
55.885635 36.0
55.909813 48.0
55.925816 144.0
55.963032 316.0
56.01646 96.0
56.036011 160.0
56.064323 64.0
56.077007 204.0
56.123951 172.0
56.180626 340.0
56.231358 208.0
56.267181 176.0
56.312965 176.0
56.383694 208.0
56.468853 200.0
56.485367 156.0
56.52277 212.0
56.536236 200.0
56.572159 104.0
56.639545 80.0
56.665012 44.0
56.699474 184.0
56.733952 160.0
56.751942 144.0
56.763939 144.0
56.805931 148.0
56.840439 148.0
56.859947 324.0
56.89447 160.0
56.90498 128.0
56.998104 176.0
57.023655 144.0
57.095818 176.0
57.118378 160.0
57.161392 156.0
57.176525 196.0
57.204151 92.0
57.235767 124.0
57.261368 140.0
57.312588 136.0
57.357464 180.0
57.369858 192.0
57.458836 192.0
57.484486 136.0
57.525238 164.0
57.538826 56.0
57.626423 128.0
57.659698 196.0
57.677135 196.0
57.72467 60.0
57.753754 140.0
57.798794 212.0
57.82452 128.0
57.842682 176.0
57.846447 172.0
57.86438 172.0
57.920753 152.0
57.935055 160.0
57.966873 180.0
57.976894 176.0
57.992638 140.0
58.006279 160.0
58.022953 148.0
58.047215 168.0
58.076031 136.0
58.091457 164.0
58.117523 192.0
58.185287 192.0
58.246033 328.0
58.343288 164.0
58.372936 200.0
58.387383 168.0
58.411716 84.0
58.461926 76.0
58.492367 156.0
58.533474 196.0
58.554794 200.0
58.568501 136.0
58.684322 164.0
58.738834 188.0
58.75753 172.0
58.771259 192.0
58.798729 108.0
58.841469 220.0
58.856735 216.0
58.871799 88.0
58.902554 120.0
58.922413 84.0
59.002625 116.0
59.041641 128.0
59.141087 136.0
59.165581 180.0
59.228367 200.0
59.26207 216.0
59.298847 304.0
59.328667 264.0
59.3479 160.0
59.360168 88.0
59.384705 152.0
59.395443 92.0
59.412315 184.0
59.459885 108.0
59.493652 172.0
59.553539 136.0
59.610382 136.0
59.645733 148.0
59.687241 136.0
59.710308 156.0
59.722614 180.0
59.762611 116.0
59.778046 132.0
59.827251 116.0
59.844185 172.0
59.871902 156.0
59.97205 160.0
59.982838 160.0
60.046055 232.0
60.066105 212.0
60.089878 316.0
60.116158 200.0
60.155605 216.0
60.208103 236.0
60.246719 144.0
60.308529 184.0
60.361092 96.0
60.375858 160.0
60.392021 196.0
60.423229 92.0
60.461643 108.0
60.486408 128.0
60.531307 180.0
60.546791 160.0
60.583965 192.0
60.616505 56.0
60.638199 136.0
60.689358 124.0
60.71727 180.0
60.728127 108.0
60.754753 144.0
60.765354 184.0
60.802597 128.0
60.835194 124.0
60.84761 200.0
60.880219 232.0
60.892643 152.0
60.912838 132.0
61.002964 184.0
61.030949 168.0
61.052719 184.0
61.105606 176.0
61.125835 140.0
61.139839 88.0
61.170967 108.0
61.184978 160.0
61.23325 88.0
61.267521 176.0
61.28154 140.0
61.320499 164.0
61.348557 152.0
61.361786 148.0
61.375988 188.0
61.392212 156.0
61.432716 256.0
61.448368 172.0
61.46553 160.0
61.481136 180.0
61.499863 180.0
61.513912 144.0
61.537285 180.0
61.556068 76.0
61.65292 148.0
61.696686 128.0
61.784264 104.0
61.81031 136.0
61.826511 164.0
61.856251 220.0
61.912617 144.0
61.929844 84.0
62.010273 216.0
62.034828 136.0
62.069244 160.0
62.194828 168.0
62.259201 144.0
62.345604 160.0
62.364464 132.0
62.384899 148.0
62.403763 348.0
62.474537 148.0
62.59573 160.0
62.608326 104.0
62.624653 164.0
62.669762 156.0
62.685516 204.0
62.705566 144.0
62.720192 128.0
62.7687 192.0
62.792717 128.0
62.822979 368.0
62.844776 120.0
62.877914 140.0
62.947376 144.0
62.990017 208.0
63.010555 168.0
63.050056 76.0
63.073765 68.0
63.110126 160.0
63.129593 180.0
63.163898 152.0
63.189209 92.0
63.224022 92.0
63.240253 128.0
63.263592 192.0
63.295258 84.0
63.366531 180.0
63.382378 236.0
63.488586 164.0
63.509205 208.0
63.529644 176.0
63.53495 156.0
63.539761 212.0
63.571079 196.0
63.655212 148.0
63.76165 132.0
63.787079 144.0
63.881878 176.0
63.91431 164.0
63.963646 112.0
63.977798 180.0
64.038483 144.0
64.076714 116.0
64.108582 228.0
64.154633 164.0
64.178719 92.0
64.21859 184.0
64.245705 128.0
64.288788 40.0
64.317513 208.0
64.354889 348.0
64.390961 132.0
64.40303 216.0
64.437286 88.0
64.522118 144.0
64.537979 176.0
64.558105 196.0
64.592354 108.0
64.609947 204.0
64.637146 116.0
64.701782 208.0
64.733192 156.0
64.747604 68.0
64.773232 132.0
64.795662 168.0
64.835716 180.0
64.860573 168.0
64.882202 232.0
64.901443 200.0
64.915871 80.0
64.962387 148.0
64.976822 108.0
64.98806 180.0
65.012123 268.0
65.03299 196.0
65.049721 208.0
65.150208 188.0
65.163063 144.0
65.193596 140.0
65.212883 192.0
65.266785 180.0
65.343132 108.0
65.370483 116.0
65.393761 180.0
65.441765 184.0
65.459023 176.0
65.486725 192.0
65.61792 324.0
65.713699 156.0
65.724991 116.0
65.77179 140.0
65.816345 248.0
65.839409 200.0
65.862213 188.0
65.882736 148.0
65.896141 156.0
65.910683 112.0
65.923607 112.0
66.010902 124.0
66.062447 152.0
66.097572 144.0
66.124146 100.0
66.14579 160.0
66.169472 180.0
66.196999 132.0
66.242348 220.0
66.263405 132.0
66.294189 180.0
66.326881 136.0
66.354164 108.0
66.380112 136.0
66.391457 180.0
66.419029 144.0
66.456345 132.0
66.476921 176.0
66.506653 136.0
66.547234 224.0
66.616745 180.0
66.641441 52.0
66.654442 124.0
66.676353 132.0
66.682411 168.0
66.709694 196.0
66.740044 132.0
66.760101 216.0
66.777992 136.0
66.83493 172.0
66.911423 196.0
67.012405 208.0
67.092323 168.0
67.126625 160.0
67.150963 192.0
67.17543 180.0
67.219482 196.0
67.262772 236.0
67.283432 156.0
67.301094 144.0
67.317459 196.0
67.346825 132.0
67.423286 180.0
67.44265 80.0
67.457939 296.0
67.549507 224.0
67.575684 92.0
67.591171 328.0
67.611687 180.0
67.626419 160.0
67.659157 204.0
67.709915 200.0
67.750862 180.0
67.772163 60.0
67.818047 152.0
67.832802 152.0
67.858398 156.0
67.881989 148.0
67.922989 136.0
67.937752 184.0
67.949234 136.0
67.971489 160.0
67.986977 160.0
67.998466 240.0
68.082314 168.0
68.111755 152.0
68.167046 184.0
68.186699 164.0
68.220215 180.0
68.326561 156.0
68.376869 216.0
68.406097 208.0
68.452202 148.0
68.470314 124.0
68.496666 172.0
68.513138 120.0
68.562576 196.0
68.641701 140.0
68.66893 208.0
68.696129 124.0
68.729126 160.0
68.780281 248.0
68.831467 144.0
68.848816 168.0
68.877708 268.0
68.942146 104.0
68.981812 96.0
69.017563 160.0
69.060776 164.0
69.076065 140.0
69.115776 92.0
69.14225 136.0
69.165421 148.0
69.190254 144.0
69.253181 184.0
69.273056 140.0
69.286308 152.0
69.309502 188.0
69.350937 108.0
69.365852 184.0
69.40564 156.0
69.417252 112.0
69.428856 208.0
69.488571 128.0
69.505165 116.0
69.581512 228.0
69.60144 344.0
69.631332 128.0
69.669533 136.0
69.692795 208.0
69.707748 164.0
69.822456 64.0
69.849068 140.0
69.864037 148.0
69.879013 168.0
69.895653 180.0
69.912292 124.0
69.940582 216.0
69.967224 132.0
70.06881 152.0
70.120468 140.0
70.177597 148.0
70.193436 156.0
70.310593 112.0
70.332291 88.0
70.353989 204.0
70.385712 140.0
70.402077 188.0
70.424126 208.0
70.450851 112.0
70.531059 132.0
70.549164 212.0
70.555885 132.0
70.561119 192.0
70.590073 176.0
70.61132 52.0
70.646446 68.0
70.666519 96.0
70.684921 228.0
70.718399 192.0
70.874138 144.0
70.897598 132.0
70.924416 244.0
70.956268 120.0
70.991478 136.0
71.008247 116.0
71.033409 108.0
71.047569 352.0
71.071106 144.0
71.11898 156.0
71.132416 92.0
71.151428 356.0
71.17942 124.0
71.207634 120.0
71.258362 108.0
71.270126 180.0
71.317184 124.0
71.330627 164.0
71.382751 152.0
71.444977 200.0
71.477348 236.0
71.588051 196.0
71.65374 44.0
71.699234 252.0
71.710884 136.0
71.716087 124.0
71.76329 156.0
71.837494 192.0
71.861504 192.0
71.893173 156.0
71.940437 156.0
71.960693 160.0
71.974106 140.0
71.976608 132.0
71.9832 196.0
72.044167 236.0
72.07048 168.0
72.121178 180.0
72.163445 196.0
72.180351 136.0
72.209099 144.0
72.235252 216.0
72.29789 124.0
72.38002 140.0
72.445213 212.0
72.483345 152.0
72.535889 128.0
72.583359 188.0
72.619888 184.0
72.661377 112.0
72.722466 72.0
72.773392 196.0
72.829437 188.0
72.868507 144.0
72.906006 172.0
72.985786 188.0
73.007889 112.0
73.050415 196.0
73.077446 180.0
73.095322 248.0
73.123581 176.0
73.164124 132.0
73.205292 180.0
73.229141 144.0
73.244469 136.0
73.309433 360.0
73.348747 80.0
73.382507 92.0
73.405174 164.0
73.421722 228.0
73.510437 168.0
73.532616 220.0
73.587387 140.0
73.735855 108.0
73.752953 72.0
73.800819 240.0
73.866158 212.0
73.978745 148.0
74.036964 136.0
74.189461 344.0
74.215172 184.0
74.245995 152.0
74.289909 108.0
74.309509 148.0
74.367645 132.0
74.37455 116.0
74.38118 168.0
74.402184 296.0
74.493202 328.0
74.505226 184.0
74.52562 124.0
74.546463 140.0
74.597359 196.0
74.659515 168.0
74.6754 292.0
74.686378 156.0
74.788963 152.0
74.826836 108.0
74.86644 200.0
74.890549 140.0
74.902603 152.0
74.985313 140.0
75.057716 140.0
75.092667 228.0
75.114899 128.0
75.136879 120.0
75.209724 324.0
75.316895 200.0
75.347328 176.0
75.368416 164.0
75.399521 148.0
75.453873 216.0
75.520546 192.0
75.589745 136.0
75.602234 164.0
75.629547 160.0
75.657242 148.0
75.698799 196.0
75.837395 164.0
75.877266 124.0
75.906746 184.0
75.93969 92.0
75.951836 148.0
76.059418 208.0
76.194962 148.0
76.226662 160.0
76.243301 156.0
76.283501 56.0
76.340874 44.0
76.368698 132.0
76.403488 176.0
76.441765 140.0
76.547951 204.0
76.5793 100.0
76.610222 192.0
76.661453 184.0
76.708244 212.0
76.727211 144.0
76.765778 152.0
76.778969 64.0
76.811127 180.0
76.831184 176.0
76.854507 208.0
76.875679 144.0
76.994392 164.0
77.017097 108.0
77.034561 72.0
77.060768 128.0
77.078987 168.0
77.174377 124.0
77.24662 156.0
77.275017 288.0
77.295067 136.0
77.333038 224.0
77.443878 148.0
77.459641 196.0
77.510445 40.0
77.654198 184.0
77.724045 152.0
77.766487 192.0
77.787552 56.0
77.836716 144.0
77.913994 400.0
77.968468 124.0
77.993179 188.0
78.01944 144.0
78.075706 168.0
78.091377 92.0
78.112694 136.0
78.228783 148.0
78.241104 140.0
78.260475 124.0
78.308022 180.0
78.337959 304.0
78.464851 176.0
78.491959 292.0
78.530998 164.0
78.544205 148.0
78.576912 192.0
78.605957 136.0
78.639488 204.0
78.653603 48.0
78.695976 244.0
78.710098 32.0
78.75425 96.0
78.798691 180.0
78.820503 152.0
78.895615 128.0
78.936188 144.0
78.968117 100.0
79.008743 128.0
79.114983 148.0
79.159401 140.0
79.189354 172.0
79.208839 140.0
79.231865 200.0
79.320473 184.0
79.3843 96.0
79.402031 188.0
79.422577 192.0
79.547531 208.0
79.607895 228.0
79.63002 128.0
79.643417 152.0
79.661179 164.0
79.796516 156.0
79.811317 148.0
79.842476 140.0
79.86026 176.0
79.931419 160.0
79.95993 352.0
80.095215 96.0
80.13797 128.0
80.250259 184.0
80.296623 148.0
80.312675 120.0
80.339432 140.0
80.382248 156.0
80.434006 148.0
80.448288 176.0
80.473282 180.0
80.487564 196.0
80.586983 152.0
80.689468 144.0
80.739532 128.0
80.766365 176.0
80.791405 116.0
80.818062 80.0
80.850449 36.0
80.90773 128.0
80.973984 108.0
80.993683 112.0
81.033096 56.0
81.094742 120.0
81.101639 48.0
81.107712 132.0
81.217743 148.0
81.240288 84.0
81.39106 132.0
81.406586 108.0
81.420555 180.0
81.488815 208.0
81.506783 148.0
81.543076 204.0
81.57148 104.0
81.588867 196.0
81.613571 184.0
81.694595 156.0
81.737717 132.0
81.751335 112.0
81.802399 196.0
81.846291 208.0
81.922386 200.0
81.990807 160.0
82.097221 404.0
82.148949 188.0
82.194633 228.0
82.362526 208.0
82.374878 196.0
82.393242 160.0
82.478172 144.0
82.496246 68.0
82.586662 168.0
82.633698 188.0
82.675316 124.0
82.708961 236.0
82.735046 128.0
82.749527 148.0
82.785744 164.0
82.800232 160.0
82.831024 160.0
82.885368 144.0
82.973373 152.0
82.994125 164.0
83.05397 116.0
83.090256 164.0
83.121101 168.0
83.155579 180.0
83.179176 184.0
83.20459 228.0
83.234619 268.0
83.326271 116.0
83.338989 152.0
83.377678 220.0
83.392906 204.0
83.40535 148.0
83.448044 396.0
83.492035 168.0
83.592552 144.0
83.631783 128.0
83.677292 208.0
83.696465 160.0
83.766754 376.0
83.839401 104.0
83.93055 180.0
83.988907 240.0
84.037071 216.0
84.134895 228.0
84.178711 148.0
84.219795 164.0
84.257256 196.0
84.283607 216.0
84.346794 104.0
84.443703 148.0
84.528748 320.0
84.62487 156.0
84.648674 152.0
84.674538 224.0
84.703613 120.0
84.725601 184.0
84.758575 136.0
84.782402 104.0
84.85939 224.0
84.877724 144.0
84.918068 104.0
84.936569 140.0
84.952919 64.0
84.980438 148.0
85.028458 336.0
85.064857 144.0
85.123611 164.0
85.152992 220.0
85.191566 160.0
85.265068 168.0
85.280273 204.0
85.301826 164.0
85.33226 180.0
85.358818 160.0
85.371696 184.0
85.388245 180.0
85.402962 48.0
85.4319 196.0
85.465508 140.0
85.480225 172.0
85.516937 152.0
85.544647 108.0
85.58699 124.0
85.610931 120.0
85.634872 192.0
85.733841 228.0
85.769379 184.0
85.837593 132.0
85.854187 88.0
85.870789 160.0
85.89476 132.0
85.929817 180.0
85.979637 184.0
86.004288 180.0
86.052971 132.0
86.068245 116.0
86.096779 328.0
86.140274 116.0
86.155052 132.0
86.17173 132.0
86.220924 196.0
86.27887 156.0
86.29921 184.0
86.443481 180.0
86.469391 128.0
86.547142 192.0
86.595291 160.0
86.621223 176.0
86.680511 160.0
86.700188 168.0
86.762062 124.0
86.862198 104.0
86.880753 208.0
86.967964 124.0
87.030495 120.0
87.070084 152.0
87.093147 200.0
87.153679 92.0
87.166679 56.0
87.187126 200.0
87.244743 140.0
87.268913 172.0
87.300522 148.0
87.356323 172.0
87.39772 160.0
87.436333 340.0
87.486588 188.0
87.499619 136.0
87.518242 196.0
87.548035 64.0
87.56852 160.0
87.603912 168.0
87.685898 120.0
87.710899 220.0
87.76046 192.0
87.775375 136.0
87.83506 96.0
87.885956 152.0
87.920883 200.0
87.933945 296.0
87.975014 152.0
87.989944 104.0
88.02169 168.0
88.045967 104.0
88.064644 136.0
88.077721 232.0
88.100136 120.0
88.122551 272.0
88.135841 144.0
88.176743 176.0
88.205246 144.0
88.285179 172.0
88.298264 108.0
88.358124 136.0
88.386192 200.0
88.4049 192.0
88.420959 200.0
88.472282 72.0
88.4925 132.0
88.53183 160.0
88.552803 200.0
88.597755 132.0
88.665215 84.0
88.702698 192.0
88.71582 124.0
88.728943 184.0
88.745819 128.0
88.760185 228.0
88.788429 176.0
88.843346 48.0
88.87336 108.0
88.929665 136.0
88.97731 156.0
88.993423 120.0
89.00663 224.0
89.044189 220.0
89.061096 136.0
89.128578 152.0
89.179466 108.0
89.269707 140.0
89.329895 180.0
89.35247 60.0
89.429619 180.0
89.471031 188.0
89.534447 272.0
89.584419 152.0
89.618721 116.0
89.649017 212.0
89.689552 60.0
89.707268 120.0
89.720497 172.0
89.747993 176.0
89.783821 112.0
90.017822 152.0
90.068817 232.0
90.122467 180.0
90.157616 64.0
90.174629 140.0
90.22377 124.0
90.267258 144.0
90.297768 216.0
90.329674 72.0
90.387886 156.0
90.411034 120.0
90.476006 220.0
90.572037 108.0
90.642059 256.0
90.695129 132.0
90.715744 160.0
90.759583 156.0
90.795876 172.0
90.816475 132.0
90.862 148.0
90.879539 132.0
90.930611 180.0
90.960686 156.0
91.004761 292.0
91.027191 132.0
91.055016 23832.0
91.080391 432.0
91.113884 232.0
91.14978 92.0
91.164307 172.0
91.199265 196.0
91.247543 92.0
91.270355 48.0
91.285568 144.0
91.346428 40.0
91.381447 128.0
91.425865 160.0
91.524094 148.0
91.551987 136.0
91.628181 32.0
91.655754 220.0
91.685341 80.0
91.728317 168.0
91.776848 152.0
91.81498 204.0
91.864571 56.0
91.890724 136.0
91.950439 104.0
92.005791 128.0
92.02298 176.0
92.057274 2004.0
92.124817 132.0
92.147957 156.0
92.175446 160.0
92.190506 136.0
92.204445 44.0
92.249939 220.0
92.306046 136.0
92.391838 244.0
92.445412 192.0
92.508568 68.0
92.55835 120.0
92.5877 180.0
92.619637 160.0
92.634956 148.0
92.680939 84.0
92.710609 124.0
92.741486 108.0
92.805527 48.0
92.83049 200.0
92.851547 136.0
92.890625 172.0
92.898064 64.0
92.904602 188.0
92.967522 176.0
93.029991 144.0
93.069595 1160.0
93.114441 188.0
93.13369 112.0
93.148499 180.0
93.171204 348.0
93.193237 104.0
93.214378 148.0
93.241859 172.0
93.266266 184.0
93.325859 228.0
93.385475 128.0
93.460503 132.0
93.506691 180.0
93.520164 144.0
93.624123 128.0
93.691544 52.0
93.720444 120.0
93.782112 188.0
93.832649 164.0
93.870789 216.0
93.886223 148.0
93.920937 156.0
93.949875 132.0
93.974953 156.0
94.025124 164.0
94.056007 152.0
94.074493 176.0
94.110016 168.0
94.19117 208.0
94.216286 168.0
94.285843 160.0
94.372833 48.0
94.40377 132.0
94.455994 100.0
94.568214 196.0
94.61274 36.0
94.67276 44.0
94.696007 144.0
94.736679 144.0
94.86264 160.0
94.891724 176.0
94.924934 248.0
94.990623 168.0
95.004204 84.0
95.01973 88.0
95.041069 36.0
95.085869 1444.0
95.107391 140.0
95.126465 152.0
95.174995 68.0
95.225487 216.0
95.275993 72.0
95.299309 160.0
95.322624 200.0
95.345947 204.0
95.367325 112.0
95.417862 140.0
95.515099 168.0
95.528717 212.0
95.546227 136.0
95.593712 216.0
95.682457 140.0
95.699982 100.0
95.748512 160.0
95.787613 160.0
95.83815 128.0
95.881935 216.0
95.902916 208.0
96.085838 172.0
96.239143 168.0
96.301819 188.0
96.347862 148.0
96.413925 152.0
96.435425 160.0
96.449104 160.0
96.474518 324.0
96.501884 196.0
96.54882 224.0
96.646629 180.0
96.673637 144.0
96.699463 132.0
96.750359 148.0
96.822807 164.0
96.957985 52.0
96.975624 164.0
97.003067 168.0
97.021362 192.0
97.064613 416.0
97.098831 132.0
97.163872 80.0
97.210152 164.0
97.23439 128.0
97.246048 196.0
97.260925 184.0
97.316963 260.0
97.341965 136.0
97.363579 184.0
97.391586 252.0
97.423012 140.0
97.450516 44.0
97.489113 220.0
97.53109 184.0
97.603828 180.0
97.631363 180.0
97.651031 196.0
97.6707 172.0
97.695518 104.0
97.723816 148.0
97.798592 128.0
97.874268 200.0
97.90506 156.0
97.919807 212.0
98.011978 216.0
98.035164 168.0
98.086174 228.0
98.127571 156.0
98.183853 236.0
98.236038 140.0
98.256348 164.0
98.280693 208.0
98.311012 128.0
98.334152 72.0
98.376152 284.0
98.461052 160.0
98.55587 156.0
98.582268 236.0
98.692253 128.0
98.765427 80.0
98.824829 156.0
98.885246 208.0
98.907898 52.0
98.92514 208.0
98.953423 228.0
98.992165 156.0
99.038582 140.0
99.079926 316.0
99.113861 204.0
99.135658 276.0
99.16935 96.0
99.185204 196.0
99.270462 224.0
99.327972 152.0
99.359718 140.0
99.40535 124.0
99.455162 160.0
99.479988 132.0
99.500626 168.0
99.51651 88.0
99.649582 136.0
99.70919 156.0
99.792679 196.0
99.867798 228.0
99.902061 48.0
99.93792 196.0
100.003548 176.0
100.023453 64.0
100.073502 140.0
100.111649 1180.0
100.13147 112.0
100.199005 208.0
100.242531 160.0
100.272423 104.0
100.28978 192.0
100.431931 188.0
100.477806 156.0
100.529686 292.0
100.551308 120.0
100.597549 112.0
100.62664 188.0
100.646461 136.0
100.665436 204.0
100.681412 148.0
100.761307 72.0
100.825249 44.0
100.84124 64.0
100.949196 160.0
100.967194 120.0
101.097229 172.0
101.112556 280.0
101.145264 172.0
101.185303 216.0
101.229088 184.0
101.2528 116.0
101.371582 132.0
101.431702 140.0
101.452545 208.0
101.509895 144.0
101.553452 228.0
101.574074 180.0
101.606171 120.0
101.67038 192.0
101.68644 336.0
101.776772 100.0
101.832787 260.0
101.87117 148.0
101.919388 192.0
102.056778 216.0
102.077782 224.0
102.087158 164.0
102.127922 6360.0
102.16021 72.0
102.173454 152.0
102.186638 100.0
102.214966 132.0
102.233078 184.0
102.285408 44.0
102.325668 172.0
102.361465 144.0
102.420319 192.0
102.452553 164.0
102.468666 156.0
102.482773 204.0
102.535637 360.0
102.59362 168.0
102.619629 160.0
102.646042 152.0
102.742027 420.0
102.797333 152.0
102.904312 136.0
102.954788 132.0
102.977005 208.0
102.995186 172.0
103.011345 120.0
103.054962 6440.0
103.095001 148.0
103.107246 112.0
103.13147 448.0
103.158859 200.0
103.177872 124.0
103.318619 60.0
103.35099 140.0
103.379326 232.0
103.442139 228.0
103.484581 200.0
103.58989 148.0
103.606094 116.0
103.694626 168.0
103.731735 124.0
103.812836 132.0
103.834686 232.0
103.85746 92.0
103.895996 64.0
103.940636 192.0
104.02182 164.0
104.057808 392.0
104.098969 108.0
104.172089 164.0
104.209831 256.0
104.246033 212.0
104.328568 204.0
104.411934 116.0
104.483215 176.0
104.538002 292.0
104.556847 208.0
104.578766 120.0
104.595047 40.0
104.625328 192.0
104.704994 48.0
104.729439 212.0
104.74369 188.0
104.780365 168.0
104.839493 188.0
104.86187 144.0
104.875259 132.0
104.888367 172.0
104.920982 188.0
104.937294 204.0
104.990311 64.0
105.033997 1676.0
105.070374 28332.0
105.1474 228.0
105.163452 116.0
105.179634 152.0
105.222931 28.0
105.239258 52.0
105.298485 160.0
105.329117 124.0
105.343964 196.0
105.361801 124.0
105.402664 184.0
105.438522 88.0
105.479065 84.0
105.494637 140.0
105.545982 72.0
105.60675 164.0
105.662338 148.0
105.70121 160.0
105.723717 120.0
105.777565 196.0
105.797409 132.0
105.832817 108.0
105.862923 136.0
105.905937 148.0
105.933731 168.0
106.026512 96.0
106.031128 76.0
106.037613 144.0
106.073242 1936.0
106.09848 108.0
106.127258 236.0
106.155968 176.0
106.192879 152.0
106.229805 132.0
106.441093 152.0
106.533417 120.0
106.574715 80.0
106.637085 136.0
106.661827 72.0
106.690605 72.0
106.708313 60.0
106.740585 172.0
106.756096 232.0
106.794678 172.0
106.821419 164.0
106.839935 116.0
106.856392 64.0
106.87738 60.0
106.911255 236.0
106.941795 328.0
106.976318 200.0
107.007278 268.0
107.049911 81596.0
107.123878 168.0
107.137779 124.0
107.141876 120.0
107.150253 120.0
107.156891 88.0
107.210266 84.0
107.235916 92.0
107.285164 196.0
107.305733 408.0
107.354073 180.0
107.388191 984.0
107.410446 316.0
107.449562 44.0
107.465187 176.0
107.486885 52.0
107.501328 44.0
107.523598 208.0
107.540955 160.0
107.571503 100.0
107.60041 140.0
107.623894 60.0
107.637573 92.0
107.678871 188.0
107.718117 132.0
107.74704 84.0
107.76516 136.0
107.806236 68.0
107.837868 176.0
107.845245 168.0
107.921249 152.0
107.9496 120.0
107.964691 180.0
107.987465 116.0
108.01165 56.0
108.028198 176.0
108.052261 8756.0
108.103401 220.0
108.134491 140.0
108.181328 284.0
108.230301 92.0
108.251724 120.0
108.293144 52.0
108.324219 104.0
108.416679 128.0
108.440437 72.0
108.533539 64.0
108.595749 204.0
108.610268 56.0
108.649681 216.0
108.674583 28.0
108.692238 116.0
108.710808 96.0
108.734756 72.0
108.793655 100.0
108.811562 80.0
108.860519 76.0
108.89518 148.0
108.920105 120.0
108.94487 64.0
108.981934 148.0
109.021355 48.0
109.055679 492.0
109.102112 156.0
109.131271 164.0
109.234505 216.0
109.272957 196.0
109.351013 212.0
109.374924 56.0
109.499855 148.0
109.68895 196.0
109.696838 148.0
109.70314 128.0
109.74575 104.0
109.844353 196.0
109.864632 52.0
109.9627 168.0
109.994011 184.0
110.055702 200.0
110.09005 204.0
110.26136 172.0
110.313614 88.0
110.395157 168.0
110.4328 196.0
110.450562 140.0
110.48127 420.0
110.515953 128.0
110.577164 180.0
110.625305 120.0
110.648338 180.0
110.734192 140.0
110.841026 144.0
110.916481 100.0
110.97937 172.0
111.03389 116.0
111.080978 896.0
111.115982 164.0
111.195366 228.0
111.287804 200.0
111.304604 144.0
111.42852 56.0
111.472603 176.0
111.493797 128.0
111.533012 172.0
111.590355 132.0
111.636612 72.0
111.720749 200.0
111.743889 196.0
111.764931 168.0
111.794388 128.0
111.859634 148.0
111.937538 188.0
111.967018 80.0
111.988083 136.0
112.016762 188.0
112.034424 144.0
112.069756 208.0
112.076454 160.0
112.083305 200.0
112.10817 192.0
112.232536 156.0
112.274712 120.0
112.297913 72.0
112.325333 100.0
112.378281 160.0
112.420273 136.0
112.456154 148.0
112.521591 64.0
112.546928 96.0
112.775978 180.0
112.914627 44.0
112.980194 152.0
113.073303 220.0
113.094467 224.0
113.136803 164.0
113.210907 160.0
113.2584 104.0
113.304153 176.0
113.34436 204.0
113.363434 160.0
113.382507 96.0
113.397339 56.0
113.420654 104.0
113.452454 164.0
113.509705 92.0
113.684921 220.0
113.721848 176.0
113.740952 144.0
113.872597 216.0
113.895958 160.0
113.976692 112.0
114.042023 156.0
114.114845 208.0
114.165878 92.0
114.206291 164.0
114.225433 156.0
114.275581 112.0
114.363739 112.0
114.420357 168.0
114.514908 28.0
114.542603 96.0
114.580948 204.0
114.604378 120.0
114.646996 124.0
114.700279 140.0
114.74292 168.0
114.781883 116.0
114.841011 208.0
114.868736 64.0
114.92807 84.0
114.943817 84.0
114.996765 128.0
115.023743 200.0
115.054436 7700.0
115.112045 196.0
115.15049 124.0
115.165436 76.0
115.212433 156.0
115.248756 192.0
115.274399 156.0
115.312088 176.0
115.345634 192.0
115.365829 180.0
115.42189 128.0
115.458244 228.0
115.509575 172.0
115.590874 168.0
115.607994 140.0
115.625114 176.0
115.687187 160.0
115.781403 60.0
115.843307 124.0
115.929214 116.0
115.953835 148.0
116.010834 208.0
116.029961 68.0
116.059883 1392.0
116.098572 56.0
116.216553 180.0
116.315277 152.0
116.375381 88.0
116.540771 76.0
116.570282 212.0
116.67617 68.0
116.734222 88.0
116.783691 376.0
116.802101 164.0
116.839622 140.0
116.861855 108.0
116.948586 176.0
116.95668 144.0
117.041229 232.0
117.070267 29876.0
117.135979 72.0
117.155159 112.0
117.191483 56.0
117.212105 48.0
117.237366 160.0
117.25592 144.0
117.260948 48.0
117.269699 176.0
117.285378 172.0
117.304779 224.0
117.31987 164.0
117.434151 68.0
117.472794 92.0
117.502579 144.0
117.542015 104.0
117.572227 236.0
117.65641 84.0
117.671524 72.0
117.695274 136.0
117.736305 80.0
117.764313 132.0
117.824036 104.0
117.874557 92.0
117.973984 100.0
117.993034 192.0
118.025871 152.0
118.073944 1740.0
118.136169 104.0
118.177277 76.0
118.237297 212.0
118.243469 156.0
118.28981 184.0
118.340271 156.0
118.364464 100.0
118.439224 188.0
118.558388 168.0
118.575722 172.0
118.742661 216.0
118.766525 64.0
118.831604 204.0
118.861977 80.0
118.896698 28.0
118.937935 92.0
119.013924 172.0
119.037804 116.0
119.085266 492.0
119.127525 188.0
119.194206 160.0
119.239845 156.0
119.265923 96.0
119.292007 124.0
119.352882 68.0
119.402901 176.0
119.437698 164.0
119.45945 156.0
119.498611 232.0
119.518196 152.0
119.535606 172.0
119.640076 144.0
119.66185 76.0
119.711929 76.0
119.782898 116.0
119.809944 96.0
119.849159 64.0
119.918892 144.0
119.971207 188.0
120.088455 52.0
120.15004 60.0
120.296249 108.0
120.379219 192.0
120.411972 28.0
120.429451 112.0
120.484062 108.0
120.599876 116.0
120.665756 176.0
120.715744 216.0
120.729546 168.0
120.763855 164.0
120.794479 236.0
120.811981 88.0
120.884186 128.0
121.064796 4948.0
121.103523 896.0
121.212654 84.0
121.234566 148.0
121.263054 168.0
121.374855 220.0
121.43483 220.0
121.49781 200.0
121.556923 168.0
121.649101 68.0
121.745712 216.0
121.778656 104.0
121.844559 124.0
122.00499 236.0
122.068428 744.0
122.101738 176.0
122.156723 152.0
122.194122 76.0
122.390015 48.0
122.409828 208.0
122.449471 152.0
122.472717 180.0
122.675453 164.0
122.738159 48.0
122.797699 140.0
122.843071 140.0
122.868286 112.0
122.901382 140.0
122.945518 104.0
122.989655 120.0
123.016144 208.0
123.073547 176.0
123.091209 120.0
123.157463 132.0
123.21711 188.0
123.280998 140.0
123.2994 192.0
123.423973 216.0
123.475731 160.0
123.535454 164.0
123.63945 144.0
123.692566 160.0
123.730202 40.0
123.752342 124.0
123.792198 200.0
124.055862 104.0
124.131241 176.0
124.233269 120.0
124.284294 200.0
124.408585 220.0
124.499619 120.0
124.566246 164.0
124.624016 128.0
124.668457 112.0
124.795158 244.0
124.810722 188.0
124.901901 144.0
125.058517 124.0
125.089706 160.0
125.135567 60.0
125.295967 192.0
125.38987 148.0
125.449692 104.0
125.603561 76.0
125.726273 164.0
125.795464 40.0
126.011154 172.0
126.034431 192.0
126.053001 168.0
126.146179 212.0
126.349686 220.0
126.412331 176.0
126.435219 124.0
126.473763 168.0
126.681007 208.0
126.698929 88.0
126.908928 148.0
126.954453 164.0
126.983604 200.0
127.054459 780.0
127.0868 52.0
127.11821 120.0
127.174316 196.0
127.291061 152.0
127.356186 240.0
127.380898 180.0
127.446045 116.0
127.553925 128.0
127.650597 100.0
127.679832 148.0
127.744568 220.0
127.902573 164.0
127.982574 216.0
127.999382 152.0
128.062225 10308.0
128.157654 196.0
128.202118 180.0
128.258469 144.0
128.297501 320.0
128.330612 68.0
128.362183 136.0
128.395996 216.0
128.468185 136.0
128.491867 164.0
128.540375 76.0
128.578751 80.0
128.666061 344.0
128.743546 164.0
128.759354 204.0
128.804535 220.0
128.886093 160.0
128.912018 292.0
128.949142 104.0
129.013718 112.0
129.030838 196.0
129.070541 45624.0
129.158279 128.0
129.188538 180.0
129.210464 56.0
129.244659 112.0
129.253418 116.0
129.288376 88.0
129.304214 88.0
129.330154 52.0
129.368668 160.0
129.412872 60.0
129.442596 244.0
129.500885 88.0
129.526108 36.0
129.603134 188.0
129.662369 56.0
129.714188 176.0
129.736847 48.0
129.778015 104.0
129.82074 48.0
129.848862 100.0
129.87291 112.0
129.89798 80.0
129.953445 168.0
129.974991 188.0
130.045349 176.0
130.073868 6084.0
130.143585 116.0
130.169235 84.0
130.222443 60.0
130.288513 48.0
130.393814 140.0
130.424667 256.0
130.456482 76.0
130.483765 104.0
130.531509 56.0
130.583817 44.0
130.599747 96.0
130.628174 40.0
130.659348 220.0
130.686188 40.0
130.715775 64.0
130.741562 168.0
130.840958 120.0
130.865692 116.0
130.900146 116.0
130.923782 96.0
130.957962 176.0
130.975311 164.0
131.00264 84.0
131.037201 192.0
131.08519 11948.0
131.150467 160.0
131.237701 152.0
131.287262 96.0
131.426697 204.0
131.536255 100.0
131.577332 120.0
131.638992 128.0
131.657257 52.0
131.730347 100.0
131.874298 56.0
131.906296 64.0
131.929153 128.0
131.988602 44.0
132.045776 80.0
132.089233 524.0
132.137268 176.0
132.237961 168.0
132.265427 176.0
132.302048 156.0
132.340973 28.0
132.466934 92.0
132.57692 156.0
132.661667 156.0
132.799301 156.0
132.872711 176.0
132.946136 80.0
133.005798 140.0
133.06424 592.0
133.09993 176.0
133.302078 212.0
133.693008 236.0
134.068619 360.0
134.094208 136.0
134.139832 168.0
134.199219 180.0
134.236664 168.0
134.298935 144.0
134.326614 120.0
134.368149 164.0
134.488144 76.0
134.541229 232.0
134.589722 336.0
134.684402 184.0
134.730606 112.0
134.781433 128.0
134.827652 140.0
134.878494 180.0
134.900818 128.0
135.039871 136.0
135.054901 152.0
135.080658 4088.0
135.112061 172.0
135.230072 32.0
135.280991 156.0
135.348145 104.0
135.424561 60.0
135.494049 60.0
135.510269 124.0
135.57283 80.0
135.609909 236.0
135.635406 172.0
135.806992 32.0
135.844116 208.0
135.925598 164.0
135.990295 32.0
136.082062 280.0
136.199265 164.0
136.271286 68.0
136.287537 164.0
136.327042 164.0
136.41655 100.0
136.439072 220.0
136.51535 152.0
136.815491 228.0
136.905136 216.0
136.924927 124.0
136.962204 64.0
137.081024 108.0
137.132294 104.0
137.202225 208.0
137.314148 44.0
137.337463 72.0
137.422943 112.0
137.458786 216.0
137.604828 176.0
137.614243 100.0
137.620453 136.0
137.645523 144.0
137.759964 56.0
137.778656 192.0
137.841736 36.0
137.879135 212.0
138.061478 136.0
138.095871 192.0
138.119949 196.0
138.241623 120.0
138.286087 248.0
138.30246 168.0
138.384399 204.0
138.428894 44.0
138.506332 116.0
138.585831 128.0
138.637375 192.0
138.663162 32.0
138.951584 64.0
138.99147 120.0
139.043091 88.0
139.110123 324.0
139.132294 204.0
139.226212 84.0
139.489365 164.0
139.58812 344.0
139.783356 176.0
139.9599 176.0
140.063522 248.0
140.114502 228.0
140.259094 120.0
140.299164 220.0
140.400558 140.0
140.511414 108.0
141.065384 828.0
141.118408 176.0
141.222458 180.0
141.560883 80.0
141.596405 124.0
141.674576 120.0
141.705368 140.0
141.757507 36.0
141.847565 136.0
141.899719 212.0
141.930542 104.0
142.077454 1816.0
142.110809 288.0
142.185806 92.0
142.246078 96.0
142.405167 124.0
142.464554 108.0
142.635651 100.0
142.702209 96.0
142.764603 168.0
142.81636 196.0
142.849655 108.0
142.873444 60.0
142.906754 128.0
142.932922 148.0
142.949585 100.0
142.994797 168.0
143.025742 172.0
143.0513 196.0
143.085892 14012.0
143.163834 88.0
143.235291 168.0
143.260239 116.0
143.309143 156.0
143.340118 104.0
143.404465 172.0
143.443909 188.0
143.485504 52.0
143.549881 60.0
143.625443 212.0
143.72879 192.0
143.764587 52.0
143.86586 252.0
143.912582 68.0
143.97467 64.0
144.042175 152.0
144.089844 2280.0
144.13472 72.0
144.189682 108.0
144.223145 56.0
144.24704 76.0
144.294327 256.0
144.31398 64.0
144.404846 196.0
144.531647 96.0
144.56514 116.0
144.684814 88.0
144.701584 48.0
144.759048 52.0
144.874008 120.0
144.912338 60.0
145.034561 128.0
145.064194 236.0
145.099884 1104.0
145.168823 108.0
145.247604 104.0
145.290634 168.0
145.319931 72.0
145.370331 188.0
145.413528 36.0
145.516739 172.0
145.725708 148.0
145.790573 204.0
145.809799 208.0
145.832153 152.0
146.009354 164.0
146.067841 176.0
146.104233 180.0
146.210297 168.0
146.454605 60.0
146.637726 208.0
147.083176 444.0
147.118042 160.0
147.418091 180.0
147.593689 84.0
147.615463 100.0
147.709778 56.0
147.755737 168.0
147.801712 72.0
147.862762 176.0
147.914856 160.0
147.944504 40.0
148.031677 52.0
148.092224 48.0
148.150543 100.0
148.184265 148.0
148.336945 132.0
148.433929 184.0
148.545486 124.0
148.581879 116.0
148.632828 92.0
148.669235 180.0
148.767487 116.0
148.846436 276.0
149.098221 440.0
149.125824 144.0
149.150116 128.0
149.422485 48.0
149.449249 48.0
149.936279 124.0
150.026459 172.0
150.043518 68.0
150.087418 88.0
150.182526 56.0
150.223984 120.0
150.265457 176.0
150.306946 156.0
150.533951 104.0
150.695175 164.0
150.775803 160.0
150.895584 96.0
150.944489 60.0
151.00563 112.0
151.181778 132.0
151.231857 172.0
151.52948 136.0
151.622589 112.0
151.907013 168.0
152.130554 128.0
152.764343 272.0
152.916901 172.0
153.079376 144.0
153.278122 176.0
153.3479 108.0
153.414459 164.0
153.53035 144.0
153.984451 220.0
154.014084 156.0
154.053619 160.0
154.076569 152.0
154.204346 148.0
154.234009 152.0
154.350204 144.0
154.555283 136.0
154.973953 60.0
155.060486 492.0
155.08432 224.0
155.114166 104.0
155.137527 140.0
155.162308 136.0
155.301178 200.0
155.430176 128.0
155.502151 216.0
155.551788 40.0
155.606415 80.0
155.777771 140.0
155.837387 84.0
155.86969 80.0
156.036224 88.0
156.060043 132.0
156.093765 280.0
156.332214 64.0
156.400452 220.0
156.518921 224.0
156.630981 172.0
156.772995 164.0
156.827835 176.0
156.99736 112.0
157.059387 152.0
157.100327 3740.0
157.162003 120.0
157.184464 136.0
157.297333 88.0
157.391632 88.0
157.536499 116.0
157.663925 132.0
157.836411 200.0
157.916428 68.0
158.103592 704.0
158.131607 120.0
158.286819 60.0
158.429581 144.0
158.492218 208.0
158.534821 64.0
158.599976 40.0
158.620026 192.0
158.687714 216.0
158.747894 280.0
158.878326 120.0
158.908432 144.0
158.931473 132.0
158.976181 168.0
159.031387 164.0
159.059174 116.0
159.114456 392.0
159.192062 56.0
159.316589 104.0
159.398056 152.0
159.547699 164.0
159.609192 176.0
159.82048 160.0
159.953873 360.0
160.019318 132.0
160.119019 88.0
160.598923 128.0
160.760391 140.0
160.783096 144.0
160.891632 104.0
161.164413 120.0
161.280655 140.0
161.348907 60.0
161.414642 120.0
161.690384 196.0
161.720764 40.0
161.763794 200.0
161.938507 180.0
162.143723 248.0
162.245117 100.0
162.269501 188.0
162.669373 132.0
162.86937 176.0
162.963364 108.0
163.133636 164.0
163.273483 56.0
163.29129 76.0
163.329437 140.0
163.451553 120.0
163.68573 208.0
163.718842 124.0
163.785065 132.0
163.886963 160.0
163.9048 96.0
163.94812 116.0
164.192856 112.0
164.210709 180.0
164.236221 64.0
164.49649 180.0
164.588394 240.0
164.671494 120.0
164.871948 172.0
164.966522 200.0
164.994644 128.0
165.183823 168.0
165.2939 104.0
165.368118 60.0
165.416748 180.0
165.634399 68.0
165.783005 164.0
165.802338 164.0
165.872711 112.0
166.044495 152.0
166.098358 28.0
166.155853 156.0
166.221512 140.0
166.270264 148.0
166.308762 96.0
166.403748 220.0
166.473068 180.0
166.539841 200.0
166.688858 96.0
166.763382 100.0
166.80864 184.0
167.079239 192.0
167.107971 92.0
167.191605 120.0
167.277817 152.0
167.478668 92.0
167.635818 196.0
167.785324 244.0
167.811096 48.0
167.963257 84.0
168.053543 92.0
168.504898 172.0
168.668182 136.0
168.761246 132.0
168.864685 180.0
169.022491 152.0
169.099136 820.0
169.18515 236.0
169.206268 136.0
169.270996 72.0
169.400497 132.0
169.448227 140.0
169.657211 124.0
169.701111 184.0
170.082474 108.0
170.103241 196.0
170.201889 128.0
170.272003 152.0
170.34993 216.0
170.47612 140.0
170.627991 40.0
170.698196 104.0
170.829361 168.0
170.939774 148.0
170.974228 220.0
171.047348 172.0
171.117065 31940.0
171.182938 180.0
171.221664 80.0
171.277084 136.0
171.369751 208.0
171.416656 56.0
171.450531 148.0
171.4944 144.0
171.541031 72.0
171.586868 92.0
171.65387 160.0
171.777084 116.0
171.807755 96.0
171.836456 204.0
172.000854 56.0
172.119766 3284.0
172.178406 164.0
172.25415 76.0
172.290726 120.0
172.309006 68.0
172.384781 208.0
172.640976 32.0
172.722046 80.0
172.847626 40.0
172.916779 76.0
172.944458 96.0
172.983719 84.0
173.097214 92.0
173.129471 340.0
173.214157 84.0
173.266556 152.0
173.287506 168.0
173.342529 68.0
173.376602 108.0
173.402298 144.0
173.489304 52.0
173.512909 104.0
173.544373 136.0
173.565338 124.0
173.583694 152.0
173.650742 120.0
173.691223 112.0
173.743698 176.0
173.895889 108.0
174.019257 152.0
174.05603 228.0
174.095413 64.0
174.132187 212.0
174.162308 188.0
174.230682 40.0
174.344986 216.0
174.441544 168.0
174.560547 120.0
174.631546 88.0
174.784134 236.0
174.839401 120.0
174.889404 56.0
175.028931 148.0
175.105301 204.0
175.139542 160.0
175.276535 208.0
175.322983 116.0
175.368774 72.0
175.458405 136.0
175.624527 116.0
175.658813 100.0
176.205292 72.0
176.369125 156.0
176.678513 136.0
176.800232 264.0
176.834152 240.0
177.014664 176.0
177.181519 156.0
177.213318 68.0
177.32991 64.0
177.398834 136.0
177.528748 120.0
177.549973 56.0
177.807312 124.0
177.841812 164.0
177.865707 144.0
177.905518 148.0
177.940033 200.0
178.006409 192.0
178.173737 180.0
178.561829 76.0
179.131439 124.0
179.150085 80.0
179.224686 140.0
179.453903 180.0
179.904785 160.0
180.043625 116.0
180.13176 120.0
180.358887 120.0
180.448074 200.0
180.527328 140.0
180.821609 116.0
180.845703 196.0
181.092026 96.0
181.113449 104.0
181.201859 220.0
181.239365 100.0
181.306351 220.0
181.443054 56.0
181.472549 204.0
181.58786 140.0
181.649551 156.0
181.676376 92.0
181.713943 88.0
181.794434 224.0
181.953964 156.0
181.985016 108.0
182.234802 124.0
182.272415 136.0
182.347672 96.0
182.78064 108.0
182.890976 216.0
182.912506 48.0
183.194 132.0
183.227585 124.0
183.254517 132.0
183.529449 124.0
183.610352 176.0
183.664291 180.0
183.739822 168.0
184.157303 188.0
184.496002 112.0
184.577118 108.0
184.901733 148.0
185.039795 152.0
185.102066 88.0
185.754166 160.0
185.795929 164.0
185.831192 148.0
185.91803 152.0
186.208527 120.0
186.33075 36.0
186.586227 168.0
186.613419 140.0
186.637878 156.0
187.348236 152.0
187.590775 52.0
187.738007 208.0
187.776184 180.0
187.863464 176.0
187.945312 176.0
187.983521 76.0
188.113647 200.0
188.190964 136.0
188.229202 124.0
188.324783 92.0
188.384872 92.0
188.40947 72.0
188.460007 136.0
188.578629 216.0
188.600754 88.0
188.710098 156.0
188.740067 108.0
188.898804 272.0
188.917053 196.0
188.939835 136.0
188.990417 148.0
189.000458 176.0
189.045135 304.0
189.127838 71936.0
189.199814 76.0
189.218307 48.0
189.258682 64.0
189.312836 144.0
189.323303 40.0
189.333252 148.0
189.384888 84.0
189.412704 140.0
189.446777 168.0
189.501755 140.0
189.552322 40.0
189.571411 60.0
189.599731 68.0
189.627441 36.0
189.668259 40.0
189.694931 60.0
189.725815 120.0
189.758102 84.0
189.827057 60.0
189.882507 56.0
189.912277 28.0
189.936966 108.0
190.041214 156.0
190.071396 88.0
190.131073 6840.0
190.194901 44.0
190.214111 40.0
190.266266 60.0
190.312943 44.0
190.34404 116.0
190.384171 132.0
190.433777 48.0
190.461243 44.0
190.518936 100.0
190.574249 88.0
190.618515 160.0
190.650543 80.0
190.719528 44.0
190.73877 88.0
190.774506 72.0
190.887238 48.0
190.919418 176.0
190.991745 52.0
191.102371 148.0
191.135361 540.0
191.199615 152.0
191.25766 156.0
191.317215 144.0
191.33847 120.0
191.396286 56.0
191.421082 136.0
191.446411 140.0
191.557587 176.0
191.631958 100.0
191.663223 128.0
191.823318 104.0
191.853653 136.0
191.87294 128.0
191.936356 80.0
191.995621 180.0
192.024612 96.0
192.052185 68.0
192.132187 128.0
192.279739 84.0
192.452347 148.0
192.488235 80.0
192.513779 112.0
192.547256 168.0
192.606995 136.0
192.767227 88.0
192.789337 116.0
193.080673 168.0
193.184723 152.0
193.818741 68.0
193.904648 100.0
193.94899 36.0
194.069641 144.0
194.112564 104.0
194.137527 104.0
194.165253 84.0
194.217957 72.0
194.500977 72.0
194.542618 124.0
194.739761 144.0
194.820312 160.0
194.912125 88.0
195.220566 152.0
195.301208 156.0
195.453629 168.0
195.921967 84.0
196.069656 116.0
196.298248 116.0
196.412598 116.0
196.504654 176.0
197.121735 44.0
197.289429 156.0
197.404068 208.0
197.444122 160.0
197.94693 80.0
198.044952 44.0
198.10939 120.0
198.13179 128.0
198.327957 144.0
198.427353 96.0
198.451294 96.0
198.891739 72.0
199.009644 188.0
199.063004 112.0
199.096695 84.0
199.147812 624.0
199.301758 72.0
199.433044 156.0
199.574326 100.0
199.658401 164.0
200.021713 84.0
200.144989 148.0
200.182205 84.0
200.314575 116.0
200.613281 84.0
200.638657 168.0
200.92067 128.0
201.109741 140.0
201.499435 208.0
201.646362 76.0
201.69725 60.0
201.96286 188.0
202.356384 72.0
202.860672 52.0
203.090347 148.0
203.243546 120.0
203.490479 144.0
203.601685 192.0
203.740402 112.0
203.85405 132.0
204.1241 144.0
205.040054 160.0
205.208954 44.0
205.52269 228.0
206.030899 204.0
206.08519 184.0
206.153854 432.0
206.808685 160.0
206.883118 88.0
207.153885 604.0
207.319031 104.0
207.386856 140.0
207.47229 212.0
207.579346 48.0
207.762909 156.0
207.81456 72.0
207.846115 196.0
207.95517 116.0
208.018311 160.0
208.133759 152.0
208.245163 272.0
208.365799 96.0
208.630203 148.0
209.40712 220.0
209.628952 196.0
209.934525 168.0
210.029694 120.0
210.081619 176.0
210.222992 196.0
210.736984 124.0
210.843887 92.0
210.88147 88.0
211.375992 88.0
211.584381 140.0
211.818954 172.0
211.931946 132.0
212.381287 172.0
212.416092 192.0
212.453812 168.0
213.046036 108.0
213.118668 68.0
213.325012 160.0
213.365707 152.0
213.444794 220.0
213.54599 136.0
213.839844 40.0
214.008698 132.0
214.197983 224.0
214.323257 76.0
214.393204 156.0
214.439835 136.0
214.772217 132.0
214.921005 104.0
215.101944 132.0
215.221649 180.0
215.353058 148.0
215.396866 88.0
215.490356 124.0
215.510803 92.0
215.580933 152.0
215.631683 88.0
215.689072 196.0
215.908356 152.0
215.931747 132.0
215.984406 152.0
216.019501 248.0
216.476089 116.0
217.112015 92.0
217.156006 208.0
217.179459 116.0
217.241058 88.0
217.443527 152.0
217.593231 36.0
217.992706 64.0
218.269012 156.0
219.06366 180.0
219.08429 160.0
219.331818 60.0
219.564743 72.0
219.598709 184.0
219.75943 196.0
220.267197 84.0
220.60112 92.0
220.683899 192.0
221.518478 148.0
221.77034 128.0
221.894836 128.0
222.146912 108.0
222.437729 164.0
222.469864 252.0
222.497101 40.0
222.589142 132.0
222.609924 68.0
222.764374 208.0
222.865387 172.0
223.061539 212.0
223.540375 68.0
223.632629 192.0
223.769562 92.0
223.995895 80.0
224.50119 160.0
224.535385 144.0
224.712769 112.0
224.920273 80.0
225.218872 108.0
225.786743 200.0
226.07991 80.0
226.4272 176.0
226.816696 44.0
227.413589 52.0
227.680801 152.0
227.897079 96.0
228.143524 132.0
228.300323 188.0
228.3871 84.0
228.5345 192.0
228.588669 124.0
228.651855 140.0
228.706039 176.0
229.064362 124.0
229.148712 124.0
229.576736 212.0
229.603882 136.0
229.760727 48.0
230.180099 144.0
230.361481 144.0
230.926727 168.0
231.298889 208.0
232.377319 144.0
232.502151 92.0
232.605347 144.0
232.87619 120.0
232.912033 68.0
233.039627 192.0
233.07048 104.0
233.291885 112.0
233.486481 48.0
233.936798 128.0
234.189194 164.0
234.308334 212.0
234.533829 32.0
234.74115 152.0
235.076706 168.0
235.140793 108.0
235.190414 452.0
235.235413 52.0
235.594193 160.0
236.197968 156.0
236.253036 56.0
236.301987 88.0
236.338699 180.0
236.669266 136.0
236.775772 200.0
236.883652 132.0
236.923477 76.0
237.272842 100.0
237.63475 188.0
237.656219 172.0
237.736008 116.0
237.806595 96.0
238.24263 148.0
238.399323 132.0
239.105072 148.0
239.325211 196.0
239.701004 148.0
239.744156 132.0
239.870514 176.0
240.049332 28.0
240.555328 124.0
241.500854 100.0
241.544159 224.0
241.68956 96.0
241.859772 176.0
241.915497 104.0
241.937164 156.0
241.999084 180.0
242.488525 136.0
243.552765 196.0
243.739166 60.0
244.277023 188.0
244.333023 148.0
244.466812 136.0
245.279694 132.0
245.781815 56.0
245.806778 160.0
246.047104 168.0
246.278183 148.0
246.556244 172.0
246.596878 180.0
247.234879 112.0
247.764053 144.0
247.801651 52.0
248.296921 160.0
248.450623 112.0
248.663345 172.0
249.113007 36.0
249.486969 164.0
250.090927 216.0
250.352249 80.0
250.471924 144.0
250.944641 212.0
251.212708 108.0
251.253708 208.0
251.562988 184.0
251.63559 144.0
251.670319 92.0
251.739792 116.0
251.881912 176.0
252.049362 104.0
252.295883 140.0
252.495087 128.0
252.934891 136.0
253.191345 104.0
253.894897 156.0
254.177231 100.0
254.277252 136.0
254.358139 124.0
254.614624 220.0
254.691544 148.0
254.720123 180.0
254.748718 208.0
254.777313 56.0
255.101456 84.0
255.247711 76.0
255.333572 88.0
255.56897 116.0
255.791748 88.0
255.862549 100.0
255.998688 148.0
256.05603 60.0
256.151581 208.0
256.728455 152.0
257.178314 128.0
257.443298 128.0
257.602997 112.0
257.964081 188.0
258.056793 112.0
258.315857 100.0
258.395813 76.0
258.447021 48.0
258.488617 172.0
258.648621 108.0
259.023285 152.0
259.084137 196.0
259.619415 68.0
259.654694 160.0
259.70282 136.0
259.734894 188.0
260.187347 180.0
260.213043 132.0
260.620941 152.0
260.993805 132.0
261.043976 144.0
261.103149 148.0
261.563232 140.0
261.920654 52.0
262.168732 92.0
262.281555 168.0
262.526581 196.0
262.81366 144.0
263.456146 176.0
263.753448 132.0
264.041199 208.0
264.594513 80.0
264.753174 152.0
264.856812 180.0
265.022034 220.0
265.147217 140.0
265.722382 92.0
265.839172 56.0
265.917084 164.0
266.608826 108.0
267.109528 164.0
267.381836 156.0
268.161224 104.0
268.33728 168.0
268.386169 116.0
268.435089 104.0
268.744965 172.0
269.678925 136.0
269.734497 144.0
269.812958 160.0
270.234863 88.0
270.542511 128.0
270.768433 204.0
270.797913 152.0
270.935486 44.0
270.9617 116.0
271.210754 128.0
272.239807 164.0
272.355865 156.0
272.740326 60.0
273.000061 140.0
273.065826 48.0
273.325714 164.0
273.674622 164.0
274.083038 40.0
274.142365 36.0
274.209595 256.0
275.125275 152.0
275.171478 152.0
275.214417 188.0
275.617371 140.0
275.741577 164.0
276.106628 76.0
276.152924 40.0
276.176086 88.0
276.245544 184.0
276.308411 136.0
276.775085 120.0
276.851257 124.0
277.020172 180.0
277.517273 48.0
277.779266 128.0
278.08786 172.0
278.287048 136.0
279.057861 176.0
279.317261 164.0
279.417053 112.0
279.492676 160.0
279.713226 116.0
279.893005 112.0
280.05954 132.0
280.927612 208.0
281.186462 100.0
281.209839 60.0
281.493591 200.0
281.557037 160.0
281.84433 232.0
281.88443 124.0
282.25882 108.0
282.436066 124.0
283.205902 120.0
283.292999 160.0
283.601288 176.0
283.815826 64.0
283.919769 108.0
284.325714 164.0
284.359283 140.0
285.188873 88.0
285.377136 112.0
285.861511 160.0
285.911987 116.0
286.083649 176.0
286.329437 136.0
286.986542 168.0
287.057373 128.0
288.234955 236.0
288.323303 224.0
288.499054 156.0
288.63092 72.0
289.019897 164.0
289.175568 44.0
289.237305 172.0
289.741058 72.0
289.869812 128.0
290.269806 120.0
290.566681 184.0
290.863525 192.0
291.267609 60.0
291.30838 56.0
291.400116 128.0
292.151245 132.0
292.593872 160.0
292.924194 208.0
293.312653 144.0
293.732056 172.0
294.001617 128.0
294.035736 108.0
294.189331 40.0
294.336151 168.0
294.633301 144.0
295.340881 72.0
295.556427 124.0
295.939789 60.0
296.059631 140.0
296.124695 36.0
296.504974 236.0
296.58725 132.0
296.659241 112.0
297.036438 164.0
297.300629 208.0
297.922089 120.0
298.124817 160.0
298.162628 116.0
298.289795 112.0
298.375732 196.0
298.860687 108.0
299.015533 164.0
299.228973 76.0
299.340149 124.0
299.452789 112.0
299.693939 48.0
300.331696 188.0
301.087555 180.0
301.291351 88.0
301.363892 164.0
301.529755 168.0
301.702606 180.0
301.730255 80.0
301.789032 112.0
302.106812 136.0
302.134888 148.0
302.183319 144.0
302.442871 160.0
302.467102 100.0
302.938049 184.0
303.107819 236.0
303.509888 156.0
303.717957 44.0
304.054504 188.0
304.196838 104.0
305.753967 224.0
306.004608 140.0
306.028961 132.0
307.496552 256.0
307.681549 36.0
307.740906 192.0
307.845673 108.0
307.94696 52.0
308.146057 120.0
308.240417 164.0
308.533997 152.0
308.596924 48.0
308.799744 184.0
308.988647 40.0
309.139099 44.0
309.163605 136.0
309.258087 92.0
309.81485 192.0
310.000549 128.0
310.207336 184.0
310.302002 172.0
310.358093 180.0
310.701813 120.0
310.726379 152.0
311.266907 68.0
311.449524 132.0
311.927399 44.0
311.959045 108.0
312.384552 180.0
312.444336 112.0
312.563965 152.0
312.670227 144.0
312.796265 120.0
313.440765 96.0
313.67688 224.0
313.966003 152.0
314.156464 160.0
314.200958 72.0
314.361115 128.0
314.666718 160.0
314.87384 156.0
315.413605 160.0
315.448944 156.0
315.668152 176.0
315.735352 136.0
315.887146 48.0
315.954651 140.0
316.057251 172.0
316.103241 100.0
316.181091 72.0
316.382874 76.0
316.428894 68.0
316.641357 92.0
316.708649 128.0
316.794373 80.0
316.896393 100.0
316.946838 156.0
317.013824 124.0
317.055847 188.0
317.122955 120.0
317.169281 196.0
317.202942 72.0
317.2146 152.0
317.227966 156.0
317.300446 112.0
317.325256 152.0
317.350067 92.0
317.379822 184.0
317.445953 216.0
317.510773 152.0
317.536682 216.0
317.564148 120.0
317.621307 140.0
317.698242 212.0
317.720154 172.0
317.768799 100.0
317.811768 144.0
317.871185 176.0
317.908203 128.0
317.932648 104.0
317.982391 268.0
318.04538 200.0
318.117523 160.0
318.124664 96.0
318.138702 140.0
318.16629 176.0
318.207367 212.0
318.279694 150016.0
318.386505 188.0
318.421326 108.0
318.475067 176.0
318.506897 144.0
318.548859 56.0
318.558746 112.0
318.595184 152.0
318.664093 148.0
318.696869 132.0
318.732056 180.0
318.75824 228.0
318.814423 108.0
318.865723 1068.0
318.908081 284.0
318.986603 140.0
319.003479 72.0
319.055664 52.0
319.081665 196.0
319.116394 116.0
319.14566 204.0
319.225372 336.0
319.282471 27564.0
319.363464 200.0
319.420258 252.0
319.452545 104.0
319.497589 56.0
319.542755 160.0
319.574738 80.0
319.617126 60.0
319.65329 144.0
319.678925 76.0
319.709412 40.0
319.734711 104.0
319.779907 160.0
319.81369 104.0
319.879547 72.0
319.90686 60.0
319.931702 76.0
319.977905 140.0
320.011292 156.0
320.043732 72.0
320.092804 112.0
320.137939 112.0
320.16095 136.0
320.190826 208.0
320.231964 84.0
320.283844 3588.0
320.35318 28.0
320.416931 76.0
320.475403 136.0
320.509155 68.0
320.548279 100.0
320.624481 84.0
320.678802 128.0
320.765472 40.0
320.891632 44.0
320.928986 92.0
320.962494 104.0
321.005829 204.0
321.041077 116.0
321.075897 104.0
321.135376 288.0
321.187286 188.0
321.218201 100.0
321.289642 184.0
321.375092 112.0
321.444061 232.0
321.496796 116.0
321.549316 252.0
321.574554 196.0
321.678131 116.0
321.732269 128.0
321.742889 92.0
321.814087 76.0
321.847534 52.0
321.872528 96.0
321.933228 36.0
321.997498 28.0
322.051086 88.0
322.087891 120.0
322.181885 84.0
322.233276 88.0
322.308289 72.0
322.42981 108.0
322.457886 136.0
322.497711 48.0
322.556946 56.0
322.594208 32.0
322.651428 88.0
322.690735 44.0
322.790649 64.0
322.887421 152.0
323.069305 104.0
323.216522 56.0
323.276398 88.0
323.456329 52.0
323.481384 112.0
323.535065 84.0
323.572906 120.0
323.642487 40.0
324.194122 64.0
324.362579 140.0
325.090637 52.0
325.122955 44.0
325.237793 112.0
325.402924 120.0
325.442413 40.0
325.509521 64.0
325.611206 120.0
325.86264 96.0
326.426971 32.0
327.242584 184.0
327.748016 84.0
327.88855 68.0
328.043549 108.0
328.346405 60.0
328.45462 44.0
328.611603 64.0
328.692719 60.0
328.788788 84.0
329.165588 112.0
329.942413 92.0
330.040039 64.0
330.463226 96.0
330.66629 104.0
330.872192 52.0
330.951843 52.0
331.129303 80.0
331.250031 84.0
331.44809 72.0
331.672791 68.0
332.002716 128.0
333.574097 152.0
333.691193 88.0
333.973175 96.0
334.193115 44.0
334.691772 48.0
335.172577 56.0
335.26004 112.0
335.354797 72.0
335.413116 64.0
335.588104 76.0
336.237396 112.0
336.39801 108.0
337.132141 80.0
337.170502 80.0
338.097595 84.0
338.152496 32.0
339.09375 64.0
339.427368 60.0
341.175018 104.0
343.011963 32.0
343.362244 36.0
344.148224 36.0
344.739258 124.0
344.779907 44.0
346.126434 100.0
346.559814 68.0
347.776154 48.0
350.956879 104.0
352.984436 52.0
353.964844 84.0
354.208282 84.0
354.346863 104.0
354.935333 92.0
355.137848 120.0
356.140015 88.0
356.932953 56.0
362.216675 192.0
364.325836 108.0
364.557617 92.0
365.074615 108.0
365.774689 100.0
370.969849 76.0
374.069885 64.0
375.653687 80.0
377.623596 52.0
385.808929 84.0
386.68512 80.0
388.330658 68.0
389.999359 48.0
391.83313 72.0
393.098816 36.0
393.446167 112.0
393.746246 64.0
394.224274 64.0
399.931366 28.0
401.999786 100.0
402.490784 76.0
406.565918 96.0
406.662231 56.0
407.095825 48.0
407.975739 56.0
409.53299 88.0
413.449249 40.0
413.7164 40.0
426.505096 96.0
427.920227 60.0
429.506836 60.0
429.977173 72.0
431.493164 88.0
433.782471 56.0
436.389618 108.0
436.938629 72.0
442.246613 80.0
445.483734 116.0
445.819885 36.0
453.903809 88.0
455.546326 92.0
456.387817 68.0
457.255615 72.0
459.06192 104.0
461.705383 84.0
462.23584 104.0
468.625031 84.0
468.754303 164.0
477.099182 128.0
477.795013 60.0
482.548828 96.0
484.614655 52.0
489.569519 48.0
491.94165 120.0
494.797516 108.0
497.830383 100.0
498.656708 64.0
500.289154 96.0
506.944244 104.0
509.438873 120.0
511.727997 52.0
512.178345 80.0
512.579285 28.0
512.61084 104.0
512.795593 52.0
513.192322 108.0
517.013855 52.0
517.407654 56.0
517.86499 68.0
518.830139 108.0
521.522034 68.0
526.542847 52.0
527.511536 60.0
527.712708 68.0
532.216675 56.0
533.843323 112.0
537.316284 32.0
538.502625 60.0
541.369995 48.0
541.809998 84.0
542.644226 92.0
545.708557 88.0
547.602539 88.0
548.40387 88.0
551.900452 44.0
555.084534 92.0
555.87262 116.0
557.901611 88.0
558.823425 68.0
560.466675 60.0
567.40033 184.0
571.246948 72.0
573.05603 76.0
574.920471 52.0
575.669983 84.0
578.481323 68.0
578.782898 60.0
581.472229 48.0
581.870667 76.0
585.255493 72.0
585.501099 64.0
590.510681 80.0
594.459045 92.0
607.025208 56.0
612.48291 108.0
618.653076 156.0
621.244873 96.0
629.172546 88.0
630.156433 208.0
631.306091 64.0
636.020569 104.0
641.599304 124.0
649.036621 68.0
649.102539 40.0
650.650085 100.0
655.003113 92.0
656.78717 120.0
660.787109 100.0
660.914978 76.0
661.329529 88.0
661.795349 68.0
663.614258 60.0
663.680908 52.0
664.845337 156.0
676.685608 132.0
679.432434 52.0
680.013611 188.0
683.65155 76.0
684.026245 120.0
695.746582 88.0
710.141785 48.0
715.498169 76.0
722.847839 72.0
724.432617 144.0
728.321594 52.0
731.871033 80.0
732.264099 192.0
738.032898 68.0
739.103882 196.0
742.321472 160.0
742.505859 52.0
742.598022 196.0
742.950623 176.0
747.2099 120.0
747.552673 36.0
748.826599 104.0
750.406921 192.0
752.900574 40.0
756.585938 64.0
757.6922 168.0
759.018616 96.0
759.183105 160.0
762.718872 168.0
763.235657 132.0
765.155823 148.0
765.210876 200.0
767.48645 88.0
767.695984 184.0
769.224243 124.0
771.439392 144.0
774.156067 136.0
777.310242 172.0
782.607422 72.0
782.746643 80.0
783.671265 144.0
783.955444 72.0
784.122681 60.0
788.369629 44.0
790.556213 52.0
790.735291 236.0
790.808044 180.0
791.513428 120.0
791.703857 168.0
793.721191 136.0
794.270752 148.0
796.572205 140.0
796.611572 148.0
796.735168 68.0
803.761719 52.0
804.117249 144.0
806.291626 180.0
807.965332 224.0
808.729248 136.0
810.909851 176.0
811.136597 128.0
812.508911 96.0
816.274658 52.0
822.210632 132.0
823.266785 160.0
823.809387 108.0
824.13501 136.0
825.718506 104.0
827.532471 124.0
829.789856 52.0
829.904541 148.0
831.768982 160.0
832.567078 68.0
836.822205 136.0
840.251465 148.0
840.338013 52.0
840.407227 172.0
840.470703 180.0
840.586121 76.0
842.890076 116.0
850.064697 192.0
850.256165 60.0
850.708923 188.0
852.038818 264.0
854.428223 84.0
854.870422 120.0
856.063782 44.0
856.104553 48.0
856.488953 224.0
857.84082 180.0
858.278137 160.0
858.785461 156.0
859.187988 184.0
860.051636 168.0
863.843933 120.0
867.515625 88.0
867.931885 156.0
869.392517 172.0
872.640808 124.0
874.105408 272.0
874.917664 92.0
876.631653 152.0
877.704468 176.0
877.869568 136.0
880.076416 156.0
881.056824 164.0
881.133667 148.0
881.594543 84.0
881.825012 104.0
881.913696 136.0
882.167847 60.0
882.824158 184.0
882.924683 180.0
884.409729 112.0
885.770569 180.0
886.221863 60.0
887.846069 136.0
888.646851 140.0
888.712097 192.0
890.285156 144.0
890.730591 140.0
891.241516 168.0
892.364868 44.0
894.149414 172.0
895.346069 200.0
896.978577 100.0
898.230835 156.0
900.118103 192.0
900.385498 188.0
900.53479 68.0
902.662292 64.0
904.211731 160.0
904.953979 68.0
906.163818 148.0
907.230591 136.0
908.280029 192.0
908.453979 172.0
909.492065 188.0
911.57605 96.0
912.303345 184.0
913.151184 200.0
914.131775 64.0
914.270142 136.0
914.324341 124.0
914.679443 204.0
916.757324 164.0
917.263611 172.0
917.751892 144.0
917.805481 288.0
918.312744 216.0
918.385132 132.0
918.946167 220.0
919.169373 88.0
919.7005 172.0
920.050598 180.0
920.141174 136.0
920.551758 128.0
921.403381 164.0
921.475891 248.0
921.657166 160.0
921.983459 116.0
922.672546 88.0
922.986938 104.0
923.603821 160.0
923.930481 164.0
924.39032 152.0
924.559753 200.0
925.407166 212.0
926.339844 144.0
927.68512 204.0
927.812439 160.0
929.229553 196.0
930.323975 56.0
930.408997 164.0
930.589722 224.0
930.864319 168.0
931.222656 152.0
931.453491 160.0
932.656555 120.0
932.788635 172.0
932.990906 120.0
933.629333 80.0
933.915222 200.0
934.188904 88.0
934.31665 156.0
937.348816 212.0
937.799805 60.0
938.519104 192.0
939.537659 152.0
939.903748 36.0
939.983032 232.0
941.197754 244.0
941.264954 168.0
941.948975 180.0
942.162781 152.0
942.676025 228.0
944.320557 96.0
945.177002 84.0
946.621643 128.0
946.817566 132.0
947.914124 144.0
948.53656 224.0
951.870667 60.0
951.999634 152.0
953.775208 144.0
955.361694 168.0
955.786255 44.0
956.156067 200.0
958.27887 144.0
961.369141 96.0
961.943115 148.0
962.17157 172.0
962.295044 120.0
962.733459 140.0
963.134888 204.0
963.655334 164.0
964.345886 172.0
964.692078 144.0
965.304138 164.0
965.446411 228.0
965.514404 136.0
965.669006 184.0
966.392822 116.0
966.454651 100.0
966.695984 120.0
966.819763 212.0
966.888184 204.0
967.723511 180.0
968.677246 180.0
970.158264 144.0
970.827942 88.0
971.026367 200.0
972.273376 104.0
972.478882 176.0
973.117615 144.0
973.329895 224.0
973.490173 88.0
974.117432 208.0
974.17334 156.0
974.303833 136.0
974.515076 180.0
975.571594 120.0
975.801575 52.0
976.031677 212.0
977.001892 248.0
978.620056 144.0
978.819275 160.0
978.943848 64.0
979.192932 92.0
980.227051 60.0
980.545593 220.0
981.043579 136.0
982.097351 148.0
982.596436 176.0
983.182983 160.0
983.314026 176.0
984.36908 68.0
984.968628 76.0
985.905823 172.0
986.274536 72.0
986.605835 156.0
986.72467 128.0
987.956665 204.0
988.993774 168.0
989.057983 88.0
989.214478 188.0
989.846863 248.0
990.028442 200.0
991.68866 220.0
991.732544 224.0
992.466003 184.0
993.889832 176.0
994.316589 124.0
994.379333 140.0
995.214233 152.0
995.534485 208.0
995.660095 180.0
995.835938 172.0
995.974121 208.0
996.307068 228.0
997.614197 180.0
997.840515 172.0
997.880554 164.0
998.77124 180.0
998.978821 180.0
999.198975 144.0
999.897461 128.0
999.954102 76.0
1000.759827 56.0
1001.427368 148.0
1001.805298 108.0
1001.994324 164.0
1002.30304 160.0
1004.169067 112.0
1004.490723 136.0
1005.771667 72.0
1006.049377 160.0
1006.112549 36.0
1007.179749 160.0
1007.697754 156.0
1007.754578 160.0
1008.057922 164.0
1008.127441 200.0
1009.556091 128.0
1009.922913 128.0
1010.043091 192.0
1011.093384 108.0
1011.144043 76.0
1011.536438 152.0
1011.650391 176.0
1011.713684 160.0
1011.909973 52.0
1012.093567 176.0
1012.866211 104.0
1012.948547 192.0
1013.328674 172.0
1013.734192 68.0
1014.558167 148.0
1014.608887 104.0
1016.14624 180.0
1016.21344 256.0
1017.933594 252.0
1018.135864 160.0
1019.636108 200.0
1019.972961 96.0
1020.627808 96.0
1020.818542 208.0
1020.990234 168.0
1022.631714 152.0
1022.708069 164.0
1022.79718 204.0
1023.281006 48.0
1023.621887 104.0
1023.675781 104.0
1024.369995 116.0
1024.669434 208.0
1025.555176 144.0
1025.937622 156.0
1026.352539 144.0
1026.651733 156.0
1026.868652 176.0
1027.136475 164.0
1027.251343 160.0
1027.315063 212.0
1027.702881 180.0
1027.927612 172.0
1028.463745 192.0
1028.795654 156.0
1030.539185 100.0
1031.071167 144.0
1031.408325 128.0
1031.862183 196.0
1032.041138 156.0
1032.194702 160.0
1033.358765 140.0
1033.587524 216.0
1034.184204 176.0
1034.581177 148.0
1034.664307 172.0
1034.830811 148.0
1035.240601 220.0
1035.676147 144.0
1035.855469 168.0
1036.252686 184.0
1036.867798 200.0
1037.989624 132.0
1038.714355 176.0
1039.253296 128.0
1040.408569 84.0
1041.493774 56.0
1042.123291 228.0
1042.798096 188.0
1043.511597 160.0
1043.62085 184.0
1044.199707 64.0
1044.501953 128.0
1045.203247 212.0
1046.020508 148.0
1046.361694 164.0
1046.567749 168.0
1046.760986 156.0
1047.91394 48.0
1048.63562 148.0
1049.048218 144.0
1049.125488 148.0
1049.512329 184.0
1049.957275 152.0
1050.292725 156.0
1051.144287 52.0
1051.275269 180.0
1051.421753 112.0
1052.506226 228.0
1052.769775 216.0
1053.090088 224.0
1053.720581 84.0
1053.914429 136.0
1054.18689 220.0
1054.34729 40.0
1055.084229 160.0
1055.200562 132.0
1055.278198 184.0
1055.704956 112.0
1055.892456 88.0
1056.476562 192.0
1056.539307 112.0
1056.796997 120.0
1056.862793 264.0
1057.031006 56.0
1057.302856 168.0
1057.737671 180.0
1057.984985 184.0
1058.40979 120.0
1059.322388 172.0
1059.549683 164.0
1059.75708 140.0
1059.815308 56.0
1060.184692 196.0
1060.359619 152.0
1060.521729 140.0
1060.625366 168.0
1061.163452 128.0
1061.338501 164.0
1061.81189 144.0
1062.03894 208.0
1062.441162 88.0
1062.531982 36.0
1062.611572 148.0
1062.765503 196.0
1063.557251 168.0
1064.446655 64.0
1064.518066 160.0
1064.570068 176.0
1065.096069 152.0
1065.239014 212.0
1065.745728 160.0
1066.4021 152.0
1066.454102 184.0
1066.805176 232.0
1067.19519 172.0
1067.351196 156.0
1067.565796 192.0
1067.793457 220.0
1068.014648 152.0
1068.619629 240.0
1068.762695 160.0
1068.866821 188.0
1069.081543 148.0
1069.133667 260.0
1069.608765 148.0
1069.869141 48.0
1070.344482 176.0
1071.178101 180.0
1071.438599 120.0
1072.292236 140.0
1072.44873 32.0
1072.784546 184.0
1073.47229 180.0
1073.785278 60.0
1074.22229 184.0
1074.365845 148.0
1074.515869 184.0
1075.122681 60.0
1075.572998 136.0
1075.67749 32.0
1075.794922 188.0
1075.95813 172.0
1076.487061 152.0
1076.65686 108.0
1077.107544 120.0
1077.16626 176.0
1077.302979 144.0
1077.577881 132.0
1078.965332 176.0
1079.283813 60.0
1080.016235 136.0
1080.683472 176.0
1081.049927 124.0
1081.40332 120.0
1081.710938 188.0
1081.776367 184.0
1082.372192 124.0
1082.588257 160.0
1083.387329 200.0
1083.524902 200.0
1083.766357 152.0
1084.016357 152.0
1084.573486 188.0
1087.420044 252.0
1089.10083 136.0
1089.672363 216.0
1090.690918 184.0
1091.157715 124.0
1091.657471 300.0
1092.060669 168.0
1093.242798 80.0
1093.49292 204.0
1094.184082 196.0
1094.934692 136.0
1095.541382 200.0
1095.791748 156.0
1095.84375 172.0
1096.041382 172.0
1096.351196 188.0
1096.852051 236.0
1097.695923 188.0
1098.42041 204.0
1098.645752 272.0
1098.863403 140.0
1100.170166 140.0
1100.421021 160.0
1100.678467 132.0
1101.08313 208.0
1101.583374 116.0
1101.755127 192.0
1102.257202 192.0
1103.433716 132.0
1103.625488 156.0
1104.174316 176.0
1104.657227 116.0
1105.676147 272.0
1105.729126 192.0
1106.112915 164.0
1106.255859 116.0
1106.27417 180.0
1106.688965 108.0
1107.072998 156.0
1107.212036 176.0
1107.271729 144.0
1107.536621 176.0
1108.29187 160.0
1108.749023 216.0
1108.815308 176.0
1109.140137 200.0
1109.438354 144.0
1109.803101 148.0
1109.875977 128.0
1110.001953 220.0
1110.811157 44.0
1111.222412 188.0
1112.012085 160.0
1113.087524 216.0
1113.260132 252.0
1113.439453 140.0
1113.552368 80.0
1113.718506 144.0
1113.836914 252.0
1113.988159 224.0
1114.389404 156.0
1115.512573 160.0
1116.243896 80.0
1116.689453 156.0
1116.829102 204.0
1117.500977 132.0
1117.8479 232.0
1117.966797 228.0
1118.059937 156.0
1119.185425 160.0
1119.624512 152.0
1120.390503 156.0
1120.663574 144.0
1120.710205 128.0
1120.770264 160.0
1121.223389 104.0
1121.383301 176.0
1121.581787 180.0
1121.689941 136.0
1121.869873 164.0
1122.049927 52.0
1122.116577 104.0
1123.023438 152.0
1123.337036 148.0
1123.457031 216.0
1123.537109 60.0
1123.75061 128.0
1124.271118 204.0
1124.551392 136.0
1124.766357 200.0
1125.072021 148.0
1125.130371 184.0
1125.319092 64.0
1125.606201 136.0
1126.788452 84.0
1127.282837 140.0
1127.32959 108.0
1128.111572 196.0
1128.238647 104.0
1129.007568 168.0
1129.275146 184.0
1129.455688 144.0
1129.522583 188.0
1130.131348 224.0
1130.191528 204.0
1131.905151 172.0
1132.059204 56.0
1132.112671 64.0
1132.373901 104.0
1133.171021 88.0
1133.351929 144.0
1133.700439 152.0
1133.747314 180.0
1134.216431 148.0
1134.598633 196.0
1135.537354 140.0
1135.983154 120.0
1136.716431 204.0
1137.523438 176.0
1137.778564 172.0
1137.92627 184.0
1138.134399 140.0
1138.268677 204.0
1138.443237 184.0
1138.510376 128.0
1138.711914 44.0
1139.182129 132.0
1139.249268 136.0
1139.32312 204.0
1139.733032 212.0
1140.398315 144.0
1140.929321 160.0
1141.023438 200.0
1141.083984 160.0
1141.164673 208.0
1141.231934 72.0
1141.500854 140.0
1141.64209 60.0
1142.449219 172.0
1142.563599 232.0
1142.617432 128.0
1142.664429 188.0
1142.772095 180.0
1143.27832 236.0
1144.050781 168.0
1144.91272 168.0
1145.700806 152.0
1145.862427 192.0
1146.015747 208.0
1146.739868 204.0
1146.974365 156.0
1147.334106 176.0
1147.661987 176.0
1147.918213 196.0
1148.923218 120.0
1149.483276 132.0
1149.603027 148.0
1149.678955 196.0
1150.051636 196.0
1150.286377 160.0
1150.745483 296.0
1150.887207 312.0
1150.974976 172.0
1151.7854 116.0
1151.974609 192.0
1152.037231 208.0
1152.69751 188.0
1152.767334 152.0
1152.861816 140.0
1153.29895 176.0
1153.603149 168.0
1153.724854 112.0
1153.864502 144.0
1154.245483 132.0
1154.427979 108.0
1154.921753 188.0
1155.063721 64.0
1155.259888 144.0
1155.395264 64.0
1155.523804 52.0
1155.88916 116.0
1156.010986 188.0
1156.464355 88.0
1156.748657 152.0
1157.405396 232.0
1157.696533 156.0
1157.798096 152.0
1158.658325 172.0
1159.552856 140.0
1159.790039 156.0
1159.945923 96.0
1160.352661 136.0
1160.413696 216.0
1160.542603 164.0
1160.672119 184.0
1161.573364 160.0
1161.647949 148.0
1162.150024 84.0
1162.740356 144.0
1163.045776 176.0
1163.308228 188.0
1163.473511 196.0
1163.69751 168.0
1163.765381 136.0
1164.444458 92.0
1164.661865 140.0
1164.852051 164.0
1165.137329 60.0
1165.320801 92.0
1165.803223 236.0
1166.075073 180.0
1166.469238 88.0
1166.666382 172.0
1167.026733 108.0
1167.400757 84.0
1167.604736 168.0
1167.706787 176.0
1167.808838 164.0
1168.747559 220.0
1168.93811 216.0
1169.087891 144.0
1169.96582 172.0
1170.469727 160.0
1170.52417 180.0
1170.571899 156.0
1170.646729 156.0
1170.946777 384.0
1171.627563 120.0
1172.336182 180.0
1173.283569 176.0
1173.399536 104.0
1173.604004 156.0
1173.754028 204.0
1173.931396 152.0
1174.122314 120.0
1174.181641 196.0
1174.251831 52.0
1175.309204 160.0
1175.500366 144.0
1175.609497 112.0
1175.739136 264.0
1175.862061 108.0
1176.544556 104.0
1176.780273 116.0
1177.507446 64.0
1178.313477 132.0
1178.429565 148.0
1178.675537 200.0
1178.96936 236.0
1179.208618 136.0
1179.543457 120.0
1179.905884 32.0
1180.381104 164.0
1181.020508 184.0
1181.143555 128.0
1181.191406 44.0
1181.294067 140.0
1181.362427 164.0
1181.512939 192.0
1182.1698 28.0
1182.41626 176.0
1183.285522 100.0
1183.367676 44.0
1183.449829 156.0
1183.799072 184.0
1185.463745 472.0
1185.587036 72.0
1185.881714 36.0
1186.608398 196.0
1186.978638 192.0
1187.224365 172.0
1187.24646 144.0
1187.262329 96.0
1187.348999 124.0
1187.51355 200.0
1187.630127 160.0
1187.678101 184.0
1187.863403 168.0
1187.918213 188.0
1188.007446 96.0
1188.254395 152.0
1188.467041 92.0
1188.741577 96.0
1189.489624 104.0
1189.553589 164.0
1189.654419 188.0
1190.031982 132.0
1190.224243 160.0
1190.395874 160.0
1190.550293 200.0
1190.814819 176.0
1191.123901 140.0
1191.28186 288.0
1191.439941 168.0
1192.092651 132.0
1193.261108 116.0
1193.35083 176.0
1193.529297 104.0
1193.804321 144.0
1194.189453 120.0
1194.641602 176.0
1194.849854 160.0
1195.084229 188.0
1195.496704 188.0
1195.765015 148.0
1195.875122 184.0
1195.957764 104.0
1196.935303 204.0
1197.169434 132.0
1197.224609 192.0
1197.272827 172.0
1197.334717 136.0
1197.661743 196.0
1197.830933 128.0
1197.845581 188.0
1197.940918 124.0
1198.02356 140.0
1198.333618 116.0
1198.9729 184.0
1199.305176 140.0
1199.470703 92.0
1200.270386 196.0
1200.566895 84.0
1200.746216 152.0
1200.980713 148.0
1201.291138 132.0
1201.429077 132.0
1201.553223 144.0
1202.022461 172.0
1202.422729 184.0
1202.774658 116.0
1203.057739 200.0
1203.48584 112.0
1203.644653 164.0
1203.91394 192.0
1204.079712 120.0
1204.15564 180.0
1204.362793 136.0
1204.487183 164.0
1204.54248 152.0
1204.984497 148.0
1205.177979 292.0
1205.240234 120.0
1205.412964 132.0
1205.744629 164.0
1206.000366 132.0
1206.152466 64.0
1207.217163 204.0
1207.535278 160.0
1208.351562 144.0
1208.614502 200.0
1208.690552 128.0
1208.808228 172.0
1208.884277 180.0
1209.113892 208.0
1209.576416 140.0
1209.735596 176.0
1209.791016 200.0
1210.331055 108.0
1210.414185 152.0
1210.483398 120.0
1210.802002 124.0
1210.990967 208.0
1211.522339 136.0
1212.180542 44.0
1212.235962 208.0
1212.312134 252.0
1212.554688 168.0
1212.640747 196.0
1213.726318 200.0
1214.163208 156.0
1214.51001 44.0
1214.86377 60.0
1215.278687 148.0
1215.592285 176.0
1215.960083 116.0
1216.40564 188.0
1217.154053 120.0
1217.286011 112.0
1218.383423 148.0
1218.703003 172.0
1219.231079 184.0
1219.418823 148.0
1219.523071 212.0
1219.884521 176.0
1220.802246 156.0
1220.865234 228.0
1221.080444 104.0
1221.963867 144.0
1222.235229 148.0
1222.524658 176.0
1223.181763 36.0
1224.253906 64.0
1225.222046 68.0
1225.340576 160.0
1225.723755 132.0
1225.772583 68.0
1225.884033 164.0
1226.43457 196.0
1226.553101 192.0
1227.640747 128.0
1227.717407 176.0
1227.773193 172.0
1227.975464 52.0
1228.184692 240.0
1228.554443 196.0
1228.93811 280.0
1229.077637 108.0
1229.252197 180.0
1229.349854 200.0
1229.482422 104.0
1229.552246 160.0
1229.649902 192.0
1229.726685 72.0
1231.150879 168.0
1231.709717 188.0
1231.793457 168.0
1231.863403 116.0
1232.024048 180.0
1232.366333 132.0
1232.471191 176.0
1232.675537 132.0
1232.911377 156.0
1233.438965 148.0
1233.575439 196.0
1233.696289 232.0
1233.806152 236.0
1234.80603 112.0
1235.011841 132.0
1235.134766 92.0
1235.362183 196.0
1235.540527 168.0
1235.694336 232.0
1235.995239 76.0
1236.359131 172.0
1236.470825 168.0
1237.199097 132.0
1238.571533 152.0
1238.816772 76.0
1239.629517 132.0
1239.930786 172.0
1240.22522 108.0
1240.743896 148.0
1241.122559 136.0
1241.36792 136.0
1242.006348 188.0
1242.363892 176.0
1242.693726 88.0
1242.756836 40.0
1242.833984 136.0
1242.988403 224.0
1243.521729 60.0
1243.956909 192.0
1244.286865 200.0
1244.441284 28.0
1244.508423 192.0
1244.70105 64.0
1244.996094 104.0
1245.206787 184.0
1245.389404 216.0
1245.572021 68.0
1245.691406 108.0
1246.169067 132.0
1246.49939 156.0
1246.646973 260.0
1247.4552 96.0
1248.052734 196.0
1248.130127 56.0
1248.28479 152.0
1248.7771 100.0
1248.882568 128.0
1249.023315 192.0
1249.656372 124.0
1249.937866 76.0
1249.994141 152.0
1250.050415 128.0
1250.338989 144.0
1250.493774 152.0
1250.866821 216.0
1250.930176 192.0
1251.00061 188.0
1251.465332 164.0
1251.606079 108.0
1251.704712 152.0
1251.854492 148.0
1251.937012 116.0
1251.986328 72.0
1252.092041 56.0
1252.923218 64.0
1253.007812 196.0
1253.106323 36.0
1253.190918 164.0
1254.325562 124.0
1254.64978 188.0
1255.065796 44.0
1255.361938 128.0
1255.665161 164.0
1256.03894 144.0
1256.356445 136.0
1256.575195 244.0
1256.631592 104.0
1256.987793 184.0
1257.069092 168.0
1257.238403 80.0
1257.351318 128.0
1258.360718 132.0
1258.629028 48.0
1259.066895 120.0
1259.260376 148.0
1259.766113 224.0
1259.815552 152.0
1260.513062 140.0
1260.677612 160.0
1260.861328 156.0
1261.002686 180.0
1261.206665 172.0
1261.532837 132.0
1262.635864 104.0
1263.116821 120.0
1263.341064 224.0
1263.421021 112.0
1263.5979 156.0
1263.669678 136.0
1263.788818 148.0
1263.852539 192.0
1264.208252 208.0
1264.376221 192.0
1264.708862 184.0
1265.048584 152.0
1265.233154 192.0
1265.317627 124.0
1265.452148 64.0
1265.685791 188.0
1265.884033 148.0
1265.947876 156.0
1267.031494 184.0
1267.336182 184.0
1267.959717 136.0
1268.165283 100.0
1268.37793 184.0
1268.491333 148.0
1268.753662 144.0
1269.051392 136.0
1269.214478 128.0
1269.398804 128.0
1269.796021 144.0
1270.065552 208.0
1270.263428 196.0
1270.413086 60.0
1270.774902 148.0
1270.867188 148.0
1270.91687 128.0
1271.208984 200.0
1271.470337 72.0
1271.54834 164.0
1271.690308 184.0
1272.087891 176.0
1272.293701 92.0
1272.357544 132.0
1272.492554 124.0
1272.691284 64.0
1272.870483 204.0
1273.025024 168.0
1273.238037 84.0
1273.302002 136.0
1273.557739 172.0
1273.650024 80.0
1274.751221 64.0
1274.907593 188.0
1275.0 144.0
1275.13501 220.0
1275.312622 160.0
1275.497437 192.0
1275.597046 140.0
1275.831543 196.0
1275.988037 160.0
1276.115967 132.0
1276.165771 160.0
1276.293701 184.0
1276.707153 176.0
1276.784424 212.0
1276.841309 140.0
1277.047485 80.0
1277.168457 132.0
1277.566772 128.0
1277.623657 144.0
1277.851318 168.0
1277.915405 176.0
1278.029297 140.0
1278.079102 164.0
1278.135986 164.0
1278.299683 172.0
1279.395752 168.0
1280.399658 144.0
1280.734497 112.0
1280.784302 52.0
1280.898315 128.0
1281.005127 112.0
1281.332886 272.0
1281.418335 140.0
1281.567993 160.0
1282.259155 184.0
1282.344727 132.0
1282.544312 204.0
1283.264282 80.0
1283.90564 156.0
1285.02124 144.0
1285.328369 176.0
1285.38269 176.0
1285.475464 164.0
1285.539673 164.0
1285.661011 168.0
1285.99646 164.0
1286.082153 148.0
1286.160645 56.0
1286.346191 36.0
1286.510376 240.0
1286.810181 184.0
1287.145874 124.0
1287.560059 172.0
1288.224243 164.0
1288.474365 144.0
1288.524292 148.0
1288.938721 220.0
1289.203125 156.0
1289.360352 212.0
1289.517578 180.0
1289.57251 176.0
1289.925049 204.0
1290.082275 176.0
1290.840088 152.0
1291.040405 152.0
1291.161987 160.0
1291.769897 52.0
1291.984497 188.0
1292.141968 192.0
1292.649902 132.0
1292.907593 184.0
1293.079346 52.0
1293.289307 160.0
1293.336914 228.0
1293.716309 172.0
1294.217529 224.0
1294.876343 196.0
1295.134155 84.0
1295.184326 140.0
1295.291748 128.0
1296.079712 172.0
1296.538452 136.0
1296.61731 260.0
1296.739136 120.0
1297.434448 68.0
1297.584961 104.0
1297.663818 200.0
1297.878906 112.0
1297.943481 144.0
1298.000854 176.0
1298.868652 172.0
1299.37793 160.0
1299.571655 96.0
1300.045288 148.0
1300.727051 48.0
1300.942505 136.0
1301.387573 132.0
1301.459351 116.0
1301.745728 152.0
1302.227783 188.0
1302.479126 184.0
1302.795166 108.0
1302.867065 164.0
1303.032349 196.0
1303.089722 56.0
1303.513062 176.0
1303.801147 144.0
1303.995239 48.0
1304.325806 84.0
1304.412109 76.0
1304.469604 156.0
1304.850586 92.0
1305.087891 156.0
1305.188599 100.0
1305.317993 184.0
1305.847046 160.0
1306.058716 148.0
1306.28894 132.0
1306.418335 100.0
1306.51416 200.0
1306.563843 168.0
1307.296143 160.0
1307.346558 144.0
1308.066284 224.0
1308.188721 128.0
1308.469482 168.0
1308.597778 144.0
1308.843872 196.0
1309.491943 176.0
1309.549561 172.0
1309.729614 120.0
1309.945801 176.0
1310.046631 212.0
1310.21228 152.0
1310.320312 152.0
1310.432617 196.0
1310.508789 132.0
1310.67334 44.0
1311.862549 204.0
1312.107666 132.0
1312.259033 68.0
1312.489868 144.0
1312.605225 152.0
1312.670044 156.0
1312.886475 156.0
1313.226318 156.0
1314.040527 168.0
1314.473511 144.0
1314.596191 188.0
1314.649536 196.0
1314.798218 272.0
1314.863159 176.0
1314.920898 168.0
1315.050781 212.0
1315.223999 128.0
1316.177002 156.0
1316.747437 148.0
1316.805298 144.0
1317.231445 196.0
1317.462524 208.0
1317.541992 60.0
1317.751587 220.0
1317.910522 208.0
1317.968262 108.0
1318.105591 192.0
1318.604248 196.0
1318.792114 188.0
1318.871704 48.0
1319.066772 184.0
1319.211426 188.0
1319.47168 156.0
1319.628906 148.0
1319.746338 32.0
1320.050049 200.0
1320.773315 76.0
1320.932495 160.0
1321.192749 164.0
1321.438843 260.0
1321.547363 164.0
1322.0177 168.0
1322.415771 124.0
1322.488159 228.0
1322.690796 180.0
1322.8573 176.0
1323.306152 196.0
1323.678345 120.0
1324.131714 88.0
1324.40686 44.0
1324.472046 160.0
1324.645874 204.0
1324.703857 80.0
1324.805298 168.0
1325.200439 208.0
1325.399414 148.0
1325.645752 176.0
1325.718262 180.0
1325.841431 160.0
1325.890625 156.0
1326.008057 228.0
1326.116821 224.0
1326.167603 116.0
1326.319824 224.0
1326.588013 180.0
1326.638672 168.0
1327.077759 204.0
1327.175171 184.0
1327.247681 188.0
1328.321045 196.0
1328.393677 156.0
1328.462646 144.0
1329.090088 180.0
1329.489258 124.0
1329.59082 192.0
1329.685181 212.0
1330.019043 52.0
1330.077148 124.0
1330.155396 116.0
1330.294922 144.0
1330.360229 176.0
1330.585205 160.0
1330.657837 136.0
1331.108032 36.0
1331.601807 176.0
1332.473511 268.0
1332.822266 160.0
1333.163818 64.0
1333.338257 100.0
1334.072388 232.0
1334.137817 160.0
1334.348633 168.0
1334.966675 148.0
1335.359375 192.0
1335.890381 132.0
1335.963135 188.0
1336.130493 104.0
1336.334106 68.0
1336.472412 132.0
1336.740479 172.0
1336.818481 280.0
1336.866455 184.0
1336.996338 228.0
1337.340942 112.0
1337.440308 100.0
1337.687744 120.0
1338.197388 148.0
1338.626953 156.0
1338.809082 96.0
1338.969238 372.0
1339.178345 180.0
1339.348022 208.0
1339.4646 156.0
1339.770508 220.0
1340.193115 236.0
1340.338745 160.0
1340.403931 128.0
1340.907227 132.0
1341.104004 132.0
1341.264404 148.0
1341.752808 128.0
1341.935913 188.0
1341.993408 132.0
1342.051758 152.0
1343.54895 296.0
1343.911865 144.0
1344.188843 200.0
1344.342163 164.0
1344.677856 112.0
1345.203369 232.0
1345.860474 44.0
1346.00647 128.0
1346.196289 160.0
1346.70752 112.0
1347.028931 124.0
1347.131226 120.0
1347.284668 136.0
1347.525757 152.0
1347.693726 188.0
1347.847168 184.0
1347.920288 168.0
1348.010254 188.0
1348.490356 124.0
1348.599976 196.0
1348.753418 212.0
1348.995483 164.0
1349.184692 180.0
1349.356689 144.0
1349.594116 144.0
1349.645386 76.0
1349.791626 204.0
1350.147095 228.0
1350.369263 56.0
1350.932495 116.0
1351.159302 156.0
1351.239746 108.0
1351.503174 168.0
1351.788574 148.0
1351.915649 236.0
1352.513062 192.0
1352.944946 144.0
1353.00354 176.0
1353.106079 204.0
1353.488647 172.0
1353.640503 136.0
1353.699097 200.0
1353.816284 164.0
1353.896851 124.0
1354.055786 96.0
1354.475464 184.0
1354.717163 196.0
1354.888672 188.0
1354.971802 192.0
1355.222778 192.0
1355.405884 136.0
1355.611084 176.0
1355.823608 148.0
1355.984863 160.0
1356.036133 68.0
1356.342041 184.0
1356.461304 100.0
1356.527222 108.0
1356.622559 168.0
1357.260376 88.0
1357.678345 188.0
1357.885498 164.0
1358.066406 180.0
1358.265137 160.0
1358.463135 120.0
1358.746216 48.0
1359.0354 136.0
1359.306885 216.0
1359.468384 192.0
1359.541748 200.0
1360.143555 112.0
1360.312378 176.0
1360.400513 132.0
1360.57666 64.0
1360.995117 68.0
1361.061279 208.0
1361.193481 132.0
1361.369629 128.0
1362.919556 196.0
1363.55896 200.0
1363.911743 196.0
1364.330688 152.0
1364.793945 212.0
1364.992432 160.0
1365.247559 220.0
1365.683716 184.0
1365.882324 180.0
1366.110352 120.0
1366.360474 168.0
1366.485596 152.0
1366.809326 176.0
1367.118408 88.0
1367.260986 260.0
1367.85437 164.0
1368.053101 120.0
1368.39917 172.0
1368.759888 124.0
1368.840942 172.0
1368.921997 116.0
1369.253296 128.0
1369.36377 120.0
1369.562622 212.0
1369.792114 204.0
1369.886719 176.0
1369.967041 156.0
1370.196167 192.0
1370.476196 200.0
1371.271973 56.0
1371.537354 156.0
1371.787964 168.0
1372.399902 128.0
1372.997192 60.0
1373.115967 160.0
1373.882324 172.0
1374.22168 88.0
1374.848877 160.0
1375.158936 96.0
1375.247437 48.0
1375.365601 208.0
1375.417236 184.0
1375.690308 208.0
1376.546753 196.0
1376.694458 172.0
1376.797852 80.0
1377.056396 132.0
1377.322266 176.0
1377.713745 136.0
1377.883667 232.0
1378.253174 208.0
1378.393555 136.0
1378.512451 216.0
1378.674316 160.0
1378.762939 88.0
1378.829468 148.0
1379.117798 120.0
1379.403198 196.0
1379.561279 128.0
1379.87915 192.0
1379.960449 240.0
1380.529907 176.0
1381.151123 140.0
1381.33606 232.0
1381.935303 148.0
1382.024048 156.0
1382.112793 180.0
1382.290405 208.0
1382.578979 108.0
1382.949097 128.0
1383.060059 144.0
1383.163696 188.0
1383.644897 88.0
1383.911499 168.0
1384.104004 116.0
1384.385376 104.0
1384.792725 116.0
1385.096313 100.0
1385.355591 164.0
1385.528564 248.0
1385.725464 196.0
1385.785278 212.0
1385.837158 152.0
1385.918701 140.0
1386.089111 156.0
1386.593018 104.0
1386.837646 48.0
1387.163818 184.0
1387.526978 164.0
1387.897949 124.0
1388.105347 208.0
1388.200684 116.0
1388.713501 124.0
1388.846924 120.0
1388.998413 184.0
1389.13147 324.0
1389.381104 164.0
1389.44043 136.0
1389.848511 172.0
1389.900391 108.0
1390.034058 136.0
1390.450317 168.0
1390.598022 148.0
1390.657349 140.0
1390.74646 80.0
1390.840576 208.0
1390.939453 196.0
1391.095337 152.0
1391.280884 228.0
1391.519897 124.0
1391.711548 168.0
1392.142212 152.0
1392.253662 116.0
1392.446899 172.0
1392.877441 224.0
1393.137451 164.0
1393.196899 168.0
1393.850708 112.0
1394.036499 148.0
1394.237183 128.0
1395.181152 176.0
1395.404175 196.0
1395.478516 232.0
1395.656982 96.0
1395.73999 196.0
1396.281616 184.0
1396.586548 144.0
1397.055176 48.0
1397.151855 116.0
1397.330444 188.0
1397.412231 124.0
1397.523926 188.0
1397.635498 60.0
1397.985229 176.0
1398.09436 244.0
1398.521118 140.0
1399.019775 172.0
1399.168701 164.0
1399.429321 172.0
1399.585693 164.0
1399.762329 172.0
1400.106934 220.0
1400.166504 256.0
1400.233521 156.0
1400.348755 196.0
1400.576172 136.0
1400.859131 168.0
1401.082642 52.0
1401.276367 72.0
1401.507324 184.0
1401.648926 188.0
1401.760742 172.0
1402.036377 96.0
1402.409058 264.0
1402.509521 228.0
1402.612671 164.0
1402.953247 72.0
1403.035278 164.0
1403.139648 108.0
1403.276367 236.0
1403.422974 168.0
1403.695923 172.0
1404.237793 160.0
1404.675781 128.0
1404.892212 156.0
1404.94519 156.0
1405.25769 116.0
1405.384521 176.0
1405.654907 188.0
1405.832275 144.0
1405.99646 172.0
1406.048706 168.0
1406.138306 60.0
1406.272583 116.0
1406.444214 152.0
1406.504028 196.0
1407.071289 132.0
1407.235596 144.0
1407.467285 128.0
1407.743286 144.0
1407.930054 220.0
1408.057007 128.0
1408.124878 132.0
1408.684448 204.0
1408.774048 112.0
1409.162476 120.0
1409.521118 164.0
1410.126465 140.0
1410.328247 96.0
1411.397339 112.0
1411.576782 156.0
1411.943237 176.0
1412.414429 164.0
1412.810913 120.0
1413.536621 148.0
1413.641357 64.0
1413.858398 184.0
1414.00061 40.0
1414.29248 132.0
1415.340576 140.0
1415.542847 140.0
1415.602661 280.0
1415.90979 64.0
1416.711182 148.0
1417.213135 176.0
1417.333008 156.0
1417.415527 92.0
1417.512939 332.0
1417.797607 156.0
1418.457275 136.0
1418.637085 116.0
1419.596802 156.0
1419.851807 176.0
1420.129272 72.0
1420.204346 176.0
1420.301758 164.0
1420.369385 112.0
1420.496826 164.0
1421.145386 136.0
1421.292114 192.0
1421.652344 184.0
1422.005005 200.0
1422.270874 196.0
1422.470337 176.0
1422.518677 168.0
1422.628052 124.0
1423.483887 168.0
1424.369385 156.0
1424.497925 144.0
1424.963623 124.0
1425.151245 160.0
1425.452026 232.0
1425.527222 240.0
1426.151001 112.0
1426.278687 32.0
1426.759888 96.0
1426.880127 188.0
1426.983521 180.0
1427.444092 64.0
1427.617065 128.0
1428.098389 128.0
1428.431396 204.0
1428.966675 168.0
1429.038696 256.0
1429.241821 160.0
1429.467529 240.0
1429.738525 196.0
1430.257812 148.0
1430.453491 164.0
1431.296753 172.0
1431.884033 92.0
1432.554443 200.0
1432.87085 184.0
1433.428467 116.0
1434.197144 180.0
1434.528809 88.0
1434.853027 200.0
1435.320435 180.0
1435.433594 192.0
1435.765381 116.0
1436.006714 140.0
1436.209839 132.0
1436.496948 244.0
1436.655396 88.0
1436.813843 168.0
1437.258911 108.0
1437.357056 60.0
1437.575928 76.0
1437.672729 188.0
1438.066406 108.0
1438.277832 184.0
1438.500977 324.0
1438.874146 160.0
1439.062134 196.0
1439.176147 144.0
1439.312012 168.0
1439.451416 176.0
1440.089722 204.0
1440.384521 80.0
1440.558228 156.0
1440.671509 160.0
1440.769775 188.0
1441.011475 128.0
1441.487549 176.0
1442.160156 164.0
1442.515381 188.0
1442.938721 160.0
1443.021973 200.0
1443.171631 208.0
1443.301636 208.0
1443.407593 220.0
1443.725098 108.0
1443.785645 136.0
1443.906616 168.0
1444.06543 132.0
1444.178955 128.0
1444.307495 88.0
1444.437256 136.0
1444.549561 232.0
1444.690918 164.0
1444.942993 132.0
1445.374268 128.0
1445.699585 116.0
1445.820679 148.0
1445.919067 196.0
1446.214233 88.0
1446.339355 136.0
1446.668457 188.0
1447.198364 152.0
1447.592163 188.0
1447.705688 40.0
1447.947998 184.0
1448.137451 216.0
1448.259399 212.0
1448.478271 96.0
1448.940308 152.0
1449.123779 168.0
1449.220703 136.0
1449.3302 132.0
1449.811768 152.0
1450.092163 128.0
1450.167969 172.0
1450.433228 88.0
1450.584839 112.0
1451.206421 44.0
1451.449097 208.0
1451.676636 104.0
1451.815186 224.0
1451.892456 164.0
1452.048218 140.0
1452.298462 232.0
1452.386963 144.0
1452.548828 212.0
1452.745972 220.0
1452.837036 108.0
1453.497192 140.0
1453.664062 48.0
1453.78833 184.0
1453.932983 64.0
1454.07959 164.0
1454.27124 152.0
1454.336548 184.0
1454.886108 60.0
1455.217529 140.0
1455.432739 120.0
1456.017456 140.0
1456.199707 152.0
1456.290894 128.0
1456.490967 184.0
1456.776978 160.0
1456.852905 152.0
1457.096069 148.0
1457.447876 184.0
1457.521484 172.0
1457.840698 136.0
1458.479126 176.0
1458.707153 124.0
1458.786377 196.0
1459.117676 176.0
1459.193726 156.0
1459.855225 128.0
1459.923584 172.0
1459.976929 220.0
1460.159424 184.0
1460.927612 128.0
1461.05481 216.0
1461.247192 132.0
1461.300415 124.0
1461.361328 124.0
1461.513428 212.0
1462.06897 44.0
1462.247559 288.0
1462.39624 180.0
1462.449463 196.0
1462.700684 104.0
1462.905273 132.0
1462.974731 192.0
1463.088867 124.0
1463.225952 148.0
1463.34021 132.0
1463.50769 172.0
1463.568604 232.0
1463.994995 172.0
1464.40625 56.0
1464.551025 148.0
1464.619507 52.0
1464.726196 48.0
1464.969971 172.0
1465.245728 172.0
1465.472778 152.0
1465.54126 232.0
1465.594604 128.0
1465.731812 44.0
1465.899414 164.0
1466.509155 132.0
1466.718628 192.0
1467.766113 176.0
1468.163574 164.0
1468.888062 76.0
1469.345825 160.0
1469.490845 180.0
1469.818848 176.0
1469.969849 132.0
1470.06311 160.0
1470.230957 220.0
1470.761597 216.0
1471.094604 136.0
1471.32251 136.0
1471.650757 180.0
1472.314209 164.0
1473.086548 184.0
1473.422607 36.0
1473.713013 216.0
1473.819946 152.0
1473.955078 128.0
1474.11792 200.0
1474.217285 256.0
1474.275635 216.0
1474.591797 124.0
1474.652954 128.0
1474.883301 148.0
1475.027466 140.0
1475.103882 180.0
1475.180298 148.0
1475.746094 144.0
1475.966187 188.0
1476.273682 128.0
1476.564331 112.0
1476.763184 188.0
1476.974121 116.0
1477.170532 164.0
1477.329224 32.0
1477.551025 168.0
1477.604614 152.0
1478.262573 104.0
1478.538086 144.0
1478.637573 144.0
1478.714111 140.0
1478.779907 160.0
1479.448975 132.0
1479.563843 136.0
1479.770508 100.0
1480.145752 116.0
1480.25293 28.0
1480.631348 220.0
1480.796631 156.0
1480.886597 144.0
1481.386475 212.0
1481.761841 164.0
1481.869019 140.0
1482.275146 120.0
1482.367065 204.0
1482.428467 112.0
1482.558716 216.0
1482.627686 200.0
1483.064575 160.0
1483.256104 52.0
1483.363525 116.0
1483.562744 152.0
1483.884766 208.0
1483.999756 152.0
1484.283447 156.0
1484.369507 92.0
1484.880127 208.0
1485.042725 76.0
1485.387817 128.0
1485.771362 188.0
1485.894165 188.0
1486.546387 188.0
1487.014526 184.0
1487.713013 104.0
1488.663696 176.0
1489.141235 128.0
1489.199341 272.0
1489.280029 156.0
1489.467651 136.0
1489.648193 172.0
1489.762817 164.0
1489.825439 180.0
1489.901733 56.0
1490.078369 144.0
1490.201294 132.0
1490.559204 208.0
1490.846802 156.0
1491.06958 72.0
1491.223389 240.0
1492.11499 160.0
1492.207275 176.0
1492.29187 204.0
1492.345703 148.0
1492.812866 200.0
1492.913818 168.0
1493.499268 112.0
1493.653076 108.0
1493.760742 132.0
1494.176147 160.0
1494.260742 144.0
1494.765869 220.0
1494.824341 184.0
1494.891724 148.0
1495.007202 144.0
1495.158325 244.0
1495.43042 120.0
1495.661377 116.0
1495.869141 224.0
1496.023193 172.0
1496.223633 184.0
1496.323364 112.0
1496.734009 192.0
1496.862427 216.0
1497.085693 204.0
1497.278198 168.0
1497.408936 136.0
1497.433472 132.0
1497.809692 168.0
1497.956055 136.0
1498.102417 176.0
1498.179443 220.0
1498.265991 164.0
1498.658569 184.0
1498.834351 88.0
1498.888184 148.0
1499.443115 148.0
1499.805298 184.0
1500.121338 160.0
1500.175293 112.0
1500.375732 212.0
1500.768921 128.0
1500.915527 128.0
1502.098022 220.0
1502.257446 64.0
1502.442627 128.0
1502.809326 272.0
1502.897827 132.0
1503.032593 244.0
1503.113892 124.0
1503.947388 232.0
1504.093994 240.0
1504.22522 148.0
1504.310181 140.0
1504.39502 164.0
1504.510864 216.0
1505.019165 184.0
1505.134155 184.0
1505.298706 208.0
