>compound MLS002207277-01!3-hydroxy-2-phenylchromen-4-one
>formula C15H10O3
>ionization [M+H]+
>parentmass 239.068741
#inchi InChI=1S/C15H10O3/c16-13-11-8-4-5-9-12(11)18-15(14(13)17)10-6-2-1-3-7-10/h1-9,17H
#inchikey HVQAJTFOCKOKIN
#Ion_Source LC-ESI
#Instrument qTof
#Compound_Source NIH Natural Product Library
#PI Dorrestein
#Data_Collector VVP/LMS
#Scan -1
#Precursor_MZ 239.071
#ExactMass 238.063
#Charge 1
#CAS_Number N/A
#Pubmed_ID N/A
#Smiles Oc1c(oc2ccccc2c1=O)c3ccccc3
#INCHI_AUX N/A
#Library_Class 1
#SpectrumID CCMSLIB00000079401
#IonMode Positive
#UpdateWorkflowName UPDATE-SINGLE-ANNOTATED-GOLD
#LibraryQualityString Gold
#TaskID b1d8e8f6646f4e71acdff9ca3d919d08
##Scan# 2322
#SpectrumFile p1-G05_GG5_01_17949.mzXML
#LibraryName NIH_Natural_Products_Library.mgf
#MQScore -1
#Organism NIH_Natural_Products_Library
#TIC_Query 0
#RT_Query -1
#MZErrorPPM -1
#SharedPeaks 0
#MassDiff 0
#LibMZ -1
#SpecMZ 239.071
#SpecCharge 0
#internalFilename spec-00000.mgf

>collision 10
95.49588 116.0
95.546455 208.0
95.600937 100.0
95.643753 232.0
95.951546 160.0
96.685997 184.0
96.971939 120.0
97.42128 240.0
97.466469 120.0
97.604065 172.0
97.97802 156.0
98.370461 132.0
98.641083 124.0
99.076447 44.0
99.116074 148.0
99.316307 64.0
99.459167 228.0
99.612061 100.0
101.371811 160.0
101.407883 236.0
101.504112 152.0
101.566284 220.0
101.626465 140.0
102.108574 56.0
102.219223 176.0
102.283623 144.0
102.354088 124.0
102.906555 120.0
103.159088 228.0
103.231873 176.0
104.233269 168.0
104.310493 56.0
104.338959 152.0
104.406059 180.0
104.536255 124.0
104.845146 176.0
104.921211 116.0
104.980339 340.0
105.032646 3732.0
105.100693 136.0
105.119057 144.0
105.168037 56.0
105.184364 72.0
105.259903 64.0
105.298706 52.0
105.353859 88.0
105.392677 52.0
105.527573 184.0
105.67688 156.0
105.730087 188.0
105.816055 204.0
105.902061 92.0
106.008598 152.0
106.036346 452.0
106.568771 128.0
106.719009 212.0
106.788734 108.0
108.055313 100.0
108.297516 144.0
108.35936 168.0
109.029282 192.0
109.102638 184.0
109.291908 132.0
109.312714 160.0
109.350174 116.0
109.450096 208.0
109.477165 184.0
109.838699 156.0
110.113243 160.0
110.236504 180.0
110.746979 144.0
111.216644 148.0
111.258629 132.0
111.397232 220.0
111.432945 200.0
111.523308 128.0
111.559044 148.0
111.883011 208.0
112.745712 128.0
113.03331 48.0
113.077751 196.0
113.456917 148.0
113.494614 236.0
114.1661 124.0
114.517258 160.0
114.621643 104.0
114.913757 152.0
115.024727 168.0
115.052322 1000.0
115.127213 36.0
115.159248 208.0
115.191292 232.0
115.477707 220.0
115.732368 156.0
115.972298 116.0
116.05162 172.0
116.221062 148.0
116.650589 188.0
116.835533 164.0
117.032478 320.0
117.132607 164.0
118.041389 408.0
118.214279 100.0
119.047806 572.0
119.07711 152.0
119.192245 196.0
119.307442 160.0
119.385719 208.0
119.485771 184.0
120.484268 176.0
120.694092 156.0
120.720329 128.0
120.825317 128.0
120.971329 184.0
120.996025 180.0
121.028397 9576.0
121.171234 60.0
121.199715 100.0
121.265457 124.0
121.29834 60.0
121.546165 116.0
121.568108 84.0
121.640533 56.0
121.718254 180.0
122.029701 680.0
122.244942 100.0
122.339859 160.0
122.718521 136.0
123.195229 56.0
123.369812 40.0
123.422874 168.0
123.677284 172.0
123.799049 220.0
125.1959 120.0
125.402229 216.0
125.724243 220.0
125.96315 72.0
126.047028 148.0
126.28949 200.0
126.378975 176.0
126.412537 176.0
126.881432 152.0
127.054108 168.0
127.765511 156.0
128.062164 388.0
128.486435 164.0
129.070923 764.0
129.143784 208.0
129.62146 164.0
129.714386 176.0
129.798279 148.0
130.072784 92.0
130.299881 168.0
130.374863 180.0
130.980072 208.0
131.085617 268.0
131.5159 188.0
131.593521 124.0
131.863068 236.0
131.911072 208.0
132.004807 152.0
132.270203 156.0
132.634415 228.0
132.659622 144.0
133.02771 3580.0
133.087402 44.0
133.113907 40.0
133.838226 220.0
134.030716 420.0
134.066284 160.0
134.199982 216.0
134.622238 116.0
134.885635 64.0
135.026672 148.0
135.867508 164.0
136.315628 208.0
136.738876 188.0
137.8396 52.0
138.850906 200.0
139.053345 1176.0
139.077072 152.0
139.372055 168.0
139.529526 64.0
139.816498 188.0
139.865921 88.0
139.924774 108.0
140.05809 300.0
140.087265 72.0
140.72403 160.0
140.813766 120.0
140.844467 136.0
140.884628 168.0
141.063644 412.0
141.312546 168.0
141.468735 164.0
141.667664 172.0
141.925995 76.0
142.070663 280.0
142.198807 188.0
142.231689 140.0
142.828445 172.0
142.856979 152.0
144.350037 196.0
144.94368 120.0
145.031708 204.0
145.226562 144.0
145.564957 208.0
145.829224 156.0
146.069672 144.0
146.565613 168.0
147.037079 208.0
147.069641 56.0
147.103439 164.0
147.560028 140.0
147.768021 140.0
148.211105 144.0
148.332291 208.0
148.875763 196.0
149.23053 108.0
149.97789 152.0
150.041687 188.0
151.039093 216.0
151.135468 32.0
151.277405 120.0
151.3582 120.0
151.88266 192.0
151.946442 80.0
152.060867 1568.0
152.105682 184.0
152.295029 140.0
152.412949 64.0
152.727615 156.0
152.760284 200.0
152.993378 100.0
153.068649 1800.0
153.1362 124.0
153.237198 116.0
153.274155 52.0
153.389984 36.0
153.4245 148.0
153.673599 188.0
154.076767 540.0
154.946869 136.0
155.057281 260.0
155.084183 1504.0
155.152573 56.0
155.368332 48.0
155.695984 140.0
155.820175 232.0
156.079254 152.0
156.175659 104.0
156.336746 128.0
156.680603 160.0
156.79361 140.0
156.880356 136.0
157.032455 176.0
157.137222 120.0
157.192123 48.0
157.301941 184.0
157.459244 116.0
158.096741 256.0
158.221893 248.0
158.590118 184.0
158.744308 128.0
159.189728 228.0
159.238724 172.0
159.835754 176.0
160.084961 140.0
161.526093 136.0
161.804474 168.0
161.882965 152.0
161.905746 180.0
162.033615 136.0
162.331497 144.0
162.501434 132.0
162.529343 164.0
162.59787 236.0
163.051392 376.0
163.645172 136.0
163.782684 164.0
164.027496 152.0
164.062546 1088.0
164.414978 112.0
164.688171 76.0
164.772461 208.0
164.867004 216.0
164.938568 272.0
164.992249 48.0
165.015961 176.0
165.069305 15152.0
165.112427 60.0
165.138016 36.0
165.157104 60.0
165.219864 72.0
165.340134 76.0
165.368286 76.0
165.393875 60.0
165.439957 76.0
165.621765 84.0
165.683243 40.0
165.744736 228.0
165.824173 80.0
166.073532 2964.0
166.117615 72.0
166.124893 100.0
166.196014 32.0
166.249893 60.0
166.380798 40.0
166.532303 104.0
166.72757 72.0
166.920364 80.0
167.079666 284.0
167.210083 136.0
167.278214 104.0
167.424744 52.0
167.599915 116.0
167.780594 88.0
167.883469 108.0
168.056015 792.0
168.095001 52.0
168.291168 152.0
169.061707 164.0
169.390289 88.0
171.382935 116.0
172.795456 132.0
173.35318 252.0
173.746475 136.0
174.789551 40.0
175.068588 80.0
176.0625 484.0
176.099777 108.0
176.551712 56.0
176.633698 36.0
176.850677 44.0
177.067032 348.0
177.216125 164.0
178.072144 236.0
178.665726 136.0
179.049484 208.0
179.17688 64.0
179.302109 212.0
179.811508 68.0
180.883316 184.0
181.062469 2092.0
181.311859 112.0
181.472702 204.0
181.767746 204.0
182.067734 476.0
182.961105 172.0
183.025726 124.0
183.081573 904.0
183.211563 44.0
183.373245 172.0
183.543076 168.0
183.566147 108.0
183.588913 196.0
183.626678 44.0
184.084167 52.0
185.085968 96.0
185.215958 128.0
185.459824 84.0
185.782501 168.0
186.716888 168.0
187.811783 160.0
187.907257 104.0
189.000168 80.0
189.161636 172.0
190.255432 108.0
191.473541 124.0
191.506592 212.0
192.005447 156.0
192.058487 220.0
192.361374 136.0
192.629227 240.0
192.90004 136.0
193.063828 1444.0
193.110184 208.0
194.070374 380.0
194.792679 204.0
195.070557 140.0
195.117813 152.0
195.718796 36.0
196.049957 592.0
196.488052 40.0
196.775513 64.0
197.046417 168.0
197.102295 144.0
197.33989 68.0
198.185165 248.0
198.305664 128.0
198.38414 100.0
198.417786 128.0
198.768387 148.0
200.729004 220.0
201.166321 144.0
201.445877 56.0
201.785004 120.0
202.80127 116.0
204.955399 204.0
205.080795 196.0
207.510651 116.0
208.050018 152.0
208.84024 224.0
209.021484 156.0
209.058197 184.0
209.079041 192.0
209.701126 100.0
209.868317 164.0
210.064484 424.0
210.318359 144.0
210.713989 68.0
211.071259 340.0
212.126236 156.0
213.049057 184.0
215.087463 128.0
215.215912 72.0
215.621964 156.0
215.905548 212.0
217.581604 160.0
218.451477 120.0
220.049637 176.0
220.926529 224.0
221.057388 1696.0
221.429718 108.0
221.758591 28.0
222.062149 136.0
222.574402 76.0
223.028946 132.0
223.486923 168.0
223.757767 136.0
223.938416 60.0
224.055588 180.0
225.057709 196.0
225.084579 140.0
225.135345 192.0
227.67189 140.0
227.972305 168.0
228.065475 152.0
228.660995 224.0
228.901352 200.0
229.091568 148.0
229.953949 112.0
230.077713 148.0
231.165817 208.0
233.976471 204.0
234.156128 200.0
234.314514 32.0
235.999283 56.0
236.500977 164.0
237.052612 440.0
237.45079 144.0
237.779968 136.0
237.87114 120.0
237.911057 232.0
238.056702 264.0
238.113708 84.0
238.134842 152.0
238.159775 148.0
238.21814 116.0
238.359467 116.0
238.387131 40.0
238.435501 140.0
238.508881 160.0
238.653397 160.0
238.805237 40.0
238.958969 180.0
238.992889 160.0
239.068741 18572.0
239.159073 60.0
239.18158 64.0
239.258194 64.0
239.285278 128.0
239.324203 56.0
239.396133 176.0
239.417694 44.0
239.5224 80.0
239.545242 40.0
239.583923 64.0
239.676437 32.0
239.698013 36.0
239.722672 52.0
239.877258 168.0
239.910675 136.0
239.9785 108.0
240.029083 168.0
240.072144 3512.0
240.130844 40.0
240.172791 92.0
240.203629 64.0
240.420792 104.0
240.45047 164.0
240.490601 60.0
240.635681 44.0
240.688171 68.0
240.7314 128.0
240.84259 88.0
241.034134 68.0
241.077423 188.0
241.216476 88.0
241.306122 128.0
241.371063 112.0
241.422195 60.0
241.454559 116.0
241.557388 112.0
241.711319 124.0
241.845627 140.0
241.918686 88.0
241.965118 76.0
242.064194 72.0
242.209763 76.0
242.40184 32.0
242.460724 32.0
242.487152 76.0
242.550613 196.0
242.6064 100.0
243.037506 136.0
244.454453 128.0
245.14888 48.0
245.616547 56.0
245.919205 116.0
249.329895 56.0
250.415314 136.0
251.660934 80.0
252.235901 52.0
253.327621 140.0
254.885406 156.0
257.226257 108.0
262.626617 108.0
263.00412 52.0
263.814911 48.0
269.469849 60.0
275.828949 72.0
276.308441 80.0
276.72879 56.0
277.858948 48.0
295.040009 108.0
304.478088 76.0
319.669586 40.0
324.104553 76.0
331.024261 144.0
335.165283 80.0
346.10791 68.0
365.584351 100.0
371.134674 48.0
373.981323 80.0
412.482544 80.0
422.191864 80.0
450.56427 76.0
458.759125 104.0
482.863556 156.0
511.484802 76.0
559.844727 104.0
628.164368 68.0
648.717102 64.0
712.801392 48.0
728.864075 108.0
729.58429 76.0
776.394836 124.0
786.465088 172.0
835.256836 48.0
867.609314 84.0
882.191467 196.0
897.205078 104.0
922.207031 72.0
941.179443 256.0
955.952393 48.0
962.863159 204.0
970.716309 176.0
982.440491 184.0
987.962952 104.0
997.117676 168.0
1006.137817 108.0
1010.296204 144.0
1015.61084 136.0
1021.009399 124.0
1029.351196 248.0
1037.86792 188.0
1049.589844 48.0
1052.493408 172.0
1059.167603 264.0
1069.35498 160.0
1069.608887 152.0
1073.537598 160.0
1085.511108 136.0
1085.955811 172.0
1091.493164 56.0
1094.144653 176.0
1108.967896 156.0
1116.549927 284.0
1117.095337 132.0
1124.071045 140.0
1129.415771 136.0
1141.050537 172.0
1165.694702 144.0
1177.767212 136.0
1188.124268 100.0
1188.906494 208.0
1190.904419 88.0
1196.242798 200.0
1197.527832 172.0
1198.802368 172.0
1202.098633 124.0
1203.064941 244.0
1203.285889 132.0
1206.546753 176.0
1212.444214 208.0
1220.27417 192.0
1229.34314 176.0
1236.163574 156.0
1241.536621 132.0
1241.592773 200.0
1243.3396 180.0
1249.832642 232.0
1251.212158 180.0
1260.649658 92.0
1268.371216 144.0
1271.782959 104.0
1273.018311 152.0
1279.574097 236.0
1283.35022 140.0
1283.64978 52.0
1283.728149 196.0
1286.789185 200.0
1287.189087 184.0
1290.540283 168.0
1303.126099 144.0
1306.15271 168.0
1314.964722 140.0
1323.733887 108.0
1327.095947 148.0
1331.747681 236.0
1332.96814 180.0
1333.694946 68.0
1334.792603 44.0
1335.301758 144.0
1336.730103 232.0
1337.65918 120.0
1339.55249 136.0
1343.175293 204.0
1344.203979 288.0
1348.622437 100.0
1351.481812 60.0
1360.092773 212.0
1360.312988 160.0
1372.968262 188.0
1373.565674 152.0
1383.379028 136.0
1396.230225 168.0
1398.320801 212.0
1400.740601 160.0
1401.589966 180.0
1405.922485 108.0
1408.162231 148.0
1409.125854 176.0
1409.970215 136.0
1410.635376 116.0
1414.330566 132.0
1415.401123 144.0
1416.127563 104.0
1418.735229 148.0
1418.862671 128.0
1420.797607 160.0
1421.352783 228.0
1422.538574 176.0
1423.747437 184.0
1425.001831 172.0
1425.971313 156.0
1426.896851 160.0
1429.9198 156.0
1431.651367 72.0
1432.366821 152.0
1433.677856 116.0
1436.859741 200.0
1438.119995 240.0
1439.48645 148.0
1442.115479 56.0
1443.77124 180.0
1443.922485 124.0
1447.570068 128.0
1450.790283 92.0
1452.132324 112.0
1457.659058 232.0
1459.817871 88.0
1460.723022 256.0
1461.575073 192.0
1463.325684 188.0
1466.296509 180.0
1468.96521 164.0
1469.842529 132.0
1472.499146 156.0
1473.171387 172.0
1477.24585 36.0
1477.498291 56.0
1478.355225 60.0
1480.942993 132.0
1482.26062 108.0
1482.950317 204.0
1483.831909 172.0
1487.759888 212.0
1489.042236 120.0
1489.664307 188.0
1491.869873 120.0
1492.03894 112.0
1495.608276 152.0
1498.426758 220.0
1502.759766 184.0
