>compound MLS001076112-01!73590-58-6
>formula C17H19N3O3S
>ionization [M+H]+
>parentmass 346.12198892009053
#inchi InChI=1S/C17H19N3O3S/c1-10-8-18-15(11(2)16(10)23-4)9-24(21)17-19-13-6-5-12(22-3)7-14(13)20-17/h5-8H,9H2,1-4H3,(H,19,20)
#inchikey SUBDBMMJDZJVOS
#Ion_Source LC-ESI
#Instrument qTof
#Compound_Source NIH Pharmacologically Active Library
#PI Dorrestein
#Data_Collector VP/LMS
#Scan -1
#Precursor_MZ 346.129
#ExactMass 345.115
#Charge 1
#CAS_Number N/A
#Pubmed_ID N/A
#Smiles COc1ccc2[nH]c(nc2c1)S(=O)Cc3ncc(C)c(OC)c3C
#INCHI_AUX N/A
#Library_Class 1
#SpectrumID CCMSLIB00000086070
#IonMode Positive
#UpdateWorkflowName UPDATE-SINGLE-ANNOTATED-GOLD
#LibraryQualityString Gold
#TaskID d252d724072548979f1f6f1ced849daf
##Scan# 1403
#SpectrumFile p5-D03_GD3_01_18454.mzXML
#LibraryName Pharm_Active_Library.mgf
#MQScore -1
#Organism Pharm_Active_Library
#TIC_Query 0
#RT_Query -1
#MZErrorPPM -1
#SharedPeaks 0
#MassDiff 0
#LibMZ -1
#SpecMZ 346.129
#SpecCharge 0
#internalFilename spec-00000.mgf

>collision 10
44.892632 84.0
44.940651 276.0
45.019405 136.0
45.173107 212.0
45.194511 192.0
45.310989 332.0
45.341808 140.0
45.411526 100.0
45.455795 164.0
45.492035 152.0
45.609577 172.0
45.633095 140.0
45.764946 132.0
45.791878 200.0
45.802654 212.0
45.834988 156.0
45.863491 212.0
45.891598 172.0
45.994122 200.0
46.061638 132.0
46.10487 132.0
46.199516 140.0
46.210339 216.0
46.223869 176.0
46.260414 148.0
46.317284 248.0
46.371483 168.0
46.421642 100.0
46.558701 116.0
46.575001 148.0
46.592659 216.0
46.604885 184.0
46.615757 244.0
46.65517 224.0
46.674206 120.0
46.777603 172.0
46.814362 196.0
46.864761 160.0
46.877026 184.0
47.078918 156.0
47.236092 176.0
47.270294 184.0
47.342846 176.0
47.357983 236.0
47.37709 48.0
47.411343 68.0
47.425049 132.0
47.486744 152.0
47.577309 208.0
47.6446 176.0
47.698193 180.0
47.889576 172.0
47.933529 168.0
47.988232 128.0
48.03693 236.0
48.122494 156.0
48.16116 136.0
48.202606 260.0
48.213661 152.0
48.226101 76.0
48.311829 140.0
48.387474 200.0
48.422562 156.0
48.441956 172.0
48.590286 140.0
48.604626 156.0
48.629139 176.0
48.64996 252.0
48.71106 160.0
48.73468 204.0
48.759689 192.0
48.816689 188.0
48.833378 160.0
48.844505 148.0
48.962807 168.0
49.001812 184.0
49.033859 140.0
49.078468 164.0
49.106358 204.0
49.125053 188.0
49.137043 188.0
49.181698 196.0
49.218674 140.0
49.248718 168.0
49.282246 88.0
49.391289 156.0
49.476646 132.0
49.502602 156.0
49.581699 60.0
49.658298 176.0
49.718719 176.0
49.75703 100.0
49.793541 192.0
49.804775 164.0
49.824444 92.0
49.93549 144.0
49.963619 76.0
49.981911 140.0
49.992661 188.0
50.074821 160.0
50.13258 96.0
50.16077 172.0
50.227043 172.0
50.280655 180.0
50.313122 152.0
50.390797 136.0
50.410576 248.0
50.502468 128.0
50.529346 204.0
50.574631 216.0
50.638344 196.0
50.733276 104.0
50.777233 120.0
50.875137 120.0
51.035679 224.0
51.064117 140.0
51.089722 196.0
51.128139 176.0
51.1381 148.0
51.158028 172.0
51.183655 128.0
51.253448 68.0
51.283379 36.0
51.310459 148.0
51.368931 224.0
51.497391 112.0
51.535961 176.0
51.58741 200.0
51.643177 120.0
51.664631 244.0
51.674644 228.0
51.931061 76.0
52.063095 260.0
52.074585 160.0
52.090382 204.0
52.141346 324.0
52.228374 144.0
52.270092 168.0
52.306072 132.0
52.341785 164.0
52.366547 136.0
52.398235 192.0
52.55106 140.0
52.621349 120.0
52.64777 168.0
52.680992 180.0
52.691105 76.0
52.747086 184.0
52.772038 192.0
52.813976 176.0
52.887768 136.0
52.899345 36.0
52.942444 240.0
52.963058 172.0
53.058697 124.0
53.113804 136.0
53.232811 224.0
53.273476 128.0
53.303986 144.0
53.415932 348.0
53.527996 156.0
53.686832 236.0
53.698502 124.0
53.839348 180.0
53.870735 124.0
53.880962 176.0
53.992912 156.0
54.049099 208.0
54.179401 108.0
54.194054 220.0
54.223362 188.0
54.240948 164.0
54.265869 288.0
54.281998 196.0
54.333332 172.0
54.358276 132.0
54.45076 60.0
54.483074 132.0
54.556553 112.0
54.581547 132.0
54.603603 192.0
54.708073 56.0
54.721325 136.0
54.733101 124.0
54.746357 188.0
54.878811 148.0
54.952717 212.0
54.979275 196.0
55.196423 176.0
55.212688 180.0
55.269703 156.0
55.334023 168.0
55.436226 160.0
55.496998 184.0
55.577091 176.0
55.605286 48.0
55.67506 204.0
55.715164 124.0
55.733356 196.0
55.807308 144.0
55.834076 132.0
55.853409 168.0
55.884651 128.0
55.960556 132.0
56.030556 188.0
56.093143 88.0
56.105068 124.0
56.440994 112.0
56.497826 188.0
56.545708 160.0
56.589119 236.0
56.606827 252.0
56.610916 208.0
56.628551 136.0
56.800419 116.0
56.881447 124.0
56.955025 144.0
56.970043 204.0
57.025642 184.0
57.109837 200.0
57.1786 176.0
57.197105 140.0
57.322105 176.0
57.351326 216.0
57.54232 120.0
57.580894 176.0
57.611984 184.0
57.837097 144.0
57.887058 108.0
57.962795 172.0
58.018593 216.0
58.078011 164.0
58.150837 216.0
58.162979 144.0
58.181667 180.0
58.216118 144.0
58.305748 100.0
58.345268 160.0
58.3848 196.0
58.488258 180.0
58.513165 188.0
58.530884 188.0
58.552204 136.0
58.57048 152.0
58.600948 88.0
58.635998 148.0
58.674103 184.0
58.745247 184.0
58.780869 236.0
58.864822 164.0
58.875511 152.0
58.895367 120.0
58.953423 248.0
58.990105 144.0
59.00375 132.0
59.237999 104.0
59.276302 148.0
59.336079 256.0
59.403553 160.0
59.463394 172.0
59.590847 148.0
59.624653 180.0
59.65078 168.0
59.669228 132.0
59.699978 168.0
59.838459 124.0
59.849239 32.0
59.875416 176.0
59.894154 160.0
60.050606 196.0
60.072704 160.0
60.091629 180.0
60.132881 196.0
60.205441 84.0
60.216251 120.0
60.254868 176.0
60.370792 212.0
60.462067 180.0
60.513058 140.0
60.547176 164.0
60.596779 96.0
60.672718 80.0
60.73785 96.0
60.759567 164.0
60.776634 124.0
60.824741 144.0
60.840263 172.0
60.874424 44.0
60.903931 144.0
60.933445 128.0
60.956753 128.0
60.992496 120.0
61.054688 164.0
61.172935 176.0
61.280388 128.0
61.320904 216.0
61.334934 184.0
61.347404 140.0
61.387939 64.0
61.408215 160.0
61.447212 148.0
61.515877 80.0
61.562767 120.0
61.634571 84.0
61.709595 144.0
61.720539 148.0
61.733047 172.0
61.745556 96.0
61.84256 156.0
61.875431 184.0
61.944336 152.0
61.975666 160.0
62.162262 608.0
62.199928 60.0
62.26273 76.0
62.273724 144.0
62.45919 128.0
62.489079 216.0
62.722145 72.0
62.764881 148.0
62.807293 120.0
62.890915 172.0
63.006187 164.0
63.085205 52.0
63.246548 112.0
63.257629 132.0
63.286461 208.0
63.335217 124.0
63.412853 176.0
63.447723 156.0
63.498814 200.0
63.555573 112.0
63.582153 224.0
63.585423 168.0
63.59164 192.0
63.61747 120.0
63.668468 132.0
63.698925 216.0
63.731815 112.0
63.824619 176.0
63.944901 172.0
64.006989 88.0
64.144051 120.0
64.185448 112.0
64.225319 128.0
64.25882 136.0
64.274773 144.0
64.356178 204.0
64.38073 200.0
64.491959 160.0
64.535126 176.0
64.605492 128.0
64.640694 200.0
64.663094 88.0
64.857887 180.0
64.880936 180.0
64.895363 212.0
65.028305 160.0
65.062218 144.0
65.113602 88.0
65.165581 188.0
65.197136 152.0
65.2743 176.0
65.293724 152.0
65.319328 36.0
65.337029 184.0
65.391739 192.0
65.441818 176.0
65.684982 192.0
65.83992 180.0
65.898071 128.0
65.920692 204.0
66.059738 172.0
66.235313 240.0
66.479538 152.0
66.539421 40.0
66.651604 112.0
66.729507 132.0
66.752274 240.0
66.810822 172.0
66.841736 356.0
66.910095 152.0
66.967087 192.0
67.01107 248.0
67.022476 64.0
67.141472 176.0
67.177353 184.0
67.226303 188.0
67.313843 312.0
67.366714 160.0
67.428802 116.0
67.613609 124.0
67.64798 236.0
67.800301 52.0
67.857674 124.0
67.869148 108.0
67.908508 84.0
68.016792 176.0
68.038132 260.0
68.049629 132.0
68.069328 148.0
68.090912 172.0
68.105461 240.0
68.158577 168.0
68.205643 144.0
68.255013 216.0
68.289543 228.0
68.326485 176.0
68.375092 136.0
68.432709 228.0
68.502533 220.0
68.515053 208.0
68.531532 136.0
68.63372 192.0
68.698036 204.0
68.711235 220.0
68.727737 156.0
68.792099 184.0
68.83007 192.0
68.909355 92.0
69.120987 172.0
69.14328 132.0
69.221962 236.0
69.263367 180.0
69.382675 168.0
69.475548 160.0
69.528641 196.0
69.58342 152.0
69.744911 204.0
69.759514 72.0
69.779465 152.0
69.806068 112.0
69.862617 132.0
69.937492 200.0
69.964127 144.0
70.012413 152.0
70.039062 144.0
70.082375 268.0
70.18071 84.0
70.274109 128.0
70.300812 208.0
70.377594 144.0
70.456093 164.0
70.496193 140.0
70.563049 140.0
70.589798 84.0
70.745399 180.0
70.790604 148.0
70.829124 160.0
71.070534 228.0
71.11248 92.0
71.1343 144.0
71.253532 196.0
71.31739 184.0
71.426682 52.0
71.499031 120.0
71.52494 164.0
71.601723 176.0
71.653938 164.0
71.719658 44.0
71.756744 168.0
71.839378 168.0
71.936737 184.0
71.955826 56.0
71.984528 192.0
72.030128 212.0
72.101089 120.0
72.139961 104.0
72.236389 172.0
72.310799 40.0
72.380203 104.0
72.461502 160.0
72.481834 60.0
72.515732 204.0
72.532677 184.0
72.561501 156.0
72.615761 120.0
72.714157 152.0
73.000816 168.0
73.150986 140.0
73.254852 228.0
73.334938 156.0
73.358803 164.0
73.43383 136.0
73.542664 192.0
73.560463 184.0
73.578865 244.0
73.631798 116.0
73.721138 152.0
73.758232 144.0
73.773621 192.0
73.802681 132.0
73.903595 208.0
73.942955 184.0
73.985748 188.0
74.061089 112.0
74.273628 84.0
74.319946 192.0
74.398895 184.0
74.417778 192.0
74.438385 116.0
74.472733 156.0
74.687576 136.0
74.730583 236.0
74.74263 180.0
74.789093 292.0
74.835579 80.0
74.871735 176.0
74.90963 164.0
74.976822 148.0
75.085434 136.0
75.144081 140.0
75.340889 232.0
75.513748 64.0
75.556992 140.0
75.582939 156.0
75.612358 188.0
75.679871 148.0
75.693718 144.0
75.865242 168.0
75.89325 208.0
75.932869 48.0
75.994171 164.0
76.019608 204.0
76.040436 160.0
76.092506 172.0
76.316635 120.0
76.332283 160.0
76.363586 40.0
76.382446 180.0
76.445351 128.0
76.556763 124.0
76.589714 100.0
76.647339 128.0
76.761612 176.0
76.790619 212.0
76.840874 220.0
76.894966 140.0
76.914764 228.0
76.959557 180.0
77.0364 36.0
77.111969 160.0
77.188446 212.0
77.210335 248.0
77.302147 176.0
77.352905 88.0
77.426437 260.0
77.464973 68.0
77.477234 228.0
77.489502 248.0
77.558701 180.0
77.583244 136.0
77.615692 252.0
77.636734 72.0
77.668304 172.0
77.798157 164.0
77.912308 340.0
77.940414 136.0
77.984352 140.0
78.00544 88.0
78.028297 56.0
78.075768 168.0
78.147888 152.0
78.172523 196.0
78.222412 128.0
78.237648 64.0
78.260536 156.0
78.281662 172.0
78.438461 204.0
78.456093 160.0
78.482536 160.0
78.494881 156.0
78.533676 160.0
78.662483 188.0
78.680183 148.0
78.734871 124.0
78.783188 148.0
78.836548 72.0
78.886826 164.0
78.949059 140.0
78.980545 360.0
79.107941 196.0
79.140839 172.0
79.155746 132.0
79.238945 176.0
79.276199 84.0
79.455284 344.0
79.488655 188.0
79.591942 212.0
79.766052 164.0
79.806938 224.0
79.869179 184.0
79.943901 200.0
79.975937 168.0
80.057831 136.0
80.136208 108.0
80.230659 120.0
80.273453 140.0
80.339447 176.0
80.366203 116.0
80.429008 252.0
80.480942 212.0
80.514366 152.0
80.555443 40.0
80.607254 120.0
80.635849 160.0
80.716293 176.0
80.803932 148.0
80.877304 176.0
80.96682 148.0
81.004433 136.0
81.099396 156.0
81.122704 72.0
81.167526 208.0
81.185455 132.0
81.251198 220.0
81.366676 164.0
81.436707 112.0
81.467247 124.0
81.576859 108.0
81.602028 80.0
81.630798 192.0
81.686554 208.0
81.742363 200.0
81.756721 160.0
81.772919 104.0
81.787315 196.0
81.807121 224.0
81.832321 128.0
81.877335 188.0
81.897148 172.0
82.101761 68.0
82.129662 68.0
82.158043 180.0
82.173752 236.0
82.190994 196.0
82.340828 52.0
82.470909 204.0
82.526947 312.0
82.563118 212.0
82.602356 172.0
82.657181 128.0
82.722336 188.0
82.750984 160.0
82.774841 128.0
82.794754 44.0
82.92701 136.0
82.956009 156.0
82.997711 236.0
83.069046 156.0
83.128311 28.0
83.177315 204.0
83.226334 160.0
83.239044 156.0
83.34214 168.0
83.478905 188.0
83.535286 140.0
83.576324 172.0
83.66449 232.0
83.720932 152.0
83.806541 184.0
83.875793 152.0
83.904961 184.0
83.956017 144.0
83.999786 180.0
84.18441 152.0
84.202385 124.0
84.275452 180.0
84.372314 144.0
84.425339 128.0
84.480209 124.0
84.505821 120.0
84.560722 224.0
84.604652 224.0
84.676064 92.0
84.725517 160.0
84.774055 208.0
84.804314 132.0
84.947327 212.0
85.072113 216.0
85.152901 112.0
85.200661 36.0
85.226379 176.0
85.253944 144.0
85.316437 60.0
85.377113 176.0
85.408379 172.0
85.428612 124.0
85.476448 164.0
85.55191 172.0
85.593445 180.0
85.612671 176.0
85.669762 164.0
85.682663 256.0
85.708458 192.0
85.820885 76.0
85.885429 160.0
85.942619 132.0
86.013641 148.0
86.058121 104.0
86.108757 184.0
86.153091 136.0
86.166023 96.0
86.317581 104.0
86.389709 172.0
86.469269 208.0
86.495186 128.0
86.528503 204.0
86.621101 44.0
86.737839 176.0
86.764801 212.0
86.893875 196.0
87.077377 108.0
87.097809 236.0
87.17955 164.0
87.272491 124.0
87.285507 160.0
87.389671 136.0
87.415718 84.0
87.501335 184.0
87.702522 176.0
87.784546 212.0
87.814384 240.0
87.8405 144.0
87.93071 172.0
87.971123 200.0
88.049667 180.0
88.073822 172.0
88.122391 148.0
88.167236 172.0
88.232658 152.0
88.326157 204.0
88.371056 176.0
88.434677 148.0
88.548889 104.0
88.627563 120.0
88.642555 136.0
88.678162 184.0
88.708153 180.0
88.801903 208.0
88.83004 144.0
88.968903 128.0
89.00457 188.0
89.022217 192.0
89.046646 188.0
89.07782 72.0
89.11351 172.0
89.130424 232.0
89.211235 224.0
89.265762 212.0
89.305252 144.0
89.372978 148.0
89.529213 236.0
89.595139 164.0
89.640358 164.0
89.668625 160.0
89.698776 176.0
89.853416 160.0
89.923233 144.0
89.976082 156.0
90.078056 148.0
90.248146 112.0
90.276505 60.0
90.302986 176.0
90.437317 248.0
90.477066 164.0
90.496002 132.0
90.518723 168.0
90.542107 160.0
90.571747 224.0
90.600159 156.0
90.624794 104.0
90.638054 196.0
90.670265 176.0
90.774529 152.0
90.804871 152.0
90.836227 148.0
90.920601 132.0
90.933884 156.0
90.985138 176.0
91.032967 188.0
91.05442 288.0
91.093376 208.0
91.150375 224.0
91.194084 128.0
91.230202 104.0
91.26062 160.0
91.330978 136.0
91.5289 244.0
91.650803 176.0
91.776596 220.0
91.822365 124.0
91.850975 224.0
92.005547 120.0
92.030365 204.0
92.05806 184.0
92.120125 136.0
92.160919 216.0
92.248154 124.0
92.267273 96.0
92.291794 164.0
92.320808 116.0
92.366707 152.0
92.529366 204.0
92.55809 144.0
92.582977 240.0
92.632774 192.0
92.650017 148.0
92.741997 212.0
92.811012 160.0
92.947197 168.0
92.972137 100.0
93.067169 224.0
93.150696 212.0
93.173752 40.0
93.204491 168.0
93.32943 184.0
93.439056 76.0
93.521797 200.0
93.609886 164.0
93.731712 84.0
93.773582 176.0
93.818443 140.0
93.930283 140.0
94.024826 116.0
94.06562 192.0
94.088524 212.0
94.105896 172.0
94.161896 104.0
94.200531 132.0
94.289406 148.0
94.326721 208.0
94.36673 176.0
94.381927 172.0
94.444077 192.0
94.487732 232.0
94.504044 104.0
94.517593 136.0
94.565971 124.0
94.587265 144.0
94.614677 220.0
94.693756 216.0
94.854568 184.0
94.910789 208.0
94.945694 136.0
94.992249 184.0
95.025223 52.0
95.072945 196.0
95.207687 32.0
95.227104 180.0
95.37088 108.0
95.510666 148.0
95.540054 120.0
95.699638 80.0
95.719116 156.0
95.783379 128.0
95.806755 152.0
95.826614 188.0
95.927574 172.0
96.001663 124.0
96.023117 132.0
96.04847 68.0
96.07383 128.0
96.101143 212.0
96.128464 168.0
96.183105 140.0
96.210144 108.0
96.388168 88.0
96.402161 124.0
96.560196 184.0
96.738251 172.0
96.94194 124.0
96.998779 156.0
97.012497 76.0
97.094849 144.0
97.159576 144.0
97.273392 112.0
97.465858 116.0
97.491402 84.0
97.507126 216.0
97.605415 176.0
97.733269 100.0
97.77459 124.0
97.87104 236.0
97.888763 176.0
97.931587 188.0
98.310394 72.0
98.408897 228.0
98.502129 300.0
98.539658 128.0
98.695801 84.0
98.772926 204.0
98.929253 152.0
98.949051 168.0
99.0243 348.0
99.046432 160.0
99.125328 80.0
99.161003 172.0
99.264084 176.0
99.291847 180.0
99.422783 176.0
99.442627 124.0
99.478355 116.0
99.514091 164.0
99.53196 184.0
99.604462 184.0
99.642204 192.0
99.685738 48.0
99.726646 148.0
99.748512 152.0
99.871788 204.0
99.899635 132.0
99.923508 152.0
99.999123 116.0
100.02301 184.0
100.106628 180.0
100.146461 156.0
100.192276 160.0
100.232117 176.0
100.248062 160.0
100.285172 148.0
100.301872 44.0
100.375641 56.0
100.397575 160.0
100.522736 172.0
100.563164 128.0
100.587624 156.0
100.607071 216.0
100.674957 108.0
100.720894 216.0
100.811714 192.0
100.840645 180.0
100.918739 192.0
100.940735 176.0
101.034737 176.0
101.065842 212.0
101.192841 192.0
101.250908 48.0
101.268936 204.0
101.298981 124.0
101.317009 152.0
101.425217 148.0
101.522278 184.0
101.54953 164.0
101.5756 132.0
101.65786 184.0
101.788147 172.0
101.834526 96.0
101.965118 148.0
101.995262 288.0
102.035469 184.0
102.095787 140.0
102.206429 156.0
102.2668 80.0
102.371483 136.0
102.467339 176.0
102.605209 144.0
102.648605 184.0
102.71814 132.0
102.752434 192.0
102.783386 316.0
102.817001 172.0
102.877556 164.0
103.024971 140.0
103.039108 184.0
103.056023 232.0
103.073463 192.0
103.13813 168.0
103.229103 200.0
103.27562 260.0
103.310005 124.0
103.364632 120.0
103.390938 112.0
103.431419 48.0
103.455711 164.0
103.522522 152.0
103.595436 136.0
103.633934 140.0
103.731209 184.0
103.771751 120.0
103.8265 140.0
103.887352 108.0
104.009102 176.0
104.025337 120.0
104.052788 332.0
104.072029 196.0
104.122795 76.0
104.145142 192.0
104.30159 124.0
104.321915 172.0
104.356476 156.0
104.377525 216.0
104.393082 156.0
104.513092 140.0
104.555824 172.0
104.655563 156.0
104.721634 260.0
104.80629 140.0
104.842972 160.0
104.879654 136.0
104.906151 108.0
104.979553 72.0
105.001984 240.0
105.059891 380.0
105.136627 44.0
105.203987 188.0
105.293823 180.0
105.31221 48.0
105.517914 60.0
105.596298 136.0
105.621246 204.0
105.650925 176.0
105.719048 160.0
105.737465 108.0
105.759979 180.0
106.020081 64.0
106.066063 2548.0
106.094589 124.0
106.12365 68.0
106.128265 36.0
106.159477 124.0
106.280495 72.0
106.336906 172.0
106.372849 52.0
106.405693 48.0
106.44471 464.0
106.4981 76.0
106.572052 156.0
106.594658 176.0
106.722099 232.0
106.818756 52.0
106.839325 184.0
106.859894 128.0
106.888702 52.0
106.913399 152.0
106.949211 348.0
106.975815 332.0
107.071701 1116.0
107.129585 136.0
107.146065 180.0
107.195961 92.0
107.267647 32.0
107.350121 164.0
107.40374 148.0
107.455315 132.0
107.587395 188.0
107.682663 144.0
107.787727 172.0
107.82917 156.0
107.857994 184.0
107.889008 148.0
107.944824 136.0
107.96344 268.0
108.08181 8576.0
108.146393 148.0
108.174477 56.0
108.19725 248.0
108.210167 200.0
108.251083 152.0
108.352165 144.0
108.427261 172.0
108.634506 128.0
108.725143 164.0
108.75486 148.0
108.825439 260.0
108.844124 156.0
109.004791 228.0
109.024849 152.0
109.039398 188.0
109.085396 576.0
109.116302 64.0
109.170364 160.0
109.214043 44.0
109.241081 68.0
109.288933 152.0
109.334709 236.0
109.490845 136.0
109.515839 68.0
109.532501 124.0
109.609589 140.0
109.728386 124.0
109.799286 88.0
109.851074 188.0
109.909843 36.0
109.924446 164.0
109.941147 68.0
109.97036 120.0
110.003334 176.0
110.059647 104.0
110.075592 116.0
110.095627 188.0
110.120689 92.0
110.174995 216.0
110.219749 232.0
110.237679 84.0
110.304558 156.0
110.507408 100.0
110.532516 148.0
110.547165 216.0
110.609947 156.0
110.888519 136.0
110.913666 200.0
111.005913 156.0
111.03318 92.0
111.06044 168.0
111.266083 140.0
111.312279 136.0
111.35218 124.0
111.654808 148.0
111.766304 148.0
111.94101 128.0
111.997871 188.0
112.046318 164.0
112.084244 208.0
112.105316 232.0
112.16011 184.0
112.18541 204.0
112.413193 148.0
112.533508 216.0
112.729942 188.0
112.81871 64.0
112.952843 168.0
113.064064 224.0
113.195312 180.0
113.286385 136.0
113.337234 200.0
113.377495 220.0
113.553459 60.0
113.638306 200.0
113.704086 164.0
113.746536 124.0
113.761398 180.0
113.776253 148.0
113.800941 224.0
113.820839 228.0
114.097046 152.0
114.111923 208.0
114.131065 128.0
114.254417 136.0
114.350281 172.0
114.504364 184.0
114.616356 140.0
114.64193 164.0
114.676025 244.0
114.712265 156.0
114.793282 80.0
114.810341 188.0
114.931931 156.0
114.956963 104.0
114.987411 224.0
115.189026 376.0
115.228706 220.0
115.250069 68.0
115.297081 132.0
115.320587 196.0
115.337685 188.0
115.352646 116.0
115.386856 188.0
115.468109 116.0
115.500191 168.0
115.528 184.0
115.73774 72.0
115.815727 124.0
115.838394 120.0
115.91449 208.0
116.011276 212.0
116.091888 188.0
116.116806 188.0
116.151352 152.0
116.183525 92.0
116.243599 168.0
116.310135 152.0
116.398155 148.0
116.451843 164.0
116.535614 188.0
116.666718 116.0
116.754868 260.0
116.782829 224.0
116.797882 148.0
116.899002 148.0
116.942039 144.0
116.961411 140.0
117.045372 240.0
117.062599 184.0
117.08844 208.0
117.14444 176.0
117.303902 176.0
117.325462 148.0
117.379356 160.0
117.515244 188.0
117.659843 180.0
117.733261 196.0
117.865028 212.0
117.890953 140.0
117.92337 104.0
117.966606 92.0
118.048759 28.0
118.066063 604.0
118.182869 116.0
118.247787 200.0
118.28891 168.0
118.574814 40.0
118.620331 192.0
118.68103 204.0
118.699196 64.0
118.845879 176.0
118.950043 120.0
119.034714 188.0
119.070694 332.0
119.380226 168.0
119.527451 188.0
119.565132 128.0
119.641319 200.0
119.78286 156.0
119.811012 152.0
119.871605 256.0
120.046577 184.0
120.082062 8836.0
120.118439 244.0
120.150009 152.0
120.230858 208.0
120.249458 164.0
120.294281 104.0
120.310997 104.0
120.341141 160.0
120.360794 44.0
120.4132 244.0
120.42849 36.0
120.535538 92.0
120.587982 164.0
120.631699 80.0
120.663063 116.0
120.684166 148.0
120.725716 208.0
120.802261 316.0
120.839455 192.0
120.931358 224.0
121.00798 504.0
121.057587 140.0
121.089523 14916.0
121.134666 128.0
121.163475 28.0
121.182182 156.0
121.214996 240.0
121.250389 60.0
121.283997 68.0
121.310295 160.0
121.418427 152.0
121.433929 128.0
121.463791 112.0
121.548523 200.0
121.626411 108.0
121.768875 64.0
121.807266 128.0
121.843559 48.0
121.909477 120.0
121.973213 220.0
122.004379 140.0
122.023773 124.0
122.064651 176.0
122.096695 10344.0
122.139595 48.0
122.157402 136.0
122.184319 52.0
122.217323 116.0
122.308868 80.0
122.364784 84.0
122.472687 40.0
122.516747 40.0
122.565216 160.0
122.695251 80.0
122.752571 40.0
122.774628 176.0
122.789047 148.0
122.830101 132.0
122.999672 72.0
123.068001 176.0
123.097939 1028.0
123.12175 204.0
123.143188 136.0
123.273529 132.0
123.372986 76.0
123.556541 108.0
123.580879 40.0
123.61628 144.0
123.636192 60.0
123.687096 160.0
123.75573 168.0
123.773438 72.0
123.842087 152.0
123.88047 208.0
123.932915 76.0
124.025375 240.0
124.074203 192.0
124.121323 180.0
124.136093 180.0
124.264618 124.0
124.296555 64.0
124.325401 60.0
124.387543 192.0
124.450165 252.0
124.52076 132.0
124.607391 140.0
124.694054 144.0
124.745178 140.0
124.794083 196.0
124.825211 92.0
124.943092 156.0
124.96312 192.0
125.023193 220.0
125.045448 172.0
125.107773 164.0
125.162155 188.0
125.241379 176.0
125.279243 152.0
125.624771 56.0
125.888138 144.0
125.926102 140.0
126.060143 176.0
126.075783 128.0
126.225555 124.0
126.377655 144.0
126.483627 136.0
126.497948 192.0
126.534325 132.0
126.549995 140.0
126.935387 128.0
127.067245 208.0
127.251755 60.0
127.283188 120.0
127.330345 176.0
127.404465 208.0
127.489845 192.0
127.525803 100.0
127.818153 156.0
128.050018 188.0
128.090561 52.0
128.131119 188.0
128.396454 240.0
128.523407 168.0
128.541458 148.0
128.629486 208.0
128.672379 164.0
128.703979 32.0
128.728821 224.0
128.868866 176.0
128.902756 204.0
128.923096 108.0
129.086197 184.0
129.160492 80.0
129.198944 136.0
129.253235 132.0
129.321136 160.0
129.418472 200.0
129.595139 128.0
129.616669 152.0
129.654053 168.0
129.694931 120.0
129.726578 112.0
129.74472 160.0
129.771927 228.0
129.828613 184.0
129.915833 196.0
130.05986 164.0
130.09407 140.0
130.245209 72.0
130.459808 44.0
130.521194 140.0
130.6008 164.0
130.684967 32.0
130.994568 208.0
131.044693 136.0
131.13591 136.0
131.165482 180.0
131.256668 152.0
131.323532 92.0
131.350174 236.0
131.503036 56.0
131.694824 36.0
131.729095 252.0
131.7565 192.0
131.77478 156.0
131.822769 88.0
131.911896 132.0
132.119995 232.0
132.477112 80.0
132.564178 208.0
132.580215 212.0
132.91272 244.0
132.933365 80.0
132.972382 100.0
133.032639 148.0
133.049698 152.0
133.077972 308.0
133.473175 228.0
133.559662 132.0
133.845932 132.0
133.958771 180.0
133.974899 128.0
133.995636 212.0
134.014069 188.0
134.048096 6392.0
134.095642 472.0
134.157211 332.0
134.193848 64.0
134.230728 136.0
134.267624 180.0
134.359131 144.0
134.41066 216.0
134.468338 184.0
134.483078 168.0
134.528351 156.0
134.562988 204.0
134.609161 68.0
134.660202 200.0
134.68306 84.0
134.729263 112.0
134.83902 144.0
134.895599 164.0
134.901886 160.0
134.999695 120.0
135.027435 188.0
135.051666 352.0
135.070084 1164.0
135.129227 40.0
135.342148 140.0
135.400803 160.0
135.468216 288.0
135.475204 124.0
135.484436 220.0
135.584488 196.0
135.626099 176.0
135.643692 100.0
135.685043 52.0
135.705917 248.0
135.721466 136.0
135.80275 132.0
135.825317 236.0
135.862411 308.0
135.890305 176.0
135.918686 76.0
135.964096 276.0
135.983704 184.0
135.992935 164.0
136.022522 972.0
136.077148 100456.0
136.136093 132.0
136.164047 100.0
136.209152 108.0
136.233475 396.0
136.262924 100.0
136.278778 280.0
136.33075 120.0
136.370987 72.0
136.388672 128.0
136.408493 88.0
136.434845 156.0
136.440979 52.0
136.458694 364.0
136.509537 164.0
136.5858 148.0
136.637238 208.0
136.662567 72.0
136.688416 264.0
136.75824 80.0
136.819016 108.0
136.838577 124.0
136.860657 176.0
136.905853 216.0
136.944504 56.0
136.995789 312.0
137.028076 664.0
137.051407 224.0
137.080048 8032.0
137.112869 148.0
137.149536 100.0
137.165848 32.0
137.229202 140.0
137.259109 72.0
137.282425 44.0
137.312744 164.0
137.352386 44.0
137.394379 160.0
137.438705 168.0
137.476044 48.0
137.496185 108.0
137.509552 112.0
137.52739 76.0
137.553894 156.0
137.575378 216.0
137.616089 48.0
137.774124 72.0
137.793594 80.0
137.826309 72.0
137.877228 96.0
137.898743 116.0
137.9151 108.0
137.934708 52.0
137.954071 144.0
137.995468 160.0
138.017059 216.0
138.035187 228.0
138.055771 180.0
138.082901 828.0
138.107468 108.0
138.180511 104.0
138.207977 68.0
138.290543 164.0
138.368912 204.0
138.389984 92.0
138.418091 88.0
138.436813 44.0
138.457901 68.0
138.500046 72.0
138.601257 80.0
138.713287 136.0
138.760162 100.0
138.781265 220.0
138.816437 36.0
138.860992 100.0
138.891479 84.0
138.986221 52.0
139.001755 120.0
139.020523 280.0
139.045181 188.0
139.077759 144.0
139.130844 60.0
139.241196 48.0
139.377441 160.0
139.404297 112.0
139.525513 32.0
139.558426 72.0
139.585663 124.0
139.654846 104.0
139.716003 180.0
139.899551 48.0
140.142136 204.0
140.19397 104.0
140.689285 156.0
140.864029 84.0
140.90419 132.0
141.213852 160.0
141.367615 128.0
141.485962 160.0
141.549896 108.0
141.86499 188.0
141.915619 160.0
142.071304 132.0
142.090286 144.0
142.235046 164.0
142.791016 108.0
142.883789 76.0
142.931366 152.0
143.14798 184.0
143.18132 60.0
143.429108 128.0
143.457703 176.0
143.600769 120.0
143.705734 68.0
143.834412 156.0
143.863251 116.0
143.910995 168.0
143.946808 144.0
143.98024 152.0
144.006516 116.0
144.238281 220.0
144.293259 140.0
144.422379 128.0
144.482193 152.0
144.549179 224.0
144.565933 100.0
145.05452 156.0
145.185181 176.0
145.234344 156.0
145.260742 156.0
145.555923 172.0
145.630371 120.0
145.72406 164.0
145.826782 156.0
145.861038 52.0
145.952393 88.0
145.971634 224.0
146.050232 164.0
146.102356 136.0
146.20256 44.0
146.325317 140.0
146.344589 60.0
146.510757 128.0
146.537262 64.0
146.636063 140.0
146.734894 48.0
146.8284 164.0
147.050995 88.0
147.07019 236.0
147.207809 100.0
147.241608 56.0
147.538818 44.0
147.722595 240.0
147.814529 60.0
147.957336 96.0
148.021835 992.0
148.078049 468.0
148.136703 212.0
148.168442 116.0
148.218903 64.0
148.32312 156.0
148.464417 128.0
148.563187 96.0
148.769455 144.0
148.842285 168.0
148.929123 148.0
148.958862 188.0
149.029938 216.0
149.071671 12820.0
149.126511 96.0
149.286972 112.0
149.306427 32.0
149.346985 224.0
149.384262 156.0
149.403717 84.0
149.435349 100.0
149.489456 216.0
149.564316 44.0
149.591095 84.0
149.673874 60.0
149.690918 76.0
149.819992 128.0
149.839493 52.0
149.883347 228.0
149.905273 228.0
149.941833 44.0
149.978394 220.0
150.00943 256.0
150.038834 664.0
150.091888 31612.0
150.200272 160.0
150.231979 80.0
150.275894 116.0
150.3125 68.0
150.329575 36.0
150.36618 188.0
150.385712 152.0
150.448624 36.0
150.471832 128.0
150.494415 104.0
150.543472 84.0
150.574982 76.0
150.666763 148.0
150.734924 60.0
150.785278 108.0
150.815582 48.0
150.83757 52.0
150.89624 132.0
150.942291 168.0
151.011169 88.0
151.041733 164.0
151.06575 216.0
151.100128 34468.0
151.178757 32.0
151.199554 156.0
151.232178 260.0
151.263077 84.0
151.287674 84.0
151.305756 72.0
151.39296 56.0
151.440765 52.0
151.49675 64.0
151.530685 88.0
151.574219 100.0
151.612915 76.0
151.642838 52.0
151.686966 32.0
151.7556 64.0
151.795471 84.0
151.826721 84.0
151.88118 172.0
151.922379 88.0
151.959167 72.0
152.017029 5172.0
152.061768 216.0
152.104507 2736.0
152.165329 44.0
152.18988 44.0
152.222031 84.0
152.253723 76.0
152.286102 88.0
152.317581 124.0
152.351974 212.0
152.368423 144.0
152.5289 152.0
152.580521 40.0
152.65921 72.0
152.846146 80.0
152.99382 36.0
153.020096 700.0
153.062759 136.0
153.107376 324.0
153.139099 72.0
153.171127 128.0
153.20163 124.0
153.23024 84.0
153.262268 96.0
153.296768 64.0
153.36824 68.0
153.452057 136.0
153.543289 100.0
153.634552 236.0
153.759399 96.0
153.83992 232.0
153.872604 156.0
153.896149 112.0
153.935669 32.0
154.015396 380.0
154.049271 92.0
154.088043 380.0
154.128326 68.0
154.160461 140.0
154.202469 108.0
154.251907 76.0
154.603104 156.0
154.625381 184.0
154.662506 52.0
154.694687 100.0
154.849304 116.0
154.92746 80.0
154.981964 72.0
155.011703 156.0
155.068695 128.0
155.229828 172.0
155.641739 84.0
155.706299 52.0
155.738586 204.0
156.044189 200.0
156.064133 124.0
156.367615 88.0
156.805939 176.0
157.047775 48.0
157.254868 132.0
157.297302 144.0
157.45459 64.0
157.487061 84.0
157.514542 60.0
157.542023 144.0
157.97699 108.0
158.007004 32.0
158.522797 84.0
158.775986 108.0
158.823639 124.0
159.164948 44.0
159.481476 140.0
159.541809 96.0
159.966934 164.0
160.667496 172.0
160.700287 84.0
160.823944 140.0
160.929962 96.0
161.000671 56.0
161.06633 160.0
161.094116 156.0
161.412567 104.0
161.609863 64.0
161.726273 132.0
162.037735 160.0
162.232864 72.0
162.308929 232.0
162.33429 104.0
162.384811 156.0
162.719955 184.0
162.742813 148.0
162.887558 156.0
162.945999 124.0
162.989182 184.0
163.044678 220.0
163.245911 100.0
163.286606 164.0
163.571579 128.0
163.622482 40.0
163.77272 152.0
163.793106 136.0
163.912842 204.0
164.013351 676.0
164.0504 160.0
164.072037 188.0
164.373352 160.0
164.427963 184.0
164.524963 128.0
164.882553 216.0
164.925995 184.0
165.024872 9120.0
165.111176 168.0
165.212387 80.0
165.278915 84.0
165.304504 104.0
165.381271 56.0
165.445267 76.0
165.483673 32.0
165.565613 48.0
165.593781 44.0
165.691116 60.0
165.803864 68.0
165.83461 64.0
165.867935 84.0
165.942276 120.0
166.032593 4776.0
166.084213 736.0
166.126923 104.0
166.170532 124.0
166.188492 48.0
166.293716 64.0
166.442596 68.0
166.52478 192.0
166.545319 120.0
166.594131 256.0
166.853683 88.0
166.8974 172.0
166.91539 80.0
166.984833 52.0
167.035645 528.0
167.090485 172.0
167.224091 56.0
167.334778 88.0
167.571732 80.0
167.808838 248.0
168.030609 456.0
168.072449 192.0
168.101944 4160.0
168.151917 64.0
168.182892 80.0
168.319717 96.0
168.364044 72.0
168.642639 112.0
168.673645 140.0
168.844299 172.0
168.955521 60.0
168.976212 52.0
169.034393 368.0
169.103897 740.0
169.325653 244.0
169.53717 180.0
170.06456 168.0
170.313828 92.0
170.584061 176.0
170.625656 208.0
170.888321 168.0
171.070496 192.0
171.250168 244.0
171.320496 40.0
171.677567 68.0
171.706253 156.0
171.841904 60.0
172.332733 124.0
172.374542 100.0
172.512039 132.0
173.164597 224.0
173.49736 164.0
173.557663 240.0
174.211151 36.0
174.355667 40.0
174.573868 132.0
175.071228 172.0
176.06543 28.0
176.620453 176.0
176.998886 172.0
177.054504 112.0
177.688004 52.0
177.772903 176.0
178.431625 208.0
178.572556 152.0
179.027756 6444.0
179.083557 40.0
179.158142 68.0
179.231674 188.0
179.365997 192.0
179.435303 100.0
179.533966 176.0
179.587296 168.0
179.637985 184.0
179.726028 176.0
179.750031 208.0
179.774048 196.0
179.827423 200.0
179.886154 156.0
179.916763 104.0
179.99263 212.0
180.048782 44412.0
180.111969 108.0
180.157013 52.0
180.185242 40.0
180.246689 76.0
180.328201 88.0
180.366959 28.0
180.420898 88.0
180.465866 144.0
180.484726 228.0
180.530045 76.0
180.578186 56.0
180.658432 180.0
180.690521 112.0
180.717957 80.0
180.738373 68.0
180.867142 60.0
180.896591 48.0
180.950134 236.0
181.055557 13076.0
181.099457 392.0
181.118835 80.0
181.140259 40.0
181.191315 68.0
181.269592 44.0
181.338455 124.0
181.394821 96.0
181.413101 76.0
181.447372 168.0
181.469894 36.0
181.520828 44.0
181.542282 60.0
181.613846 100.0
181.630707 136.0
181.738098 56.0
181.931335 52.0
181.950119 112.0
181.974289 32.0
182.04982 1140.0
182.125854 36.0
182.160934 88.0
182.210632 68.0
182.249405 104.0
182.283173 68.0
182.320892 220.0
182.382614 104.0
182.441742 88.0
182.500885 136.0
182.549286 172.0
182.801575 56.0
182.893646 64.0
182.931335 92.0
183.05249 680.0
183.109039 96.0
183.219482 108.0
183.276062 80.0
183.324554 100.0
183.373077 48.0
183.507721 88.0
183.885498 100.0
183.982666 60.0
184.049866 184.0
184.099045 196.0
184.293259 104.0
184.728516 72.0
185.102005 144.0
185.367462 96.0
185.389145 68.0
185.448761 180.0
185.809418 172.0
186.224731 164.0
186.344254 40.0
187.146591 32.0
187.168365 164.0
187.233734 160.0
188.931473 176.0
190.049271 168.0
190.20845 80.0
190.525909 112.0
191.164871 136.0
191.71286 228.0
192.082306 152.0
192.286484 80.0
192.932831 80.0
193.048965 72.0
194.359161 132.0
195.156311 208.0
195.22583 168.0
196.02475 272.0
196.158524 208.0
196.409485 132.0
196.44017 144.0
196.970535 216.0
197.012238 284.0
197.10463 136.0
197.537964 68.0
197.77301 128.0
197.873779 104.0
197.898987 104.0
197.976089 172.0
198.059128 15208.0
198.11821 100.0
198.165451 48.0
198.223892 36.0
198.268417 72.0
198.278259 120.0
198.319183 88.0
198.383652 84.0
198.490189 120.0
198.565048 172.0
198.613586 52.0
198.831268 96.0
198.972778 124.0
199.012085 68.0
199.062149 1200.0
199.217087 60.0
199.239563 100.0
199.371628 84.0
199.408157 84.0
199.582443 52.0
199.796204 52.0
199.945328 56.0
200.054993 860.0
200.076172 148.0
200.407135 60.0
200.469116 52.0
200.539581 44.0
201.060654 284.0
201.106491 128.0
201.145996 56.0
201.263702 108.0
201.295639 132.0
201.329514 60.0
201.807053 48.0
201.840988 84.0
201.880569 44.0
202.112183 164.0
202.613663 108.0
203.771164 84.0
204.715485 88.0
207.673416 68.0
208.666977 188.0
210.770996 88.0
211.087585 320.0
212.085983 164.0
212.168915 44.0
215.390274 32.0
215.875412 68.0
218.306412 116.0
220.449493 68.0
220.541122 64.0
220.884109 148.0
221.076416 128.0
221.097137 124.0
223.465027 68.0
223.729904 36.0
224.096222 152.0
225.100708 140.0
226.111511 120.0
226.420181 36.0
226.85463 60.0
227.11261 248.0
227.151505 64.0
227.74881 88.0
227.917053 64.0
228.114044 196.0
228.148468 196.0
236.080475 324.0
236.496552 184.0
237.088577 144.0
239.123779 80.0
240.100403 192.0
241.134628 176.0
245.381073 72.0
245.649277 68.0
246.59848 112.0
248.518066 52.0
250.004349 132.0
250.095825 176.0
251.103821 176.0
252.11586 472.0
252.316345 128.0
252.461792 148.0
253.066162 80.0
254.061295 96.0
254.103851 272.0
255.052032 136.0
255.080643 172.0
255.121841 176.0
255.856827 48.0
256.114136 104.0
257.102783 124.0
260.140533 128.0
260.281799 72.0
263.618958 116.0
264.081268 160.0
265.036255 96.0
265.082794 312.0
266.087524 92.0
267.095032 132.0
268.051605 204.0
268.436249 88.0
269.128204 420.0
270.075714 136.0
270.098602 124.0
270.138763 216.0
271.264313 88.0
271.703735 172.0
274.555481 88.0
275.820007 88.0
276.931732 92.0
278.088837 256.0
279.784088 120.0
280.114349 332.0
281.109558 112.0
281.160675 76.0
281.190704 84.0
282.064545 164.0
282.982422 40.0
283.049377 128.0
284.074921 144.0
284.25946 156.0
289.166168 80.0
290.874451 104.0
294.125122 128.0
295.126068 104.0
296.049957 136.0
296.13559 100.0
297.054077 148.0
297.105621 36.0
298.056366 136.0
298.097046 132.0
299.784058 92.0
300.280487 40.0
302.100769 56.0
304.353485 32.0
305.427338 76.0
309.944794 84.0
311.562195 72.0
312.001495 84.0
312.07547 96.0
312.084564 128.0
312.097321 172.0
312.518494 112.0
313.08844 248.0
314.10379 84.0
314.763733 104.0
315.085144 96.0
317.753845 100.0
318.137817 44.0
326.092194 144.0
326.103607 128.0
328.109467 324.0
329.110443 208.0
331.85025 88.0
335.496704 48.0
336.978394 76.0
337.047821 48.0
338.65744 124.0
340.656494 80.0
341.141571 160.0
343.147949 148.0
343.372864 72.0
347.152374 132.0
352.288635 72.0
356.98111 120.0
358.599915 72.0
360.090179 80.0
363.00412 112.0
366.424927 80.0
375.833832 52.0
381.021851 96.0
384.889374 100.0
384.983093 88.0
385.506561 76.0
386.038177 176.0
390.611237 104.0
395.084595 44.0
395.412994 48.0
397.80304 80.0
406.969391 88.0
418.118225 56.0
418.891815 92.0
441.729126 36.0
447.916382 44.0
452.185028 48.0
463.444244 64.0
487.941895 80.0
491.116821 120.0
498.359131 96.0
506.07077 108.0
514.085266 32.0
518.657654 96.0
526.821045 104.0
528.315918 40.0
594.253235 96.0
613.867859 216.0
615.278992 104.0
618.165466 60.0
621.882324 64.0
624.659851 56.0
644.235474 44.0
650.941162 80.0
667.528259 116.0
673.919739 44.0
674.384827 156.0
678.805908 180.0
709.883911 68.0
711.659912 44.0
726.802368 232.0
729.100708 40.0
732.565674 56.0
749.321838 144.0
757.116455 124.0
770.162048 52.0
776.743286 160.0
779.391418 80.0
779.44696 128.0
791.170532 172.0
802.090759 112.0
814.36322 156.0
830.441284 208.0
831.462463 76.0
831.760925 144.0
831.904419 52.0
832.271851 84.0
841.126038 236.0
842.644836 168.0
844.274841 140.0
844.592896 172.0
855.554382 68.0
856.177368 36.0
862.314758 108.0
864.150879 128.0
864.987732 192.0
869.764893 188.0
878.827576 72.0
885.850891 156.0
894.222961 168.0
896.998535 44.0
902.622375 172.0
904.991821 192.0
908.839783 148.0
910.358398 96.0
910.598633 196.0
915.030273 72.0
921.09082 168.0
928.383789 196.0
929.099487 128.0
930.987122 228.0
932.499878 40.0
938.636169 84.0
942.444885 120.0
943.013245 148.0
943.716187 116.0
949.656189 192.0
949.919922 208.0
950.011902 88.0
950.631592 212.0
951.404968 188.0
952.03125 124.0
952.657715 144.0
954.37854 96.0
964.729736 184.0
974.167542 136.0
975.652771 156.0
977.269775 180.0
977.33197 172.0
983.189392 188.0
984.843872 172.0
992.108704 160.0
994.498535 184.0
995.30835 180.0
995.760498 60.0
996.822205 64.0
1000.74707 248.0
1004.812195 156.0
1004.925781 84.0
1010.333679 196.0
1011.801941 168.0
1013.017761 152.0
1013.892151 44.0
1014.259766 228.0
1014.532288 112.0
1016.434998 144.0
1016.682495 204.0
1019.400391 172.0
1020.016846 120.0
1023.22937 164.0
1029.548218 200.0
1029.944214 160.0
1031.107056 172.0
1035.239624 116.0
1040.439575 128.0
1041.049561 180.0
1041.556885 156.0
1044.121338 104.0
1044.513672 204.0
1045.150513 136.0
1048.673096 200.0
1049.685181 180.0
1052.188599 168.0
1052.543701 272.0
1054.416992 120.0
1058.065186 80.0
1060.442383 124.0
1060.986938 132.0
1062.335693 148.0
1062.504395 200.0
1068.41626 160.0
1069.288086 80.0
1070.082275 196.0
1070.388306 180.0
1071.749634 264.0
1071.821289 208.0
1072.459961 152.0
1072.955322 204.0
1074.592285 100.0
1077.281982 156.0
1077.490967 40.0
1079.968506 212.0
1082.822021 228.0
1083.326416 164.0
1086.473022 128.0
1086.677612 108.0
1087.352295 112.0
1090.649292 152.0
1092.654907 204.0
1093.214233 388.0
1094.75769 164.0
1096.164307 136.0
1096.434448 36.0
1101.726196 184.0
1105.759644 224.0
1106.196411 188.0
1108.348877 164.0
1108.541016 104.0
1108.74646 152.0
1113.257446 56.0
1114.95813 76.0
1116.719849 132.0
1117.185547 180.0
1119.261963 172.0
1119.674805 172.0
1119.741455 204.0
1120.107788 184.0
1120.893921 236.0
1122.68042 52.0
1123.754272 128.0
1124.374878 188.0
1125.389526 180.0
1125.676636 164.0
1126.437988 216.0
1126.564941 72.0
1126.64502 116.0
1128.529663 164.0
1132.564941 172.0
1133.201294 116.0
1136.761719 252.0
1138.110962 108.0
1138.883179 264.0
1139.380249 212.0
1140.212769 148.0
1142.977295 188.0
1143.562744 68.0
1144.471558 168.0
1144.956299 144.0
1145.474976 176.0
1145.737671 200.0
1147.226929 228.0
1147.773071 188.0
1148.204712 240.0
1148.311768 140.0
1148.960083 92.0
1149.756348 140.0
1150.998413 116.0
1151.579102 116.0
1151.639893 144.0
1152.81543 160.0
1153.031738 220.0
1155.540283 204.0
1155.817749 184.0
1156.237305 224.0
1156.311768 160.0
1158.336182 152.0
1160.369141 180.0
1161.094727 184.0
1162.824707 180.0
1163.442383 200.0
1163.552002 176.0
1165.962402 152.0
1166.65564 172.0
1166.764404 112.0
1168.668701 108.0
1169.546509 204.0
1169.777954 36.0
1170.962769 192.0
1171.282837 152.0
1171.732422 224.0
1172.148071 116.0
1172.740967 152.0
1173.797607 140.0
1176.376587 44.0
1177.912964 132.0
1180.400635 224.0
1180.899902 248.0
1181.57019 224.0
1182.617188 156.0
1183.650879 196.0
1185.034424 88.0
1185.123535 168.0
1185.582642 164.0
1186.336548 200.0
1187.618774 144.0
1188.222412 172.0
1188.455688 164.0
1191.449097 168.0
1194.102295 108.0
1198.287476 68.0
1198.342651 152.0
1199.700195 244.0
1199.996704 264.0
1200.224243 204.0
1202.507568 160.0
1203.549927 116.0
1203.6604 148.0
1203.864136 184.0
1204.192139 112.0
1206.023071 196.0
1206.52771 168.0
1206.921753 204.0
1207.523438 164.0
1207.869263 156.0
1210.706909 64.0
1210.769165 168.0
1214.282837 148.0
1214.525635 152.0
1217.440552 112.0
1218.037842 168.0
1218.71167 124.0
1219.038208 156.0
1219.927856 144.0
1220.324097 148.0
1220.511841 48.0
1221.130737 136.0
1221.255981 88.0
1221.381104 188.0
1222.132446 108.0
1223.517456 128.0
1223.656738 184.0
1225.199341 220.0
1226.450073 128.0
1226.575562 144.0
1227.384277 108.0
1228.332642 192.0
1228.562866 184.0
1229.832886 204.0
1231.844238 200.0
1232.214111 152.0
1232.821899 140.0
1233.360107 208.0
1234.898315 80.0
1235.366943 156.0
1235.597778 248.0
1235.940552 200.0
1236.563354 200.0
1238.383789 84.0
1238.446777 180.0
1238.588135 156.0
1240.548828 116.0
1241.470581 188.0
1242.266968 96.0
1242.519409 196.0
1243.052734 220.0
1243.36145 80.0
1245.355347 200.0
1247.871094 168.0
1249.833374 176.0
1249.910767 172.0
1250.438599 208.0
1251.318481 160.0
1252.367676 204.0
1252.68457 244.0
1253.065063 48.0
1253.368042 160.0
1253.66394 168.0
1254.051514 172.0
1255.341675 120.0
1255.666016 208.0
1259.802246 228.0
1260.784424 224.0
1263.186768 228.0
1263.775391 136.0
1264.483032 188.0
1265.445801 124.0
1265.587402 140.0
1265.828125 184.0
1266.019287 128.0
1266.203491 52.0
1266.848022 208.0
1267.428955 68.0
1267.719482 176.0
1267.99585 152.0
1268.506104 188.0
1269.286011 168.0
1270.073242 152.0
1270.222168 52.0
1271.35022 112.0
1272.535645 172.0
1272.933228 136.0
1274.161987 224.0
1274.296997 140.0
1274.581177 180.0
1275.576172 168.0
1276.642578 196.0
1276.77063 216.0
1277.22583 148.0
1277.517456 212.0
1277.68811 224.0
1278.876465 160.0
1279.054443 144.0
1282.081299 188.0
1282.879639 44.0
1283.000854 208.0
1284.85498 52.0
1285.447144 128.0
1285.582764 144.0
1286.367798 152.0
1288.060181 168.0
1288.569458 204.0
1289.267578 120.0
1289.424805 184.0
1290.511353 192.0
1291.483887 164.0
1292.864746 156.0
1293.680664 92.0
1293.823853 140.0
1294.239014 64.0
1294.905029 220.0
1295.048218 392.0
1295.284668 188.0
1295.427856 124.0
1295.478027 64.0
1296.302002 164.0
1296.61731 164.0
1297.412842 244.0
1297.477417 144.0
1298.539307 168.0
1299.217407 360.0
1299.270264 136.0
1299.872925 124.0
1299.923218 156.0
1300.848999 148.0
1301.818237 144.0
1302.234863 156.0
1303.382324 148.0
1303.750732 200.0
1304.203491 180.0
1305.583862 136.0
1305.857178 128.0
1306.231201 104.0
1306.281494 100.0
1306.964966 268.0
1307.519043 140.0
1307.583862 232.0
1307.893311 116.0
1308.245972 72.0
1309.117188 140.0
1309.664551 148.0
1310.183228 100.0
1310.276855 92.0
1310.413696 184.0
1310.514526 140.0
1311.27124 140.0
1311.559448 140.0
1312.071289 192.0
1312.914917 184.0
1313.621704 140.0
1313.939209 112.0
1314.083496 164.0
1314.595703 176.0
1315.642334 36.0
1315.942749 96.0
1317.324829 156.0
1318.444702 160.0
1319.008545 132.0
1320.468994 92.0
1320.794434 220.0
1321.445557 60.0
1322.089478 152.0
1322.255981 156.0
1323.725464 136.0
1326.290161 88.0
1329.328857 236.0
1329.749756 164.0
1330.192505 208.0
1330.243286 80.0
1331.121826 128.0
1332.105957 140.0
1332.61084 192.0
1333.192139 212.0
1333.24292 128.0
1333.868042 164.0
1333.926147 152.0
1335.256714 212.0
1338.174683 180.0
1338.478516 204.0
1339.033813 168.0
1340.775024 212.0
1341.052002 140.0
1341.314331 148.0
1341.56958 56.0
1344.063843 164.0
1345.41394 176.0
1346.336426 228.0
1346.567627 152.0
1346.772217 184.0
1346.845215 132.0
1347.166626 160.0
1348.547607 148.0
1348.598755 124.0
1348.737671 164.0
1348.817993 120.0
1349.030029 172.0
1349.410156 176.0
1349.578369 80.0
1349.651489 208.0
1350.192627 148.0
1350.265747 196.0
1350.5802 172.0
1351.033691 120.0
1351.443481 136.0
1352.255737 156.0
1352.431396 160.0
1352.643555 164.0
1353.09021 132.0
1353.199951 164.0
1354.759888 140.0
1355.697754 156.0
1355.756348 164.0
1356.74585 228.0
1356.95105 176.0
1357.031738 168.0
1357.222412 84.0
1357.818359 160.0
1358.029053 140.0
1358.623657 196.0
1358.828613 144.0
1360.28894 152.0
1360.523804 164.0
1361.639893 240.0
1362.043945 132.0
1362.609497 156.0
1363.079712 160.0
1364.244263 152.0
1364.343872 44.0
1366.63855 92.0
1366.903442 192.0
1368.419678 56.0
1369.730469 144.0
1369.796753 132.0
1370.356567 100.0
1370.931396 172.0
1371.852661 208.0
1371.985352 148.0
1372.346558 156.0
1372.516235 148.0
1372.995483 152.0
1373.224121 88.0
1373.533936 188.0
1374.094482 136.0
1374.330688 176.0
1374.920898 172.0
1375.393311 120.0
1375.540894 156.0
1375.68457 152.0
1377.534668 132.0
1378.576416 56.0
1380.084351 192.0
1380.431885 204.0
1380.616699 112.0
1381.348877 104.0
1381.546509 192.0
1382.40686 148.0
1382.614868 156.0
1382.68811 120.0
1383.058228 200.0
1383.879883 156.0
1383.990967 148.0
1384.694458 184.0
1385.02771 160.0
1385.509155 64.0
1385.946289 160.0
1386.176025 196.0
1387.79187 64.0
1388.081055 96.0
1388.184814 136.0
1388.28125 132.0
1389.80188 160.0
1389.987427 144.0
1390.187744 184.0
1390.350952 88.0
1390.834961 208.0
1392.013794 116.0
1392.100708 256.0
1392.414795 208.0
1394.019409 212.0
1394.160645 168.0
1394.279541 120.0
1395.572998 156.0
1395.855469 68.0
1396.249634 144.0
1396.710693 152.0
1396.792603 80.0
1397.529053 208.0
1397.603516 152.0
1399.337646 216.0
1400.119507 116.0
1400.328003 148.0
1400.581299 148.0
1401.519897 188.0
1402.682495 140.0
1402.81665 236.0
1403.890259 408.0
1405.225464 188.0
1405.740234 208.0
1405.911865 32.0
1406.12085 64.0
1406.29248 104.0
1407.225586 160.0
1407.479492 208.0
1408.46521 252.0
1408.988159 256.0
1409.578369 132.0
1410.549927 208.0
1411.402222 180.0
1412.950439 172.0
1413.60376 140.0
1413.818359 188.0
1414.042847 208.0
1414.349731 116.0
1414.506958 48.0
1415.098389 164.0
1415.5177 204.0
1415.981934 200.0
1416.678467 188.0
1416.820801 176.0
1417.120483 220.0
1417.989746 196.0
1418.072266 88.0
1418.566895 108.0
1419.262207 184.0
1420.584106 168.0
1421.079224 188.0
1421.394287 88.0
1421.837036 168.0
1422.324951 80.0
1422.772583 176.0
1422.887939 160.0
1423.030518 200.0
1423.563721 124.0
1424.998291 192.0
1426.413086 236.0
1426.508789 152.0
1426.591553 196.0
1427.192993 212.0
1428.253296 140.0
1428.794922 172.0
1429.088379 216.0
1429.404297 48.0
1430.269775 208.0
1430.796753 212.0
1431.082886 160.0
1431.715332 160.0
1432.596558 124.0
1432.79248 220.0
1432.860229 68.0
1433.123901 244.0
1433.206787 156.0
1434.314575 180.0
1434.540771 196.0
1435.091064 80.0
1437.029419 72.0
1438.047363 160.0
1438.863403 188.0
1439.127563 152.0
1439.724121 108.0
1440.116821 216.0
1440.932739 132.0
1441.21228 136.0
1441.453979 100.0
1442.171997 180.0
1442.353394 72.0
1442.45166 64.0
1442.61792 196.0
1443.585693 92.0
1443.77478 140.0
1444.803467 64.0
1446.642334 168.0
1446.884521 104.0
1447.32373 164.0
1447.861328 164.0
1448.118774 200.0
1448.472656 208.0
1449.014893 208.0
1449.111084 212.0
1449.194458 176.0
1449.891602 136.0
1450.134155 44.0
1450.376709 116.0
1450.513062 156.0
1450.588867 148.0
1452.492188 176.0
1453.000366 176.0
1453.27356 128.0
1453.402466 204.0
1453.766724 116.0
1454.191772 212.0
1454.449829 64.0
1454.62439 68.0
1454.984009 220.0
1456.489746 236.0
1457.365967 92.0
1457.654663 192.0
1457.814209 92.0
1458.331055 184.0
1459.144409 140.0
1459.463745 104.0
1459.690918 184.0
1459.813477 208.0
1460.117676 168.0
1461.1521 284.0
1461.250977 68.0
1461.562988 116.0
1461.943481 120.0
1462.022461 216.0
1462.415283 224.0
1462.559937 136.0
1462.902466 164.0
1463.334961 148.0
1464.379639 156.0
1464.562378 168.0
1466.787231 160.0
1466.878784 192.0
1467.66394 156.0
1467.755493 228.0
1467.991821 228.0
1469.616577 140.0
1469.738647 188.0
1470.066772 176.0
1470.829956 196.0
1471.043701 164.0
1471.112427 112.0
1472.127808 44.0
1472.40271 80.0
1472.74646 172.0
1473.036621 116.0
1473.77771 116.0
1473.881104 220.0
1473.945801 168.0
1474.985107 60.0
1475.512573 188.0
1475.619629 144.0
1475.688477 128.0
1476.514282 128.0
1476.569702 152.0
1477.592773 156.0
1477.791748 108.0
1477.932007 200.0
1478.35791 64.0
1478.503296 196.0
1478.641113 208.0
1478.778809 280.0
1479.521362 164.0
1481.137085 140.0
1481.780518 204.0
1482.209595 84.0
1482.546753 164.0
1483.305542 228.0
1483.719482 120.0
1483.997314 164.0
1484.96167 176.0
1485.322144 160.0
1485.406616 124.0
1485.828491 184.0
1486.258179 172.0
1486.687866 220.0
1487.900513 188.0
1488.299805 108.0
1488.484131 128.0
1488.576172 136.0
1489.374878 164.0
1489.467041 124.0
1490.265991 112.0
1491.065186 128.0
1491.249634 132.0
1491.441772 160.0
1491.649292 36.0
1492.233521 132.0
1493.110107 48.0
1493.379395 132.0
1494.456299 216.0
1494.902588 160.0
1494.964111 212.0
1495.048828 160.0
1495.318115 204.0
1496.249512 196.0
1496.534424 156.0
1496.588257 196.0
1496.74231 136.0
1496.848267 192.0
1497.828125 176.0
1497.974487 168.0
1498.12854 48.0
1498.375122 200.0
1499.26123 156.0
1499.538574 228.0
1500.640991 144.0
1502.19104 148.0
1502.406982 216.0
1502.46106 176.0
1502.615356 136.0
1503.36377 52.0
1503.518066 200.0
1503.618408 108.0
1503.911743 100.0
1504.444336 152.0
1504.64502 52.0
