>compound MLS001140385-01!N-[3-(3-methoxyphenyl)-4-oxochromen-2-yl]furan-2-carboxamide
>formula C21H15NO5
>ionization [M+H]+
>parentmass 362.100952
#inchi InChI=1S/C21H15NO5/c1-25-14-7-4-6-13(12-14)18-19(23)15-8-2-3-9-16(15)27-21(18)22-20(24)17-10-5-11-26-17/h2-12H,1H3,(H,22,24)
#inchikey GFVZTAWQXORWCC
#Ion_Source LC-ESI
#Instrument qTof
#Compound_Source NIH Natural Product Library
#PI Dorrestein
#Data_Collector VVP/LMS
#Scan -1
#Precursor_MZ 362.103
#ExactMass 361.095
#Charge 1
#CAS_Number N/A
#Pubmed_ID N/A
#Smiles COc1cccc(c1)c2c(NC(=O)c3ccco3)oc4ccccc4c2=O
#INCHI_AUX N/A
#Library_Class 1
#SpectrumID CCMSLIB00000079446
#IonMode Positive
#UpdateWorkflowName UPDATE-SINGLE-ANNOTATED-GOLD
#LibraryQualityString Gold
#TaskID b1d8e8f6646f4e71acdff9ca3d919d08
##Scan# 2075
#SpectrumFile p1-E06_GE6_01_17926.mzXML
#LibraryName NIH_Natural_Products_Library.mgf
#MQScore -1
#Organism NIH_Natural_Products_Library
#TIC_Query 0
#RT_Query -1
#MZErrorPPM -1
#SharedPeaks 0
#MassDiff 0
#LibMZ -1
#SpecMZ 362.103
#SpecCharge 0
#internalFilename spec-00000.mgf

>collision 10
94.962921 432.0
94.990578 152.0
95.013206 32716.0
95.063431 120.0
95.096024 156.0
95.119377 140.0
95.166306 92.0
95.187096 88.0
95.209023 144.0
95.254318 100.0
95.349983 100.0
95.3936 52.0
95.47332 76.0
95.519997 152.0
95.547234 88.0
95.566689 52.0
95.663994 64.0
95.762062 104.0
95.837326 52.0
95.887993 88.0
95.91333 68.0
96.016068 2956.0
96.096642 48.0
96.125908 112.0
96.301605 76.0
96.379051 112.0
96.522438 96.0
96.549812 72.0
96.585014 72.0
96.63588 112.0
96.673058 108.0
96.712196 60.0
96.742073 76.0
97.017151 348.0
97.18644 76.0
97.65004 132.0
97.783829 148.0
97.799568 40.0
98.128548 180.0
98.363304 128.0
98.477821 176.0
98.566719 40.0
98.635895 64.0
98.839592 44.0
98.988052 132.0
99.324966 192.0
100.145859 76.0
100.217575 136.0
101.064148 76.0
101.619141 108.0
102.197777 40.0
102.858788 72.0
103.145615 160.0
103.544205 48.0
104.049103 204.0
105.032204 404.0
105.123787 228.0
105.266685 200.0
105.595703 168.0
105.677528 128.0
106.041046 176.0
106.435898 48.0
106.67627 156.0
106.702995 68.0
106.724953 200.0
106.892227 100.0
107.049324 1300.0
109.059586 132.0
109.619415 192.0
111.223511 164.0
111.275993 172.0
111.759399 196.0
112.974617 168.0
113.044434 128.0
113.194733 172.0
113.835121 160.0
114.236816 84.0
114.585945 56.0
114.669052 124.0
114.79483 128.0
115.05513 104.0
115.144814 64.0
115.388412 228.0
116.013527 52.0
116.954376 112.0
116.975899 172.0
117.055557 88.0
117.077095 52.0
117.107246 92.0
117.693954 60.0
117.719719 76.0
118.22773 184.0
118.561234 100.0
119.049217 732.0
119.858536 84.0
120.01329 80.0
120.054726 144.0
120.81263 68.0
120.943924 156.0
121.028214 6944.0
121.062607 676.0
121.106743 172.0
121.150574 128.0
121.235207 132.0
121.29438 220.0
121.408386 124.0
121.592667 112.0
121.919891 56.0
122.014412 176.0
122.033279 328.0
122.071579 164.0
122.489738 224.0
122.639572 248.0
122.740982 56.0
122.809341 136.0
123.974449 192.0
125.180679 160.0
126.200394 172.0
126.544952 192.0
127.954887 128.0
128.062973 128.0
128.421341 112.0
130.998581 68.0
131.09198 108.0
131.153519 160.0
131.952484 112.0
132.705734 176.0
132.928223 68.0
133.027679 1212.0
133.098083 152.0
133.353073 92.0
133.965134 176.0
134.037384 216.0
134.14949 88.0
134.629395 180.0
135.045059 308.0
136.032471 52.0
136.116058 136.0
136.385544 44.0
136.487839 104.0
137.023148 196.0
138.015091 196.0
138.558075 160.0
138.588531 160.0
139.539078 60.0
140.169876 160.0
140.603775 144.0
140.839874 144.0
141.014709 120.0
142.044678 172.0
142.075516 116.0
143.109344 160.0
143.433334 48.0
143.619324 144.0
143.812592 144.0
143.936722 152.0
144.048843 140.0
145.351379 140.0
146.710266 36.0
147.042175 220.0
147.074493 144.0
147.386032 136.0
147.632584 204.0
148.046402 144.0
149.059158 1080.0
149.490784 40.0
149.519989 140.0
150.068069 148.0
150.477951 192.0
151.040009 240.0
151.897339 184.0
152.061523 640.0
152.290054 188.0
152.447281 180.0
152.983459 96.0
153.065201 192.0
153.091797 188.0
153.116425 56.0
153.444153 148.0
154.070847 196.0
155.050842 140.0
155.340942 176.0
155.633789 144.0
157.172012 176.0
159.031403 124.0
159.134323 116.0
159.32016 52.0
160.015671 652.0
160.220795 96.0
160.346771 36.0
160.366943 100.0
162.047379 152.0
163.037491 180.0
163.05986 120.0
163.342087 44.0
164.055084 156.0
164.2948 216.0
164.521927 72.0
165.06813 888.0
165.603546 112.0
165.634293 176.0
165.813644 52.0
166.073471 276.0
166.30864 80.0
167.066666 192.0
167.318863 160.0
167.633102 112.0
167.728455 212.0
169.059174 124.0
169.179947 128.0
170.07399 192.0
170.103043 128.0
171.075989 160.0
172.031952 160.0
172.355804 140.0
172.452499 260.0
173.7854 64.0
174.034317 196.0
174.052811 296.0
175.039276 312.0
175.080032 132.0
175.149796 208.0
176.062347 212.0
176.239319 56.0
176.257812 84.0
177.063049 276.0
178.023209 212.0
178.07196 192.0
178.489685 88.0
178.550842 136.0
179.077805 196.0
179.23764 192.0
181.066467 800.0
181.244324 132.0
182.073212 436.0
182.153793 120.0
182.879776 48.0
183.043991 224.0
183.085526 176.0
183.192123 124.0
183.674622 156.0
184.038956 84.0
184.079453 164.0
184.133469 108.0
184.641556 76.0
185.066391 80.0
185.09642 204.0
185.169296 96.0
185.201797 124.0
185.228882 196.0
185.494431 384.0
186.25148 40.0
187.328644 40.0
187.413101 136.0
187.587524 80.0
187.691116 152.0
188.496353 184.0
188.788849 28.0
188.920135 212.0
189.478607 100.0
190.026932 92.0
190.070831 124.0
190.479889 172.0
192.05455 160.0
192.730682 168.0
192.799774 152.0
192.971146 44.0
193.067474 580.0
194.070328 132.0
194.336578 252.0
195.07843 596.0
195.106705 164.0
195.303329 176.0
195.442413 184.0
195.826584 180.0
196.063385 56.0
197.04837 140.0
197.098663 116.0
198.060471 504.0
198.0979 152.0
199.063034 72.0
199.551163 188.0
199.832397 148.0
200.033203 356.0
200.86911 176.0
201.024277 224.0
201.78125 128.0
205.108307 128.0
207.080811 440.0
207.472351 144.0
207.675949 100.0
208.034622 88.0
208.054718 304.0
208.078079 144.0
208.13797 176.0
208.66951 104.0
208.744278 164.0
208.962875 72.0
209.026169 112.0
209.060272 1024.0
210.070663 312.0
211.067337 244.0
211.094421 192.0
211.505234 176.0
212.052643 140.0
212.841705 40.0
212.981094 104.0
213.09169 1164.0
213.303635 48.0
213.684586 192.0
214.05246 144.0
214.085114 324.0
214.325134 208.0
214.418381 44.0
214.453354 60.0
214.893677 144.0
215.226761 168.0
216.034515 208.0
217.096237 156.0
217.976883 200.0
219.690414 112.0
220.094498 196.0
220.676804 140.0
220.824661 128.0
221.068848 140.0
221.53801 52.0
221.612076 200.0
221.88475 44.0
222.041901 100.0
222.77504 60.0
222.947372 168.0
223.062119 340.0
223.869568 144.0
224.024445 224.0
224.065933 332.0
224.073395 160.0
224.19725 132.0
224.289642 188.0
224.725037 36.0
225.075836 240.0
226.177399 180.0
226.371994 180.0
227.070847 144.0
227.181229 96.0
228.454941 164.0
228.804031 164.0
229.114227 28.0
229.76239 68.0
230.221176 100.0
230.372192 52.0
231.058426 112.0
231.255127 68.0
233.515457 108.0
234.053299 140.0
234.057907 188.0
235.065704 412.0
235.420181 196.0
235.640106 120.0
236.072937 164.0
236.713684 120.0
237.050552 816.0
237.179367 160.0
237.228409 164.0
238.060516 156.0
238.428513 108.0
238.600647 96.0
239.034317 132.0
239.899765 152.0
241.087051 292.0
242.079025 288.0
243.650513 112.0
243.948853 148.0
244.073212 232.0
245.870605 200.0
246.1297 140.0
246.167175 120.0
247.846909 76.0
247.884506 108.0
248.060028 156.0
248.085098 164.0
248.721878 128.0
249.083374 160.0
250.038788 100.0
250.082855 124.0
250.715881 176.0
251.05722 3024.0
251.75061 76.0
252.02858 148.0
252.05751 348.0
252.271927 68.0
252.433167 48.0
252.7052 56.0
252.781128 72.0
252.847595 212.0
252.92038 60.0
252.974197 48.0
253.067673 408.0
253.316193 56.0
253.351044 64.0
253.775711 104.0
254.064224 144.0
254.149979 180.0
254.222961 164.0
256.070831 156.0
257.080627 204.0
257.527588 68.0
258.285095 64.0
258.742706 80.0
259.062958 116.0
260.092255 148.0
262.047485 112.0
262.943909 48.0
264.068237 216.0
265.016693 44.0
265.075012 52.0
266.0448 128.0
266.074524 332.0
266.957794 36.0
267.078125 200.0
267.442535 148.0
268.093384 972.0
268.211212 160.0
268.370972 140.0
268.452484 304.0
268.5177 180.0
268.612274 72.0
268.687317 156.0
268.739532 220.0
268.947052 260.0
269.026703 112.0
269.0802 15112.0
269.150787 204.0
269.340179 148.0
269.38266 108.0
269.405518 52.0
269.699615 108.0
269.778046 88.0
270.08371 1480.0
270.153473 100.0
270.248993 36.0
270.481354 56.0
270.565887 144.0
270.599213 44.0
270.681061 40.0
270.703979 68.0
270.851349 120.0
270.88739 100.0
270.949646 28.0
271.084808 288.0
271.372406 80.0
271.555206 92.0
271.68399 64.0
271.788971 48.0
271.880829 52.0
271.926788 48.0
271.989166 68.0
272.068542 272.0
272.393036 52.0
272.552826 56.0
272.682159 64.0
272.85968 172.0
272.994476 124.0
273.047089 128.0
273.081055 184.0
274.066467 108.0
274.163116 60.0
276.07782 128.0
278.078857 128.0
278.527069 144.0
279.050751 1208.0
280.053406 292.0
280.326965 60.0
281.053864 100.0
282.055756 172.0
282.778198 52.0
282.962311 144.0
283.642334 88.0
285.078796 56.0
287.068268 184.0
287.091888 124.0
288.069489 204.0
289.196655 44.0
290.429962 96.0
291.101929 152.0
293.067963 124.0
293.695221 92.0
293.889679 196.0
293.964752 220.0
294.073456 5644.0
294.142212 116.0
294.243317 72.0
294.432434 68.0
294.480255 84.0
294.640808 48.0
294.726196 80.0
295.013275 68.0
295.078247 760.0
295.409973 32.0
295.447601 68.0
295.86853 108.0
296.015747 44.0
296.089203 144.0
296.241791 56.0
296.906738 84.0
297.03363 132.0
297.116119 92.0
298.115112 56.0
298.228546 68.0
299.050568 112.0
300.0495 112.0
300.073639 100.0
300.597931 40.0
301.067505 120.0
302.031647 128.0
302.077057 184.0
304.284119 60.0
311.365631 76.0
312.075439 324.0
315.071167 152.0
316.075256 148.0
316.100037 144.0
316.188507 204.0
316.397339 80.0
316.574371 176.0
317.070343 312.0
317.687286 60.0
318.983398 108.0
319.099243 164.0
321.46582 68.0
323.145172 72.0
323.879028 232.0
324.068878 140.0
324.857605 80.0
325.080048 104.0
326.214996 56.0
328.047272 272.0
329.064606 168.0
330.079895 168.0
333.825745 84.0
336.434479 148.0
344.011475 144.0
344.082153 328.0
345.095917 332.0
354.039398 164.0
358.517365 120.0
362.049561 252.0
362.100952 1664.0
362.151825 156.0
362.864227 44.0
363.107208 252.0
363.361053 56.0
364.099487 228.0
364.386108 156.0
364.887787 92.0
365.093109 56.0
365.245239 56.0
399.810822 88.0
423.85495 56.0
436.059387 124.0
445.943939 140.0
446.233978 56.0
446.444214 116.0
447.976257 164.0
452.516144 92.0
453.668457 120.0
479.996216 64.0
488.417969 32.0
519.389038 48.0
539.196411 128.0
590.65094 180.0
628.019165 120.0
635.28717 20.0
640.122192 172.0
654.243225 88.0
657.495178 80.0
675.178345 52.0
767.885864 152.0
784.659973 92.0
797.596924 204.0
798.316528 168.0
813.41864 88.0
813.554932 192.0
818.091309 184.0
818.672058 32.0
819.936768 256.0
833.527893 148.0
845.742493 248.0
847.317566 116.0
850.216736 60.0
853.894226 152.0
863.605103 140.0
867.299683 140.0
874.459351 68.0
875.20105 28.0
880.697266 104.0
883.333496 204.0
887.674744 124.0
893.554932 60.0
894.584473 108.0
894.661865 176.0
897.527588 172.0
898.750305 236.0
900.350098 36.0
900.451599 136.0
902.250183 80.0
915.920044 224.0
922.285767 140.0
925.237732 156.0
931.629578 156.0
936.629822 208.0
938.256836 144.0
943.721008 140.0
944.326416 160.0
945.470459 176.0
957.417053 132.0
958.39032 164.0
958.569031 108.0
962.022888 148.0
963.325867 180.0
964.697693 204.0
968.651855 152.0
969.320923 156.0
971.360657 112.0
972.6203 148.0
983.094727 60.0
983.363098 156.0
985.630005 160.0
988.218506 220.0
991.205139 188.0
993.110962 164.0
997.097717 128.0
997.94635 208.0
998.065796 48.0
998.656921 180.0
1001.470337 168.0
1003.158997 32.0
1003.285095 160.0
1005.410706 144.0
1005.896667 188.0
1013.941956 156.0
1014.113098 52.0
1014.411011 144.0
1020.982483 228.0
1021.10968 216.0
1023.871704 168.0
1027.090332 140.0
1028.717407 120.0
1029.968994 40.0
1031.400269 84.0
1032.154663 268.0
1035.046875 132.0
1036.052368 148.0
1037.417358 188.0
1041.671875 140.0
1042.545654 140.0
1046.250488 96.0
1046.817017 52.0
1049.149414 180.0
1049.626465 144.0
1049.768433 112.0
1050.477783 128.0
1053.175903 180.0
1054.366333 200.0
1056.58252 172.0
1058.038696 204.0
1059.748535 184.0
1063.237061 184.0
1066.126953 172.0
1066.828979 196.0
1068.292114 92.0
1068.565308 216.0
1069.189941 200.0
1071.240967 136.0
1075.649048 208.0
1077.96106 236.0
1079.654053 268.0
1080.667969 120.0
1081.302734 144.0
1082.350098 220.0
1086.997559 124.0
1088.139526 156.0
1090.616089 108.0
1092.332275 144.0
1093.740356 124.0
1094.339478 200.0
1096.137573 188.0
1098.266968 208.0
1098.431885 200.0
1103.120239 168.0
1103.206177 172.0
1105.249756 168.0
1107.361572 172.0
1108.388306 168.0
1110.443359 176.0
1112.04895 200.0
1112.102051 44.0
1112.294556 176.0
1114.937988 144.0
1115.177246 188.0
1115.848633 200.0
1118.516235 184.0
1119.741333 104.0
1121.566895 136.0
1122.326782 204.0
1123.880981 152.0
1123.994385 252.0
1125.355957 176.0
1127.981445 244.0
1128.950928 160.0
1130.108032 168.0
1131.245728 188.0
1133.060547 208.0
1134.126099 144.0
1135.560913 188.0
1147.671997 128.0
1148.143433 192.0
1148.616089 168.0
1150.978149 72.0
1154.485229 172.0
1154.681396 216.0
1156.359253 160.0
1156.839844 112.0
1161.881714 252.0
1168.458008 176.0
1168.621216 48.0
1168.76416 108.0
1175.31897 128.0
1175.769287 196.0
1179.225098 168.0
1180.989014 232.0
1182.398438 156.0
1183.137695 204.0
1183.493652 104.0
1185.713135 144.0
1191.895996 152.0
1192.349487 228.0
1195.024414 172.0
1196.373291 180.0
1196.855225 128.0
1196.9104 160.0
1197.495728 176.0
1197.957153 144.0
1199.969482 264.0
1200.528076 128.0
1203.743774 152.0
1203.971558 200.0
1204.42749 204.0
1204.752075 156.0
1205.857666 192.0
1206.085693 168.0
1208.568359 52.0
1211.032837 212.0
1212.286865 228.0
1212.342285 112.0
1212.737305 104.0
1216.69812 168.0
1218.649658 152.0
1219.754639 124.0
1220.762695 216.0
1222.627075 248.0
1223.3927 64.0
1223.706055 252.0
1224.813232 184.0
1225.147583 168.0
1225.725952 172.0
1227.189575 156.0
1229.749756 180.0
1230.566406 84.0
1230.810791 176.0
1233.130127 204.0
1237.292114 156.0
1240.171021 212.0
1240.437378 224.0
1240.942139 148.0
1241.734619 164.0
1243.516602 152.0
1244.036011 104.0
1245.222656 132.0
1245.44043 212.0
1246.100708 180.0
1247.414917 144.0
1249.2854 212.0
1251.60791 92.0
1253.168091 216.0
1253.883179 152.0
1254.122803 148.0
1258.828491 184.0
1260.488403 156.0
1261.202271 160.0
1262.439453 168.0
1264.887451 160.0
1265.552856 216.0
1265.673218 144.0
1265.87854 144.0
1266.508911 172.0
1267.011841 164.0
1269.279907 120.0
1269.925171 44.0
1270.09021 76.0
1271.372437 160.0
1271.98999 96.0
1272.310059 212.0
1272.494019 124.0
1272.806396 160.0
1272.891602 160.0
1273.921387 172.0
1275.911255 156.0
1276.57251 236.0
1277.952393 160.0
1278.523071 260.0
1278.58374 184.0
1279.653442 128.0
1281.483765 232.0
1281.69043 80.0
1281.947021 64.0
1282.987549 188.0
1283.058838 80.0
1283.771851 144.0
1284.192627 232.0
1286.961426 160.0
1288.782837 240.0
1289.490234 172.0
1290.977173 84.0
1291.362305 124.0
1296.030884 92.0
1296.984009 200.0
1297.894409 160.0
1298.797974 128.0
1300.35498 96.0
1307.282837 244.0
1307.585083 124.0
1307.916138 160.0
1310.09082 168.0
1311.452637 164.0
1311.596802 108.0
1314.501709 76.0
1315.968506 152.0
1316.380005 168.0
1317.037231 184.0
1318.503906 120.0
1318.778564 208.0
1320.1521 152.0
1321.070679 156.0
1325.55957 220.0
1327.335449 164.0
1332.437866 152.0
1334.523682 44.0
1335.018188 172.0
1336.197388 140.0
1338.372681 48.0
1343.634888 120.0
1343.759521 172.0
1343.85376 88.0
1349.872437 168.0
1350.040527 156.0
1350.340454 72.0
1351.496216 48.0
1353.904541 232.0
1355.179077 164.0
1356.117065 204.0
1356.644775 140.0
1358.089355 148.0
1358.140625 132.0
1358.368042 188.0
1362.449585 132.0
1363.924194 184.0
1364.007446 160.0
1364.977905 40.0
1366.765259 132.0
1370.012085 244.0
1372.03772 188.0
1374.568481 216.0
1374.730835 224.0
1375.387695 228.0
1376.790527 104.0
1378.866455 140.0
1379.842163 80.0
1381.729004 132.0
1383.444946 184.0
1385.911987 164.0
1386.933838 308.0
1387.156128 68.0
1390.679443 52.0
1392.3573 132.0
1394.058472 224.0
1395.166016 144.0
1395.589722 204.0
1399.689575 176.0
1402.401245 160.0
1406.279663 200.0
1406.570679 112.0
1407.959473 196.0
1409.005127 120.0
1409.057495 244.0
1409.570923 200.0
1410.731445 168.0
1411.322021 248.0
1412.032471 20.0
1413.139526 204.0
1416.48584 196.0
1417.347412 184.0
1418.366577 200.0
1418.494019 144.0
1420.271118 72.0
1420.458618 152.0
1422.131958 196.0
1422.37207 80.0
1422.499756 140.0
1422.927612 164.0
1425.984863 188.0
1426.135132 76.0
1427.781738 160.0
1430.13855 220.0
1432.327637 120.0
1433.322144 128.0
1435.643799 140.0
1436.631836 100.0
1437.491943 208.0
1440.738525 180.0
1441.380737 140.0
1442.650513 172.0
1446.28894 56.0
1449.787842 64.0
1449.871216 60.0
1450.735352 244.0
1451.046143 144.0
1452.062256 164.0
1456.866943 128.0
1457.125244 104.0
1459.815918 140.0
1460.196167 176.0
1460.591675 48.0
1462.006836 208.0
1462.646118 120.0
1464.679199 124.0
1465.303833 168.0
1467.758057 152.0
1468.024902 224.0
1470.870605 180.0
1472.420532 180.0
1472.848267 184.0
1472.924683 156.0
1473.14624 132.0
1478.077393 256.0
1479.125977 104.0
1479.263672 96.0
1479.906738 136.0
1482.318604 164.0
1483.852539 204.0
1484.16687 100.0
1487.757446 44.0
1488.171997 144.0
1488.233398 136.0
1490.722168 184.0
1491.918701 208.0
1492.689941 48.0
1494.774536 172.0
1494.943848 100.0
1499.387329 160.0
1500.011597 208.0
1502.687622 156.0
1504.007202 136.0
