>compound MLS001159952-01!
>formula C19H20N2O3
>ionization [M+H]+
>parentmass 325.155212
#inchi InChI=1S/C19H20N2O3/c1-24-16-5-2-4-14(9-16)19(23)20-10-13-8-15(12-20)17-6-3-7-18(22)21(17)11-13/h2-7,9,13,15H,8,10-12H2,1H3/t13-,15+/m1/s1
#inchikey BPHFMWMNFVTTMB
#Ion_Source LC-ESI
#Instrument qTof
#Compound_Source NIH Natural Product Library
#PI Dorrestein
#Data_Collector VVP/LMS
#Scan -1
#Precursor_MZ 325.155
#ExactMass 324.147
#Charge 1
#CAS_Number N/A
#Pubmed_ID N/A
#Smiles COc1cccc(c1)C(=O)N2C[C@H]3C[C@@H](C2)c4cccc(=O)n4C3
#INCHI_AUX N/A
#Library_Class 1
#SpectrumID CCMSLIB00000080213
#IonMode Positive
#UpdateWorkflowName UPDATE-SINGLE-ANNOTATED-GOLD
#LibraryQualityString Gold
#TaskID b1d8e8f6646f4e71acdff9ca3d919d08
##Scan# 1559
#SpectrumFile p2-F05_GF5_01_18041.mzXML
#LibraryName NIH_Natural_Products_Library.mgf
#MQScore -1
#Organism NIH_Natural_Products_Library
#TIC_Query 0
#RT_Query -1
#MZErrorPPM -1
#SharedPeaks 0
#MassDiff 0
#LibMZ -1
#SpecMZ 325.155
#SpecCharge 0
#internalFilename spec-00000.mgf

>collision 10
95.036659 144.0
95.316269 136.0
95.349312 160.0
95.448143 200.0
95.504852 264.0
96.020325 144.0
96.038551 240.0
96.122444 184.0
96.243462 80.0
96.524841 180.0
97.499146 180.0
97.69577 152.0
97.989342 172.0
98.772858 152.0
98.90345 196.0
99.057907 176.0
99.077461 280.0
99.254112 92.0
99.653076 272.0
99.668976 176.0
99.788231 164.0
100.52124 60.0
100.748856 252.0
101.002731 84.0
101.176834 84.0
101.296989 152.0
101.746567 176.0
101.858665 192.0
102.111923 220.0
102.30912 140.0
102.323212 60.0
102.704086 188.0
103.136192 228.0
103.445679 232.0
103.467949 204.0
103.602875 224.0
103.634026 100.0
103.794159 216.0
103.958473 188.0
104.064026 120.0
104.248741 192.0
104.535606 124.0
104.62516 72.0
104.671989 172.0
104.692352 236.0
104.751419 96.0
104.796242 172.0
104.853302 232.0
104.985817 48.0
105.279686 156.0
105.361389 92.0
105.456474 168.0
105.490135 184.0
105.969032 176.0
106.225296 156.0
106.266327 140.0
106.381256 176.0
106.412056 176.0
106.586639 232.0
106.825134 160.0
106.8545 220.0
106.876572 156.0
106.918327 220.0
106.985657 328.0
107.015274 176.0
107.048897 15700.0
107.082436 156.0
107.136803 152.0
107.206047 88.0
107.224594 136.0
107.28437 72.0
107.31736 144.0
107.403328 64.0
107.455544 136.0
107.695007 128.0
107.709473 160.0
107.771446 44.0
107.798309 140.0
107.837578 100.0
108.053497 908.0
108.168526 76.0
108.317619 164.0
108.439873 68.0
108.499985 76.0
108.638939 56.0
108.672127 192.0
108.719856 124.0
108.917099 124.0
109.050079 232.0
109.497406 188.0
109.699516 68.0
109.716194 176.0
109.766235 200.0
109.895561 104.0
110.0354 84.0
110.056282 132.0
110.077164 156.0
110.14817 260.0
110.348793 144.0
110.470207 152.0
110.491013 124.0
110.882591 136.0
110.974823 140.0
111.045616 512.0
111.109055 152.0
111.169907 196.0
111.4702 120.0
111.510132 156.0
111.524841 136.0
111.539558 240.0
111.836143 96.0
112.040405 224.0
112.204788 208.0
112.261719 132.0
112.350311 160.0
112.529701 140.0
112.666985 164.0
112.821259 168.0
113.111069 220.0
113.522102 124.0
113.683327 88.0
113.753372 152.0
113.959373 72.0
113.999748 168.0
114.201721 40.0
114.237885 144.0
114.374069 252.0
114.444321 152.0
114.883369 108.0
114.981522 180.0
115.053871 192.0
115.103203 180.0
115.235687 148.0
115.51783 152.0
116.046822 128.0
116.166916 204.0
116.192665 176.0
116.347183 52.0
116.516846 188.0
117.058983 604.0
117.121338 148.0
117.151497 136.0
117.502907 120.0
117.595695 160.0
117.673409 192.0
117.742508 180.0
117.962898 200.0
118.01046 212.0
118.036407 36.0
118.068848 160.0
118.348 156.0
118.560287 96.0
118.640488 160.0
118.664337 132.0
119.139633 56.0
119.261322 168.0
119.333061 324.0
119.641998 144.0
120.058182 96.0
120.193428 128.0
120.289459 164.0
120.715508 176.0
120.982445 80.0
121.027397 60.0
121.064613 272.0
121.14669 136.0
121.172981 176.0
121.33297 80.0
121.519394 260.0
121.765251 188.0
121.800392 176.0
121.987175 168.0
122.053131 196.0
123.139999 256.0
123.185974 204.0
123.398132 52.0
123.431297 180.0
123.555161 232.0
123.806587 196.0
124.694931 176.0
124.752724 48.0
125.059357 5308.0
125.099762 72.0
125.173233 168.0
125.262321 136.0
125.324699 72.0
125.563225 204.0
125.937325 120.0
126.062042 212.0
126.085655 164.0
126.525009 48.0
126.54422 88.0
126.633797 208.0
126.828728 128.0
126.891502 128.0
126.907196 80.0
126.976097 132.0
127.061951 160.0
127.715385 132.0
127.765152 152.0
127.861908 116.0
128.172684 124.0
128.244797 132.0
128.265076 160.0
128.7276 148.0
128.903793 172.0
129.014542 116.0
129.07106 108.0
129.118561 168.0
129.263184 296.0
129.487457 188.0
129.562271 180.0
129.938568 196.0
130.006638 104.0
130.067917 176.0
130.133759 112.0
130.267746 176.0
130.406357 184.0
130.679245 176.0
130.79303 80.0
131.054932 88.0
131.150635 184.0
131.26236 160.0
131.289719 188.0
131.527008 152.0
131.609192 204.0
132.038864 164.0
132.080307 376.0
132.203522 156.0
132.28363 124.0
132.652451 148.0
132.835907 164.0
132.86113 204.0
132.888672 108.0
132.948334 208.0
133.063095 208.0
133.095245 56.0
133.458282 132.0
133.6492 232.0
133.761963 72.0
133.884003 152.0
133.907028 192.0
134.00148 100.0
134.188171 208.0
134.255035 148.0
134.430359 204.0
134.476227 244.0
134.518066 128.0
134.617355 108.0
134.645065 172.0
134.695877 184.0
134.721283 128.0
134.737457 124.0
134.774429 136.0
134.804245 124.0
134.841446 176.0
134.870956 236.0
134.936218 116.0
134.957031 180.0
135.004883 212.0
135.044495 66500.0
135.098099 40.0
135.122818 100.0
135.163818 60.0
135.189804 76.0
135.212479 132.0
135.249176 136.0
135.263214 80.0
135.301758 40.0
135.325928 92.0
135.348129 88.0
135.375854 32.0
135.396698 64.0
135.42514 408.0
135.47934 100.0
135.526428 116.0
135.56813 104.0
135.596603 76.0
135.637665 80.0
135.681717 48.0
135.717728 92.0
135.73851 168.0
135.802292 60.0
135.822067 84.0
135.850815 96.0
135.900986 140.0
135.939178 32.0
135.973984 52.0
136.047592 6432.0
136.102402 100.0
136.126434 48.0
136.162048 100.0
136.182938 96.0
136.252563 72.0
136.310715 168.0
136.329315 108.0
136.384399 80.0
136.406006 68.0
136.492035 72.0
136.662994 56.0
136.727463 80.0
136.752594 116.0
136.789841 160.0
136.80687 128.0
136.893753 108.0
136.930252 184.0
136.935532 56.0
136.945023 160.0
136.983109 76.0
136.99942 108.0
137.049423 364.0
137.111481 220.0
137.147064 56.0
137.171402 80.0
137.180603 64.0
137.189499 128.0
137.244141 56.0
137.311768 44.0
137.428406 172.0
137.465744 68.0
137.797302 128.0
137.886108 112.0
138.056778 176.0
138.138626 88.0
138.272003 136.0
138.398422 84.0
138.510834 72.0
138.649063 48.0
139.200363 44.0
139.682175 160.0
141.059296 136.0
142.01593 144.0
142.06427 316.0
142.614273 100.0
142.752167 36.0
142.840164 140.0
143.042435 184.0
143.07576 128.0
143.714508 52.0
143.802795 112.0
143.838608 184.0
144.077408 32.0
144.239914 48.0
144.285324 112.0
144.414459 76.0
144.627411 104.0
145.168869 96.0
145.540802 68.0
145.699326 44.0
145.951691 60.0
146.056961 316.0
147.06456 184.0
147.576843 44.0
148.085037 188.0
148.307953 104.0
149.043289 84.0
149.549118 172.0
152.828445 76.0
153.01796 208.0
153.565018 184.0
158.029205 96.0
158.542542 68.0
159.058929 172.0
160.075104 1912.0
160.218506 40.0
160.342468 136.0
161.023178 44.0
161.077332 164.0
162.086029 212.0
162.344254 72.0
164.080948 172.0
172.390381 60.0
173.20668 68.0
174.091736 204.0
176.306122 224.0
178.017471 88.0
178.223343 20.0
181.384567 140.0
183.069168 176.0
183.724152 128.0
183.823975 80.0
184.44516 60.0
187.226212 132.0
189.094376 272.0
191.438202 204.0
192.629715 184.0
193.866486 80.0
197.100052 76.0
199.209747 60.0
205.098541 96.0
207.904312 80.0
209.079727 64.0
216.099396 116.0
217.089951 144.0
217.799713 52.0
218.952667 132.0
219.465408 76.0
220.008286 160.0
220.611801 124.0
226.664871 60.0
227.054596 172.0
227.726883 72.0
231.206146 144.0
245.458649 56.0
248.006622 140.0
249.080185 144.0
249.173981 108.0
251.005859 152.0
253.601395 184.0
254.121475 128.0
256.360046 48.0
257.62674 120.0
260.031494 188.0
270.305115 88.0
273.616913 56.0
274.265869 48.0
274.542816 136.0
277.489044 148.0
277.804108 152.0
280.771088 132.0
282.107788 300.0
283.10376 188.0
285.745453 112.0
291.656738 76.0
292.435638 84.0
296.246399 140.0
301.521271 176.0
306.633545 160.0
308.595398 164.0
310.121704 28.0
311.469086 188.0
317.185516 128.0
318.384735 124.0
323.92395 120.0
324.368286 64.0
324.985138 80.0
325.155212 4464.0
325.397888 32.0
325.433777 32.0
325.530731 48.0
325.56665 88.0
325.703125 84.0
325.762329 84.0
326.001343 44.0
326.037262 96.0
326.15564 748.0
326.421936 68.0
326.8284 60.0
327.154266 128.0
327.422363 84.0
328.081757 44.0
328.474823 40.0
339.209686 136.0
345.240662 120.0
348.305817 124.0
358.260284 124.0
363.109161 176.0
381.119141 96.0
381.76828 40.0
385.647522 108.0
399.126678 132.0
399.83078 76.0
448.655945 144.0
455.685669 136.0
455.864136 248.0
469.11557 56.0
472.016907 108.0
472.354248 100.0
542.263611 72.0
550.045227 44.0
575.526306 52.0
587.539612 80.0
619.633362 96.0
649.208801 112.0
659.028015 108.0
711.579712 224.0
724.566406 132.0
728.998413 40.0
737.324585 180.0
758.952637 172.0
778.775757 192.0
811.935913 164.0
819.177185 172.0
830.145203 132.0
833.2677 216.0
841.584534 216.0
857.298645 192.0
862.457947 104.0
864.042664 172.0
878.305847 152.0
880.448303 120.0
880.542786 184.0
883.989319 144.0
891.877197 140.0
902.901306 144.0
915.985901 144.0
924.37793 200.0
936.879395 40.0
949.722412 180.0
951.489685 128.0
959.672485 228.0
963.282837 160.0
968.323853 164.0
975.509094 148.0
982.708374 116.0
999.796387 180.0
1005.487244 48.0
1017.787109 48.0
1024.184814 232.0
1025.185059 100.0
1030.104248 108.0
1036.828857 100.0
1045.382812 60.0
1045.678833 76.0
1050.466309 164.0
1054.689331 164.0
1054.734619 140.0
1058.189087 212.0
1060.255371 156.0
1062.03186 200.0
1062.356201 140.0
1066.050537 204.0
1071.392456 184.0
1072.891357 120.0
1076.473389 176.0
1083.668457 192.0
1087.727783 184.0
1091.748779 80.0
1094.374268 188.0
1096.422974 168.0
1103.54541 180.0
1106.19165 168.0
1110.1073 156.0
1110.53833 196.0
1110.956299 208.0
1112.210449 172.0
1113.86377 116.0
1116.801758 116.0
1118.611572 176.0
1125.36499 152.0
1127.308716 92.0
1128.231079 132.0
1128.786011 152.0
1130.337891 32.0
1133.143433 180.0
1134.269287 220.0
1141.963989 152.0
1142.65686 232.0
1145.686401 160.0
1150.643188 152.0
1151.473755 172.0
1154.447388 240.0
1155.265747 196.0
1160.99585 216.0
1161.633423 132.0
1162.942993 172.0
1163.0448 124.0
1164.253296 112.0
1167.760132 152.0
1167.943848 188.0
1168.161499 168.0
1169.066406 180.0
1171.156494 192.0
1172.894043 112.0
1180.821045 248.0
1181.166626 216.0
1185.010376 212.0
1185.394043 160.0
1186.147949 116.0
1187.169556 144.0
1189.282593 184.0
1192.627563 176.0
1193.5625 156.0
1195.942871 100.0
1197.795044 120.0
1200.03479 180.0
1206.303345 172.0
1209.464478 160.0
1214.515625 68.0
1216.20166 224.0
1216.340576 188.0
1216.888916 148.0
1218.41687 176.0
1219.132568 204.0
1220.293335 300.0
1221.176514 124.0
1222.978516 144.0
1229.557861 136.0
1230.165161 180.0
1230.479248 180.0
1230.71106 84.0
1234.091431 168.0
1235.336304 204.0
1236.371826 204.0
1236.714722 152.0
1237.722778 128.0
1240.924805 140.0
1242.699341 208.0
1248.649048 60.0
1251.210327 116.0
1252.858276 112.0
1253.562866 136.0
1256.460815 188.0
1256.785278 224.0
1257.850952 192.0
1259.33374 120.0
1260.760864 176.0
1262.563599 176.0
1262.917236 164.0
1263.851074 140.0
1265.500244 156.0
1266.824585 120.0
1267.10791 152.0
1267.334595 160.0
1267.972412 136.0
1272.966675 168.0
1274.465454 184.0
1274.650146 176.0
1276.846802 164.0
1277.337524 36.0
1278.967041 120.0
1280.761353 156.0
1281.779297 192.0
1284.539185 252.0
1290.194946 212.0
1290.974365 220.0
1291.081543 196.0
1291.460693 140.0
1291.868408 136.0
1292.94873 192.0
1297.898682 200.0
1298.24292 132.0
1300.789917 208.0
1304.405518 192.0
1304.532471 172.0
1305.59668 180.0
1307.013794 96.0
1308.050049 224.0
1312.300537 204.0
1313.274048 224.0
1313.815063 168.0
1313.944946 140.0
1314.774658 180.0
1317.005615 160.0
1317.085083 36.0
1318.147095 188.0
1318.949341 136.0
1319.28186 208.0
1320.981201 176.0
1321.256104 224.0
1322.059204 180.0
1322.12439 156.0
1324.104004 272.0
1325.071411 196.0
1325.781494 176.0
1326.401245 124.0
1328.377197 188.0
1331.0625 144.0
1332.493408 232.0
1332.856689 108.0
1333.118286 204.0
1333.387207 176.0
1333.437988 116.0
1333.612427 168.0
1334.477539 228.0
1335.706543 104.0
1335.990234 128.0
1336.987061 132.0
1338.035278 64.0
1339.018188 184.0
1340.795898 188.0
1342.501831 140.0
1344.719604 144.0
1345.780273 48.0
1346.968506 152.0
1348.334717 144.0
1350.19165 108.0
1351.062134 148.0
1351.259644 176.0
1352.14502 172.0
1354.217041 52.0
1358.901245 140.0
1359.693726 160.0
1359.994629 116.0
1360.48645 76.0
1362.741089 148.0
1367.359009 360.0
1367.609253 164.0
1371.159302 176.0
1371.54248 176.0
1371.903687 128.0
1372.338745 180.0
1373.01709 176.0
1374.764771 160.0
1375.186157 148.0
1375.724976 52.0
1379.492432 184.0
1383.45752 156.0
1386.583252 152.0
1387.324463 196.0
1387.472778 132.0
1388.681396 168.0
1390.669922 100.0
1391.52356 140.0
1391.716553 204.0
1393.476807 196.0
1393.734253 232.0
1393.885498 188.0
1393.974731 168.0
1395.684326 216.0
1397.543823 204.0
1397.990234 196.0
1401.355835 180.0
1402.66748 128.0
1403.629272 136.0
1406.38208 156.0
1408.726685 196.0
1408.823853 240.0
1411.035889 192.0
1411.614624 184.0
1413.609009 156.0
1413.953247 220.0
1414.3125 148.0
1416.798584 152.0
1420.666748 228.0
1422.0625 64.0
1424.788208 268.0
1425.276611 208.0
1425.900269 164.0
1427.057983 116.0
1427.193237 168.0
1428.622192 168.0
1430.066895 160.0
1431.935791 132.0
1432.521606 156.0
1432.966064 140.0
1435.114136 272.0
1435.174438 184.0
1436.796021 108.0
1440.359131 208.0
1442.127197 200.0
1442.8302 68.0
1444.244263 156.0
1445.432007 124.0
1445.613525 100.0
1446.385498 40.0
1447.76355 196.0
1449.255737 192.0
1450.384888 148.0
1450.817017 212.0
1452.636963 156.0
1454.253174 28.0
1455.050171 212.0
1457.739014 116.0
1459.350464 160.0
1459.426514 148.0
1459.791504 144.0
1460.194458 84.0
1460.848633 160.0
1462.241089 148.0
1463.6875 200.0
1463.77124 124.0
1464.091064 216.0
1464.723267 164.0
1465.576416 196.0
1466.574829 132.0
1468.244507 96.0
1468.786011 140.0
1468.999512 148.0
1469.968506 112.0
1470.05249 180.0
1471.754639 100.0
1473.488403 100.0
1473.855103 212.0
1475.207886 52.0
1477.226685 184.0
1478.795288 168.0
1478.932983 204.0
1480.088989 116.0
1481.47522 76.0
1482.800903 132.0
1483.590332 220.0
1484.518066 176.0
1484.809448 120.0
1486.558594 240.0
1487.778931 148.0
1488.761719 144.0
1488.869263 192.0
1494.265259 256.0
1497.421387 72.0
1497.83728 88.0
1499.170166 168.0
1500.642334 216.0
1500.881348 112.0
1501.799072 208.0
1502.678467 76.0
