>compound MLS001160389-01!(2S)-1-[2-[(4,8,8-trimethyl-2-oxo-9,10-dihydropyrano[2,3-h]chromen-5-yl)oxy]acetyl]pyrrolidine-2-carboxylic acid
>formula C22H25NO7
>ionization [M+H]+
>parentmass 416.171
#inchi InChI=1S/C22H25NO7/c1-12-9-18(25)29-20-13-6-7-22(2,3)30-15(13)10-16(19(12)20)28-11-17(24)23-8-4-5-14(23)21(26)27/h9-10,14H,4-8,11H2,1-3H3,(H,26,27)/t14-/m0/s1
#inchikey YVARRMRHNHPTMF
#Ion_Source LC-ESI
#Instrument qTof
#Compound_Source NIH Natural Product Library
#PI Dorrestein
#Data_Collector VVP/LMS
#Scan -1
#Precursor_MZ 416.171
#ExactMass 415.163
#Charge 1
#CAS_Number N/A
#Pubmed_ID N/A
#Smiles Cc1cc(=O)oc2c3CCC(C)(C)Oc3cc(OCC(=O)N4CCC[C@H]4C(=O)O)c12
#INCHI_AUX N/A
#Library_Class 1
#SpectrumID CCMSLIB00000079526
#IonMode Positive
#UpdateWorkflowName UPDATE-SINGLE-ANNOTATED-GOLD
#LibraryQualityString Gold
#TaskID b1d8e8f6646f4e71acdff9ca3d919d08
##Scan# 2012
#SpectrumFile p1-F07_GF7_01_17939.mzXML
#LibraryName NIH_Natural_Products_Library.mgf
#MQScore -1
#Organism NIH_Natural_Products_Library
#TIC_Query 0
#RT_Query -1
#MZErrorPPM -1
#SharedPeaks 0
#MassDiff 0
#LibMZ -1
#SpecMZ 416.171
#SpecCharge 0
#internalFilename spec-00000.mgf

>collision 10
94.976242 96.0
95.044144 164.0
95.189728 136.0
95.294617 200.0
95.448166 120.0
95.827713 96.0
95.977791 136.0
96.057755 100.0
96.085068 140.0
96.375977 168.0
96.54995 88.0
96.718208 104.0
96.767151 152.0
96.829811 180.0
96.912086 184.0
97.068893 156.0
97.157158 156.0
97.323982 124.0
97.856812 140.0
98.059395 7048.0
98.134621 48.0
98.148422 192.0
98.205612 212.0
98.223366 96.0
98.256485 152.0
98.464157 144.0
98.638031 76.0
98.796227 180.0
99.021881 184.0
99.063675 428.0
99.278969 116.0
99.303322 40.0
99.342987 180.0
99.361588 140.0
99.385773 156.0
99.406479 128.0
99.537491 116.0
99.643677 148.0
99.692436 84.0
99.716286 84.0
99.740135 60.0
99.804108 112.0
99.882904 80.0
100.018608 184.0
100.044487 172.0
100.07505 6348.0
100.1082 172.0
100.148033 56.0
100.196899 68.0
100.26976 124.0
100.536804 160.0
100.612648 124.0
100.772423 48.0
100.802155 144.0
101.079277 680.0
101.270531 108.0
101.533081 104.0
101.687561 140.0
101.964722 176.0
101.994865 152.0
102.014969 160.0
102.053482 152.0
102.106178 232.0
102.133606 68.0
102.5121 56.0
102.899376 200.0
103.053467 176.0
103.263107 128.0
103.281311 176.0
103.331879 188.0
103.390564 136.0
103.607216 184.0
103.761238 108.0
103.797737 132.0
103.854523 148.0
104.024971 148.0
104.19149 132.0
104.614487 132.0
104.71019 144.0
105.030182 132.0
105.071815 344.0
105.322067 164.0
105.369049 160.0
105.712555 124.0
105.956215 176.0
106.134529 148.0
106.499817 144.0
106.834877 164.0
107.049271 664.0
107.667595 144.0
107.692383 216.0
107.954849 164.0
107.969322 72.0
108.053719 200.0
108.205215 212.0
108.468307 184.0
108.789841 144.0
109.027504 832.0
109.0765 76.0
109.671806 220.0
109.690567 200.0
109.771881 180.0
109.813591 128.0
110.871475 120.0
111.043388 228.0
111.069786 164.0
111.583046 140.0
111.629311 196.0
112.073967 1156.0
112.18515 108.0
112.389725 200.0
113.006683 200.0
113.036308 136.0
113.077507 168.0
113.133667 208.0
113.1866 108.0
113.557457 128.0
113.962914 120.0
114.054688 988.0
114.23291 156.0
114.322273 84.0
114.744011 76.0
114.85704 276.0
115.051224 164.0
115.070435 160.0
115.313957 144.0
115.375946 124.0
115.669014 164.0
115.788918 160.0
115.977463 172.0
116.039627 132.0
116.071838 676.0
116.402245 180.0
116.632118 132.0
116.688011 52.0
117.034416 152.0
117.075325 280.0
117.103325 144.0
117.251984 120.0
117.448181 108.0
117.493484 160.0
118.373169 40.0
118.700378 104.0
118.997635 32.0
119.045784 184.0
119.110565 128.0
119.308311 72.0
119.410507 120.0
120.048607 168.0
120.081314 188.0
120.098763 204.0
120.336632 112.0
120.445816 132.0
120.47422 148.0
120.627182 172.0
120.775871 188.0
120.795563 236.0
120.813065 104.0
120.915855 176.0
121.025078 220.0
121.064095 1500.0
121.248795 168.0
121.533867 92.0
121.564583 164.0
121.727028 120.0
121.876389 216.0
121.909355 216.0
122.069214 200.0
122.186859 76.0
122.29863 120.0
122.567299 68.0
122.618034 188.0
122.860535 112.0
123.076828 168.0
123.147491 180.0
123.185043 108.0
123.27784 228.0
123.313202 184.0
123.576347 156.0
124.107918 196.0
124.442955 164.0
125.058723 172.0
125.192307 144.0
125.256889 120.0
125.513184 52.0
125.546638 228.0
125.72464 96.0
126.218788 32.0
126.355217 208.0
126.397728 156.0
126.444725 148.0
126.65519 72.0
126.883759 192.0
127.543739 236.0
127.694389 180.0
127.768616 184.0
127.809113 192.0
127.953163 220.0
128.033661 192.0
128.070312 14888.0
128.100876 148.0
128.136856 36.0
128.16037 64.0
128.194168 188.0
128.297852 136.0
128.315887 104.0
128.385788 56.0
128.417358 52.0
128.464722 44.0
128.929855 156.0
129.038345 168.0
129.072723 1268.0
129.109314 104.0
129.144638 104.0
129.248703 152.0
129.28717 64.0
129.35733 64.0
129.744705 116.0
129.787781 216.0
129.928406 124.0
130.050934 140.0
130.066833 244.0
130.083679 216.0
130.173538 216.0
130.225769 112.0
130.296188 152.0
131.052231 360.0
131.078873 196.0
131.103943 128.0
131.208801 180.0
131.256683 132.0
131.703979 144.0
131.763382 204.0
131.934845 148.0
132.422165 204.0
132.473022 160.0
132.928818 104.0
132.967834 176.0
133.061371 212.0
134.311508 220.0
134.357651 88.0
134.731644 168.0
134.967377 168.0
135.010269 116.0
135.041321 1144.0
135.233429 108.0
135.386215 164.0
135.620621 116.0
135.696716 132.0
135.863708 60.0
135.921707 132.0
135.986328 52.0
136.049362 168.0
137.055786 148.0
137.093704 104.0
137.226562 56.0
137.31517 96.0
137.394485 160.0
137.527496 176.0
137.576508 104.0
137.599854 108.0
137.92691 88.0
138.118637 152.0
138.32222 100.0
138.347961 96.0
138.551712 244.0
138.844711 124.0
139.063522 120.0
140.067169 136.0
140.099869 156.0
140.222397 104.0
140.403931 108.0
140.592667 172.0
140.958694 164.0
141.346222 180.0
141.931549 136.0
141.976608 172.0
142.069107 164.0
142.251846 112.0
142.629532 168.0
143.054153 260.0
143.600967 192.0
143.844345 124.0
144.130936 104.0
144.300308 144.0
144.396286 188.0
144.47522 124.0
145.253769 164.0
145.32814 56.0
145.529755 116.0
146.065674 160.0
147.045105 188.0
147.08493 196.0
147.389221 188.0
148.049988 176.0
148.5392 196.0
148.677505 176.0
148.708725 148.0
148.767303 160.0
148.820724 128.0
148.990723 188.0
149.059891 1928.0
149.129227 80.0
149.192429 104.0
149.489166 112.0
149.567047 256.0
149.681473 136.0
149.742355 160.0
149.866592 104.0
150.06488 328.0
150.283524 100.0
150.393341 132.0
150.947906 224.0
151.033508 200.0
151.057968 160.0
151.170517 188.0
151.376144 244.0
151.496155 184.0
151.844208 152.0
152.042938 148.0
152.455505 160.0
152.475174 204.0
152.86618 124.0
153.331619 228.0
153.38092 108.0
153.943436 140.0
154.01506 176.0
154.160828 64.0
154.813904 96.0
154.878296 148.0
154.900589 40.0
154.977386 152.0
155.406326 64.0
155.527924 176.0
155.650635 192.0
155.786652 188.0
155.895782 172.0
155.957169 148.0
155.987457 52.0
156.019775 200.0
156.064804 19488.0
156.121719 48.0
156.15654 32.0
156.203796 104.0
156.22731 80.0
156.396759 48.0
156.597076 148.0
156.651871 112.0
157.068573 1448.0
157.277756 92.0
157.360123 184.0
157.552429 96.0
157.624893 112.0
157.749847 48.0
157.827362 112.0
157.894882 44.0
158.032455 100.0
158.072617 80.0
158.162582 60.0
158.212646 108.0
158.259476 108.0
158.277756 80.0
158.325333 132.0
158.429214 168.0
158.533249 108.0
158.678635 168.0
158.72377 112.0
158.811539 68.0
159.043762 1480.0
159.100113 84.0
159.228165 68.0
159.253281 52.0
159.519638 124.0
160.046417 208.0
160.498993 108.0
160.910248 148.0
161.058456 1076.0
161.102188 100.0
161.734344 172.0
162.067764 128.0
162.431168 160.0
162.656998 148.0
162.750931 180.0
163.037384 2252.0
163.190491 136.0
163.696854 144.0
163.834381 120.0
163.956696 168.0
164.041412 408.0
164.752777 108.0
164.972549 140.0
165.063736 224.0
165.15155 44.0
166.068497 108.0
166.687195 220.0
167.623856 176.0
167.832642 180.0
168.046722 76.0
168.364212 208.0
168.896637 184.0
168.976822 156.0
169.06221 108.0
169.178696 124.0
169.302979 60.0
169.352173 92.0
170.072983 148.0
170.14827 72.0
170.574295 152.0
170.751114 64.0
170.94101 128.0
170.972244 116.0
171.600006 160.0
172.02002 224.0
172.046127 176.0
172.147949 136.0
172.581711 200.0
172.62355 152.0
172.827576 144.0
172.968903 252.0
173.031723 148.0
173.063278 168.0
173.277908 152.0
173.419418 200.0
173.852158 144.0
174.060196 164.0
174.359009 48.0
174.877121 216.0
174.974518 164.0
175.036926 428.0
175.071945 332.0
175.198364 72.0
175.498825 236.0
175.810089 56.0
175.963181 196.0
176.045242 1172.0
176.077148 176.0
176.327713 188.0
176.406998 52.0
176.436081 76.0
176.478378 124.0
176.658218 120.0
176.779938 136.0
176.97261 116.0
177.013916 204.0
177.053879 4396.0
177.309586 44.0
177.381149 76.0
177.428864 40.0
177.792252 68.0
177.885147 132.0
178.0578 780.0
178.174606 48.0
178.387207 68.0
178.794159 68.0
178.928696 184.0
179.116318 112.0
179.497421 120.0
179.526764 124.0
179.732162 144.0
179.828232 76.0
180.060501 192.0
180.194061 152.0
180.290253 132.0
181.288452 136.0
181.899948 220.0
182.249084 148.0
182.571655 132.0
183.5168 268.0
183.576126 116.0
184.078049 176.0
185.005432 132.0
185.219345 136.0
185.937851 64.0
186.527008 232.0
187.037323 1088.0
188.01709 84.0
188.038757 136.0
188.36235 212.0
188.492249 160.0
188.587891 248.0
188.664429 244.0
188.842178 160.0
188.943375 140.0
189.055115 2608.0
189.14711 212.0
189.452576 60.0
189.559433 68.0
189.658096 80.0
189.715668 188.0
189.762268 136.0
189.937775 96.0
190.055847 472.0
190.118866 100.0
190.668106 112.0
191.02005 152.0
191.042053 160.0
191.073196 212.0
191.174118 124.0
191.291199 172.0
191.487976 116.0
191.526535 188.0
191.661514 116.0
191.804825 144.0
192.03093 148.0
192.058502 160.0
193.047226 164.0
193.420731 92.0
193.595154 188.0
193.741959 176.0
194.05513 124.0
194.260345 216.0
194.840546 200.0
194.951691 132.0
195.046188 48.0
195.160172 172.0
195.346497 152.0
195.544052 144.0
196.106659 208.0
197.081039 196.0
197.67897 128.0
197.718155 56.0
198.020523 144.0
198.418427 292.0
198.912155 48.0
199.038132 472.0
199.299713 108.0
199.592041 160.0
199.634216 112.0
199.895828 128.0
200.056259 80.0
200.115372 100.0
200.168884 220.0
201.052246 220.0
201.082138 180.0
201.12999 224.0
201.155655 112.0
203.065399 204.0
203.074722 192.0
203.086838 56.0
203.099258 112.0
203.380508 104.0
203.499741 124.0
203.883209 148.0
203.994064 52.0
204.043579 508.0
204.255676 84.0
204.400757 148.0
204.443451 180.0
204.4776 256.0
204.517441 124.0
204.619919 172.0
204.6427 132.0
204.75705 156.0
204.787933 188.0
204.901794 144.0
204.977783 156.0
205.008606 148.0
205.048843 45984.0
205.121307 76.0
205.15007 44.0
205.193237 52.0
205.220093 80.0
205.2314 52.0
205.247757 68.0
205.326599 68.0
205.349411 88.0
205.397583 36.0
205.432129 52.0
205.466095 132.0
205.516846 64.0
205.538055 124.0
205.564194 60.0
205.611893 60.0
205.665039 64.0
205.709885 84.0
205.761642 88.0
205.838318 52.0
205.86026 80.0
205.89032 144.0
205.929352 312.0
206.007278 84.0
206.051575 4104.0
206.257385 32.0
206.285965 124.0
206.414627 80.0
206.466095 112.0
206.497559 108.0
206.580505 68.0
206.617691 136.0
206.67778 64.0
206.726425 92.0
206.81514 52.0
206.859512 80.0
206.895294 44.0
207.05162 944.0
207.13298 80.0
207.165665 88.0
207.227509 60.0
207.264755 84.0
207.339264 44.0
207.362198 48.0
207.411575 156.0
207.51413 72.0
207.588669 68.0
207.647598 124.0
207.700531 80.0
208.053009 188.0
208.25737 120.0
208.511246 120.0
208.645294 48.0
209.036453 176.0
209.059753 128.0
209.214905 56.0
210.191971 100.0
211.08165 144.0
211.330399 232.0
212.138412 176.0
213.091934 148.0
213.584915 220.0
215.064682 124.0
215.104874 472.0
215.198959 184.0
215.473511 176.0
216.106781 168.0
216.277679 88.0
216.365494 132.0
216.86055 72.0
216.96608 56.0
217.004181 184.0
217.048462 8184.0
217.142014 64.0
217.188934 80.0
217.218277 184.0
217.256409 60.0
217.340271 184.0
217.385498 172.0
217.450073 56.0
217.549866 64.0
217.632065 72.0
217.670242 72.0
218.053375 1472.0
218.319672 52.0
218.36673 52.0
218.419678 76.0
218.554993 48.0
218.744888 100.0
219.063126 424.0
219.09967 300.0
219.264679 84.0
219.503464 196.0
219.621429 92.0
219.67453 108.0
219.724686 88.0
219.807297 136.0
220.064087 152.0
220.477631 176.0
221.391769 96.0
222.040787 164.0
223.047318 152.0
223.30896 132.0
224.395859 60.0
224.541977 68.0
225.730545 244.0
227.07225 304.0
227.372192 144.0
227.717453 60.0
227.900696 92.0
229.014023 240.0
229.089066 204.0
229.969543 152.0
230.089645 132.0
231.064453 280.0
231.103867 256.0
231.705276 52.0
232.108383 176.0
233.038284 176.0
233.122253 172.0
234.050156 188.0
235.060013 140.0
236.036453 184.0
237.279541 92.0
238.710358 212.0
240.093063 144.0
240.605667 152.0
240.750381 200.0
241.30658 172.0
241.402435 144.0
242.064651 228.0
243.102722 280.0
243.199326 144.0
243.509811 104.0
243.649582 44.0
244.498459 192.0
244.610504 56.0
244.682098 168.0
245.043991 6276.0
245.103134 180.0
245.171127 40.0
245.682495 56.0
246.049438 632.0
246.198746 120.0
246.263077 64.0
246.441147 48.0
246.869385 80.0
247.051437 216.0
247.082077 204.0
247.107101 72.0
247.188461 44.0
248.648804 60.0
250.551178 36.0
251.052338 192.0
255.057419 84.0
255.095566 76.0
256.101074 152.0
257.581085 104.0
258.012482 76.0
259.060547 88.0
259.102997 304.0
259.555725 128.0
260.102631 880.0
261.11145 1340.0
261.257965 64.0
262.114899 168.0
262.688263 80.0
262.939941 184.0
263.055145 316.0
263.129822 208.0
263.786163 108.0
264.058868 192.0
264.135406 168.0
264.274506 72.0
265.362762 124.0
266.264862 48.0
268.093201 60.0
268.155121 88.0
270.700043 56.0
273.110657 2196.0
273.207611 36.0
273.526825 36.0
274.111603 812.0
274.548187 52.0
274.722992 76.0
275.13092 196.0
276.136719 188.0
276.553619 44.0
277.822723 140.0
279.014954 152.0
279.653656 40.0
282.660522 84.0
284.96402 88.0
285.158905 196.0
286.102417 596.0
286.67981 124.0
286.828369 56.0
286.932892 44.0
287.112549 352.0
288.310059 64.0
296.080383 116.0
297.016083 84.0
297.987579 40.0
298.792084 104.0
299.174072 108.0
300.921997 144.0
301.101227 1484.0
301.381378 40.0
302.106628 320.0
302.27002 72.0
302.61615 144.0
303.11145 152.0
303.506592 168.0
303.54129 100.0
304.478241 144.0
305.945587 80.0
307.17572 52.0
307.412964 56.0
310.288116 72.0
313.486694 40.0
314.107208 140.0
315.108276 132.0
315.696533 76.0
315.894592 116.0
316.113953 64.0
316.230743 128.0
316.517487 164.0
318.844604 88.0
319.1138 176.0
320.114624 344.0
323.427734 44.0
325.112213 160.0
329.515991 176.0
332.104248 88.0
332.213074 168.0
332.601349 188.0
333.098816 36.0
333.127869 88.0
336.635284 64.0
337.029785 136.0
342.09021 156.0
342.175659 104.0
348.105133 264.0
349.09494 156.0
350.912018 148.0
351.210358 56.0
353.990906 72.0
354.55658 144.0
355.351532 220.0
357.049377 136.0
358.517609 44.0
358.679657 120.0
358.766357 104.0
359.052948 28.0
359.347168 64.0
359.732086 160.0
360.10672 10104.0
360.453461 60.0
360.638641 80.0
360.709473 76.0
360.759613 60.0
360.797424 72.0
360.891937 72.0
361.10675 2120.0
361.216492 228.0
361.307953 76.0
361.640961 60.0
361.78479 96.0
361.894592 56.0
362.110779 336.0
362.326355 80.0
362.440002 112.0
362.530945 80.0
362.599182 40.0
363.114777 56.0
363.15271 88.0
363.228577 116.0
363.505524 120.0
363.596619 120.0
363.630768 52.0
364.074951 116.0
364.447205 96.0
364.907104 28.0
365.135254 48.0
368.60434 80.0
370.440765 32.0
371.165131 100.0
371.656097 52.0
371.682953 92.0
371.98999 72.0
372.623627 60.0
373.727112 64.0
374.121918 212.0
374.13681 124.0
376.738129 96.0
377.747101 64.0
379.028564 120.0
392.625031 72.0
400.305145 164.0
400.47641 208.0
405.99176 116.0
412.522491 48.0
413.250427 160.0
414.578583 68.0
416.16571 644.0
417.170197 692.0
417.229065 104.0
417.40799 84.0
417.749603 68.0
417.883881 96.0
418.168182 240.0
418.746857 80.0
419.239807 204.0
442.484497 104.0
453.106201 52.0
454.115051 144.0
470.910431 96.0
477.406921 48.0
498.695587 84.0
521.525269 40.0
521.929871 60.0
526.989258 36.0
541.794739 144.0
569.990173 68.0
580.055603 156.0
599.6073 48.0
618.422791 136.0
627.618896 68.0
651.059204 76.0
680.478394 148.0
681.584717 100.0
682.447571 76.0
688.727173 100.0
693.09552 56.0
696.684143 180.0
710.38855 84.0
739.528625 44.0
744.451294 168.0
807.22113 200.0
808.544861 176.0
820.689941 64.0
826.407288 140.0
832.328186 52.0
846.148682 52.0
864.635986 48.0
870.692078 48.0
874.21936 188.0
889.883484 140.0
909.194031 204.0
922.837769 196.0
926.935547 168.0
945.154419 172.0
951.921692 164.0
961.013062 176.0
963.859558 52.0
974.131653 216.0
975.281189 160.0
977.961975 148.0
984.114807 176.0
1006.543518 144.0
1006.701416 144.0
1013.000854 220.0
1019.237427 156.0
1023.187134 220.0
1024.766602 148.0
1025.658813 180.0
1026.908447 176.0
1033.782593 196.0
1039.832397 88.0
1042.68396 172.0
1057.984009 256.0
1062.345337 208.0
1063.701538 216.0
1065.61084 56.0
1068.055054 160.0
1071.935303 148.0
1081.149536 128.0
1085.597534 136.0
1090.27832 160.0
1095.588135 188.0
1099.379395 112.0
1099.933838 72.0
1101.511963 128.0
1101.961182 120.0
1107.127319 116.0
1119.312744 172.0
1127.624878 136.0
1128.019287 164.0
1132.904297 124.0
1133.406738 52.0
1134.452271 120.0
1138.390747 124.0
1138.907837 196.0
1139.001953 88.0
1139.888794 204.0
1140.211304 200.0
1140.930542 160.0
1144.893677 140.0
1148.701782 116.0
1149.153809 180.0
1151.111206 36.0
1152.921631 56.0
1155.761719 192.0
1159.201538 184.0
1164.744385 160.0
1164.791992 56.0
1166.381958 44.0
1175.010132 184.0
1176.170166 200.0
1178.731201 184.0
1188.241699 192.0
1196.413086 216.0
1197.804077 140.0
1199.526733 172.0
1204.260132 220.0
1206.810181 100.0
1207.695312 192.0
1213.463745 180.0
1213.893677 144.0
1215.072754 184.0
1218.036987 68.0
1219.398804 156.0
1226.791016 132.0
1231.766357 88.0
1235.618286 124.0
1241.144409 204.0
1243.873413 184.0
1245.60083 72.0
1245.93811 28.0
1248.665405 200.0
1248.869263 156.0
1249.09436 152.0
1249.340576 152.0
1252.635132 140.0
1254.862061 152.0
1257.239136 148.0
1259.533813 164.0
1262.445679 220.0
1264.100952 192.0
1264.468994 172.0
1270.697632 116.0
1277.090942 104.0
1277.802246 172.0
1279.339478 148.0
1280.357666 80.0
1281.561523 164.0
1286.710938 68.0
1288.110596 188.0
1289.518188 152.0
1290.926514 176.0
1291.741943 72.0
1292.056641 144.0
1296.202271 144.0
1298.144897 160.0
1299.113159 228.0
1305.376099 180.0
1311.012573 128.0
1312.367798 172.0
1313.536133 128.0
1313.788574 148.0
1316.025879 180.0
1318.012207 72.0
1319.36377 196.0
1320.484497 136.0
1322.314941 60.0
1324.943481 172.0
1330.360718 184.0
1331.181152 172.0
1331.383057 100.0
1332.873657 108.0
1336.640259 228.0
1337.964844 100.0
1338.867798 104.0
1344.846191 144.0
1346.350098 188.0
1347.562622 160.0
1348.812256 164.0
1351.064575 140.0
1352.878174 196.0
1353.626343 188.0
1354.329346 68.0
1355.076538 136.0
1356.072144 136.0
1356.263672 152.0
1358.49292 180.0
1359.285278 148.0
1363.177124 124.0
1363.44165 176.0
1364.867798 100.0
1365.956299 184.0
1368.576172 124.0
1368.671875 172.0
1369.047485 164.0
1369.555664 108.0
1370.08606 252.0
1371.921021 192.0
1374.044922 172.0
1374.465454 232.0
1374.620483 128.0
1375.712769 232.0
1377.780518 172.0
1379.332397 176.0
1382.386963 80.0
1385.459595 164.0
1386.007935 148.0
1394.185425 120.0
1394.423218 188.0
1396.63147 212.0
1397.948242 176.0
1398.826538 144.0
1402.126099 136.0
1403.072754 196.0
1403.393311 156.0
1403.482788 188.0
1405.392212 172.0
1406.183228 200.0
1407.885376 168.0
1411.397583 180.0
1412.377197 168.0
1412.541748 244.0
1415.198486 144.0
1418.097534 196.0
1419.07959 148.0
1419.169556 164.0
1419.394531 140.0
1419.709473 200.0
1420.069458 160.0
1424.032349 160.0
1425.414551 192.0
1427.647217 76.0
1427.835205 76.0
1428.777588 72.0
1430.55896 128.0
1432.599731 104.0
1435.192383 124.0
1435.991699 152.0
1437.002563 160.0
1437.23645 92.0
1437.840088 140.0
1438.398682 252.0
1439.251709 96.0
1440.293945 176.0
1440.633789 200.0
1450.493896 236.0
1451.0625 124.0
1451.145874 152.0
1455.690918 192.0
1459.938843 160.0
1461.627563 208.0
1463.667603 148.0
1473.858154 208.0
1476.533691 192.0
1478.583984 184.0
1479.341675 108.0
1480.023071 192.0
1480.137939 184.0
1480.237549 200.0
1482.849854 148.0
1486.968384 188.0
1487.728271 68.0
1492.32251 144.0
1492.791504 140.0
1493.437622 216.0
1494.014526 80.0
1494.183716 184.0
1495.507324 136.0
1496.238525 196.0
1496.638916 68.0
1498.86499 40.0
1500.930786 172.0
1503.152222 220.0
