>compound MLS000728650-01!
>formula C20H24N2O
>ionization [M+H]+
>parentmass 309.1961398400905
#inchi InChI=1S/C20H24N2O/c1-3-11-10-22-15-8-12(11)17-16(22)9-20(19(17)23)13-6-4-5-7-14(13)21(2)18(15)20/h3-7,12,15-19,23H,8-10H2,1-2H3/b11-3+/t12?,15-,16-,17?,18-,19+,20+/m0/s1
#inchikey VBEQZFNVRMPLSM
#Ion_Source LC-ESI
#Instrument qTof
#Compound_Source NIH Natural Product Library
#PI Dorrestein
#Data_Collector VVP/LMS
#Scan -1
#Precursor_MZ 309.197
#ExactMass 308.189
#Charge 1
#CAS_Number N/A
#Pubmed_ID N/A
#Smiles C/C=C/1\CN2[C@H]3C[C@@]45[C@H](O)C3C1C[C@H]2[C@@H]5N(C)c6ccccc64
#INCHI_AUX N/A
#Library_Class 1
#SpectrumID CCMSLIB00000080318
#IonMode Positive
#UpdateWorkflowName UPDATE-SINGLE-ANNOTATED-GOLD
#LibraryQualityString Gold
#TaskID b1d8e8f6646f4e71acdff9ca3d919d08
##Scan# 1459
#SpectrumFile p2-B07_GB7_01_17995.mzXML
#LibraryName NIH_Natural_Products_Library.mgf
#MQScore -1
#Organism NIH_Natural_Products_Library
#TIC_Query 0
#RT_Query -1
#MZErrorPPM -1
#SharedPeaks 0
#MassDiff 0
#LibMZ -1
#SpecMZ 309.197
#SpecCharge 0
#internalFilename spec-00000.mgf

>collision 10
95.074783 104.0
95.088371 340.0
95.199028 120.0
95.214569 172.0
95.473297 152.0
95.646202 108.0
95.731644 156.0
95.759132 44.0
95.90136 380.0
96.000793 60.0
96.080765 152.0
96.248611 132.0
96.263168 220.0
96.311295 168.0
96.59845 164.0
96.690414 108.0
96.715858 192.0
96.74913 116.0
96.792206 200.0
97.113609 148.0
97.195999 188.0
97.220711 196.0
97.343224 176.0
97.394287 164.0
97.411964 200.0
97.525932 176.0
97.710777 116.0
97.752098 168.0
97.773743 140.0
97.895805 96.0
97.931252 124.0
98.1362 136.0
98.37294 156.0
98.388733 120.0
98.546738 168.0
98.606018 152.0
98.760239 148.0
98.791885 220.0
98.813644 136.0
98.866928 168.0
98.910614 116.0
98.952187 176.0
98.993767 168.0
99.094788 180.0
99.150276 224.0
99.324753 120.0
99.632446 180.0
100.03614 128.0
100.183502 136.0
100.231323 164.0
100.408745 96.0
100.544403 68.0
100.875969 136.0
100.89196 204.0
100.927948 128.0
101.138008 176.0
101.154022 108.0
101.198067 136.0
101.242119 76.0
101.274162 92.0
101.442566 184.0
101.502625 168.0
101.600906 172.0
101.671135 172.0
101.720558 160.0
101.729095 100.0
101.736015 148.0
101.906075 52.0
101.936211 72.0
101.9543 152.0
102.044754 132.0
102.113121 176.0
102.20134 192.0
102.417046 168.0
102.433159 184.0
102.75975 184.0
102.896988 240.0
103.05378 488.0
103.086853 96.0
103.12323 252.0
103.34613 144.0
103.490395 152.0
103.671692 196.0
103.754799 204.0
103.821709 156.0
104.053825 124.0
104.237862 176.0
104.389076 144.0
104.489983 200.0
104.512367 204.0
104.605019 168.0
104.622269 140.0
104.791306 144.0
104.817795 180.0
104.903397 64.0
104.960487 212.0
105.050224 144.0
105.070534 824.0
105.176735 40.0
105.462692 128.0
105.614845 172.0
105.869835 128.0
106.066986 696.0
106.095222 136.0
106.29007 88.0
106.571365 180.0
106.943588 136.0
106.962112 168.0
106.992989 272.0
107.01564 124.0
107.074318 548.0
107.149513 64.0
107.170113 120.0
107.205147 232.0
107.254608 48.0
107.429886 136.0
107.528931 144.0
107.70488 184.0
107.830467 160.0
108.004143 204.0
108.022453 136.0
108.081055 4708.0
108.223503 72.0
108.240074 132.0
108.324989 120.0
108.50943 72.0
108.623489 192.0
108.662903 120.0
108.733452 148.0
108.777046 160.0
108.839272 152.0
109.022125 164.0
109.066193 1456.0
109.083885 212.0
109.115662 160.0
109.419418 124.0
109.467308 140.0
109.577698 156.0
109.648544 108.0
109.692322 184.0
109.736099 104.0
109.93718 80.0
110.000908 60.0
110.072762 320.0
110.097374 3924.0
110.157661 128.0
110.17437 48.0
110.239143 52.0
110.294945 172.0
110.310204 60.0
110.335297 192.0
110.402206 212.0
110.426987 80.0
110.563286 128.0
110.607239 116.0
110.638641 140.0
110.678421 188.0
110.726585 60.0
110.812469 188.0
110.908867 164.0
110.990631 76.0
111.08107 156.0
111.10006 220.0
111.355782 204.0
111.389389 168.0
111.486031 36.0
111.521759 172.0
111.570107 204.0
111.671043 192.0
111.835159 40.0
111.849892 216.0
111.885674 144.0
111.904625 208.0
111.995178 152.0
112.012032 208.0
112.030991 88.0
112.092087 132.0
112.113159 152.0
112.13002 192.0
112.155312 88.0
112.176392 152.0
112.298691 160.0
112.456932 168.0
112.570938 220.0
112.691338 172.0
112.790657 176.0
113.059265 152.0
113.313362 156.0
113.432037 112.0
113.533813 144.0
113.550774 76.0
113.595322 40.0
113.7481 148.0
113.807549 120.0
113.890373 140.0
114.499649 172.0
114.6073 124.0
114.718124 120.0
114.811935 160.0
114.920975 172.0
115.05407 1136.0
115.155548 192.0
115.24527 144.0
115.41626 88.0
115.623764 96.0
115.692261 184.0
115.848587 156.0
115.865723 236.0
115.945007 104.0
115.992165 148.0
116.047897 148.0
116.136192 208.0
116.206032 176.0
116.296745 192.0
116.322502 200.0
116.343971 36.0
116.399796 148.0
116.492149 120.0
116.530815 256.0
116.713516 132.0
116.790932 200.0
116.887741 144.0
116.902809 224.0
116.980293 136.0
117.061188 476.0
117.109489 152.0
117.150414 240.0
117.263176 108.0
117.307724 44.0
117.327126 168.0
117.385345 340.0
117.460831 164.0
117.475929 188.0
117.721977 88.0
117.888412 88.0
117.940186 168.0
118.020172 152.0
118.065849 1004.0
118.095863 232.0
118.381538 40.0
118.435684 88.0
118.481178 172.0
118.511505 52.0
118.574348 104.0
118.678093 104.0
118.728279 156.0
118.747795 104.0
118.888817 156.0
118.940903 136.0
118.997345 184.0
119.07769 156.0
119.195 108.0
119.28846 164.0
119.445023 172.0
119.55381 196.0
119.727966 252.0
119.952385 164.0
119.989449 140.0
120.081596 1312.0
120.225021 176.0
120.384148 184.0
120.44117 124.0
120.495781 176.0
120.583191 180.0
120.633461 104.0
120.823723 56.0
120.906868 104.0
120.965965 96.0
121.003181 176.0
121.05455 564.0
121.085251 312.0
121.22831 172.0
121.660881 228.0
121.847557 200.0
121.994797 168.0
122.058052 328.0
122.097122 612.0
122.221329 196.0
122.243332 136.0
122.55381 132.0
122.617714 152.0
122.944115 80.0
123.070213 592.0
123.101425 152.0
123.286415 204.0
123.40799 136.0
123.503082 72.0
123.699547 152.0
124.076775 196.0
124.111694 92.0
124.502647 52.0
124.587051 120.0
124.613708 132.0
124.66037 240.0
124.764839 152.0
124.870102 188.0
124.947197 160.0
125.123016 180.0
125.172005 168.0
125.21209 136.0
125.305641 184.0
125.535225 136.0
125.579834 176.0
125.7985 220.0
126.028534 44.0
126.093498 176.0
126.178284 128.0
126.19841 128.0
126.243126 136.0
126.435516 188.0
126.463196 120.0
126.607903 52.0
126.659134 160.0
126.704216 64.0
127.051712 188.0
127.083122 184.0
127.170639 256.0
127.188599 200.0
127.339027 188.0
127.551285 120.0
127.793114 172.0
127.878632 140.0
127.930397 148.0
127.961922 156.0
128.011459 60.0
128.054749 336.0
128.448685 248.0
128.590836 92.0
128.714996 128.0
128.771454 192.0
128.855042 288.0
129.070801 504.0
129.164749 136.0
129.395569 116.0
129.427277 60.0
129.481628 216.0
129.603668 256.0
129.642471 160.0
129.667404 72.0
129.730865 168.0
129.783005 136.0
129.835159 176.0
129.87146 196.0
129.971268 132.0
130.018921 152.0
130.066452 2372.0
130.250519 56.0
130.332306 184.0
130.420929 60.0
130.729889 128.0
131.014847 196.0
131.073227 1912.0
131.11055 184.0
131.131363 156.0
131.198486 180.0
131.254913 196.0
131.375046 60.0
131.543915 156.0
131.726593 232.0
131.772278 180.0
131.923126 152.0
132.055557 136.0
132.081604 1860.0
132.106064 220.0
132.126648 76.0
132.205948 152.0
132.236496 200.0
132.277695 200.0
132.35553 196.0
132.383011 152.0
132.400681 128.0
132.49295 112.0
132.694626 172.0
132.882706 204.0
132.97908 184.0
133.07814 160.0
133.100754 392.0
133.167343 108.0
133.224777 140.0
133.277618 52.0
133.367249 204.0
133.408615 100.0
133.48909 100.0
133.521286 152.0
133.684631 176.0
133.720551 140.0
133.774384 132.0
133.841476 144.0
134.066742 176.0
134.097473 2384.0
134.202896 156.0
134.228271 180.0
134.343582 152.0
134.46907 188.0
134.756836 168.0
135.031921 40.0
135.082794 756.0
135.221634 80.0
135.300339 144.0
135.395279 80.0
135.460129 144.0
135.703461 120.0
135.754471 156.0
135.831009 144.0
135.865814 44.0
135.930771 176.0
136.076645 4388.0
136.112152 408.0
136.158279 52.0
136.188477 188.0
136.203766 144.0
136.354111 68.0
136.418518 64.0
136.581284 180.0
136.632462 208.0
136.692963 176.0
136.751144 88.0
136.798767 104.0
137.004959 156.0
137.077057 336.0
137.130783 88.0
137.196045 112.0
137.447937 36.0
137.552963 48.0
137.569305 84.0
137.795837 216.0
137.861267 112.0
137.912674 92.0
137.982803 160.0
138.001511 128.0
138.092255 4900.0
138.135651 168.0
138.156052 52.0
138.186279 208.0
138.233078 152.0
138.268188 216.0
138.357132 44.0
138.507004 172.0
138.72493 164.0
138.792923 256.0
138.82106 140.0
138.851547 36.0
138.928955 176.0
139.011063 144.0
139.095779 996.0
139.222351 156.0
139.3116 56.0
139.358582 60.0
139.579529 212.0
139.631271 96.0
139.697983 92.0
140.04924 180.0
140.248138 120.0
140.362366 416.0
140.439117 92.0
140.507538 80.0
140.528763 76.0
140.882904 136.0
141.06131 140.0
141.095596 160.0
141.123962 168.0
141.623291 140.0
141.83342 208.0
141.89151 316.0
142.071869 320.0
142.372742 200.0
142.643616 140.0
142.726822 176.0
142.862518 144.0
142.969452 136.0
143.012299 136.0
143.033722 128.0
143.074493 3008.0
143.114655 88.0
143.152756 192.0
143.200394 188.0
143.321884 192.0
143.397141 124.0
143.484741 244.0
143.591263 136.0
143.631805 232.0
143.720078 76.0
143.829849 144.0
143.846558 84.0
143.942062 104.0
143.967667 188.0
143.998306 188.0
144.04715 200.0
144.081818 26288.0
144.110458 132.0
144.169006 52.0
144.197678 148.0
144.22876 40.0
144.262222 56.0
144.295685 60.0
144.336334 52.0
144.388947 56.0
144.507721 92.0
144.683258 40.0
144.714386 140.0
144.745514 96.0
145.01622 60.0
145.044983 64.0
145.084854 4140.0
145.184036 52.0
145.208649 184.0
145.350418 56.0
145.416763 76.0
145.447968 108.0
145.474701 144.0
145.529587 136.0
145.65686 236.0
145.808228 124.0
145.853897 196.0
145.875534 128.0
145.921219 48.0
145.966904 72.0
145.98613 196.0
146.059555 516.0
146.097275 5552.0
146.126129 180.0
146.134018 176.0
146.190613 116.0
146.262817 84.0
146.315781 96.0
146.359116 96.0
146.39476 132.0
146.515671 60.0
146.556625 52.0
146.650604 60.0
146.677124 68.0
146.848312 36.0
147.041321 184.0
147.073135 484.0
147.10228 828.0
147.41806 56.0
147.567932 112.0
147.601776 72.0
147.778351 156.0
147.814651 40.0
147.836426 88.0
147.979233 104.0
147.996185 28.0
148.076355 152.0
148.111725 488.0
148.136658 84.0
148.199646 188.0
148.354752 204.0
148.505096 172.0
148.815704 140.0
148.988144 176.0
149.046112 168.0
149.083298 320.0
149.112076 124.0
149.618027 156.0
149.863998 268.0
150.09288 360.0
150.125076 312.0
150.168716 164.0
150.525024 172.0
151.043152 108.0
151.085526 200.0
151.127014 156.0
151.167923 104.0
151.199738 136.0
152.059341 216.0
152.106934 280.0
152.133621 172.0
152.349716 248.0
152.430801 268.0
152.492233 136.0
152.521729 40.0
152.765167 176.0
152.805771 80.0
153.068176 328.0
153.111389 392.0
153.139313 176.0
153.181198 148.0
153.230469 172.0
153.269882 48.0
153.368469 144.0
153.926025 140.0
153.94577 156.0
154.067917 388.0
154.128571 108.0
154.229889 44.0
154.365875 196.0
154.858353 192.0
154.93515 136.0
155.071915 884.0
155.423584 60.0
155.505478 128.0
155.560074 144.0
155.681732 156.0
155.758728 176.0
155.813385 136.0
155.997284 204.0
156.081711 1212.0
156.158905 84.0
156.210068 212.0
156.248459 160.0
156.270569 144.0
156.300705 48.0
156.412704 128.0
156.464981 196.0
156.522247 176.0
156.552124 120.0
156.738953 180.0
156.866058 80.0
157.048035 200.0
157.065643 240.0
157.090683 2540.0
157.345032 100.0
157.362518 132.0
157.399963 152.0
157.419937 44.0
157.477386 156.0
157.924774 96.0
157.974808 172.0
158.027344 172.0
158.059128 484.0
158.097122 27904.0
158.162476 184.0
158.187241 220.0
158.207138 232.0
158.242584 56.0
158.366852 84.0
158.390335 156.0
158.412888 44.0
158.465485 204.0
158.506042 88.0
158.600815 36.0
158.698578 48.0
158.723663 68.0
158.756256 84.0
158.806412 44.0
158.84906 84.0
158.917206 96.0
158.964462 40.0
159.017166 80.0
159.064056 288.0
159.101608 3344.0
159.295883 64.0
159.378784 64.0
159.471771 76.0
159.535995 124.0
159.559753 52.0
159.635178 76.0
159.791138 136.0
159.838943 112.0
160.030228 148.0
160.073517 340.0
160.110962 384.0
160.25943 56.0
160.287155 56.0
160.314865 72.0
160.403091 112.0
160.468628 108.0
160.664139 176.0
160.713287 60.0
160.76123 124.0
160.852081 216.0
160.942978 64.0
161.071777 104.0
161.098145 172.0
161.106522 148.0
161.112915 208.0
161.400314 160.0
161.772232 120.0
161.972275 124.0
162.093109 144.0
162.230743 124.0
162.43869 112.0
162.537628 140.0
162.656906 120.0
162.75592 84.0
162.877823 160.0
163.055679 180.0
163.376068 216.0
163.472748 128.0
163.868683 148.0
163.920929 232.0
164.107132 892.0
164.392685 176.0
164.584137 84.0
164.737366 200.0
164.775696 44.0
164.811462 96.0
164.847229 144.0
165.033829 284.0
165.059402 212.0
165.079056 216.0
165.110458 240.0
165.169373 192.0
165.189835 144.0
165.466217 176.0
165.496948 236.0
165.512955 144.0
165.619873 168.0
165.665985 196.0
165.691605 76.0
166.065765 332.0
166.125351 164.0
166.55867 64.0
166.738525 140.0
166.859329 140.0
166.879898 236.0
167.074005 1928.0
167.180862 68.0
167.345596 160.0
167.613464 124.0
167.631516 48.0
167.750061 164.0
167.7939 48.0
167.855774 60.0
167.896606 240.0
167.933136 40.0
167.995056 140.0
168.015686 84.0
168.08049 2420.0
168.508804 120.0
168.53981 120.0
168.630249 180.0
168.666443 80.0
168.69487 116.0
168.932785 80.0
168.979355 108.0
169.023331 128.0
169.087753 1852.0
169.116287 144.0
169.139801 124.0
169.191574 112.0
169.458328 100.0
169.48941 76.0
169.538651 108.0
169.756409 128.0
169.800491 164.0
169.852371 52.0
169.94577 136.0
170.033997 188.0
170.096252 4404.0
170.126572 56.0
170.194946 88.0
170.265045 100.0
170.431305 152.0
170.546265 84.0
170.630417 132.0
170.751053 56.0
170.810867 228.0
170.894119 144.0
171.018112 136.0
171.039856 172.0
171.102402 1944.0
171.2742 140.0
171.336716 68.0
171.412277 64.0
171.550415 68.0
171.668991 84.0
171.78511 156.0
171.816422 60.0
171.918182 104.0
172.019974 180.0
172.076218 652.0
172.111053 2772.0
172.147903 236.0
172.368698 40.0
172.440506 88.0
172.503235 144.0
172.52153 84.0
172.555511 64.0
173.038544 168.0
173.080582 484.0
173.116974 440.0
173.330261 112.0
173.511124 92.0
174.051605 168.0
174.087891 180.0
174.124619 200.0
174.227585 196.0
174.340561 244.0
174.695511 132.0
174.811279 148.0
174.929718 64.0
175.045563 72.0
175.08168 140.0
175.131363 152.0
175.203598 60.0
175.343246 156.0
175.464508 132.0
175.590759 164.0
175.90242 128.0
176.042358 240.0
176.071411 200.0
176.104858 252.0
176.123093 264.0
176.899002 220.0
177.10289 192.0
177.174408 164.0
177.200897 152.0
177.291 40.0
177.617111 220.0
178.080338 176.0
178.1427 148.0
178.225052 60.0
178.318069 76.0
178.363251 68.0
178.778152 208.0
179.031067 164.0
179.077728 100.0
179.489395 168.0
180.08255 1012.0
180.687164 184.0
180.734131 132.0
180.884003 224.0
180.929504 192.0
181.087875 1460.0
181.27771 44.0
181.430481 304.0
181.631607 56.0
182.028809 56.0
182.096558 3936.0
182.176529 40.0
182.206085 104.0
182.34581 52.0
182.386124 128.0
182.479385 168.0
182.531296 68.0
182.883728 60.0
183.037933 72.0
183.101883 1524.0
183.271515 60.0
183.417984 324.0
183.611176 140.0
183.643539 52.0
183.840485 128.0
184.111221 2300.0
184.164459 112.0
184.31575 116.0
184.334656 72.0
184.429245 188.0
184.475204 68.0
184.494125 100.0
184.534683 60.0
184.775391 52.0
184.824097 152.0
184.926926 88.0
185.01355 136.0
185.054153 76.0
185.111374 920.0
185.188797 52.0
185.273529 76.0
185.343979 156.0
185.680115 160.0
186.06543 132.0
186.09137 1172.0
186.119843 296.0
186.543564 212.0
186.614243 200.0
187.038635 108.0
187.100433 376.0
187.13118 104.0
187.321823 236.0
187.359955 48.0
187.63591 156.0
187.678833 148.0
187.757919 200.0
187.910675 120.0
187.981613 84.0
188.10524 532.0
188.541443 64.0
188.984436 40.0
189.11853 156.0
189.26088 144.0
189.288254 196.0
190.128403 388.0
190.291809 132.0
190.313766 240.0
190.585693 136.0
191.014572 152.0
191.083344 164.0
191.11911 92.0
191.342041 176.0
191.435669 224.0
191.460449 208.0
192.08432 176.0
192.142197 216.0
192.839905 176.0
193.047256 148.0
193.085739 616.0
193.484421 156.0
193.730896 76.0
193.819565 52.0
194.045776 160.0
194.097198 3148.0
194.182709 184.0
194.307541 64.0
194.371353 72.0
194.626724 60.0
194.657272 68.0
194.907257 188.0
194.962845 80.0
194.990631 40.0
195.103714 1160.0
195.21582 60.0
195.265869 164.0
195.772385 64.0
195.844788 132.0
195.922791 128.0
196.077866 332.0
196.11261 1420.0
196.165741 232.0
196.218201 80.0
196.246078 80.0
196.427353 80.0
196.446884 60.0
196.529129 208.0
196.591965 48.0
196.661743 132.0
196.692444 100.0
196.737106 80.0
196.887878 120.0
196.952118 228.0
197.081833 308.0
197.108536 800.0
197.178436 44.0
197.211975 40.0
197.438431 216.0
197.813354 140.0
197.897354 164.0
197.942154 224.0
198.094986 660.0
198.122101 392.0
198.132339 172.0
198.225632 80.0
198.314743 72.0
198.362396 48.0
198.485764 124.0
198.516602 52.0
198.617569 156.0
198.642822 144.0
198.766266 168.0
198.81958 112.0
198.842026 156.0
198.870102 132.0
199.123657 1044.0
199.772079 104.0
200.073196 120.0
200.10881 584.0
200.128311 248.0
200.188644 240.0
200.413986 204.0
200.467529 44.0
200.61409 112.0
200.828384 196.0
201.020233 56.0
201.039978 100.0
201.106979 304.0
201.144409 112.0
201.585007 164.0
201.655655 60.0
201.816788 204.0
201.929901 144.0
202.123108 544.0
202.297745 116.0
202.532776 72.0
202.637589 60.0
202.753769 156.0
203.028763 152.0
203.082642 208.0
203.124023 140.0
203.372055 228.0
203.470413 228.0
203.494125 84.0
204.08223 484.0
204.508972 232.0
204.708252 136.0
204.899094 140.0
205.087097 672.0
205.201202 52.0
205.492111 116.0
205.709 196.0
205.843185 104.0
206.094955 456.0
206.328918 112.0
206.906815 200.0
207.004166 88.0
207.10527 880.0
207.184616 216.0
207.528534 148.0
207.548599 120.0
207.671921 168.0
207.778061 184.0
207.864136 192.0
207.912918 68.0
208.05069 124.0
208.078644 168.0
208.11264 1372.0
208.608002 96.0
208.694244 64.0
208.815018 108.0
209.013519 152.0
209.043655 124.0
209.115036 976.0
209.223633 68.0
209.498596 52.0
210.056442 80.0
210.092468 588.0
210.127106 1328.0
210.422958 76.0
210.578888 260.0
210.613541 128.0
210.714661 52.0
210.836014 148.0
210.885147 100.0
211.026794 256.0
211.099411 324.0
211.132004 324.0
211.266846 128.0
211.79657 188.0
212.106689 2296.0
212.150955 256.0
212.338562 48.0
212.440094 136.0
212.556137 72.0
212.916107 140.0
213.114929 180.0
213.428329 104.0
213.535141 104.0
213.846451 20.0
214.000748 56.0
214.120987 156.0
214.326965 116.0
214.43187 28.0
214.886765 112.0
215.012253 156.0
215.128998 80.0
215.161118 248.0
216.088669 256.0
216.339249 72.0
216.588165 48.0
216.807892 120.0
216.843063 172.0
216.904617 128.0
217.054138 156.0
217.088882 444.0
217.310242 44.0
217.56073 228.0
217.720276 76.0
218.095474 860.0
218.128677 208.0
218.65152 168.0
219.023193 192.0
219.104126 1672.0
219.536026 108.0
219.692337 188.0
219.878235 204.0
220.113403 2016.0
220.158691 152.0
220.279785 144.0
220.457062 112.0
220.483658 184.0
220.510254 56.0
220.631454 140.0
220.708328 160.0
220.79248 148.0
220.850281 132.0
221.083008 96.0
221.090607 184.0
221.120972 652.0
221.279358 152.0
221.300079 60.0
221.362274 140.0
221.424454 56.0
222.081909 300.0
222.101242 328.0
222.128815 2276.0
222.453339 116.0
222.506775 164.0
222.530151 96.0
222.71167 44.0
222.818619 124.0
223.093369 344.0
223.133896 916.0
223.249603 132.0
223.29422 72.0
223.809036 188.0
223.910278 52.0
224.13324 732.0
224.333389 92.0
224.378098 260.0
224.401962 144.0
224.44072 52.0
224.694702 128.0
224.777771 244.0
224.855362 156.0
224.971771 144.0
225.073288 152.0
225.109116 276.0
225.144806 324.0
225.35704 116.0
225.413818 64.0
225.551285 92.0
225.74263 128.0
225.781509 84.0
226.080673 172.0
227.024323 80.0
227.051315 236.0
227.075317 144.0
227.123001 160.0
227.1633 156.0
227.360321 40.0
227.573441 144.0
228.075134 96.0
228.148392 152.0
228.192383 76.0
228.432968 204.0
228.538269 160.0
228.673676 136.0
229.092224 184.0
229.387543 108.0
229.625732 140.0
229.824844 124.0
230.100281 376.0
230.223297 64.0
230.915375 112.0
231.036362 252.0
231.107941 1400.0
231.335266 88.0
231.496429 168.0
231.566086 56.0
231.699356 176.0
231.756927 208.0
232.053955 120.0
232.113968 872.0
232.405792 96.0
232.785217 188.0
233.078781 168.0
233.117432 976.0
233.222702 32.0
233.748825 48.0
234.08313 156.0
234.127304 1256.0
234.157776 184.0
234.41571 152.0
234.845566 64.0
235.127975 808.0
235.373535 52.0
235.987686 180.0
236.116425 392.0
236.14357 664.0
236.253754 140.0
236.810852 64.0
237.113297 176.0
237.144882 256.0
237.285828 204.0
237.48822 80.0
237.592514 136.0
238.113815 176.0
238.155655 444.0
238.535278 212.0
238.688995 220.0
238.732056 160.0
239.023956 184.0
239.151962 308.0
239.590805 44.0
239.860443 120.0
240.031555 80.0
240.080887 108.0
240.111725 168.0
240.137238 252.0
240.176498 220.0
241.136734 36.0
241.266556 164.0
241.3284 104.0
241.424255 60.0
241.804779 108.0
241.934784 132.0
242.47374 224.0
242.588425 84.0
242.731049 92.0
242.948151 152.0
243.106949 172.0
243.152939 160.0
243.180878 204.0
244.113297 1164.0
244.757004 44.0
245.068481 80.0
245.122665 932.0
245.595322 156.0
245.751312 192.0
245.860519 40.0
246.069107 160.0
246.125412 1336.0
246.413208 196.0
246.500702 124.0
246.828918 156.0
247.025955 108.0
247.054108 176.0
247.126709 468.0
247.216797 80.0
247.457825 176.0
247.482864 176.0
247.551758 188.0
247.695831 176.0
247.861877 172.0
248.012299 128.0
248.144333 1688.0
248.47641 136.0
248.545441 300.0
248.648987 192.0
248.962936 104.0
249.143143 604.0
249.424789 60.0
249.76123 148.0
250.152954 444.0
250.340332 168.0
250.510406 152.0
250.894867 136.0
250.916946 96.0
251.002075 172.0
251.077759 72.0
251.148758 540.0
252.142471 252.0
252.321854 172.0
252.473633 160.0
252.682404 84.0
253.065353 248.0
253.125366 168.0
253.1642 404.0
253.277542 128.0
253.860687 148.0
254.40007 212.0
255.054443 124.0
255.248367 152.0
255.410568 160.0
256.139496 188.0
256.499573 156.0
257.116272 164.0
257.33078 212.0
258.12735 428.0
258.41568 44.0
258.489258 40.0
258.850983 56.0
259.133514 548.0
259.591217 108.0
259.735535 76.0
259.815735 148.0
260.137909 752.0
260.393524 72.0
260.534851 160.0
260.628021 60.0
260.689056 132.0
260.737274 40.0
260.894775 44.0
261.061981 144.0
261.144775 156.0
261.265686 40.0
261.351471 44.0
262.12854 332.0
262.157166 812.0
262.901428 176.0
263.069275 36.0
263.156494 1860.0
263.327576 124.0
264.13382 488.0
264.176636 564.0
264.239136 144.0
264.355621 152.0
264.384766 176.0
264.742584 164.0
265.106934 212.0
265.13385 128.0
265.170013 500.0
265.917694 188.0
266.152618 952.0
266.745972 164.0
266.775208 64.0
267.163025 208.0
267.233765 156.0
267.435547 104.0
267.497375 68.0
267.940277 124.0
268.082153 184.0
268.122742 184.0
268.178162 184.0
268.38678 100.0
269.094818 108.0
269.601105 96.0
269.849518 260.0
269.928009 124.0
270.0065 180.0
271.047485 164.0
271.529388 100.0
271.7229 188.0
272.093781 116.0
272.157684 376.0
272.39917 116.0
273.139252 116.0
273.18811 96.0
273.932098 144.0
274.057709 148.0
274.157806 904.0
274.202271 140.0
274.50885 124.0
275.156128 740.0
276.161346 200.0
276.385071 216.0
276.577026 164.0
276.722687 140.0
276.855133 192.0
277.132202 312.0
277.179779 148.0
277.262604 216.0
277.362061 68.0
277.547699 124.0
278.164032 196.0
278.271027 144.0
278.400513 160.0
278.799164 28.0
279.075043 68.0
279.154083 172.0
279.180176 212.0
280.056763 160.0
280.177368 224.0
281.020172 160.0
281.157104 108.0
281.197998 408.0
281.29718 168.0
281.367279 152.0
282.179108 160.0
282.864929 36.0
283.514679 148.0
283.635345 116.0
284.165192 36.0
284.2323 168.0
284.326263 112.0
284.413544 220.0
284.635101 176.0
285.085236 144.0
285.411285 144.0
285.939453 132.0
286.063995 108.0
286.333344 120.0
286.451233 108.0
287.061279 160.0
287.736084 104.0
288.107574 196.0
288.883606 200.0
288.983215 56.0
289.16983 360.0
289.281036 44.0
289.670441 180.0
290.097412 80.0
290.280518 116.0
291.111908 156.0
291.141296 200.0
291.186096 2084.0
291.298706 168.0
291.414215 52.0
291.543335 44.0
291.743866 112.0
291.917267 196.0
292.005676 168.0
292.182648 932.0
293.166077 668.0
293.204987 168.0
293.807617 160.0
293.838318 128.0
294.166595 384.0
294.23761 152.0
294.838806 68.0
295.179047 144.0
295.351654 184.0
297.054749 40.0
297.527649 188.0
298.077179 184.0
298.985046 176.0
299.33963 72.0
299.632782 172.0
300.328705 176.0
300.746216 152.0
302.081604 156.0
303.461792 132.0
303.638641 116.0
303.801666 196.0
304.086212 156.0
304.155609 192.0
304.669556 156.0
304.732086 84.0
304.884979 52.0
305.361267 192.0
305.396057 104.0
305.740509 52.0
306.053772 176.0
306.363739 108.0
306.639038 128.0
306.834229 92.0
307.060883 44.0
307.182922 880.0
307.252716 156.0
307.430695 144.0
307.8461 88.0
307.898468 96.0
308.041687 44.0
308.183044 288.0
308.230347 108.0
308.293243 112.0
308.349152 240.0
308.384125 84.0
308.41153 52.0
308.45401 152.0
308.533813 108.0
308.632324 124.0
308.723236 124.0
308.763245 192.0
308.805969 104.0
308.836182 96.0
308.941742 256.0
308.999573 208.0
309.03363 168.0
309.072693 120.0
309.130951 184.0
309.198151 59412.0
309.276001 76.0
309.302795 68.0
309.332306 48.0
309.369263 44.0
309.400024 56.0
309.476166 68.0
309.516479 76.0
309.548279 140.0
309.619354 60.0
309.671661 92.0
309.696167 128.0
309.729614 76.0
309.773956 52.0
309.822296 56.0
309.855011 164.0
309.885345 76.0
309.913361 36.0
309.937897 72.0
309.985046 80.0
310.040405 156.0
310.086426 168.0
310.151672 76.0
310.200195 10428.0
310.289673 44.0
310.346924 92.0
310.372528 128.0
310.407593 56.0
310.458771 108.0
310.521088 44.0
310.56543 40.0
310.602936 92.0
310.639069 68.0
310.684692 148.0
310.728546 104.0
310.832062 84.0
310.859192 76.0
310.963593 108.0
311.20343 1584.0
311.256775 44.0
311.291901 48.0
311.390228 36.0
311.414795 96.0
311.443848 188.0
311.47757 92.0
311.487518 80.0
311.509216 112.0
311.54126 72.0
311.586945 60.0
311.621246 104.0
311.653687 44.0
311.681793 48.0
311.70639 80.0
311.745056 68.0
311.818848 68.0
311.846954 112.0
311.916626 108.0
311.959808 116.0
312.043823 40.0
312.100067 100.0
312.13623 156.0
312.17514 116.0
312.206268 160.0
312.266113 112.0
312.321167 92.0
312.35907 168.0
312.444 152.0
312.511719 120.0
312.647339 84.0
312.743866 76.0
312.86557 76.0
313.027924 124.0
313.088898 128.0
313.124115 64.0
313.236816 84.0
313.342499 56.0
313.418121 148.0
313.447296 92.0
313.673767 68.0
313.716064 80.0
314.1604 64.0
314.506195 28.0
314.537964 48.0
314.689789 40.0
315.233734 64.0
316.478851 32.0
317.127106 44.0
317.903809 68.0
318.297821 32.0
320.043671 96.0
322.04071 160.0
324.997681 64.0
325.306335 104.0
326.840942 84.0
326.97049 84.0
327.085663 104.0
327.301697 48.0
328.462158 40.0
328.837402 104.0
330.08374 136.0
332.623413 28.0
341.984528 108.0
349.470917 60.0
350.826569 108.0
352.62384 40.0
356.869171 104.0
359.426697 60.0
363.744904 64.0
364.223358 40.0
368.669586 124.0
372.693085 100.0
373.965973 44.0
376.070404 164.0
390.097504 108.0
398.483673 56.0
402.243042 108.0
404.962006 88.0
411.379517 44.0
411.682312 92.0
413.756561 64.0
434.615601 76.0
438.71637 20.0
439.663177 56.0
440.799042 60.0
447.922943 76.0
448.361145 84.0
466.446655 88.0
471.887146 76.0
480.796265 88.0
481.2677 164.0
484.793335 92.0
493.920227 100.0
499.002319 76.0
500.328094 32.0
505.527954 44.0
520.212463 108.0
520.866333 36.0
524.20575 76.0
527.372986 96.0
530.756042 68.0
532.940857 48.0
536.240356 68.0
536.807373 64.0
540.724915 64.0
556.889587 60.0
563.139648 84.0
566.531128 80.0
568.242615 48.0
572.101562 132.0
575.013916 64.0
580.64978 72.0
582.877197 72.0
589.184082 76.0
592.61908 88.0
615.017334 172.0
628.210449 80.0
629.799011 52.0
629.886414 20.0
637.067261 32.0
656.916687 36.0
670.081787 116.0
690.215454 56.0
717.897217 192.0
718.590637 160.0
726.37439 100.0
738.601807 20.0
743.83075 128.0
764.19342 36.0
770.252014 60.0
794.90509 132.0
810.700317 164.0
831.407288 228.0
833.767578 52.0
844.826599 168.0
849.669678 108.0
857.350708 84.0
861.166199 128.0
882.273376 184.0
887.19281 68.0
890.343506 156.0
897.722717 48.0
905.479675 132.0
914.846558 88.0
920.121521 112.0
921.794617 164.0
923.057922 52.0
932.114014 132.0
941.824951 116.0
945.450439 184.0
947.103516 120.0
948.500549 60.0
948.782471 152.0
952.802246 156.0
958.647461 68.0
959.66449 208.0
962.410095 80.0
963.311768 88.0
972.010376 100.0
978.057312 172.0
984.072998 180.0
988.742432 228.0
993.956116 188.0
997.385071 112.0
1005.25116 224.0
1010.830872 152.0
1022.144775 140.0
1025.220459 252.0
1025.373413 32.0
1027.413818 140.0
1038.255493 144.0
1041.849854 176.0
1045.810913 152.0
1046.068359 120.0
1051.921387 140.0
1052.721313 180.0
1055.70105 336.0
1055.88855 164.0
1056.186157 188.0
1061.133545 164.0
1066.469482 160.0
1067.067627 140.0
1067.288696 224.0
1068.004028 180.0
1069.578613 136.0
1072.281616 224.0
1073.839722 168.0
1079.966064 120.0
1080.679199 128.0
1081.667358 176.0
1081.889893 104.0
1083.153687 144.0
1085.532715 140.0
1087.697754 64.0
1087.901245 100.0
1088.774536 164.0
1089.615234 168.0
1091.837036 216.0
1092.856567 160.0
1096.919922 104.0
1101.011597 160.0
1111.474487 76.0
1113.022827 192.0
1114.842896 152.0
1117.376221 220.0
1117.695557 188.0
1127.351074 172.0
1131.538208 160.0
1133.266235 200.0
1133.869263 136.0
1136.055054 36.0
1143.789429 204.0
1144.550171 164.0
1145.203369 200.0
1148.027222 188.0
1153.24585 144.0
1155.369141 152.0
1155.869751 68.0
1166.694336 144.0
1179.940552 112.0
1185.841064 108.0
1186.087769 192.0
1188.275269 156.0
1189.112427 104.0
1189.503662 124.0
1191.852417 140.0
1194.203491 136.0
1199.298462 168.0
1200.036987 144.0
1209.597168 136.0
1210.608032 140.0
1212.062622 180.0
1212.471436 204.0
1213.972046 200.0
1217.216431 172.0
1219.397705 132.0
1223.174438 160.0
1224.246582 64.0
1226.56665 152.0
1230.752441 152.0
1230.927002 172.0
1231.374023 184.0
1233.623901 164.0
1241.416382 144.0
1244.370361 104.0
1244.602051 176.0
1244.904053 196.0
1245.290283 76.0
1248.35437 156.0
1249.542358 172.0
1250.394531 112.0
1251.372925 40.0
1252.140503 224.0
1252.640503 112.0
1253.901733 124.0
1254.268188 164.0
1254.493774 64.0
1259.29895 176.0
1259.574463 132.0
1260.627075 220.0
1262.507446 220.0
1263.504761 180.0
1265.698853 164.0
1267.087036 108.0
1269.27002 152.0
1269.567871 180.0
1271.048706 192.0
1276.349243 152.0
1277.231079 200.0
1277.821533 152.0
1284.603516 160.0
1285.152832 124.0
1285.217041 144.0
1285.823608 208.0
1286.114502 180.0
1287.472778 176.0
1287.701294 124.0
1289.651855 224.0
1290.330933 120.0
1291.317627 148.0
1291.889893 216.0
1293.306641 188.0
1293.40686 188.0
1294.20874 224.0
1294.767212 120.0
1297.035156 212.0
1297.905884 192.0
1298.415039 184.0
1298.701904 164.0
1299.569946 192.0
1301.938721 144.0
1303.404053 100.0
1303.554932 48.0
1304.446167 244.0
1304.561157 168.0
1305.992065 180.0
1308.87793 52.0
1311.78125 220.0
1315.034302 120.0
1315.12085 148.0
1316.680298 244.0
1316.925903 180.0
1317.113647 140.0
1320.040649 136.0
1320.785522 156.0
1321.364258 68.0
1321.429443 168.0
1322.283203 184.0
1325.875366 140.0
1327.209106 128.0
1328.413086 112.0
1329.007935 184.0
1330.096436 140.0
1332.478394 180.0
1333.742065 216.0
1335.247803 188.0
1335.465942 108.0
1337.19751 132.0
1338.668091 132.0
1338.915649 124.0
1339.16333 184.0
1339.826172 88.0
1340.57666 100.0
1341.532715 188.0
1342.165771 160.0
1343.56604 232.0
1343.850586 224.0
1344.740845 156.0
1350.75415 124.0
1351.178467 120.0
1352.224731 128.0
1353.073853 148.0
1353.205688 180.0
1354.729004 164.0
1355.402954 132.0
1356.099121 124.0
1358.460205 212.0
1359.869019 220.0
1360.573608 172.0
1363.357422 44.0
1364.408447 200.0
1365.143677 132.0
1370.406616 200.0
1370.996094 132.0
1373.915894 192.0
1374.579956 212.0
1374.631592 92.0
1374.963623 216.0
1376.070923 200.0
1376.565552 172.0
1376.668945 128.0
1378.375366 92.0
1383.086182 144.0
1383.367432 84.0
1383.611816 124.0
1383.856079 144.0
1384.515137 168.0
1386.515381 144.0
1387.338013 152.0
1387.8125 112.0
1388.294556 228.0
1388.962036 44.0
1391.640991 128.0
1392.61377 140.0
1392.866333 156.0
1393.200562 44.0
1393.549805 140.0
1398.152588 140.0
1400.281738 164.0
1402.136841 124.0
1402.569092 132.0
1402.703247 144.0
1403.18042 224.0
1405.850708 168.0
1406.962769 160.0
1407.813965 92.0
1408.421387 240.0
1408.844727 132.0
1410.144775 152.0
1410.406372 168.0
1410.623169 196.0
1411.617554 148.0
1412.126099 120.0
1412.537476 168.0
1413.854248 156.0
1417.666016 216.0
1418.153076 140.0
1418.617798 240.0
1419.157593 160.0
1420.845093 148.0
1424.335693 176.0
1425.53772 164.0
1425.801025 128.0
1426.236694 208.0
1427.18396 128.0
1427.259155 172.0
1427.672729 144.0
1428.755737 180.0
1428.853516 176.0
1429.025879 204.0
1429.282471 216.0
1429.515747 216.0
1430.652222 188.0
1430.929077 88.0
1431.043701 100.0
1432.373291 148.0
1435.36853 120.0
1436.23584 172.0
1437.131104 164.0
1439.110962 48.0
1439.473389 128.0
1440.568604 108.0
1440.734741 144.0
1441.172974 176.0
1441.868164 156.0
1443.48584 224.0
1446.936035 192.0
1447.359985 188.0
1447.443359 168.0
1447.715942 72.0
1448.321777 52.0
1448.912598 228.0
1449.564209 148.0
1451.603271 172.0
1452.179688 184.0
1453.317505 160.0
1453.476929 148.0
1453.650513 172.0
1455.670532 140.0
1456.080688 144.0
1456.847778 216.0
1457.16687 160.0
1459.294922 144.0
1459.370972 160.0
1461.302734 148.0
1461.774536 212.0
1462.64978 180.0
1463.372925 148.0
1465.3302 180.0
1465.985596 176.0
1466.061768 48.0
1467.51001 148.0
1469.164917 164.0
1469.25647 160.0
1471.752197 128.0
1472.95874 140.0
1475.95459 140.0
1476.229858 180.0
1480.071045 156.0
1480.144043 196.0
1481.464966 148.0
1482.989746 152.0
1484.768433 72.0
1485.45874 40.0
1486.233643 184.0
1486.440796 196.0
1487.154541 184.0
1488.935669 188.0
1489.242798 164.0
1489.57312 140.0
1490.249146 164.0
1490.87854 204.0
1491.132812 32.0
1491.724731 96.0
1493.73938 136.0
1496.41748 136.0
1496.910767 148.0
1497.387695 104.0
1497.564819 196.0
1498.17334 68.0
1499.197998 128.0
1500.516113 184.0
1501.518555 120.0
1501.942749 176.0
1502.575195 132.0
1503.015015 184.0
1503.709595 196.0
