>compound MLS001140950-01!4-[[2-(6-chloro-4-ethyl-2-oxochromen-7-yl)oxypropanoylamino]methyl]cyclohexane-1-carboxylic acid
>formula C22H26ClNO6
>ionization [M+H]+
>parentmass 436.153
#inchi InChI=1S/C22H26ClNO6/c1-3-14-8-20(25)30-18-10-19(17(23)9-16(14)18)29-12(2)21(26)24-11-13-4-6-15(7-5-13)22(27)28/h8-10,12-13,15H,3-7,11H2,1-2H3,(H,24,26)(H,27,28)/t12?,13-,15-
#inchikey PRJMUHABANULGT
#Ion_Source LC-ESI
#Instrument qTof
#Compound_Source NIH Natural Product Library
#PI Dorrestein
#Data_Collector VVP/LMS
#Scan -1
#Precursor_MZ 436.153
#ExactMass 435.145
#Charge 1
#CAS_Number N/A
#Pubmed_ID N/A
#Smiles CCc1cc(=O)oc2cc(OC(C)C(=O)NC[C@H]3CC[C@@H](CC3)C(=O)O)c(Cl)cc12
#INCHI_AUX N/A
#Library_Class 1
#SpectrumID CCMSLIB00000080185
#IonMode Positive
#UpdateWorkflowName UPDATE-SINGLE-ANNOTATED-GOLD
#LibraryQualityString Gold
#TaskID b1d8e8f6646f4e71acdff9ca3d919d08
##Scan# 2062
#SpectrumFile p2-C05_GC5_01_18005.mzXML
#LibraryName NIH_Natural_Products_Library.mgf
#MQScore -1
#Organism NIH_Natural_Products_Library
#TIC_Query 0
#RT_Query -1
#MZErrorPPM -1
#SharedPeaks 0
#MassDiff 0
#LibMZ -1
#SpecMZ 436.153
#SpecCharge 0
#internalFilename spec-00000.mgf

>collision 10
95.040237 164.0
95.085701 2588.0
95.156219 32.0
95.171745 168.0
95.189224 52.0
95.344635 136.0
95.778503 240.0
96.037743 148.0
96.088173 516.0
96.387192 148.0
96.57682 128.0
96.602249 144.0
96.6903 180.0
96.755409 168.0
97.052696 176.0
97.080147 152.0
97.103683 148.0
97.297943 172.0
97.639839 100.0
97.681145 216.0
97.844482 152.0
98.074959 128.0
98.203117 164.0
98.220871 104.0
98.53672 228.0
98.94809 180.0
99.067673 180.0
99.225456 176.0
99.413887 148.0
100.193314 104.0
100.608124 212.0
100.755905 108.0
100.805855 208.0
100.819839 200.0
100.851822 196.0
101.923981 152.0
102.265854 168.0
102.452179 176.0
102.539764 204.0
102.654678 176.0
102.723251 160.0
102.854408 164.0
103.009895 136.0
103.055031 344.0
103.137192 80.0
103.296936 136.0
103.462875 200.0
103.926994 144.0
104.14624 60.0
104.249855 160.0
105.068375 204.0
105.127548 76.0
105.595375 188.0
105.875755 144.0
106.058098 152.0
106.140106 88.0
106.308311 48.0
106.599907 132.0
106.844582 120.0
106.891907 32.0
106.98864 216.0
107.046295 152.0
107.510117 180.0
108.40554 136.0
108.540276 148.0
108.664726 132.0
108.772636 232.0
108.93045 228.0
108.965767 168.0
109.098778 868.0
109.37336 148.0
109.431648 200.0
109.587852 84.0
110.009125 164.0
110.059235 140.0
110.099396 552.0
110.207535 168.0
110.374748 144.0
110.56929 184.0
110.600685 120.0
110.690712 136.0
110.732597 180.0
110.766106 152.0
110.969383 160.0
111.063751 304.0
111.104965 1248.0
111.13298 116.0
111.464737 212.0
111.48365 188.0
112.085472 48.0
112.113678 1436.0
112.190857 164.0
112.218262 84.0
112.268867 100.0
112.346909 68.0
112.51152 32.0
112.724846 88.0
113.084061 172.0
113.115578 364.0
113.249504 176.0
113.349075 116.0
113.363907 208.0
113.573799 176.0
113.747795 212.0
114.430199 124.0
114.553711 60.0
114.592064 116.0
114.905464 128.0
115.055077 388.0
115.291946 96.0
115.525002 100.0
115.593468 88.0
115.839684 160.0
115.893242 76.0
116.055664 164.0
116.131195 144.0
116.206276 192.0
117.001465 108.0
117.066063 140.0
117.305214 140.0
117.570503 136.0
117.702187 188.0
117.743217 172.0
118.08036 80.0
118.255608 176.0
119.048126 224.0
119.081657 140.0
119.240257 52.0
119.501205 188.0
119.529488 148.0
120.266098 124.0
120.484467 160.0
121.026863 124.0
121.58036 168.0
122.074493 156.0
122.094849 336.0
122.124115 64.0
122.571014 188.0
122.601868 104.0
123.0821 288.0
123.732788 152.0
123.779282 116.0
123.8125 200.0
124.03849 148.0
124.076027 512.0
124.111649 152.0
124.133827 216.0
124.171524 164.0
124.380089 52.0
124.531075 160.0
124.697708 128.0
124.739937 40.0
124.777725 40.0
124.935623 92.0
125.015343 140.0
125.051331 140.0
125.080269 156.0
125.187134 124.0
125.429985 132.0
125.574913 196.0
125.760094 140.0
125.952118 64.0
126.235954 168.0
126.323181 208.0
126.585037 148.0
126.674622 192.0
126.981697 188.0
127.0131 220.0
127.033287 252.0
127.28241 84.0
127.707146 112.0
128.085281 176.0
128.312897 220.0
128.403091 136.0
128.752899 164.0
129.074112 168.0
129.381485 208.0
129.451675 136.0
129.524155 208.0
131.049576 192.0
131.086014 192.0
131.115005 176.0
131.657547 156.0
131.689514 132.0
131.977448 224.0
131.993454 88.0
132.051544 180.0
132.089508 192.0
132.694092 240.0
132.72847 284.0
132.98819 132.0
133.063431 196.0
133.093246 164.0
133.162201 132.0
133.196655 40.0
133.240295 120.0
133.336807 120.0
133.509232 188.0
133.631134 164.0
133.76001 188.0
133.817566 100.0
134.262283 48.0
134.839447 144.0
135.258087 152.0
135.573074 164.0
135.874496 124.0
136.006775 116.0
136.257568 172.0
136.55278 84.0
136.624893 136.0
136.969406 52.0
136.99736 76.0
137.093887 176.0
137.393677 184.0
137.426331 144.0
137.589706 172.0
137.65741 132.0
137.928421 136.0
138.052338 156.0
138.093185 1352.0
138.128174 2228.0
138.169098 48.0
138.213745 36.0
138.518097 192.0
138.710236 52.0
138.785263 84.0
139.032944 324.0
139.093979 216.0
139.130249 372.0
139.242844 76.0
139.428452 84.0
139.880035 228.0
140.037796 196.0
140.107925 11116.0
140.141449 28.0
140.174881 192.0
140.255951 88.0
140.306427 52.0
140.339432 36.0
140.445557 100.0
140.806656 72.0
140.846817 132.0
140.97966 104.0
141.011185 564.0
141.050018 96.0
141.111008 1060.0
141.154037 172.0
141.245956 88.0
141.31488 80.0
141.572891 148.0
141.608414 76.0
141.686584 56.0
141.850098 68.0
141.971024 80.0
142.013702 212.0
142.083191 136.0
142.115707 144.0
142.158417 92.0
142.181061 96.0
142.281845 128.0
142.571625 36.0
143.006439 140.0
143.347412 144.0
143.700302 84.0
144.055145 264.0
144.089462 148.0
144.249573 204.0
145.066727 580.0
146.075836 796.0
146.098465 44.0
146.159744 144.0
146.315048 192.0
146.649872 28.0
146.811401 204.0
147.044861 172.0
147.079178 376.0
147.098526 88.0
147.240982 84.0
147.412491 180.0
147.593781 152.0
147.719543 208.0
148.043869 176.0
148.060822 92.0
148.215851 160.0
148.402481 56.0
148.715424 124.0
149.052979 140.0
149.087006 176.0
149.264465 112.0
149.483383 80.0
149.680557 76.0
150.534012 204.0
151.034073 308.0
152.106781 296.0
152.643845 180.0
152.904617 72.0
153.009125 140.0
153.025223 152.0
153.052307 140.0
153.110184 164.0
153.416946 176.0
153.510635 136.0
153.732651 172.0
154.014099 136.0
154.029587 132.0
154.078323 52.0
154.426865 108.0
154.54808 84.0
155.025986 420.0
155.060684 140.0
156.145615 84.0
156.329712 132.0
156.508926 248.0
156.972397 112.0
157.005325 336.0
157.042221 160.0
157.067169 172.0
157.261795 132.0
157.33168 196.0
157.55481 92.0
157.681381 200.0
158.063995 200.0
158.983658 116.0
159.046158 128.0
159.08284 840.0
159.292465 188.0
159.415588 200.0
159.448257 152.0
160.04805 204.0
160.087555 280.0
160.177902 180.0
160.404694 56.0
160.80574 164.0
161.059601 560.0
161.092804 180.0
161.099365 124.0
161.30838 124.0
161.677643 48.0
161.811798 56.0
162.016937 184.0
162.067154 1212.0
162.275436 228.0
163.078247 192.0
163.453979 248.0
164.049957 140.0
164.304962 96.0
164.853928 64.0
164.984283 172.0
165.012405 140.0
165.700867 216.0
166.01445 176.0
166.087921 660.0
166.124023 1768.0
166.347107 184.0
166.42926 52.0
166.611618 236.0
167.026657 380.0
167.065735 248.0
167.130661 5864.0
167.182419 72.0
167.222977 196.0
167.370331 88.0
167.414108 184.0
167.810928 44.0
167.896027 48.0
168.034149 160.0
168.135529 1464.0
168.220047 144.0
168.264999 104.0
168.334717 108.0
168.711945 84.0
169.01712 152.0
169.051178 328.0
169.133591 256.0
169.436569 136.0
169.475418 116.0
169.656845 136.0
170.064087 120.0
170.116013 124.0
170.14975 172.0
170.609589 292.0
170.991943 180.0
171.076767 204.0
171.606705 80.0
171.630173 104.0
172.055893 224.0
172.088898 172.0
172.25914 148.0
172.394989 172.0
172.567505 160.0
172.672684 144.0
173.059723 292.0
173.308212 124.0
173.614914 164.0
174.066177 124.0
174.649689 196.0
174.939133 140.0
175.068146 268.0
175.171097 236.0
175.6427 164.0
176.694092 236.0
176.937561 52.0
177.038177 116.0
177.546997 216.0
178.011276 176.0
178.245163 140.0
178.566818 152.0
179.026443 332.0
179.061844 120.0
179.203033 180.0
180.363892 184.0
180.401306 168.0
180.984543 152.0
181.030975 160.0
181.072906 216.0
181.105042 168.0
181.659912 152.0
181.684052 132.0
181.992691 140.0
182.038345 100.0
182.272034 240.0
182.358032 88.0
182.979416 128.0
183.022659 336.0
183.058899 316.0
183.356522 68.0
183.626129 160.0
183.777191 52.0
184.028824 156.0
184.098618 588.0
184.133987 2140.0
184.233444 168.0
184.533432 48.0
184.555069 52.0
184.706512 164.0
185.014038 136.0
185.139877 484.0
185.947449 28.0
186.436279 128.0
186.991074 124.0
187.034622 236.0
187.076218 1152.0
187.361404 176.0
188.084961 1944.0
188.720551 56.0
188.80806 160.0
188.928406 60.0
188.985855 116.0
189.048798 48.0
189.088593 488.0
189.333496 180.0
189.363632 80.0
189.462234 56.0
189.626648 200.0
190.007797 176.0
190.114807 148.0
190.186157 136.0
190.872971 144.0
191.825546 100.0
192.032349 168.0
193.134384 144.0
194.01236 228.0
194.117706 1072.0
194.297836 80.0
194.920746 140.0
195.023895 404.0
195.056183 572.0
195.127472 356.0
195.523209 80.0
195.595566 104.0
195.99382 172.0
196.025101 160.0
196.065186 368.0
196.124191 204.0
196.149887 36.0
196.526367 224.0
196.999496 148.0
197.042709 324.0
197.339142 136.0
198.027527 104.0
198.063934 332.0
198.288086 160.0
198.776031 124.0
199.033463 96.0
199.067093 192.0
199.124146 148.0
200.071732 92.0
200.108337 64.0
200.327988 220.0
201.055435 136.0
201.306686 184.0
203.609024 136.0
203.654465 92.0
204.060822 64.0
204.180252 208.0
204.783615 180.0
204.961334 52.0
205.005829 148.0
205.042877 124.0
205.470596 120.0
205.978729 152.0
206.041565 92.0
207.016129 156.0
207.061691 188.0
207.911331 156.0
208.029785 148.0
208.793304 196.0
208.999222 280.0
209.019592 144.0
209.818375 184.0
210.004333 372.0
210.049072 96.0
211.013611 132.0
211.034271 300.0
211.728317 152.0
211.991943 180.0
212.012222 188.0
212.467453 56.0
212.804108 132.0
213.138123 160.0
213.350296 140.0
213.614929 116.0
215.071854 200.0
216.07959 476.0
216.404892 56.0
216.624527 52.0
217.721481 164.0
218.73584 80.0
218.765274 120.0
218.824158 60.0
218.936035 168.0
219.145187 64.0
219.324951 236.0
219.767288 176.0
221.037842 184.0
221.079269 148.0
221.147339 208.0
221.635971 248.0
221.710052 148.0
221.763397 148.0
221.893829 148.0
222.007629 192.0
222.240829 68.0
222.273468 120.0
222.478256 72.0
222.911896 120.0
222.956467 172.0
223.016632 2032.0
223.053619 1960.0
223.408417 48.0
223.646469 64.0
223.697067 48.0
223.884644 112.0
224.021317 572.0
224.053421 268.0
224.081238 80.0
224.108047 68.0
224.212341 92.0
224.251083 104.0
224.319641 140.0
224.346466 44.0
224.429947 116.0
224.471695 92.0
224.772964 64.0
224.916367 164.0
224.96994 204.0
225.033081 23936.0
225.107285 104.0
225.141113 208.0
225.181946 56.0
225.235718 72.0
225.271561 32.0
225.325333 60.0
225.432526 128.0
225.508942 116.0
225.546463 36.0
225.669037 40.0
225.878052 116.0
225.962128 36.0
226.036545 2120.0
226.225479 52.0
226.308319 72.0
226.319138 100.0
226.423096 80.0
226.506958 100.0
226.596832 60.0
226.623169 96.0
226.740662 84.0
226.812592 196.0
226.935516 148.0
227.029816 9580.0
227.085449 160.0
227.130432 156.0
227.157425 72.0
227.214432 60.0
227.343445 76.0
227.382462 88.0
227.490524 52.0
227.523239 232.0
227.580582 104.0
227.601608 88.0
228.030823 1004.0
228.124359 48.0
228.344101 48.0
228.464172 212.0
228.750748 156.0
228.828323 92.0
229.043655 156.0
229.132507 80.0
229.373581 184.0
230.106644 32.0
231.858017 96.0
233.041458 156.0
233.564331 284.0
233.923386 208.0
234.029953 140.0
234.779556 92.0
234.999176 244.0
235.267746 180.0
236.018753 108.0
236.210297 36.0
236.50267 144.0
236.95282 72.0
237.02388 84.0
237.05394 184.0
237.231705 124.0
237.530319 84.0
237.679718 148.0
239.022949 124.0
240.421265 176.0
241.057404 176.0
242.505737 188.0
243.672516 56.0
244.842072 108.0
244.954208 68.0
246.439178 188.0
246.998764 176.0
247.283493 132.0
247.897308 104.0
248.326797 64.0
248.894806 128.0
249.051529 196.0
250.146072 64.0
250.218475 60.0
250.750809 140.0
250.813843 136.0
250.905273 236.0
250.989838 160.0
251.04892 13348.0
251.126862 192.0
251.182861 136.0
251.235184 104.0
251.30896 176.0
251.346817 76.0
251.583527 52.0
251.709824 68.0
251.782455 80.0
251.869675 136.0
251.921432 68.0
252.009888 56.0
252.055511 1288.0
252.335419 84.0
252.404984 52.0
252.503021 60.0
252.537811 88.0
253.045853 3908.0
253.183441 92.0
253.387558 180.0
253.544815 56.0
253.642838 92.0
253.677704 112.0
253.712585 80.0
253.782333 120.0
253.818542 104.0
253.842575 52.0
253.899658 36.0
254.04921 628.0
254.220062 44.0
254.286713 44.0
254.378754 60.0
254.92749 88.0
255.166595 60.0
255.347855 120.0
255.510071 52.0
255.783752 80.0
257.160706 52.0
257.828857 96.0
260.098969 184.0
261.188232 84.0
264.570068 76.0
265.908752 60.0
267.416809 44.0
273.939392 40.0
278.055664 188.0
278.308228 36.0
279.041595 440.0
280.063843 332.0
280.074951 296.0
281.040131 228.0
281.061646 140.0
282.061066 116.0
284.917847 240.0
294.986298 96.0
295.554016 144.0
296.070068 1548.0
296.118835 80.0
296.183929 84.0
296.354248 72.0
296.72879 128.0
296.975677 148.0
297.074097 312.0
297.428589 40.0
298.019257 76.0
298.065582 616.0
298.99585 164.0
299.044037 96.0
299.071564 72.0
300.943451 44.0
301.762299 108.0
303.767426 112.0
308.072083 240.0
309.077148 356.0
310.059204 164.0
311.078094 104.0
312.251648 204.0
329.238312 148.0
335.471802 132.0
340.073334 164.0
343.329285 80.0
345.375366 92.0
345.586243 164.0
347.256897 104.0
351.162109 64.0
353.635468 112.0
356.880341 68.0
362.121918 116.0
362.413605 76.0
373.296265 76.0
373.738617 184.0
375.387207 64.0
375.537628 180.0
380.032715 132.0
388.036011 152.0
388.408539 132.0
389.857269 52.0
389.903381 180.0
390.148621 1768.0
390.202271 176.0
390.525604 48.0
390.612152 84.0
390.730164 64.0
390.863922 100.0
391.068573 56.0
391.155243 500.0
391.363831 44.0
391.517395 96.0
392.146545 772.0
393.152191 260.0
393.204712 96.0
393.303375 96.0
395.920685 76.0
399.345703 116.0
406.954346 156.0
412.109741 96.0
417.956512 80.0
429.216766 68.0
437.115997 124.0
437.244995 80.0
438.456879 116.0
440.417786 32.0
468.187775 60.0
492.888428 60.0
498.693787 92.0
500.005798 32.0
525.430115 52.0
525.50769 48.0
561.541748 56.0
569.630859 44.0
569.687866 44.0
576.080688 208.0
583.830933 48.0
584.042542 96.0
590.022034 64.0
603.044495 56.0
643.020264 60.0
651.872437 64.0
653.876099 68.0
653.95752 76.0
703.081116 132.0
704.998047 112.0
707.843994 44.0
711.698792 56.0
750.04834 112.0
754.185669 32.0
758.027466 168.0
768.866272 80.0
780.599243 208.0
808.02179 164.0
866.289185 216.0
880.021301 184.0
883.691589 208.0
929.440613 212.0
945.044739 140.0
957.856812 160.0
960.766357 148.0
974.665771 156.0
982.516663 180.0
996.144714 188.0
999.350891 136.0
999.816528 224.0
1008.248169 164.0
1044.816895 124.0
1066.414185 164.0
1084.270508 148.0
1088.232544 108.0
1095.776123 132.0
1111.061035 204.0
1112.162476 40.0
1123.361084 132.0
1123.821411 140.0
1125.510132 124.0
1132.123291 176.0
1132.464844 152.0
1132.759521 200.0
1142.849731 228.0
1143.280396 48.0
1147.955444 76.0
1153.065674 136.0
1157.902954 180.0
1158.722534 140.0
1163.184692 208.0
1165.303345 200.0
1165.609131 244.0
1167.118042 136.0
1170.424927 184.0
1176.178711 116.0
1176.888672 248.0
1178.732788 212.0
1187.858887 116.0
1189.40271 164.0
1191.813232 224.0
1196.262817 144.0
1197.874146 144.0
1198.438965 180.0
1204.703247 196.0
1211.454712 144.0
1212.674194 140.0
1213.020752 64.0
1218.843506 52.0
1222.264404 116.0
1225.550903 180.0
1226.770508 124.0
1227.195679 128.0
1230.321167 184.0
1233.856079 200.0
1242.34375 40.0
1244.596558 136.0
1249.966553 156.0
1258.565796 152.0
1260.755615 212.0
1262.728027 212.0
1263.753662 220.0
1263.838623 192.0
1271.051636 148.0
1272.144531 156.0
1279.181885 120.0
1292.391602 48.0
1298.13623 180.0
1299.283813 144.0
1301.314819 184.0
1307.676514 60.0
1308.900269 184.0
1310.04541 108.0
1313.822754 144.0
1314.096924 188.0
1321.0177 80.0
1323.31897 132.0
1324.390747 176.0
1326.977783 180.0
1328.312012 152.0
1338.843994 224.0
1339.476929 224.0
1339.870361 140.0
1342.304688 240.0
1349.650146 168.0
1350.878784 160.0
1351.822632 232.0
1352.422729 48.0
1356.568604 216.0
1359.663696 176.0
1362.358398 104.0
1364.055786 116.0
1365.614624 32.0
1369.854248 140.0
1370.178345 180.0
1375.081787 220.0
1377.215576 80.0
1379.084839 88.0
1380.445068 132.0
1385.159424 136.0
1386.033691 192.0
1390.555908 124.0
1394.404175 148.0
1397.94397 192.0
1404.529907 180.0
1410.944336 208.0
1411.430298 128.0
1412.01355 220.0
1412.350098 160.0
1413.120605 268.0
1414.260254 164.0
1415.755371 40.0
1416.556763 180.0
1418.400024 148.0
1421.670044 216.0
1428.454346 152.0
1430.538696 156.0
1432.150146 88.0
1433.023926 140.0
1442.766968 48.0
1450.95813 168.0
1456.072266 72.0
1462.511841 96.0
1463.729858 96.0
1466.015137 160.0
1467.364258 172.0
1467.814087 108.0
1470.758789 56.0
1473.981567 140.0
1474.669312 208.0
1476.901855 136.0
1477.5979 128.0
1484.483643 164.0
1484.537354 52.0
1486.339844 180.0
1487.974731 148.0
1490.862671 276.0
1491.71582 172.0
1494.130493 204.0
1497.887085 200.0
1499.088867 164.0
1503.376343 56.0
