>compound MLS002207275-01!
>formula C12H14O5
>ionization [M+H]+
>parentmass 239.09140000009052
#inchi InChI=1S/C12H14O5/c1-15-9-6-8(4-5-11(13)14)7-10(16-2)12(9)17-3/h4-7H,1-3H3,(H,13,14)/b5-4+
#inchikey YTFVRYKNXDADBI
#Ion_Source LC-ESI
#Instrument qTof
#Compound_Source NIH Pharmacologically Active Library
#PI Dorrestein
#Data_Collector VP/LMS
#Scan -1
#Precursor_MZ 239.095
#ExactMass 238.084
#Charge 1
#CAS_Number N/A
#Pubmed_ID N/A
#Smiles COc1cc(/C=C/C(=O)O)cc(OC)c1OC
#INCHI_AUX N/A
#Library_Class 3
#SpectrumID CCMSLIB00000085481
#IonMode Positive
#UpdateWorkflowName UPDATE-SINGLE-ANNOTATED-BRONZE
#LibraryQualityString Bronze
#TaskID d252d724072548979f1f6f1ced849daf
##Scan# 1666
#SpectrumFile p4-B06_GB6_01_18342.mzXML
#LibraryName Pharm_Active_Library.mgf
#MQScore -1
#Organism Pharm_Active_Library
#TIC_Query 0
#RT_Query -1
#MZErrorPPM -1
#SharedPeaks 0
#MassDiff 0
#LibMZ -1
#SpecMZ 239.095
#SpecCharge 0
#internalFilename spec-00000.mgf

>collision 10
45.890388 152.0
46.336391 228.0
46.626774 136.0
46.863544 196.0
48.066059 180.0
48.135075 184.0
48.372875 140.0
51.247925 216.0
52.460388 196.0
52.900978 56.0
53.42485 164.0
54.801052 176.0
55.704967 120.0
56.391869 140.0
58.178375 156.0
59.339367 176.0
64.215996 204.0
65.667488 204.0
65.698135 60.0
66.265594 140.0
67.775986 128.0
67.798927 132.0
68.105728 116.0
68.217461 112.0
69.741501 84.0
69.812988 176.0
72.172371 176.0
72.989647 52.0
78.209785 228.0
79.076393 236.0
82.30864 140.0
82.371849 140.0
83.123192 200.0
83.752213 160.0
84.104118 156.0
85.861786 172.0
87.035004 160.0
88.729111 172.0
89.036842 372.0
89.220978 60.0
89.552155 136.0
89.691582 208.0
90.411163 152.0
91.056808 328.0
92.028801 184.0
92.214096 172.0
93.391319 232.0
94.330353 192.0
95.054688 212.0
95.577377 140.0
95.84803 212.0
96.277184 236.0
96.31234 136.0
98.919724 100.0
99.732979 208.0
101.993629 152.0
102.04615 320.0
103.055786 192.0
104.025719 240.0
104.068352 144.0
104.920807 160.0
105.03434 196.0
105.074753 148.0
105.114571 184.0
105.153343 80.0
106.042381 312.0
106.790344 120.0
107.016708 144.0
107.05072 432.0
107.31958 116.0
107.424759 228.0
109.991631 92.0
110.497345 104.0
111.153152 100.0
112.18792 244.0
112.601479 168.0
113.197838 112.0
114.638077 176.0
114.829941 132.0
114.953911 180.0
117.035019 132.0
118.042534 296.0
119.048042 540.0
119.68528 40.0
120.021225 200.0
120.057899 64.0
120.741447 128.0
121.027054 144.0
121.064934 412.0
121.874748 176.0
123.039833 176.0
123.079575 168.0
124.99025 144.0
125.21508 212.0
126.174568 168.0
127.96714 228.0
128.336639 272.0
128.851227 172.0
128.952911 172.0
130.042984 556.0
130.273911 216.0
131.017792 200.0
131.048294 144.0
131.54686 148.0
131.645035 276.0
132.022598 376.0
132.056274 164.0
132.702148 60.0
133.031998 460.0
134.039719 136.0
134.328049 76.0
134.960831 204.0
135.045227 1380.0
136.04863 148.0
137.028809 148.0
137.061432 208.0
139.201736 132.0
139.596512 160.0
140.911728 164.0
141.015701 76.0
141.207214 128.0
142.743912 204.0
144.631012 132.0
145.030823 148.0
145.065735 188.0
146.034744 520.0
146.554596 168.0
147.044632 788.0
147.740005 52.0
148.049133 284.0
148.648575 172.0
149.024918 136.0
149.063766 512.0
150.034927 260.0
150.075165 164.0
151.04834 196.0
151.075806 160.0
152.045532 192.0
153.161743 108.0
153.477188 60.0
156.276031 220.0
157.038284 184.0
158.039627 232.0
159.034256 208.0
160.052032 408.0
161.025299 420.0
161.060242 228.0
161.625534 100.0
162.03418 148.0
162.067902 832.0
162.827103 180.0
162.979523 112.0
163.039841 2692.0
163.074219 268.0
163.373581 68.0
163.931168 76.0
164.046783 316.0
164.127441 88.0
164.448883 64.0
165.05687 136.0
165.108017 96.0
165.368973 124.0
167.065063 192.0
167.165405 156.0
167.211731 76.0
168.041458 144.0
168.191132 188.0
171.060593 176.0
174.031906 188.0
175.039078 420.0
176.047516 448.0
177.054367 708.0
178.061676 612.0
179.071106 176.0
179.475815 88.0
179.993454 196.0
180.033508 208.0
187.03743 220.0
188.046692 144.0
189.01683 124.0
189.945557 176.0
189.975739 48.0
190.025116 172.0
190.064133 1136.0
190.631927 76.0
191.033722 744.0
191.062515 272.0
192.036484 184.0
192.065613 144.0
192.2677 56.0
192.546539 72.0
193.084442 768.0
193.118637 168.0
194.088684 180.0
195.604752 128.0
196.03923 80.0
196.117264 228.0
196.265015 44.0
204.65625 148.0
205.049149 296.0
206.053802 472.0
207.05777 156.0
208.055603 92.0
214.22113 80.0
221.078735 300.0
224.064026 116.0
224.135529 120.0
240.968369 68.0
241.237228 100.0
241.268143 80.0
250.590622 132.0
421.540619 32.0
769.341797 36.0
823.495911 220.0
842.428284 168.0
846.786621 20.0
869.22229 212.0
992.47644 192.0
993.937866 124.0
997.586792 272.0
1094.213135 180.0
1114.69751 184.0
1224.031982 240.0
1239.510986 164.0
1254.805298 180.0
1257.831665 100.0
1288.102783 100.0
1293.938232 108.0
1300.927856 148.0
1301.093018 156.0
1313.102417 108.0
1333.032349 188.0
1339.405518 220.0
1352.234009 164.0
1363.403442 72.0
1364.844238 160.0
1365.528198 168.0
1382.000488 184.0
1395.097778 204.0
1405.308228 188.0
1422.100708 180.0
1422.160767 220.0
1426.066284 108.0
1434.994141 156.0
1437.445557 180.0
1452.098999 240.0
1459.624634 136.0
1488.631592 144.0
1489.722168 64.0
1490.55957 192.0
1494.227173 136.0
1503.913452 208.0
