>compound Azathioprine (Azasan, Imuran)
>formula C9H7N7O2S
>ionization [M+H]+
>parentmass 278.045746
#inchi InChI=1S/C9H7N7O2S/c1-15-4-14-7(16(17)18)9(15)19-8-5-6(11-2-10-5)12-3-13-8/h2-4H,1H3,(H,10,11,12,13)
#inchikey LMEKQMALGUDUQG
#Ion_Source LC-ESI
#Instrument qTof
#Compound_Source Commercial
#PI Dorrestein
#Data_Collector Garg_Neha
#Scan -1
#Precursor_MZ 278.046
#ExactMass 277.038
#Charge 1
#CAS_Number 446-86-6
#Pubmed_ID N/A
#Smiles N1=CN=C2C(=C1SC3=C(N=CN3C)[N+](=O)[O-])NC=N2
#INCHI_AUX N/A
#Library_Class 1
#SpectrumID CCMSLIB00000078255
#IonMode Positive
#UpdateWorkflowName UPDATE-SINGLE-ANNOTATED-GOLD
#LibraryQualityString Gold
#TaskID 77f51c88eb8b467eb4a01dd2d0cb90d2
##Scan# 1035
#SpectrumFile Plate4_21_40_GH3_01_16504.mzXML
#LibraryName FDALibrary_2_04302014.mgf
#MQScore -1
#Organism FDALibrary_2_04302014
#TIC_Query 0
#RT_Query -1
#MZErrorPPM -1
#SharedPeaks 0
#MassDiff 0
#LibMZ -1
#SpecMZ 278.046
#SpecCharge 0
#internalFilename spec-00000.mgf

>collision 10
45.119492 216.0
45.47044 172.0
45.560406 144.0
46.397129 176.0
46.413399 180.0
47.548393 140.0
47.7201 164.0
47.780613 192.0
47.899002 200.0
48.288235 172.0
49.184422 208.0
49.374435 188.0
49.59565 196.0
50.070538 164.0
50.150845 200.0
50.211472 156.0
50.92337 192.0
51.10675 184.0
52.734432 144.0
53.282177 204.0
53.446472 180.0
53.644539 228.0
54.333332 148.0
55.153561 176.0
55.175735 152.0
55.458469 148.0
55.624599 192.0
55.688446 180.0
55.843018 164.0
55.894371 156.0
57.616364 156.0
57.881046 144.0
58.006794 212.0
58.105366 160.0
58.406147 220.0
58.66349 164.0
58.82061 172.0
59.475742 188.0
59.756966 200.0
59.778507 180.0
59.904758 156.0
60.146851 176.0
60.254951 188.0
61.107666 164.0
61.791023 160.0
61.870838 212.0
62.35553 188.0
62.427849 172.0
63.357517 184.0
63.563637 172.0
64.345139 204.0
64.717667 172.0
66.633797 160.0
67.64489 188.0
67.702194 152.0
69.11293 248.0
69.177475 180.0
69.418304 180.0
69.515587 152.0
69.738121 152.0
70.225967 172.0
71.411789 140.0
71.66584 188.0
71.773857 212.0
71.815132 176.0
72.952225 152.0
73.078072 180.0
73.098495 160.0
73.702118 156.0
73.724335 220.0
73.801254 176.0
74.48333 216.0
74.754974 164.0
74.851372 168.0
75.089188 196.0
75.282471 300.0
76.536186 152.0
77.395256 140.0
78.253838 172.0
78.368324 156.0
79.296066 176.0
79.49469 200.0
80.139725 184.0
80.282753 244.0
81.798523 192.0
82.270058 180.0
82.708275 176.0
82.911125 168.0
83.208603 204.0
83.461151 156.0
83.717728 160.0
83.881699 164.0
84.018471 172.0
84.724136 192.0
84.865257 188.0
85.021179 188.0
87.401329 144.0
87.576324 232.0
88.599976 144.0
88.918747 152.0
89.11216 192.0
89.831314 160.0
90.193863 140.0
90.290291 224.0
90.437859 224.0
90.57798 164.0
91.861084 152.0
92.019478 176.0
92.639107 240.0
93.093704 244.0
93.485832 184.0
93.516624 176.0
93.741943 144.0
93.936676 188.0
93.969475 228.0
94.098785 152.0
94.139328 172.0
95.826874 216.0
96.263794 196.0
96.355598 152.0
97.315277 172.0
98.226456 152.0
98.651009 184.0
99.03093 192.0
99.227104 188.0
99.757164 156.0
100.256744 284.0
100.643723 168.0
100.745583 168.0
100.97879 304.0
101.857353 204.0
102.50518 164.0
102.607971 152.0
103.237953 152.0
104.456909 228.0
104.982376 140.0
105.169052 144.0
105.313271 180.0
105.460114 188.0
105.723938 196.0
105.945076 140.0
106.051628 176.0
106.221817 216.0
107.571709 160.0
107.780304 224.0
107.9953 148.0
108.046722 336.0
109.221138 172.0
110.276169 160.0
110.82235 208.0
110.948097 216.0
111.561096 360.0
111.695679 224.0
112.006088 204.0
112.576653 204.0
112.707619 164.0
113.016159 468.0
113.964882 216.0
114.419235 200.0
115.015709 228.0
115.289497 176.0
116.141602 188.0
116.229561 196.0
116.617081 160.0
117.18206 156.0
117.263947 160.0
117.911415 216.0
118.044685 204.0
118.263954 160.0
119.034904 624.0
119.054398 224.0
119.357338 180.0
119.389961 232.0
119.481316 164.0
119.714211 144.0
120.039833 232.0
120.528999 176.0
120.731148 140.0
120.80114 212.0
121.048653 464.0
121.510933 232.0
121.802902 180.0
121.923744 148.0
122.053444 200.0
122.350464 192.0
122.874985 176.0
123.051544 188.0
124.421967 160.0
124.652962 156.0
125.005264 168.0
125.31826 180.0
125.820068 196.0
126.69001 144.0
126.728096 220.0
126.855843 144.0
127.574188 152.0
127.920616 208.0
129.279343 172.0
131.009491 244.0
131.294403 156.0
132.041199 168.0
132.579193 184.0
133.048203 196.0
133.54805 204.0
134.052414 352.0
134.545822 176.0
135.160614 208.0
135.334213 164.0
135.512558 220.0
136.039352 876.0
136.063705 260.0
137.001755 140.0
137.027374 216.0
137.042892 208.0
137.073975 156.0
137.9375 252.0
138.567017 144.0
139.75975 168.0
139.802109 216.0
140.075211 184.0
141.477921 184.0
141.934006 180.0
141.964569 192.0
142.006546 23496.0
142.752045 140.0
142.970612 120.0
143.009033 1132.0
143.509232 200.0
143.549774 148.0
143.764465 180.0
144.002716 1944.0
144.184784 144.0
145.048035 160.0
145.824097 188.0
146.046478 400.0
146.066528 148.0
146.893173 156.0
147.043869 280.0
147.064484 160.0
147.680603 180.0
148.067841 216.0
148.096909 148.0
149.278809 152.0
149.325012 160.0
152.014023 2468.0
152.980682 240.0
153.021362 432.0
153.60907 184.0
153.658401 192.0
154.011414 304.0
154.038574 172.0
155.016663 264.0
155.971359 160.0
156.471375 256.0
157.129318 152.0
158.058151 420.0
158.316605 196.0
158.960861 156.0
159.054932 552.0
159.093887 276.0
159.247055 168.0
160.058594 404.0
160.72226 216.0
161.715408 160.0
162.216934 232.0
162.638 148.0
163.016418 148.0
163.642136 172.0
164.01384 2368.0
164.86908 156.0
164.971313 148.0
165.022003 2720.0
165.07869 236.0
165.442017 224.0
165.76474 168.0
166.018799 152.0
168.517929 260.0
168.954865 172.0
172.061478 1664.0
173.066238 360.0
173.87709 208.0
174.076538 736.0
174.323532 168.0
174.554871 176.0
174.628494 160.0
175.075272 300.0
176.011322 360.0
176.999573 152.0
177.021667 2068.0
177.120148 188.0
178.020432 156.0
178.061722 212.0
179.022781 168.0
179.968384 172.0
180.973709 244.0
182.040909 168.0
183.159729 276.0
185.058212 204.0
186.07283 188.0
187.075928 132.0
188.01297 224.0
188.083939 156.0
190.006088 156.0
190.033905 336.0
190.463394 184.0
190.754669 152.0
191.028976 448.0
192.009521 208.0
193.646347 176.0
193.687897 176.0
194.580841 240.0
195.214355 144.0
196.252975 176.0
196.931091 176.0
197.615982 164.0
198.0625 176.0
198.215179 180.0
198.907898 148.0
199.025803 156.0
199.071671 5584.0
200.074799 1680.0
200.268799 156.0
201.089264 140.0
202.010406 168.0
203.733978 164.0
203.971924 180.0
204.033539 2888.0
204.458344 164.0
205.040619 4468.0
205.410675 156.0
206.045853 292.0
207.041672 200.0
208.036118 172.0
213.077133 152.0
214.02153 148.0
215.019226 320.0
216.032913 136.0
216.106384 164.0
216.89415 180.0
220.025085 132.0
220.109741 200.0
221.055664 172.0
222.107407 192.0
223.125977 184.0
229.015137 148.0
229.503326 160.0
230.082611 180.0
231.043472 3768.0
231.293549 204.0
231.676346 144.0
232.051666 23356.0
232.345825 120.0
232.783401 156.0
233.053696 2184.0
233.950928 204.0
234.048218 788.0
234.343796 152.0
235.052917 164.0
235.884949 144.0
237.093933 152.0
238.930115 156.0
248.048553 588.0
249.048752 148.0
250.045578 216.0
262.586426 160.0
276.502014 156.0
277.14444 140.0
277.180878 340.0
277.43277 236.0
278.045746 4564.0
278.11441 212.0
278.201111 140.0
279.042969 396.0
279.235779 160.0
280.040771 336.0
281.044769 224.0
1018.421814 156.0
1038.001465 176.0
1205.948853 160.0
1215.214233 200.0
1308.421631 144.0
1395.52478 164.0
1395.911377 220.0
1408.140625 152.0
1413.627808 140.0
1419.943115 144.0
1424.934814 168.0
1428.603516 200.0
1448.539795 176.0
1504.565186 168.0
1505.360474 176.0
1510.538696 180.0
1512.744019 180.0
1528.755737 176.0
1545.008301 168.0
1547.089966 180.0
1552.692261 192.0
1556.498169 196.0
1561.527588 208.0
1562.172607 144.0
1564.997925 184.0
1575.352905 156.0
1576.735718 140.0
1598.774536 188.0
1619.540405 168.0
1636.299561 224.0
1655.816406 144.0
1663.12146 208.0
1668.490845 208.0
1673.974731 180.0
1676.328857 176.0
1684.332397 216.0
1685.239136 188.0
1713.56958 164.0
1716.512085 208.0
1721.298096 180.0
1722.123901 192.0
1742.559937 228.0
1781.717896 172.0
1793.802124 140.0
1812.691528 172.0
1816.981689 148.0
1842.607544 216.0
1856.885376 160.0
1858.807007 156.0
1868.687988 156.0
1870.142334 140.0
1871.734985 148.0
1875.310059 160.0
1877.801758 148.0
1879.604736 188.0
1880.450439 148.0
1881.943848 192.0
1887.050049 176.0
1887.343994 180.0
1892.95105 180.0
1911.048706 184.0
1913.085205 140.0
1916.150635 168.0
1922.20166 220.0
1934.848755 168.0
1947.748169 148.0
1951.764404 188.0
1953.866455 144.0
1959.976685 156.0
1964.014282 240.0
1972.155029 160.0
1972.729614 216.0
1974.489136 224.0
1988.238647 148.0
1993.575806 164.0
1997.487793 168.0
2001.661743 168.0
