>compound MLS002177847-01!Nalpha-Benzoyl-DL-arginine beta-naphthylamide hydrochloride913-04-2
>formula C23H25N5O2
>ionization [M+H]+
>parentmass 404.208832
#inchi InChI=1S/C23H25N5O2/c24-23(25)26-14-6-11-20(28-21(29)17-8-2-1-3-9-17)22(30)27-19-13-12-16-7-4-5-10-18(16)15-19/h1-5,7-10,12-13,15,20H,6,11,14H2,(H,27,30)(H,28,29)(H4,24,25,26)
#inchikey DEFAKPKFXYITPZ
#Ion_Source LC-ESI
#Instrument qTof
#Compound_Source NIH Pharmacologically Active Library
#PI Dorrestein
#Data_Collector VP/LMS
#Scan -1
#Precursor_MZ 404.213
#ExactMass 403.201
#Charge 1
#CAS_Number N/A
#Pubmed_ID N/A
#Smiles NC(=N)NCCCC(NC(=O)c1ccccc1)C(=O)Nc2ccc3ccccc3c2
#INCHI_AUX N/A
#Library_Class 1
#SpectrumID CCMSLIB00000084850
#IonMode Positive
#UpdateWorkflowName UPDATE-SINGLE-ANNOTATED-GOLD
#LibraryQualityString Gold
#TaskID d252d724072548979f1f6f1ced849daf
##Scan# 1771
#SpectrumFile p3-B07_GB7_01_18240.mzXML
#LibraryName Pharm_Active_Library.mgf
#MQScore -1
#Organism Pharm_Active_Library
#TIC_Query 0
#RT_Query -1
#MZErrorPPM -1
#SharedPeaks 0
#MassDiff 0
#LibMZ -1
#SpecMZ 404.213
#SpecCharge 0
#internalFilename spec-00000.mgf

>collision 10
44.894669 156.0
44.962708 108.0
45.002308 156.0
45.056179 68.0
45.069538 180.0
45.168499 196.0
45.242073 116.0
45.254124 140.0
45.315735 176.0
45.337349 212.0
45.498135 56.0
45.577377 192.0
45.600574 160.0
45.617699 208.0
45.723961 156.0
45.869427 204.0
45.965187 84.0
46.016479 116.0
46.098873 136.0
46.155647 140.0
46.208401 160.0
46.239525 212.0
46.295029 188.0
46.39801 64.0
46.586651 44.0
46.666836 220.0
46.752533 160.0
46.771587 168.0
46.846481 176.0
46.862831 44.0
46.990429 164.0
47.011463 92.0
47.023746 108.0
47.075626 144.0
47.09338 160.0
47.115234 68.0
47.154865 196.0
47.172634 80.0
47.199978 112.0
47.30122 200.0
47.329971 160.0
47.387497 140.0
47.425869 164.0
47.469742 152.0
47.492271 176.0
47.502659 232.0
47.531471 156.0
47.593239 176.0
47.793922 100.0
47.899929 144.0
47.916462 200.0
47.975723 240.0
48.141296 196.0
48.217281 136.0
48.231735 236.0
48.244926 236.0
48.291943 188.0
48.329292 184.0
48.453903 168.0
48.476074 156.0
48.519043 156.0
48.559254 228.0
48.576061 244.0
48.655003 56.0
48.674442 220.0
48.724865 224.0
48.83009 148.0
48.927494 152.0
49.023602 184.0
49.19656 152.0
49.408985 200.0
49.599434 164.0
49.624668 152.0
49.655521 156.0
49.669548 56.0
49.742516 172.0
49.791656 164.0
49.840824 224.0
49.894234 188.0
49.962074 220.0
49.972996 192.0
50.021938 160.0
50.112385 124.0
50.154663 96.0
50.275959 184.0
50.290073 64.0
50.32254 176.0
50.332424 136.0
50.380447 124.0
50.438385 148.0
50.540211 140.0
50.561436 152.0
50.572758 116.0
50.688889 128.0
50.705894 76.0
50.721489 120.0
50.776783 208.0
50.827854 120.0
50.840626 120.0
50.954224 204.0
50.999699 204.0
51.207428 292.0
51.221672 156.0
51.38419 160.0
51.428429 96.0
51.534107 184.0
51.552483 200.0
51.628448 144.0
51.647041 112.0
51.681377 60.0
51.75724 176.0
51.886192 152.0
51.896229 204.0
52.101463 156.0
52.11364 156.0
52.235161 156.0
52.250984 68.0
52.294155 164.0
52.392071 164.0
52.402157 172.0
52.418591 148.0
52.698486 208.0
52.880142 196.0
52.916332 232.0
52.978607 200.0
53.016281 184.0
53.393742 188.0
53.437382 248.0
53.514523 168.0
53.609203 128.0
53.744053 172.0
53.755032 144.0
53.794437 164.0
53.847004 160.0
53.930286 96.0
53.999004 32.0
54.063377 144.0
54.079475 140.0
54.312447 132.0
54.419579 192.0
54.497425 188.0
54.57769 212.0
54.959763 164.0
55.058666 188.0
55.118828 204.0
55.156181 172.0
55.228481 152.0
55.295864 200.0
55.352951 104.0
55.435711 132.0
55.521893 144.0
55.554523 136.0
55.575294 128.0
55.610909 196.0
55.853104 148.0
55.937923 204.0
56.07943 204.0
56.127132 172.0
56.227081 152.0
56.24947 276.0
56.276344 216.0
56.355507 80.0
56.367458 144.0
56.385391 156.0
56.395855 200.0
56.508011 204.0
56.550808 256.0
56.678703 188.0
56.762421 160.0
56.77914 196.0
56.867661 196.0
56.935223 216.0
57.032883 104.0
57.058559 196.0
57.090012 140.0
57.133633 192.0
57.193825 200.0
57.237881 152.0
57.288692 192.0
57.392685 104.0
57.413799 204.0
57.451508 160.0
57.478664 184.0
57.545078 164.0
57.578667 180.0
57.591286 232.0
57.602467 116.0
57.643257 168.0
57.67802 144.0
57.721077 316.0
57.982029 168.0
58.030754 176.0
58.111137 220.0
58.121758 232.0
58.177917 132.0
58.319187 168.0
58.357189 132.0
58.370876 148.0
58.390644 184.0
58.587002 36.0
58.612904 180.0
58.728767 148.0
58.78064 256.0
58.832531 152.0
58.844746 136.0
59.060219 108.0
59.101524 236.0
59.126011 220.0
59.297543 120.0
59.360397 108.0
59.413055 228.0
59.434025 208.0
59.638275 156.0
59.824402 180.0
59.924507 200.0
60.020069 96.0
60.146576 212.0
60.429382 88.0
60.517605 180.0
60.542381 248.0
60.626038 184.0
60.81525 168.0
60.833878 212.0
60.889774 184.0
60.993877 128.0
61.127628 180.0
61.214802 240.0
61.383099 140.0
61.422089 44.0
61.46109 236.0
61.484497 136.0
61.609413 48.0
61.657852 168.0
61.786072 248.0
61.961418 92.0
62.042007 284.0
62.069439 148.0
62.143288 132.0
62.198212 168.0
62.273579 156.0
62.287716 164.0
62.317566 340.0
62.33485 168.0
62.364712 208.0
62.476357 76.0
62.56675 192.0
62.647953 84.0
62.668434 84.0
62.681038 184.0
62.698372 140.0
62.734627 164.0
62.898682 124.0
62.964996 168.0
63.134098 104.0
63.151493 180.0
63.257511 116.0
63.303425 196.0
63.338268 132.0
63.54594 228.0
63.734886 200.0
63.911381 156.0
64.112022 104.0
64.250748 156.0
64.311386 184.0
64.396004 32.0
64.533813 188.0
64.600609 200.0
64.664612 184.0
64.852005 148.0
64.91613 124.0
64.985107 128.0
65.052513 128.0
65.078194 148.0
65.142441 148.0
65.169746 112.0
65.225998 120.0
65.288704 208.0
65.423607 204.0
65.454453 164.0
65.473778 148.0
65.581726 152.0
65.743004 76.0
65.90448 168.0
66.001465 176.0
66.129265 128.0
66.156746 176.0
66.263664 368.0
66.433891 120.0
66.495552 152.0
66.531265 228.0
66.553993 192.0
66.60434 76.0
66.701836 100.0
66.789024 116.0
66.884018 200.0
66.953011 264.0
67.020813 196.0
67.192009 192.0
67.229538 196.0
67.254021 64.0
67.427147 144.0
67.553047 208.0
67.575951 156.0
67.918335 228.0
68.093956 92.0
68.199112 176.0
68.255005 164.0
68.304344 140.0
68.333954 140.0
68.40966 40.0
68.625481 208.0
68.721184 172.0
68.874672 72.0
69.304802 148.0
69.331314 56.0
69.354523 196.0
69.432442 184.0
69.532166 184.0
69.64489 168.0
69.682571 152.0
69.709427 180.0
69.730095 184.0
69.935867 88.0
69.967491 172.0
70.000793 120.0
70.12574 208.0
70.175751 72.0
70.494263 220.0
70.536346 268.0
70.63533 184.0
71.030327 212.0
71.141075 248.0
71.394791 160.0
71.507515 216.0
71.584953 28.0
71.631477 32.0
71.793915 136.0
71.91539 112.0
72.128212 168.0
72.388763 136.0
72.553108 80.0
72.597198 228.0
72.688797 216.0
72.833107 172.0
72.858589 144.0
73.197563 160.0
73.244743 144.0
73.340157 104.0
73.430527 152.0
73.546547 144.0
73.577271 180.0
73.693413 212.0
73.713913 136.0
73.795959 120.0
74.131454 168.0
74.152023 220.0
74.260033 68.0
74.476295 132.0
74.541702 176.0
74.56736 128.0
74.656761 172.0
74.716957 152.0
74.733231 184.0
74.928719 104.0
74.995926 184.0
75.039017 36.0
75.277138 184.0
75.365227 60.0
75.392876 208.0
75.4067 264.0
75.498329 188.0
75.633064 188.0
75.915688 164.0
76.068367 248.0
76.136078 148.0
76.271599 104.0
76.327232 152.0
76.34288 160.0
76.435081 156.0
76.536034 188.0
76.58828 160.0
76.609184 116.0
76.699799 160.0
76.78698 220.0
76.800926 204.0
76.842796 56.0
76.868973 136.0
76.884674 128.0
76.914345 140.0
76.98069 52.0
77.012123 100.0
77.054047 144.0
77.125694 68.0
77.274345 204.0
77.290092 144.0
77.416122 48.0
77.607727 228.0
77.649208 124.0
77.750961 176.0
77.769043 200.0
77.787819 112.0
77.81942 116.0
77.907234 172.0
78.000366 164.0
78.062515 184.0
78.176247 36.0
78.368179 120.0
78.412231 212.0
78.431068 236.0
78.488037 72.0
78.551529 172.0
78.637985 52.0
78.849922 72.0
78.867599 168.0
78.881233 112.0
79.159515 180.0
79.180763 156.0
79.317192 172.0
79.354424 172.0
79.402298 88.0
79.428902 212.0
79.510521 132.0
79.595726 120.0
79.720078 144.0
79.814285 36.0
79.897881 200.0
80.104385 200.0
80.189911 100.0
80.270134 164.0
80.31115 164.0
80.387863 196.0
80.578918 176.0
80.748734 144.0
80.836395 48.0
80.888298 196.0
80.900833 132.0
80.942009 200.0
80.988571 40.0
81.0756 188.0
81.402855 160.0
81.440567 240.0
81.530403 176.0
81.589714 136.0
81.706612 140.0
81.748001 156.0
81.872215 148.0
81.895622 124.0
82.115509 52.0
82.227371 136.0
82.299576 96.0
82.328468 36.0
82.438667 136.0
82.462425 136.0
82.509155 52.0
82.610428 160.0
82.731674 196.0
82.766075 220.0
82.802292 180.0
82.86779 180.0
82.923683 152.0
83.074181 228.0
83.213921 184.0
83.252052 256.0
83.344696 104.0
83.388313 124.0
83.453697 136.0
83.510124 128.0
83.62635 196.0
83.646591 96.0
83.723061 84.0
83.841476 164.0
84.133316 204.0
84.231926 120.0
84.398232 44.0
84.411034 108.0
84.445786 164.0
84.674561 128.0
84.788147 160.0
84.840225 204.0
84.91098 164.0
84.978851 160.0
85.099983 152.0
85.112839 88.0
85.289207 212.0
85.42218 76.0
85.46283 256.0
85.476791 64.0
85.52832 148.0
85.548569 164.0
85.581711 136.0
85.638794 68.0
85.721703 76.0
85.776993 152.0
86.090645 196.0
86.110962 172.0
86.29409 192.0
86.332733 224.0
86.45668 184.0
86.515907 144.0
86.562195 208.0
86.593681 136.0
86.625168 68.0
86.68631 128.0
86.793816 160.0
86.829056 168.0
86.893974 96.0
86.908821 136.0
86.988625 164.0
87.029022 152.0
87.176208 156.0
87.217094 188.0
87.399345 132.0
87.702904 136.0
87.740181 132.0
87.756966 136.0
88.042458 148.0
88.137733 40.0
88.205009 72.0
88.277924 128.0
88.291016 228.0
88.332161 224.0
88.363968 136.0
88.599861 152.0
88.738548 172.0
88.83419 196.0
88.865837 184.0
88.955276 192.0
89.117676 108.0
89.213524 184.0
89.236084 168.0
89.25489 128.0
89.358337 80.0
89.398949 164.0
89.444901 216.0
89.459961 196.0
89.540924 80.0
89.642654 180.0
89.724838 212.0
89.761414 236.0
89.838737 168.0
89.938751 100.0
90.104927 188.0
90.137047 172.0
90.574074 132.0
90.666916 120.0
90.719986 160.0
90.76738 108.0
90.82048 40.0
90.856522 168.0
90.915344 164.0
90.97039 128.0
90.999626 160.0
91.013184 140.0
91.031143 148.0
91.059631 240.0
91.126114 156.0
91.141319 124.0
91.160316 76.0
91.236343 132.0
91.302895 96.0
91.468422 232.0
91.512215 244.0
91.646362 388.0
91.683647 128.0
91.700798 104.0
91.735107 104.0
91.771332 164.0
91.78952 160.0
91.816788 124.0
91.978127 200.0
92.009819 220.0
92.099571 180.0
92.261993 64.0
92.323181 100.0
92.537491 140.0
92.570503 132.0
92.704132 276.0
92.918716 180.0
92.987968 256.0
93.083954 124.0
93.120735 156.0
93.226105 200.0
93.416039 204.0
93.435684 96.0
93.468399 36.0
93.531906 116.0
93.564629 164.0
93.678253 120.0
93.749542 116.0
93.938492 152.0
94.044617 208.0
94.087082 144.0
94.148872 180.0
94.199089 164.0
94.313095 224.0
94.394295 208.0
94.473587 176.0
94.498306 196.0
94.524475 212.0
94.570343 124.0
94.612923 72.0
94.661331 180.0
94.69619 160.0
94.77755 164.0
94.878334 148.0
94.899666 180.0
94.916122 172.0
95.014091 156.0
95.060646 6008.0
95.155769 108.0
95.169357 68.0
95.326691 384.0
95.350014 188.0
95.363617 108.0
95.419991 60.0
95.534729 144.0
95.556129 172.0
95.58532 148.0
95.719627 144.0
95.772583 232.0
95.842346 160.0
95.91835 156.0
95.97879 176.0
96.009987 220.0
96.027542 104.0
96.06118 372.0
96.171921 168.0
96.195343 152.0
96.360497 176.0
96.363686 220.0
96.380882 72.0
96.408234 120.0
96.42778 176.0
96.505974 144.0
96.597885 156.0
96.62574 152.0
96.690735 140.0
96.71138 52.0
96.750526 56.0
96.819061 36.0
96.844521 160.0
96.868027 200.0
96.897408 204.0
96.99147 144.0
97.014999 180.0
97.076553 2532.0
97.103233 208.0
97.124809 64.0
97.238609 176.0
97.273933 104.0
97.293564 184.0
97.336761 148.0
97.377998 160.0
97.550911 116.0
97.603905 168.0
97.623657 152.0
97.692497 160.0
97.706268 224.0
97.79393 256.0
97.846001 156.0
97.863716 164.0
97.930672 220.0
97.956284 148.0
98.021294 92.0
98.062408 372.0
98.147446 156.0
98.267761 212.0
98.326965 80.0
98.345978 208.0
98.550102 76.0
98.692413 116.0
98.706253 204.0
98.726028 52.0
98.813057 136.0
98.844719 220.0
98.866486 156.0
98.915962 220.0
98.953583 104.0
98.967438 136.0
99.022888 288.0
99.050781 144.0
99.070602 136.0
99.121941 152.0
99.286476 136.0
99.371765 112.0
99.423363 180.0
99.461067 172.0
99.49115 184.0
99.532539 176.0
99.596092 176.0
99.641777 124.0
99.690475 148.0
99.739151 212.0
99.753067 152.0
99.788849 72.0
99.802765 180.0
99.839844 168.0
99.926086 140.0
100.055443 152.0
100.168953 152.0
100.216766 92.0
100.266586 72.0
100.326385 140.0
100.661575 120.0
100.835381 160.0
100.89135 244.0
101.048126 216.0
101.093361 64.0
101.197449 156.0
101.261528 180.0
101.376434 144.0
101.477943 184.0
101.536095 132.0
101.566185 160.0
101.594261 56.0
101.686569 148.0
101.790955 148.0
101.841507 188.0
102.003922 120.0
102.024025 116.0
102.088364 200.0
102.160767 132.0
102.215096 56.0
102.247292 104.0
102.398285 204.0
102.501022 120.0
102.529236 164.0
102.650192 192.0
102.803505 204.0
102.888275 272.0
102.950867 184.0
102.999344 100.0
103.019539 172.0
103.054871 336.0
103.251984 88.0
103.266144 180.0
103.283249 160.0
103.311501 160.0
103.382515 192.0
103.462418 148.0
103.478615 32.0
103.892052 184.0
104.049644 4180.0
104.074707 148.0
104.126976 108.0
104.18438 160.0
104.304276 116.0
104.462883 100.0
104.509674 192.0
104.525955 224.0
104.54834 48.0
104.582932 88.0
104.678619 160.0
104.784538 124.0
104.871376 292.0
104.912468 192.0
104.942589 124.0
104.969452 196.0
104.988365 360.0
105.034439 61528.0
105.086586 80.0
105.110054 92.0
105.142754 188.0
105.181084 132.0
105.184746 112.0
105.213005 84.0
105.263855 44.0
105.302505 52.0
105.322281 152.0
105.344086 68.0
105.368942 292.0
105.397774 92.0
105.439377 100.0
105.472244 44.0
105.506996 36.0
105.523354 72.0
105.57856 96.0
105.619469 228.0
105.64698 124.0
105.744278 184.0
105.81797 60.0
105.83844 112.0
105.859535 80.0
105.875298 316.0
105.926506 88.0
105.942894 40.0
106.000259 104.0
106.03743 5484.0
106.064819 148.0
106.089325 88.0
106.176559 40.0
106.201172 40.0
106.252457 56.0
106.314011 60.0
106.349388 84.0
106.385849 96.0
106.449493 252.0
106.491837 136.0
106.511108 92.0
106.553268 84.0
106.676552 140.0
106.716614 124.0
106.756454 160.0
106.78447 92.0
106.815323 76.0
106.830635 136.0
106.857498 88.0
106.862732 92.0
106.869522 140.0
106.979324 128.0
107.037842 352.0
107.10144 108.0
107.21888 44.0
107.284836 36.0
107.30957 76.0
107.351906 204.0
107.36731 236.0
107.389999 80.0
107.503464 80.0
107.633514 128.0
107.693398 128.0
107.83596 76.0
107.873528 184.0
107.920715 112.0
108.044807 132.0
108.355354 84.0
108.589584 92.0
108.666336 176.0
108.86145 60.0
108.898834 120.0
109.133659 44.0
109.333298 156.0
109.691589 112.0
109.831299 220.0
109.979439 128.0
110.221695 228.0
110.476761 156.0
110.520699 88.0
110.679779 92.0
110.890022 88.0
111.052795 120.0
111.25634 168.0
111.271034 176.0
111.313026 164.0
111.447456 184.0
111.767059 168.0
111.790207 376.0
111.836502 112.0
111.90387 188.0
112.087715 10008.0
112.141907 44.0
112.217796 88.0
112.262077 36.0
112.295815 48.0
112.329567 152.0
112.370125 88.0
112.397079 144.0
112.51738 96.0
112.798347 204.0
113.071159 6876.0
113.124107 40.0
113.202446 48.0
113.374031 76.0
113.607269 48.0
113.622116 128.0
113.743073 88.0
113.938438 80.0
113.980934 80.0
114.029816 156.0
114.072479 800.0
114.10321 5112.0
114.178635 52.0
114.204155 132.0
114.219048 88.0
114.279007 192.0
114.376503 164.0
114.399918 116.0
114.471489 104.0
114.531937 184.0
114.546852 120.0
114.600113 84.0
114.732246 124.0
114.782272 116.0
114.855927 188.0
114.883408 152.0
114.913528 60.0
114.97541 32.0
115.007423 200.0
115.052567 452.0
115.106339 196.0
115.618675 36.0
115.757042 188.0
116.055656 176.0
116.069847 180.0
116.270172 160.0
116.549332 28.0
116.68615 176.0
116.747093 208.0
116.781502 120.0
116.800858 36.0
117.061272 156.0
117.17543 152.0
117.641251 216.0
117.930695 148.0
117.969604 120.0
118.04744 204.0
118.263779 40.0
118.60601 140.0
118.625519 160.0
118.792488 76.0
119.168068 148.0
119.202827 236.0
119.522476 72.0
119.572525 164.0
119.705322 132.0
119.809868 144.0
119.851265 172.0
120.010376 52.0
120.315819 160.0
120.376953 320.0
120.492714 92.0
120.790016 164.0
121.075844 188.0
121.157784 164.0
121.460289 156.0
121.574379 112.0
121.691887 180.0
121.701599 96.0
121.704887 176.0
121.771965 188.0
121.867325 184.0
121.892792 196.0
122.011475 108.0
122.061028 40392.0
122.102798 128.0
122.132423 52.0
122.14782 72.0
122.170677 112.0
122.223145 112.0
122.247787 192.0
122.284233 128.0
122.299644 56.0
122.361282 116.0
122.376694 52.0
122.413322 44.0
122.458168 120.0
122.508827 28.0
122.572723 60.0
122.621208 96.0
122.704971 116.0
122.729218 188.0
122.823318 72.0
122.838913 76.0
122.990372 116.0
123.031479 224.0
123.064087 2764.0
123.086678 148.0
123.179436 64.0
123.245712 132.0
123.303162 160.0
123.510994 84.0
123.57515 48.0
123.6194 44.0
123.634895 172.0
123.763283 48.0
123.818642 140.0
123.888672 108.0
123.960419 148.0
124.017326 148.0
124.063454 400.0
124.091194 56.0
124.115585 168.0
124.155502 48.0
124.219818 124.0
124.437302 196.0
124.511368 304.0
124.710541 128.0
124.819473 172.0
124.852829 188.0
124.879517 136.0
124.964043 36.0
124.986298 232.0
125.070862 192.0
125.113159 132.0
125.433937 124.0
125.86898 64.0
126.018631 148.0
126.034271 160.0
126.134834 160.0
126.253334 176.0
126.730125 160.0
126.878044 148.0
126.981186 116.0
127.02829 60.0
127.053589 316.0
127.600945 220.0
127.71563 236.0
127.794365 152.0
128.136581 156.0
128.262787 124.0
128.314636 52.0
128.497314 144.0
128.5289 180.0
129.063202 80.0
129.199921 212.0
129.274582 128.0
129.371918 128.0
129.877228 52.0
129.954361 172.0
129.983856 96.0
130.042862 40.0
130.099106 5656.0
130.15863 104.0
130.229034 48.0
130.442627 84.0
130.498108 128.0
130.551758 204.0
130.576767 52.0
130.78508 144.0
131.048798 144.0
131.090057 532.0
131.540573 148.0
131.588516 80.0
131.618195 112.0
131.695831 136.0
131.784927 208.0
132.043243 32.0
132.083359 164.0
132.194229 48.0
132.288071 160.0
132.721069 88.0
132.920624 108.0
133.077194 208.0
133.095078 132.0
133.150192 112.0
133.396027 176.0
133.759476 140.0
133.950607 160.0
134.058884 232.0
134.07962 84.0
134.178741 52.0
134.231766 108.0
134.273285 176.0
134.702591 64.0
134.882828 48.0
135.016922 44.0
135.29921 132.0
135.343201 76.0
135.577164 124.0
136.061935 100.0
136.224503 136.0
136.480148 140.0
136.668549 56.0
137.083023 180.0
137.164597 152.0
137.180908 144.0
137.311478 200.0
137.572815 220.0
137.673218 56.0
137.846069 188.0
137.890472 120.0
138.071381 212.0
138.29744 184.0
138.545654 204.0
138.592499 180.0
138.655777 152.0
138.733124 112.0
139.105515 188.0
139.195328 160.0
139.710052 56.0
139.794159 160.0
139.994843 120.0
140.083282 144.0
140.192719 60.0
140.298782 124.0
141.069504 804.0
141.144012 72.0
141.19368 204.0
141.236252 160.0
141.278824 112.0
141.46814 156.0
141.742874 188.0
141.918274 76.0
141.963333 120.0
142.065063 348.0
142.293152 64.0
142.471268 116.0
142.4879 224.0
142.775497 60.0
142.811172 72.0
143.071426 592.0
143.230087 144.0
143.36113 148.0
143.427856 124.0
143.458847 100.0
143.508911 204.0
143.663376 68.0
143.749832 88.0
143.828583 56.0
143.881104 144.0
143.924072 108.0
143.945572 52.0
144.081085 6128.0
144.182922 56.0
144.385269 136.0
144.43071 52.0
144.830444 148.0
145.061569 292.0
145.085388 516.0
145.175552 52.0
145.36026 168.0
145.501877 40.0
146.069 128.0
146.090652 128.0
146.957962 144.0
147.05545 120.0
147.134705 204.0
147.411896 244.0
147.890747 244.0
147.929474 168.0
148.009369 120.0
148.477066 192.0
148.661423 60.0
148.717255 80.0
149.32222 88.0
150.111252 240.0
150.579803 196.0
150.692169 124.0
151.408875 132.0
151.933411 36.0
152.068375 140.0
152.245132 204.0
153.024612 88.0
153.231491 64.0
153.468094 156.0
153.862839 160.0
154.064636 552.0
155.061401 324.0
155.484131 72.0
155.777115 64.0
155.908798 40.0
156.076462 196.0
156.102707 200.0
156.137512 116.0
156.777313 172.0
157.026611 192.0
157.758209 144.0
157.87323 148.0
158.094147 2348.0
158.173462 44.0
158.308655 172.0
158.443909 40.0
158.544144 52.0
158.580948 232.0
158.712082 36.0
159.100647 380.0
159.372208 60.0
160.097778 160.0
160.188553 156.0
160.32338 204.0
160.507401 144.0
160.555313 176.0
160.654572 204.0
161.090393 196.0
162.031464 148.0
162.218994 140.0
163.198944 176.0
163.84285 52.0
163.972809 128.0
164.296631 132.0
164.651428 144.0
164.776596 216.0
164.868576 156.0
165.328888 120.0
165.50296 144.0
166.079559 168.0
166.192429 176.0
166.351547 156.0
166.695709 136.0
166.891052 112.0
167.068512 252.0
167.197159 192.0
167.439163 148.0
167.879837 128.0
168.085098 416.0
168.680206 192.0
169.079819 368.0
169.101822 240.0
169.40477 160.0
169.435852 40.0
169.568008 124.0
169.731323 176.0
169.850616 112.0
169.90509 180.0
170.06311 120.0
170.094528 104.0
170.115295 80.0
170.824707 92.0
171.064041 180.0
171.540802 224.0
171.574692 236.0
171.658127 184.0
172.062546 232.0
172.083405 164.0
172.253189 160.0
173.01416 112.0
173.10791 6188.0
173.192215 48.0
173.372986 164.0
173.483078 44.0
173.538132 52.0
173.789917 40.0
174.049011 168.0
174.092072 4580.0
174.265152 72.0
174.291428 96.0
174.359741 116.0
174.530609 156.0
175.097992 532.0
175.121674 528.0
175.178024 84.0
175.204376 60.0
175.251801 36.0
175.325577 40.0
175.425735 72.0
175.57338 120.0
175.800262 44.0
175.94014 124.0
176.124344 188.0
176.275574 76.0
176.376007 76.0
176.442093 60.0
176.487045 152.0
176.661591 96.0
176.709213 60.0
177.607239 64.0
177.62767 80.0
177.838074 28.0
178.302856 156.0
178.39827 192.0
178.821472 76.0
179.086594 500.0
179.830063 168.0
180.047836 112.0
180.07962 516.0
180.106598 176.0
180.445984 140.0
180.488754 172.0
180.563629 164.0
180.633179 160.0
180.750885 212.0
181.087296 356.0
181.922104 60.0
182.05928 1724.0
182.110062 144.0
182.264435 112.0
182.280655 104.0
182.540054 68.0
182.596527 108.0
182.661072 136.0
182.741776 128.0
182.784836 104.0
182.970551 140.0
183.062454 476.0
183.101547 212.0
183.145584 52.0
183.371902 44.0
183.417725 96.0
183.436584 228.0
183.58757 28.0
183.652298 180.0
183.708939 196.0
183.90593 160.0
184.084106 232.0
184.112061 192.0
184.167816 172.0
185.025024 156.0
185.095413 248.0
185.11438 108.0
185.688889 124.0
186.095444 216.0
186.332214 120.0
186.430038 76.0
186.552338 104.0
186.68013 92.0
186.759003 120.0
187.101868 172.0
187.150864 164.0
187.297928 152.0
187.428696 152.0
188.140533 72.0
189.099655 208.0
189.176605 108.0
189.497025 208.0
190.072815 160.0
190.17984 60.0
190.388489 160.0
190.558792 44.0
190.602753 160.0
191.078415 140.0
191.097672 136.0
191.14444 132.0
191.538132 144.0
191.7117 180.0
191.791626 152.0
192.100998 764.0
193.079086 192.0
193.106689 164.0
193.592957 148.0
194.098999 352.0
194.491211 192.0
194.518967 84.0
195.064804 140.0
195.088531 192.0
196.075317 472.0
196.112625 472.0
196.994522 100.0
197.083832 128.0
197.120316 144.0
197.561035 128.0
197.733658 80.0
197.769058 116.0
197.956635 80.0
198.101746 1000.0
198.16951 76.0
199.081039 176.0
199.108841 240.0
199.182236 76.0
199.70784 196.0
199.758469 184.0
200.082092 172.0
200.117264 764.0
200.163742 96.0
200.535614 40.0
200.583527 56.0
200.998093 204.0
201.051712 160.0
201.1026 9972.0
201.257782 44.0
201.277542 76.0
201.359436 72.0
201.379211 88.0
201.407455 44.0
201.50914 88.0
201.613693 40.0
201.703217 96.0
201.84726 96.0
201.879425 200.0
201.924667 168.0
202.105728 1612.0
202.153824 44.0
202.175049 72.0
202.207596 64.0
202.323639 96.0
202.422745 48.0
202.504868 52.0
202.587006 40.0
203.006485 92.0
203.110001 156.0
203.236237 144.0
203.537109 112.0
203.596741 96.0
203.656387 80.0
203.775696 112.0
204.520752 100.0
204.811172 64.0
204.95076 120.0
204.999207 124.0
205.05336 112.0
205.210129 164.0
205.626602 172.0
206.043503 64.0
206.07045 152.0
206.089203 316.0
206.234955 108.0
206.286407 168.0
207.48587 112.0
207.634979 144.0
208.435898 132.0
209.077164 120.0
209.437042 124.0
209.64447 172.0
209.679062 48.0
209.756882 64.0
209.811646 104.0
209.883728 140.0
210.048111 112.0
210.836319 144.0
210.963501 164.0
211.006851 204.0
211.089554 280.0
211.120499 132.0
211.324997 160.0
211.463898 124.0
211.579681 104.0
212.096436 408.0
212.309845 156.0
212.652191 184.0
212.954132 196.0
212.997711 176.0
213.047089 44.0
213.453979 168.0
214.035934 128.0
215.129242 112.0
215.251862 32.0
215.348236 64.0
215.599487 144.0
215.678391 144.0
215.742706 172.0
215.763168 196.0
215.977448 160.0
216.00296 160.0
216.040985 60.0
216.070831 180.0
216.113464 18192.0
216.164352 208.0
216.19606 60.0
216.278015 36.0
216.342407 56.0
216.370773 52.0
216.450729 40.0
216.4888 76.0
216.515167 68.0
216.58252 172.0
216.608887 168.0
216.638184 168.0
216.717285 52.0
216.76709 56.0
216.84053 64.0
216.890182 84.0
217.002457 188.0
217.054352 132.0
217.074875 56.0
217.114792 2324.0
217.206848 164.0
217.253784 48.0
217.291306 56.0
217.324203 144.0
217.550186 52.0
217.57843 80.0
217.78215 92.0
218.017181 36.0
218.093597 320.0
218.128021 868.0
218.328796 104.0
218.658295 64.0
218.817245 92.0
218.870239 68.0
218.926193 28.0
218.958588 84.0
218.988037 80.0
219.113327 5372.0
219.238464 64.0
219.329819 140.0
219.356354 56.0
219.490738 96.0
219.63942 104.0
219.786484 112.0
220.008286 56.0
220.087997 116.0
220.116684 740.0
220.217926 48.0
220.761703 84.0
221.108063 156.0
221.587524 52.0
221.753464 56.0
221.92836 48.0
222.091461 148.0
222.115204 216.0
222.213089 196.0
222.456436 88.0
223.020813 72.0
223.089172 140.0
223.123337 656.0
223.618637 92.0
224.107803 1568.0
224.649597 72.0
224.888306 128.0
225.111496 348.0
225.366104 120.0
226.110687 136.0
226.18251 44.0
226.410065 120.0
227.066391 64.0
227.318375 56.0
227.45343 88.0
227.672607 104.0
228.3909 152.0
229.086243 172.0
229.10733 168.0
229.637833 148.0
229.858063 56.0
230.094894 2156.0
230.53447 68.0
230.649307 72.0
230.900269 56.0
230.990997 40.0
231.101395 1332.0
231.499466 52.0
232.099442 172.0
232.120667 124.0
232.251068 144.0
233.031235 144.0
233.139282 1092.0
233.368591 76.0
234.142715 324.0
234.165863 160.0
234.376068 100.0
234.507095 88.0
235.507843 172.0
236.103821 100.0
236.657669 140.0
237.344009 136.0
238.138809 260.0
238.332352 148.0
238.916504 148.0
239.061111 72.0
239.117447 208.0
239.15036 116.0
240.146057 304.0
240.457138 132.0
240.926483 208.0
241.132523 488.0
241.544724 48.0
242.117981 204.0
242.151382 220.0
243.11969 172.0
243.177612 124.0
243.255203 212.0
243.35144 88.0
243.416641 72.0
243.47876 60.0
243.811157 140.0
243.959457 152.0
244.063995 200.0
244.108231 8476.0
244.156235 40.0
244.395767 108.0
244.481598 108.0
244.528763 92.0
244.566925 72.0
244.594925 48.0
244.632278 84.0
244.655518 56.0
244.735016 104.0
244.934326 148.0
245.107101 320.0
246.02887 92.0
246.115952 184.0
246.147507 76.0
246.478607 32.0
246.641113 152.0
246.838074 36.0
246.947525 116.0
247.010086 100.0
247.113998 164.0
247.1978 52.0
247.407501 80.0
247.454468 232.0
247.525894 108.0
248.055939 68.0
248.102097 144.0
248.128052 168.0
248.686401 144.0
249.093277 192.0
251.449738 96.0
253.071381 124.0
253.55603 164.0
253.922043 152.0
254.707245 124.0
255.317978 168.0
255.594727 96.0
256.135956 120.0
256.199646 68.0
256.859497 180.0
256.90097 92.0
257.465912 160.0
257.600067 192.0
258.124207 144.0
258.312897 68.0
259.129242 108.0
259.331116 136.0
259.363159 40.0
259.773621 184.0
260.110535 116.0
260.608307 188.0
260.630798 80.0
261.019745 148.0
261.134491 4108.0
261.222351 40.0
261.386414 172.0
261.798645 72.0
261.866089 184.0
261.901093 120.0
262.137085 728.0
262.397766 48.0
262.536438 64.0
263.138214 128.0
263.51123 48.0
263.782684 96.0
264.041351 32.0
264.096313 80.0
264.18689 112.0
264.419861 120.0
264.678833 56.0
265.057831 56.0
265.086975 72.0
265.131989 176.0
265.139648 236.0
266.13028 620.0
266.703186 28.0
267.109406 148.0
267.11731 132.0
267.131775 148.0
269.486176 128.0
270.126923 228.0
270.166199 44.0
271.053436 108.0
273.421112 192.0
275.121887 28.0
277.134125 84.0
283.121948 124.0
283.167175 208.0
284.097321 136.0
284.819 76.0
285.104584 140.0
285.178528 172.0
285.306274 136.0
287.121124 176.0
287.151489 80.0
293.854431 144.0
294.079651 144.0
294.974548 100.0
295.200195 180.0
296.507904 148.0
298.07962 112.0
298.155212 104.0
299.118866 136.0
300.118103 212.0
300.362152 84.0
300.952301 76.0
301.131866 148.0
301.221649 188.0
302.047791 256.0
306.200745 68.0
309.127838 156.0
309.152344 132.0
309.453369 204.0
310.108429 132.0
311.385498 128.0
313.591431 156.0
315.024017 148.0
318.204193 132.0
319.515594 116.0
320.551697 128.0
321.667999 208.0
323.222626 84.0
323.791809 212.0
323.856262 120.0
326.162323 280.0
327.148621 1128.0
327.570312 48.0
328.154602 364.0
329.148956 156.0
332.190063 124.0
333.010376 168.0
336.115631 112.0
337.964508 56.0
341.221375 60.0
342.137421 132.0
342.163208 164.0
342.236847 124.0
343.272247 104.0
343.692749 172.0
344.179291 888.0
345.068054 164.0
345.159851 3368.0
345.288544 88.0
345.347717 68.0
345.517883 144.0
345.686066 132.0
345.936066 72.0
346.160675 700.0
347.164398 136.0
347.251434 120.0
347.388672 44.0
347.451752 52.0
347.77829 60.0
348.554443 44.0
348.981873 52.0
349.197571 80.0
353.296906 124.0
356.35611 64.0
357.977264 76.0
362.17688 36.0
364.909149 116.0
366.435303 120.0
366.911713 128.0
369.171478 776.0
370.170074 348.0
370.561523 80.0
370.615143 60.0
374.957428 80.0
375.531891 60.0
379.169983 56.0
386.189056 172.0
386.194794 144.0
386.210541 216.0
387.128967 104.0
387.185791 632.0
388.185547 152.0
388.241882 148.0
388.826416 32.0
399.478973 116.0
401.279022 84.0
402.284332 76.0
402.611755 148.0
402.703613 128.0
403.952484 80.0
404.208832 5452.0
404.362793 72.0
404.643005 100.0
405.143616 68.0
405.208954 1488.0
405.299866 64.0
405.42807 84.0
405.532288 112.0
405.74472 144.0
406.215729 160.0
406.462677 48.0
407.221405 84.0
407.353943 88.0
407.478485 120.0
407.514648 44.0
407.691437 108.0
407.731628 36.0
407.904449 36.0
409.691132 72.0
411.752258 48.0
412.71402 72.0
417.759186 56.0
417.82428 40.0
421.040314 72.0
432.093475 104.0
443.101288 132.0
454.039734 120.0
464.099121 76.0
468.767181 120.0
469.543121 60.0
471.256836 48.0
477.512024 108.0
485.298035 164.0
488.741516 88.0
491.305664 92.0
496.83551 68.0
499.140625 88.0
511.182465 112.0
512.042297 132.0
525.592163 56.0
530.655396 108.0
535.47113 44.0
538.981628 172.0
551.006104 96.0
552.286926 80.0
553.040222 80.0
572.334717 124.0
602.079895 80.0
608.715332 112.0
618.387695 112.0
629.703613 112.0
637.132019 68.0
643.083862 48.0
644.13916 68.0
676.489868 112.0
677.65509 40.0
684.381165 40.0
708.207703 80.0
713.859741 44.0
739.309448 48.0
740.435486 152.0
756.180542 124.0
767.45282 136.0
775.346497 268.0
787.285034 76.0
816.42688 72.0
816.955872 112.0
822.888489 180.0
824.853699 208.0
830.66571 136.0
837.235168 116.0
846.949585 168.0
847.470947 68.0
854.170349 176.0
854.373962 180.0
864.27478 180.0
871.739258 196.0
874.72113 120.0
875.627869 52.0
875.863464 188.0
878.486572 208.0
884.803955 168.0
894.676575 104.0
894.730164 32.0
901.320679 160.0
903.341431 164.0
905.041077 92.0
905.424316 160.0
906.023315 52.0
915.007629 204.0
921.744751 124.0
933.212646 220.0
942.629883 132.0
945.05127 72.0
948.891418 200.0
949.186829 152.0
950.786743 156.0
957.962097 188.0
958.448792 36.0
958.763062 80.0
963.063293 144.0
966.308655 216.0
966.494263 168.0
968.462891 172.0
972.126831 172.0
973.026855 244.0
975.331482 180.0
976.500427 172.0
977.296631 96.0
977.844238 156.0
980.042419 88.0
984.508667 232.0
986.564331 128.0
988.390564 144.0
989.022644 172.0
989.792664 192.0
990.318726 140.0
990.381348 228.0
992.449341 240.0
992.599854 80.0
993.791565 116.0
994.212036 52.0
994.306152 144.0
995.065674 84.0
999.547119 148.0
1001.114502 192.0
1002.802917 180.0
1003.344971 232.0
1003.792664 136.0
1005.003723 180.0
1006.007202 220.0
1006.689087 84.0
1007.522766 104.0
1013.115112 176.0
1013.710693 160.0
1014.07196 44.0
1015.853699 176.0
1016.868896 92.0
1016.945068 140.0
1017.414795 220.0
1017.7005 192.0
1017.846497 228.0
1018.202148 212.0
1019.313843 164.0
1021.049255 152.0
1021.138306 144.0
1023.556519 148.0
1024.320801 44.0
1024.836792 96.0
1025.473999 176.0
1026.640747 200.0
1027.942017 208.0
1029.74231 192.0
1030.355591 168.0
1030.649414 112.0
1031.416382 104.0
1033.526733 156.0
1033.725098 164.0
1033.833862 48.0
1035.107788 172.0
1035.203857 188.0
1035.818604 236.0
1036.459351 104.0
1037.805298 192.0
1038.106689 140.0
1039.562866 120.0
1043.210938 140.0
1043.950317 224.0
1045.390381 144.0
1045.577881 188.0
1046.987793 48.0
1047.335571 144.0
1047.786499 184.0
1050.661743 104.0
1050.92627 144.0
1053.805908 208.0
1055.240723 220.0
1055.48645 232.0
1056.307739 136.0
1056.605347 92.0
1058.637695 220.0
1059.194702 44.0
1059.389038 168.0
1060.062866 92.0
1061.281494 192.0
1061.534302 176.0
1063.043091 208.0
1063.246948 168.0
1063.714233 68.0
1064.493408 132.0
1065.136353 104.0
1065.948486 112.0
1066.754395 180.0
1067.475952 144.0
1068.82251 184.0
1069.844238 168.0
1070.723267 200.0
1071.869873 100.0
1072.58667 156.0
1072.704102 180.0
1072.958252 116.0
1073.903809 144.0
1075.078125 180.0
1075.756958 164.0
1078.663818 124.0
1078.951416 196.0
1079.428711 168.0
1084.351562 112.0
1085.748047 92.0
1086.521973 172.0
1089.679932 164.0
1091.592529 208.0
1091.901611 176.0
1093.197632 132.0
1093.776855 152.0
1094.342896 208.0
1094.573364 56.0
1094.817017 156.0
1096.773804 172.0
1096.925415 108.0
1097.228638 204.0
1097.980347 124.0
1098.442017 152.0
1100.019165 200.0
1101.452026 184.0
1101.775757 44.0
1103.560181 132.0
1103.646118 100.0
1105.663696 108.0
1107.643311 120.0
1108.107056 184.0
1108.53772 200.0
1109.107666 212.0
1109.3927 156.0
1109.843506 144.0
1110.778564 88.0
1111.103638 228.0
1112.12561 188.0
1112.583618 204.0
1114.695679 248.0
1114.775391 212.0
1115.925293 80.0
1116.350952 180.0
1116.663452 160.0
1118.100464 192.0
1118.98584 212.0
1121.104004 140.0
1122.020386 148.0
1122.703857 156.0
1123.62439 128.0
1125.232788 144.0
1126.10083 144.0
1128.633545 220.0
1128.827515 192.0
1130.519897 188.0
1130.801025 168.0
1130.861206 144.0
1131.604248 184.0
1134.143188 156.0
1135.510864 196.0
1136.092407 212.0
1136.30249 140.0
1136.986816 204.0
1137.523804 60.0
1137.960205 148.0
1138.786133 200.0
1139.074951 116.0
1141.984985 140.0
1143.364624 128.0
1144.798462 200.0
1145.620239 180.0
1146.14563 212.0
1146.502808 180.0
1147.737305 144.0
1149.469971 176.0
1151.55896 208.0
1151.711304 100.0
1152.616577 204.0
1153.251831 160.0
1155.300659 132.0
1155.584839 164.0
1155.726929 156.0
1156.247925 136.0
1156.4104 228.0
1158.434937 180.0
1158.590698 144.0
1161.939819 148.0
1162.136475 204.0
1162.591187 204.0
1166.163452 200.0
1166.234497 44.0
1166.700439 172.0
1167.257935 200.0
1167.880371 176.0
1168.33252 132.0
1169.264771 56.0
1170.258545 132.0
1170.319824 152.0
1170.857788 164.0
1172.27478 196.0
1172.411133 204.0
1175.780029 76.0
1176.367065 208.0
1176.621094 208.0
1176.851685 180.0
1177.049683 40.0
1180.739868 112.0
1182.306519 104.0
1182.463989 208.0
1182.744507 232.0
1184.291992 136.0
1184.860596 212.0
1186.272217 132.0
1189.544312 104.0
1190.04541 168.0
1190.478027 116.0
1191.790039 152.0
1195.420654 136.0
1196.060669 232.0
1196.852417 104.0
1197.761475 160.0
1198.870728 124.0
1201.75293 72.0
1203.402466 160.0
1204.134521 204.0
1204.541992 136.0
1204.818359 188.0
1205.758057 72.0
1206.400879 172.0
1206.490723 140.0
1207.030029 64.0
1207.124146 236.0
1207.258179 64.0
1207.631714 180.0
1209.589844 148.0
1210.849976 132.0
1211.092285 160.0
1211.175415 188.0
1211.459473 184.0
1211.514893 156.0
1212.374023 140.0
1213.281982 172.0
1213.795044 200.0
1214.981079 164.0
1215.258667 148.0
1215.619385 152.0
1215.966431 124.0
1217.264648 112.0
1218.632935 168.0
1219.447021 192.0
1220.398315 156.0
1223.417725 156.0
1224.072266 136.0
1224.733765 152.0
1224.831299 172.0
1225.590698 116.0
1227.402954 144.0
1228.142212 180.0
1229.460815 80.0
1230.535767 176.0
1231.199097 112.0
1232.819824 184.0
1235.147949 156.0
1235.455688 148.0
1235.62439 204.0
1237.800415 148.0
1238.956055 124.0
1239.691772 200.0
1239.747803 152.0
1239.986084 136.0
1240.07019 148.0
1240.258545 156.0
1241.08667 112.0
1242.601562 208.0
1242.791016 188.0
1245.030273 124.0
1245.100464 136.0
1245.859131 164.0
1246.800659 192.0
1249.141968 208.0
1250.204346 172.0
1250.999634 76.0
1251.05603 192.0
1251.675537 220.0
1251.893799 120.0
1252.168457 200.0
1252.506592 176.0
1254.973145 160.0
1255.170532 160.0
1255.939209 148.0
1256.059082 172.0
1257.526733 148.0
1258.091431 180.0
1259.312988 104.0
1259.489624 180.0
1259.623779 208.0
1259.687378 188.0
1260.676514 204.0
1264.396362 152.0
1265.019165 256.0
1265.677612 164.0
1266.499146 132.0
1266.683228 188.0
1266.853271 160.0
1268.093262 188.0
1269.617554 172.0
1269.767822 128.0
1271.078857 200.0
1271.305908 192.0
1271.532959 172.0
1271.788574 160.0
1272.07959 116.0
1273.421509 140.0
1274.416016 80.0
1274.643433 152.0
1275.553101 188.0
1275.67395 164.0
1276.000977 104.0
1276.662231 152.0
1277.458862 104.0
1277.622437 168.0
1277.764771 132.0
1278.625732 184.0
1281.780396 152.0
1282.250732 164.0
1283.213013 96.0
1283.405518 108.0
1283.562378 148.0
1283.793701 348.0
1283.876221 224.0
1283.992676 240.0
1284.239868 124.0
1285.609741 188.0
1287.101562 176.0
1287.715698 152.0
1288.237183 144.0
1288.601562 212.0
1289.144531 176.0
1290.059448 140.0
1290.371826 176.0
1290.588501 252.0
1290.688599 216.0
1292.018921 112.0
1292.714355 172.0
1292.963379 156.0
1293.106445 156.0
1293.197754 80.0
1296.078369 192.0
1296.296753 160.0
1297.052979 140.0
1297.69104 176.0
1297.841553 76.0
1298.400879 272.0
1299.799805 160.0
1300.316406 172.0
1300.89502 216.0
1302.39856 204.0
1303.418701 216.0
1305.6427 196.0
1305.783813 64.0
1306.035522 168.0
1309.583984 224.0
1309.682617 192.0
1310.498901 68.0
1310.895142 148.0
1310.959961 140.0
1312.401611 132.0
1312.459351 136.0
1312.762207 228.0
1314.105469 208.0
1315.236816 184.0
1316.464111 176.0
1316.57251 248.0
1316.651855 128.0
1317.078003 140.0
1317.338013 144.0
1319.065063 212.0
1319.397583 124.0
1319.563965 44.0
1319.751953 236.0
1319.939941 196.0
1320.077271 208.0
1320.229126 180.0
1321.068115 176.0
1321.806152 220.0
1322.508057 232.0
1323.593994 184.0
1323.702637 216.0
1324.02124 196.0
1324.202271 92.0
1324.383423 148.0
1325.499023 144.0
1325.549805 160.0
1325.672974 88.0
1325.781616 188.0
1325.879883 80.0
1326.723877 88.0
1326.839966 192.0
1327.173462 140.0
1327.427246 56.0
1328.73999 152.0
1329.422119 108.0
1330.358398 244.0
1330.467285 216.0
1330.888306 128.0
1331.934082 52.0
1332.558838 128.0
1332.711426 112.0
1332.784058 140.0
1332.89624 256.0
1332.951172 104.0
1333.663452 156.0
1333.808838 176.0
1334.812134 184.0
1334.972046 76.0
1335.786621 76.0
1336.179443 136.0
1336.863403 136.0
1337.714966 136.0
1338.013428 132.0
1338.377441 224.0
1339.600952 136.0
1339.710327 176.0
1340.096436 128.0
1340.577271 192.0
1341.626831 80.0
1341.860229 192.0
1342.638428 224.0
1343.187378 136.0
1343.807495 152.0
1344.011719 92.0
1344.252563 248.0
1345.997192 196.0
1346.232056 212.0
1346.793213 216.0
1347.23877 128.0
1347.845215 244.0
1348.283569 156.0
1348.70752 204.0
1348.773315 200.0
1348.882935 168.0
1349.116943 204.0
1350.264893 160.0
1351.303589 160.0
1352.547607 148.0
1353.089355 28.0
1353.404175 48.0
1353.550537 184.0
1354.048584 180.0
1354.956909 40.0
1355.242554 60.0
1356.715698 228.0
1357.456177 172.0
1357.589966 192.0
1358.050293 144.0
1358.519653 216.0
1358.906616 236.0
1358.989258 188.0
1359.745117 160.0
1359.825806 128.0
1360.713989 184.0
1361.081055 64.0
1361.169189 160.0
1361.470337 240.0
1362.476562 136.0
1362.608765 168.0
1362.785156 148.0
1363.299561 232.0
1363.453857 188.0
1363.578735 108.0
1363.688965 124.0
1363.784546 184.0
1363.997681 168.0
1364.306519 156.0
1364.916748 168.0
1365.09314 56.0
1365.424072 128.0
1365.696289 216.0
1366.799683 152.0
1366.924805 232.0
1367.049927 180.0
1368.639893 148.0
1369.170044 48.0
1369.42041 112.0
1370.857056 144.0
1371.724487 156.0
1372.722046 120.0
1373.466919 192.0
1373.673462 208.0
1373.953735 168.0
1375.237793 184.0
1376.492798 176.0
1376.633057 60.0
1376.865479 280.0
1377.135254 220.0
1377.41626 204.0
1378.317261 156.0
1379.449951 184.0
1380.253906 88.0
1381.119141 140.0
1381.90332 212.0
1382.717285 144.0
1382.924438 172.0
1383.183594 160.0
1383.257568 212.0
1384.064575 168.0
1385.981079 188.0
1386.249756 180.0
1386.679565 168.0
1387.472656 176.0
1388.110352 180.0
1389.141235 192.0
1389.289551 168.0
1390.053833 120.0
1390.25415 212.0
1390.558472 160.0
1391.397217 160.0
1391.582764 220.0
1392.629883 176.0
1393.461914 168.0
1394.041382 156.0
1394.257568 152.0
1394.502197 128.0
1396.375732 116.0
1396.948486 168.0
1397.72229 100.0
1397.923096 156.0
1398.496216 32.0
1398.786499 220.0
1399.478882 140.0
1400.469238 164.0
1400.72998 96.0
1400.923584 160.0
1401.057739 160.0
1401.728271 132.0
1402.905884 168.0
1404.061646 124.0
1404.315186 132.0
1404.620972 148.0
1405.001465 52.0
1407.509155 144.0
1407.606201 80.0
1408.211182 188.0
1409.443726 180.0
1410.183594 116.0
1410.512451 160.0
1411.304932 144.0
1411.977905 140.0
1412.868042 180.0
1413.070068 200.0
1413.339355 120.0
1414.259888 36.0
1414.581787 212.0
1415.420288 140.0
1415.772217 188.0
1416.086792 40.0
1416.536133 108.0
1417.038086 112.0
1417.165405 116.0
1417.397705 132.0
1417.480103 172.0
1417.682495 188.0
1418.012207 248.0
1418.469482 140.0
1419.361572 160.0
1419.781494 232.0
1420.884155 152.0
1421.064209 180.0
1421.131714 220.0
1421.251831 144.0
1421.751099 180.0
1421.927124 92.0
1423.586304 144.0
1424.422852 212.0
1424.555176 48.0
1424.802979 192.0
1425.051025 152.0
1425.419189 84.0
1426.614136 172.0
1426.832153 168.0
1427.200562 216.0
1427.734497 164.0
1427.975098 140.0
1429.396973 216.0
1429.585083 148.0
1430.149536 176.0
1430.277466 112.0
1430.367798 176.0
1431.105591 164.0
1432.212524 200.0
1432.43103 108.0
1432.660156 200.0
1433.478271 68.0
1434.164062 292.0
1434.865112 156.0
1435.101196 216.0
1435.355225 88.0
1436.52417 160.0
1436.765625 200.0
1437.505005 240.0
1437.671021 168.0
1438.251831 196.0
1439.075073 84.0
1439.203369 144.0
1439.271362 164.0
1439.490356 92.0
1439.558105 160.0
1440.653442 184.0
1440.978271 168.0
1441.439209 80.0
1441.560059 52.0
1442.066406 164.0
1442.293213 164.0
1442.897949 136.0
1443.168579 156.0
1443.933838 224.0
1444.322998 172.0
1445.893311 212.0
1446.915161 184.0
1447.187744 152.0
1447.755615 96.0
1448.56604 148.0
1449.391846 144.0
1450.543823 104.0
1450.756104 136.0
1450.93042 176.0
1451.878296 208.0
1452.371216 176.0
1452.902222 160.0
1454.054443 132.0
1454.366699 128.0
1454.79187 184.0
1455.330811 252.0
1455.577026 184.0
1456.591553 36.0
1457.222046 168.0
1457.442383 140.0
1457.495605 144.0
1457.655151 156.0
1457.837524 52.0
1457.890747 76.0
1458.513916 136.0
1459.114502 224.0
1459.55542 152.0
1459.677124 192.0
1459.979004 208.0
1461.22876 76.0
1461.403687 144.0
1461.487427 152.0
1462.149414 236.0
1462.69751 32.0
1463.504395 212.0
1464.250732 68.0
1465.919067 204.0
1466.185791 196.0
1466.246704 108.0
1466.376343 204.0
1466.51355 72.0
1466.91748 148.0
1467.115723 48.0
1467.245239 176.0
1468.015381 136.0
1468.122192 232.0
1468.556885 176.0
1470.746704 208.0
1472.411011 160.0
1472.563843 132.0
1473.060303 188.0
1473.182495 128.0
1473.793701 204.0
1475.589844 112.0
1475.773315 212.0
1476.162964 204.0
1476.484497 128.0
1477.999146 36.0
1479.024536 184.0
1479.170044 168.0
1479.506836 184.0
1480.410278 132.0
1480.555786 220.0
1480.858643 192.0
1481.329346 148.0
1482.103149 140.0
1482.838867 80.0
1483.743286 120.0
1484.694092 164.0
1484.809204 140.0
1485.507202 88.0
1485.698975 60.0
1486.08252 192.0
1486.228271 192.0
1486.458496 44.0
1486.811523 188.0
1486.865234 148.0
1487.172241 156.0
1487.648071 84.0
1487.809326 188.0
1488.108765 172.0
1488.699951 192.0
1488.922729 116.0
1489.281372 240.0
1490.078735 160.0
1490.451416 204.0
1490.658813 168.0
1490.866333 176.0
1490.950806 76.0
1491.88855 72.0
1492.303711 172.0
1492.419067 152.0
1493.72644 148.0
1493.972656 132.0
1494.395752 204.0
1494.472656 180.0
1495.319214 184.0
1495.603882 188.0
1496.843384 156.0
1496.943481 216.0
1497.005127 100.0
1497.498047 164.0
1499.077271 172.0
1499.652832 176.0
1500.271973 160.0
1501.312866 128.0
1501.521118 160.0
1501.706177 172.0
1502.817017 220.0
1503.403442 128.0
1504.39917 192.0
1504.723389 140.0
1505.05542 84.0
