>compound MLS002153778-01!Zoxazolamine61-80-3
>formula C7H5ClN2O
>ionization [M+H]+
>parentmass 169.016327
#inchi InChI=1S/C7H5ClN2O/c8-4-1-2-6-5(3-4)10-7(9)11-6/h1-3H,(H2,9,10)
#inchikey YGCODSQDUUUKIV
#Ion_Source LC-ESI
#Instrument qTof
#Compound_Source NIH Pharmacologically Active Library
#PI Dorrestein
#Data_Collector VP/LMS
#Scan -1
#Precursor_MZ 169.021
#ExactMass 168.009
#Charge 1
#CAS_Number N/A
#Pubmed_ID N/A
#Smiles Nc1nc2cc(Cl)ccc2o1
#INCHI_AUX N/A
#Library_Class 1
#SpectrumID CCMSLIB00000085555
#IonMode Positive
#UpdateWorkflowName UPDATE-SINGLE-ANNOTATED-GOLD
#LibraryQualityString Gold
#TaskID d252d724072548979f1f6f1ced849daf
##Scan# 1530
#SpectrumFile p4-C07_GC7_01_18355.mzXML
#LibraryName Pharm_Active_Library.mgf
#MQScore -1
#Organism Pharm_Active_Library
#TIC_Query 0
#RT_Query -1
#MZErrorPPM -1
#SharedPeaks 0
#MassDiff 0
#LibMZ -1
#SpecMZ 169.021
#SpecCharge 0
#internalFilename spec-00000.mgf

>collision 10
44.910633 236.0
44.976013 164.0
45.028084 152.0
45.141678 52.0
45.212578 80.0
45.291573 156.0
45.42025 128.0
45.565231 140.0
45.721207 192.0
45.75486 180.0
45.847797 216.0
45.947578 216.0
46.358624 152.0
46.403355 124.0
46.431828 216.0
46.454887 180.0
46.511879 132.0
46.564831 196.0
46.643639 156.0
46.711628 76.0
46.756527 140.0
46.874405 224.0
46.973167 120.0
47.034569 144.0
47.078259 124.0
47.091694 196.0
47.225861 200.0
47.358624 80.0
47.416168 60.0
47.428703 136.0
47.726406 228.0
47.740158 116.0
47.760788 172.0
47.7883 176.0
47.938995 208.0
47.954926 208.0
48.277981 204.0
48.383141 44.0
48.396984 196.0
48.513363 144.0
48.56744 212.0
48.68541 252.0
48.732639 48.0
48.759041 184.0
49.10989 112.0
49.139187 144.0
49.151745 96.0
49.485798 136.0
49.592262 164.0
49.637123 196.0
49.689022 204.0
49.752174 128.0
49.792892 180.0
49.936249 120.0
50.23204 200.0
50.250378 144.0
50.301182 196.0
50.319534 200.0
50.350601 156.0
50.610794 172.0
50.673115 144.0
50.742561 236.0
50.765247 152.0
50.812054 124.0
50.877335 136.0
50.926189 248.0
51.12323 188.0
51.1702 76.0
51.249962 72.0
51.277035 208.0
51.731251 40.0
51.747444 180.0
51.961983 172.0
51.994984 148.0
52.015079 176.0
52.045227 28.0
52.211918 156.0
52.278091 144.0
52.351509 136.0
52.406246 172.0
52.47831 128.0
52.564854 104.0
52.833595 120.0
52.850956 192.0
52.9436 168.0
53.227821 148.0
53.400757 56.0
53.508465 224.0
53.592915 48.0
53.70808 140.0
53.903709 184.0
54.036659 164.0
54.067493 156.0
54.301903 96.0
54.362827 184.0
54.439854 156.0
54.555927 116.0
54.591213 132.0
54.652996 176.0
54.723644 184.0
55.594276 216.0
55.631382 152.0
55.724945 80.0
55.784389 188.0
55.805202 168.0
55.869152 184.0
56.041378 212.0
56.068676 216.0
56.208855 128.0
56.370121 124.0
56.670879 260.0
56.748817 196.0
57.008495 80.0
57.214558 104.0
57.283829 184.0
57.439091 184.0
57.703365 156.0
57.88493 156.0
57.974308 144.0
57.992493 116.0
58.095604 192.0
58.1563 120.0
58.448082 112.0
58.739067 160.0
58.815361 192.0
58.937534 164.0
59.159298 176.0
59.324741 212.0
59.419823 124.0
59.551838 164.0
59.576847 156.0
59.679565 240.0
59.854794 120.0
59.900997 180.0
59.945679 144.0
60.08136 212.0
60.258904 152.0
60.373287 112.0
60.481586 124.0
60.499245 196.0
60.75243 168.0
60.768276 160.0
60.794655 124.0
60.853638 100.0
61.021435 156.0
61.106976 176.0
61.136539 176.0
61.153698 164.0
61.337452 240.0
61.399818 228.0
61.563683 152.0
61.58242 236.0
61.599606 160.0
61.641788 236.0
61.805969 160.0
62.055008 184.0
62.098915 176.0
62.18364 156.0
62.196194 76.0
62.230732 192.0
62.312401 188.0
62.53727 120.0
62.65852 164.0
62.827209 188.0
62.909267 164.0
62.944565 56.0
63.062485 160.0
63.36631 48.0
63.635933 128.0
63.823418 240.0
64.290146 144.0
64.338028 208.0
64.405098 116.0
64.507362 160.0
64.867531 188.0
64.968559 120.0
64.99102 168.0
65.130684 152.0
65.156387 104.0
65.180489 164.0
65.204597 140.0
65.246384 108.0
65.352287 156.0
65.539307 164.0
65.694077 88.0
65.903961 128.0
65.947594 180.0
66.02034 172.0
66.085045 76.0
66.126236 228.0
66.140068 180.0
66.169205 100.0
66.376595 96.0
66.637917 208.0
66.654167 240.0
66.72406 168.0
66.7826 212.0
66.804413 148.0
66.937202 188.0
67.018646 152.0
67.049477 204.0
67.098503 52.0
67.367775 188.0
67.390648 160.0
67.426598 176.0
67.739113 188.0
67.821037 104.0
67.839066 76.0
67.88662 132.0
67.906296 156.0
68.044136 176.0
68.13446 148.0
68.162392 84.0
68.196907 180.0
68.295555 188.0
68.330101 160.0
68.471664 52.0
69.079063 144.0
69.17173 160.0
69.246239 176.0
69.360565 28.0
69.385429 120.0
69.41362 180.0
69.551315 164.0
69.730698 68.0
69.986877 144.0
70.090149 136.0
70.106812 128.0
70.271889 152.0
70.355331 168.0
70.463882 164.0
70.64109 200.0
70.743164 160.0
70.796745 140.0
70.903961 236.0
71.085075 200.0
71.192513 128.0
71.31852 220.0
71.466507 160.0
71.530457 144.0
71.545609 168.0
71.592751 144.0
71.614647 184.0
71.720795 188.0
71.764626 184.0
71.992424 244.0
72.164772 144.0
72.222267 264.0
72.416916 196.0
72.525352 148.0
72.543999 216.0
72.674583 168.0
72.701736 156.0
72.954811 216.0
72.98201 232.0
73.2509 136.0
73.477631 140.0
73.62101 192.0
73.709839 224.0
74.546066 156.0
74.644043 120.0
74.866028 160.0
74.959053 220.0
75.009033 136.0
75.06765 56.0
75.093521 172.0
75.134918 196.0
75.326538 132.0
75.362816 164.0
75.566833 172.0
75.781525 224.0
75.941002 192.0
75.999985 216.0
76.072876 212.0
76.098915 256.0
76.382187 48.0
76.476143 176.0
76.67643 160.0
76.843834 108.0
76.896179 92.0
76.967758 176.0
76.99395 140.0
77.013161 168.0
77.07605 136.0
77.170433 172.0
77.194916 208.0
77.235138 196.0
77.415215 184.0
77.576599 184.0
77.615166 164.0
77.802895 144.0
78.040077 212.0
78.35688 148.0
78.684914 152.0
78.888069 148.0
79.156998 240.0
79.460083 44.0
79.648254 144.0
79.761978 40.0
79.818871 120.0
80.016365 120.0
80.103127 144.0
80.148163 180.0
80.182022 228.0
80.219452 184.0
80.342499 92.0
80.722931 40.0
80.767647 124.0
80.83831 120.0
81.050499 240.0
81.097099 184.0
81.233368 136.0
81.574554 140.0
81.641083 156.0
81.669853 184.0
81.801208 140.0
81.857018 132.0
82.069641 164.0
82.32933 184.0
82.407158 184.0
82.687439 168.0
82.837723 148.0
82.924904 176.0
82.980888 48.0
83.047882 136.0
83.135071 208.0
83.367516 208.0
83.558434 248.0
83.634865 196.0
83.733177 172.0
83.844307 184.0
83.891701 148.0
84.106941 160.0
84.126282 216.0
84.582191 212.0
84.62429 184.0
84.785484 232.0
84.967018 160.0
85.290207 148.0
85.610947 96.0
85.827774 36.0
86.019638 160.0
86.182159 156.0
86.293053 176.0
86.376274 204.0
86.613205 184.0
86.757736 184.0
86.909821 180.0
86.94693 208.0
87.162346 168.0
87.275726 220.0
87.353836 120.0
87.461761 124.0
87.620049 72.0
87.688988 176.0
87.780334 80.0
87.808311 164.0
87.826965 156.0
87.978111 128.0
88.084549 48.0
88.120041 120.0
88.486618 156.0
88.600853 136.0
88.642075 132.0
88.74704 232.0
89.000343 124.0
89.466606 176.0
89.82653 168.0
89.843506 84.0
89.964287 196.0
90.029411 164.0
90.181511 72.0
90.544762 140.0
90.569382 156.0
90.635689 176.0
90.777855 160.0
90.801811 152.0
90.920921 180.0
90.969482 124.0
91.042213 376.0
91.4599 160.0
91.556999 184.0
91.650337 72.0
91.781853 212.0
91.995537 204.0
92.026085 60.0
92.469566 184.0
92.521248 116.0
92.733871 180.0
92.762619 140.0
92.867905 196.0
92.896851 140.0
93.054222 148.0
93.073418 172.0
93.117584 52.0
93.186539 152.0
93.221329 228.0
93.238625 88.0
93.321281 128.0
93.33474 164.0
93.377045 112.0
93.430901 128.0
93.686943 140.0
94.030159 232.0
94.188484 256.0
94.288956 168.0
94.385612 180.0
94.433952 196.0
94.532623 180.0
94.571327 160.0
94.598427 128.0
94.65844 148.0
94.718483 156.0
94.73204 68.0
94.825043 180.0
95.005379 232.0
95.15287 176.0
95.172279 208.0
95.858917 192.0
95.987572 112.0
96.038277 164.0
96.170952 212.0
96.235374 196.0
96.436577 148.0
96.66539 180.0
96.935623 144.0
96.982597 272.0
97.121864 160.0
97.225853 184.0
97.506683 116.0
97.699379 228.0
97.821388 164.0
97.837135 32.0
97.850922 212.0
97.884392 48.0
97.91787 192.0
97.978226 112.0
98.093231 164.0
98.174721 264.0
98.264801 432.0
98.355576 176.0
98.497742 172.0
98.531326 124.0
98.634087 136.0
98.730965 184.0
98.760628 108.0
98.774475 228.0
98.897148 124.0
98.931046 160.0
98.949348 184.0
98.962479 212.0
99.000511 34108.0
99.061501 100.0
99.099144 108.0
99.134026 112.0
99.178406 40.0
99.241844 176.0
99.271019 168.0
99.29142 44.0
99.327644 104.0
99.398544 48.0
99.475945 56.0
99.500992 168.0
99.535728 92.0
99.599052 176.0
99.700684 104.0
99.726219 144.0
99.750069 216.0
99.819656 68.0
99.890869 124.0
99.910416 164.0
100.004356 1752.0
100.038857 184.0
100.07235 96.0
100.130096 160.0
100.165947 60.0
100.297462 220.0
100.335335 164.0
100.393158 48.0
100.431541 164.0
100.466957 92.0
100.49688 124.0
100.512009 116.0
100.590317 44.0
100.60865 96.0
100.648575 128.0
100.708488 136.0
100.73246 76.0
100.772415 128.0
100.792976 164.0
100.817886 296.0
100.832359 116.0
100.848351 88.0
100.916313 156.0
100.934311 136.0
100.958305 48.0
100.997269 9868.0
101.061119 100.0
101.149376 184.0
101.166389 140.0
101.180595 84.0
101.220451 48.0
101.246483 128.0
101.308571 48.0
101.731705 108.0
101.763824 184.0
101.864235 88.0
101.878296 240.0
101.910439 48.0
102.001053 368.0
102.03907 168.0
102.201981 160.0
102.461708 136.0
102.4879 180.0
102.506035 60.0
102.687469 92.0
102.917519 140.0
102.990219 88.0
103.226669 192.0
103.279251 56.0
103.392555 52.0
103.453278 160.0
103.538315 160.0
103.5849 60.0
103.633522 216.0
103.749039 124.0
103.97216 168.0
103.994484 156.0
104.018837 88.0
104.043198 200.0
104.089897 52.0
104.281517 172.0
104.581879 76.0
104.628693 204.0
104.838486 84.0
104.981186 52.0
105.045181 1092.0
105.077057 208.0
105.119904 88.0
105.193375 192.0
105.317932 188.0
105.346527 88.0
105.483444 44.0
105.499794 164.0
105.735016 44.0
105.799492 96.0
105.8517 104.0
105.92543 52.0
106.027779 820.0
106.053558 584.0
106.329353 204.0
106.413513 164.0
106.446365 92.0
106.581932 140.0
106.725815 44.0
106.90271 160.0
106.939758 160.0
106.989159 148.0
107.035164 152.0
107.100357 192.0
107.950638 200.0
108.176155 120.0
108.360474 136.0
108.437141 160.0
108.455795 152.0
108.487167 172.0
108.739944 192.0
109.051483 172.0
109.08474 108.0
109.721748 148.0
109.913635 152.0
110.454727 124.0
110.513306 180.0
110.689125 48.0
111.049576 132.0
111.564026 152.0
111.957481 200.0
112.425484 112.0
112.68309 76.0
112.996292 224.0
113.205437 168.0
113.24366 92.0
113.260605 180.0
113.345345 164.0
113.383484 164.0
113.690994 192.0
113.858826 244.0
113.922424 172.0
113.958199 148.0
113.984039 88.0
114.011147 13324.0
114.037163 156.0
114.103058 188.0
114.156219 112.0
114.243423 72.0
114.324272 64.0
114.341293 68.0
114.601089 176.0
114.620262 280.0
114.635178 212.0
114.773735 168.0
114.980652 176.0
115.015327 968.0
115.051086 176.0
115.121552 208.0
115.164261 92.0
115.318092 40.0
115.3694 52.0
115.427124 88.0
115.529785 124.0
115.619652 92.0
115.694565 156.0
115.810196 88.0
115.836861 80.0
115.914803 156.0
116.007607 3096.0
116.061821 144.0
116.168304 60.0
116.193901 92.0
116.243248 40.0
116.324806 132.0
116.343079 172.0
116.400314 188.0
116.945999 152.0
117.014549 180.0
117.245361 88.0
117.303558 40.0
117.540794 196.0
117.672455 80.0
117.728592 84.0
117.864685 220.0
118.147911 224.0
118.821671 68.0
119.014839 232.0
119.116905 144.0
119.22554 172.0
119.327705 36.0
119.754211 116.0
119.967102 120.0
120.334259 232.0
120.681656 200.0
120.90258 120.0
121.047066 72.0
121.246407 168.0
121.736252 316.0
121.777344 184.0
122.245605 144.0
122.379875 220.0
122.531845 100.0
122.677292 192.0
122.736824 148.0
122.871361 180.0
123.081039 204.0
123.310783 188.0
123.432365 132.0
123.697853 152.0
123.735489 144.0
123.994019 1416.0
124.196411 124.0
124.462715 132.0
124.600418 136.0
124.913864 116.0
125.001678 448.0
125.704422 264.0
125.876671 128.0
125.993774 700.0
126.010391 608.0
126.133591 160.0
126.457916 192.0
126.504921 176.0
126.713188 100.0
126.771446 140.0
126.840927 160.0
126.899208 136.0
126.946297 152.0
126.995811 18028.0
127.07415 68.0
127.12674 64.0
127.141464 192.0
127.224518 84.0
127.246964 116.0
127.267174 48.0
127.314323 40.0
127.341278 76.0
127.381706 88.0
127.424393 36.0
127.552483 208.0
127.637917 124.0
127.788612 60.0
127.999832 1480.0
128.081268 84.0
128.162369 36.0
128.385529 172.0
128.622421 128.0
128.843719 152.0
128.861801 196.0
128.911514 184.0
128.947662 88.0
128.991531 4072.0
129.038086 56.0
129.053909 36.0
129.090088 96.0
129.196396 232.0
129.24617 68.0
129.420456 28.0
129.5065 64.0
129.581253 124.0
129.640167 64.0
129.978043 80.0
129.997101 324.0
130.023422 128.0
130.138214 140.0
130.437485 40.0
130.586868 88.0
130.625534 72.0
131.110504 164.0
131.258667 64.0
131.502762 216.0
131.989349 44.0
132.206665 240.0
132.731247 80.0
133.041412 188.0
133.139709 60.0
133.935486 144.0
133.953903 184.0
133.979599 208.0
134.003845 196.0
134.047791 17264.0
134.094131 148.0
134.197708 72.0
134.25032 172.0
134.304276 136.0
134.389633 60.0
134.410385 44.0
134.620453 76.0
134.638931 184.0
134.668945 136.0
134.765976 64.0
134.796005 40.0
134.914413 212.0
134.9617 88.0
135.049973 764.0
135.07576 220.0
135.168289 148.0
135.253922 104.0
135.498428 48.0
135.608307 60.0
135.714935 60.0
135.735809 64.0
135.851776 188.0
135.909775 132.0
135.967789 124.0
135.993317 136.0
136.044373 156.0
136.100098 84.0
136.123322 160.0
136.146545 124.0
136.932602 164.0
137.123642 32.0
138.228241 204.0
138.623978 156.0
138.874832 172.0
139.00856 248.0
139.42186 136.0
139.807526 100.0
140.398834 124.0
140.802399 148.0
141.022903 772.0
141.417099 104.0
141.632553 92.0
141.677567 176.0
141.703629 152.0
142.004822 1496.0
142.040253 32.0
142.756546 148.0
142.895462 52.0
143.016312 372.0
143.390762 88.0
143.90361 100.0
143.970474 100.0
143.998962 564.0
144.24762 88.0
144.450882 184.0
145.005264 296.0
145.502914 116.0
145.646988 72.0
146.951752 68.0
147.004837 144.0
147.61116 132.0
148.116974 172.0
148.708588 172.0
148.866379 72.0
149.037689 228.0
149.656647 136.0
149.841751 136.0
149.980652 144.0
150.050079 184.0
150.566193 124.0
151.781708 212.0
152.143066 160.0
152.256012 172.0
152.322327 92.0
152.997757 228.0
153.395386 156.0
153.659058 64.0
153.715805 144.0
153.878708 176.0
154.578201 92.0
154.659882 136.0
154.994202 128.0
155.288849 140.0
155.418198 136.0
156.078903 136.0
156.243057 140.0
156.457077 76.0
157.494415 184.0
157.884308 248.0
158.547714 144.0
158.64296 140.0
158.708145 216.0
159.576874 164.0
159.679977 128.0
161.025803 224.0
161.045792 140.0
162.552338 160.0
162.636078 200.0
163.627472 112.0
164.001938 176.0
164.724045 216.0
165.947311 168.0
166.037354 2688.0
166.570923 80.0
166.642853 140.0
167.042908 228.0
167.806183 176.0
168.009918 388.0
168.136353 96.0
168.420349 188.0
168.534027 92.0
168.720749 144.0
168.86232 128.0
168.93454 152.0
168.988312 352.0
169.016327 25412.0
169.072769 92.0
169.097763 76.0
169.12796 48.0
169.206482 88.0
169.293274 160.0
169.374802 148.0
169.434372 72.0
169.512115 68.0
169.532837 128.0
169.610596 100.0
169.735031 32.0
169.83876 60.0
169.906204 96.0
170.020645 1640.0
170.12262 92.0
170.152756 60.0
170.274796 36.0
170.376099 40.0
170.402084 68.0
170.446503 40.0
170.524216 156.0
170.565796 56.0
170.62558 64.0
170.65419 56.0
170.734802 100.0
170.81543 132.0
170.838837 148.0
170.875259 72.0
170.91185 124.0
170.937698 152.0
170.955917 160.0
170.978745 156.0
171.01442 6344.0
171.078079 120.0
171.085129 112.0
171.119904 112.0
171.138123 92.0
171.182388 132.0
171.287674 104.0
171.308838 108.0
171.338669 80.0
171.356903 120.0
171.419434 92.0
171.481323 156.0
171.607101 84.0
171.867935 92.0
172.014496 404.0
172.604523 92.0
172.936752 128.0
173.230026 108.0
173.431793 144.0
173.560242 64.0
176.210678 80.0
176.361298 140.0
178.00914 128.0
178.484772 64.0
179.136826 92.0
182.162277 112.0
185.042465 108.0
185.524689 48.0
187.032288 52.0
187.958878 96.0
192.573685 76.0
207.842834 76.0
208.253342 156.0
217.070374 84.0
217.096771 80.0
218.842178 104.0
224.212692 48.0
241.46582 116.0
246.814606 52.0
275.992554 112.0
279.092743 76.0
290.634247 84.0
321.841431 112.0
344.274536 44.0
345.34259 96.0
354.171417 116.0
371.568451 64.0
395.086243 60.0
395.723419 84.0
443.900696 92.0
464.115234 68.0
470.616577 68.0
470.655426 84.0
486.26651 44.0
508.880249 188.0
531.567383 68.0
534.729126 164.0
546.7901 60.0
548.779175 212.0
551.991577 224.0
592.482605 228.0
600.195862 40.0
609.387817 160.0
662.08313 180.0
668.664734 68.0
692.868042 124.0
706.466187 96.0
718.226868 128.0
720.468872 52.0
721.981506 220.0
730.520325 128.0
741.47583 152.0
747.748596 260.0
750.226929 128.0
754.091553 172.0
756.000183 228.0
774.200012 208.0
797.229004 248.0
801.207031 192.0
812.865601 128.0
819.808899 152.0
825.368713 160.0
835.290344 168.0
838.457092 208.0
838.791382 176.0
838.877808 188.0
844.472961 156.0
845.450684 252.0
847.796082 144.0
861.732117 180.0
864.082397 104.0
866.83429 252.0
867.490723 188.0
869.215027 220.0
869.373474 204.0
869.590576 180.0
871.534363 176.0
873.221497 192.0
874.262817 144.0
875.334167 136.0
878.569885 192.0
878.95343 36.0
880.913513 48.0
880.996216 304.0
886.960999 204.0
888.526489 248.0
891.281372 128.0
892.939941 72.0
894.671448 104.0
899.535828 132.0
904.443298 176.0
905.413208 92.0
910.991333 132.0
911.039429 164.0
921.75177 116.0
922.271484 188.0
924.103821 172.0
924.957092 152.0
929.757324 180.0
930.995789 184.0
932.113525 40.0
936.152649 100.0
936.731201 144.0
943.144287 136.0
944.966614 204.0
947.005066 156.0
955.47052 196.0
956.947083 160.0
957.34729 136.0
958.006348 164.0
960.885315 160.0
961.119812 148.0
962.786499 180.0
963.428833 200.0
964.306274 208.0
965.901489 176.0
966.588196 180.0
969.015381 132.0
970.484253 52.0
971.761902 140.0
974.09613 52.0
974.655273 100.0
974.748474 184.0
975.836243 136.0
979.663635 144.0
980.049866 172.0
980.093506 56.0
980.162048 136.0
980.380127 160.0
986.121765 60.0
986.190491 172.0
986.896912 176.0
987.584778 204.0
989.174072 228.0
994.671448 132.0
999.630188 68.0
1004.922974 132.0
1005.030273 240.0
1006.829285 144.0
1008.01062 288.0
1009.660522 192.0
1010.609375 128.0
1012.666748 116.0
1014.269775 196.0
1015.062256 156.0
1015.721802 192.0
1019.563049 52.0
1021.743958 152.0
1025.908936 64.0
1026.348755 188.0
1026.967407 112.0
1028.300903 180.0
1030.727539 196.0
1031.711792 108.0
1033.937744 120.0
1035.711182 48.0
1036.140381 168.0
1036.749146 224.0
1037.691284 148.0
1037.832397 164.0
1037.877319 220.0
1041.657349 204.0
1044.980957 204.0
1046.171509 188.0
1046.300293 216.0
1047.74939 148.0
1048.039307 156.0
1049.818359 116.0
1050.643921 176.0
1051.289185 204.0
1052.005615 160.0
1054.401855 108.0
1055.701294 172.0
1056.477417 172.0
1058.794678 92.0
1059.500732 128.0
1059.682129 104.0
1061.840698 108.0
1062.177979 68.0
1063.060303 172.0
1063.741821 196.0
1065.404175 140.0
1067.49707 104.0
1071.884399 256.0
1073.012085 196.0
1073.064209 164.0
1075.771606 168.0
1076.241577 216.0
1079.066772 224.0
1079.888062 116.0
1079.946899 72.0
1080.202026 128.0
1080.980591 112.0
1082.20459 128.0
1083.141113 140.0
1083.462036 180.0
1083.599609 52.0
1083.783081 136.0
1083.887939 196.0
1085.002197 180.0
1085.72998 188.0
1087.251953 48.0
1088.210327 188.0
1088.374512 236.0
1090.614624 108.0
1090.719849 156.0
1090.870972 244.0
1091.29834 140.0
1092.732178 136.0
1093.107178 196.0
1093.554688 128.0
1094.627808 148.0
1097.540161 160.0
1097.718262 200.0
1098.219482 128.0
1101.955811 204.0
1102.933838 192.0
1103.859375 160.0
1105.116089 60.0
1106.4729 176.0
1108.506348 152.0
1108.764771 96.0
1109.109375 156.0
1110.179932 184.0
1110.342651 192.0
1110.727295 168.0
1111.204956 132.0
1111.496826 128.0
1112.897339 168.0
1113.255981 172.0
1114.664185 176.0
1115.541504 164.0
1115.760864 156.0
1116.319458 232.0
1117.210693 192.0
1117.257202 176.0
1117.317139 284.0
1118.408447 144.0
1119.114014 168.0
1119.593506 152.0
1119.81897 204.0
1119.913208 160.0
1120.359497 88.0
1120.972412 128.0
1122.947266 192.0
1124.133301 116.0
1125.701904 176.0
1127.118042 136.0
1129.264038 136.0
1130.234009 160.0
1130.334351 292.0
1133.595459 188.0
1136.626343 148.0
1136.835083 156.0
1137.008789 148.0
1138.633545 152.0
1139.291748 172.0
1139.352173 68.0
1139.762085 172.0
1141.58374 136.0
1141.771973 144.0
1143.043457 192.0
1143.292358 132.0
1144.187622 116.0
1144.261719 220.0
1145.184204 124.0
1146.282349 176.0
1147.670898 40.0
1147.92041 56.0
1150.328979 220.0
1150.902832 256.0
1153.301025 180.0
1155.370239 128.0
1156.865845 40.0
1157.421021 192.0
1159.792114 32.0
1160.171631 132.0
1161.209106 140.0
1161.324463 232.0
1162.172363 76.0
1162.369141 160.0
1162.925659 204.0
1163.163208 72.0
1163.400757 156.0
1164.256348 196.0
1166.804321 176.0
1167.987549 108.0
1168.763184 184.0
1169.04895 128.0
1172.00415 164.0
1173.988159 168.0
1175.898071 176.0
1177.632202 152.0
1178.882446 184.0
1180.126465 208.0
1183.45166 64.0
1184.067993 204.0
1186.617065 216.0
1188.962891 192.0
1189.264893 128.0
1190.411377 192.0
1190.58313 108.0
1191.077637 216.0
1191.139404 124.0
1192.520508 224.0
1192.713013 244.0
1193.001709 180.0
1194.129395 28.0
1194.225586 160.0
1195.773682 128.0
1195.993896 164.0
1197.921997 116.0
1198.996826 72.0
1199.465454 152.0
1199.927368 188.0
1200.189331 236.0
1200.237671 184.0
1200.41687 48.0
1201.03064 136.0
1201.782593 216.0
1202.079346 136.0
1202.590088 120.0
1202.783325 52.0
1203.176758 196.0
1203.328613 124.0
1203.680786 184.0
1207.661377 96.0
1207.93811 132.0
1208.837524 148.0
1209.972656 164.0
1210.028076 132.0
1210.796631 176.0
1212.071289 172.0
1212.119751 144.0
1212.82666 212.0
1214.345093 168.0
1214.657227 48.0
1215.184448 244.0
1217.037598 148.0
1218.086304 132.0
1219.44812 128.0
1220.824585 176.0
1221.318481 180.0
1221.534058 140.0
1221.777588 192.0
1222.153198 176.0
1222.361938 132.0
1222.431519 188.0
1223.24585 188.0
1224.004761 176.0
1224.164917 184.0
1224.554932 188.0
1224.715088 132.0
1226.638184 156.0
1227.69104 124.0
1228.66748 184.0
1229.155884 128.0
1229.407104 216.0
1230.349365 136.0
1230.46814 136.0
1231.766968 96.0
1232.109253 176.0
1232.689209 164.0
1234.352905 116.0
1235.765747 116.0
1236.535522 148.0
1236.731445 192.0
1237.676514 112.0
1238.895264 224.0
1239.133423 172.0
1239.231445 236.0
1240.43689 148.0
1241.025757 132.0
1241.439453 148.0
1244.203979 144.0
1244.316284 116.0
1245.496094 108.0
1246.493652 164.0
1248.173584 156.0
1248.335327 112.0
1249.791382 212.0
1250.150269 232.0
1253.023071 192.0
1255.137573 148.0
1258.820923 124.0
1260.410278 144.0
1260.989746 240.0
1261.859253 180.0
1262.00061 104.0
1262.403687 196.0
1262.566284 68.0
1264.915283 160.0
1265.078125 172.0
1267.450684 72.0
1268.527954 240.0
1269.066772 172.0
1269.144775 192.0
1269.981567 192.0
1270.180176 136.0
1270.655518 164.0
1274.247925 116.0
1274.46814 152.0
1274.596069 176.0
1275.391968 112.0
1275.463013 196.0
1276.678833 120.0
1276.86377 244.0
1277.347412 208.0
1277.489624 176.0
1277.838257 136.0
1277.902222 132.0
1278.713379 180.0
1280.279663 180.0
1281.362427 96.0
1281.675903 108.0
1281.903931 44.0
1282.623779 148.0
1282.851807 148.0
1283.386597 124.0
1283.771606 176.0
1284.69165 160.0
1284.948486 196.0
1286.34729 180.0
1286.818359 224.0
1288.432495 248.0
1288.689697 40.0
1288.796875 156.0
1289.883057 124.0
1291.384644 192.0
1292.200073 164.0
1293.17334 160.0
1293.567017 132.0
1294.698242 136.0
1296.216919 48.0
1296.310059 164.0
1297.879883 100.0
1298.769165 144.0
1298.84082 148.0
1298.977173 124.0
1301.402832 160.0
1302.171265 84.0
1303.636719 164.0
1305.269897 224.0
1307.628052 108.0
1308.650269 160.0
1309.622437 136.0
1311.106567 224.0
1312.094116 220.0
1312.252686 56.0
1312.851196 72.0
1313.089233 96.0
1314.936157 160.0
1315.06604 188.0
1316.871094 180.0
1318.330444 184.0
1318.677246 124.0
1318.807373 156.0
1319.761597 112.0
1320.58606 184.0
1322.054688 176.0
1323.031738 144.0
1323.118652 140.0
1323.654419 128.0
1324.900146 192.0
1324.987183 40.0
1325.55957 96.0
1325.834961 148.0
1326.284302 248.0
1327.45874 276.0
1327.538452 124.0
1328.698975 180.0
1329.265015 172.0
1330.760254 188.0
1331.086914 176.0
1331.600952 184.0
1332.495972 136.0
1332.932007 160.0
1333.347046 168.0
1333.469727 140.0
1335.811035 160.0
1337.055176 152.0
1338.904297 232.0
1339.975098 196.0
1340.754761 132.0
1341.265015 196.0
1341.330566 120.0
1342.810669 140.0
1342.985718 136.0
1343.197266 228.0
1343.941406 220.0
1344.06543 108.0
1344.525146 188.0
1347.000244 172.0
1348.381226 188.0
1351.137939 164.0
1351.225708 208.0
1351.876953 160.0
1352.543701 180.0
1355.362427 200.0
1356.294067 164.0
1357.854858 148.0
1357.935547 192.0
1358.02356 168.0
1358.515015 144.0
1358.947876 132.0
1361.186523 204.0
1362.486572 148.0
1363.272705 160.0
1364.419434 132.0
1365.272339 144.0
1366.162354 160.0
1366.831787 216.0
1367.229126 172.0
1369.032837 120.0
1369.50415 220.0
1369.901855 72.0
1371.18396 192.0
1371.382935 176.0
1372.44458 88.0
1372.599365 152.0
1373.727783 200.0
1373.94165 192.0
1374.000732 208.0
1374.052368 152.0
1374.576294 160.0
1376.059814 208.0
1377.618042 120.0
1377.963623 160.0
1378.615479 192.0
1380.50061 120.0
1380.559692 140.0
1380.77417 180.0
1382.157593 204.0
1382.59729 220.0
1382.86792 216.0
1382.964233 104.0
1383.319458 120.0
1383.93396 256.0
1384.096802 124.0
1384.481934 204.0
1385.926392 168.0
1386.200562 152.0
1386.437622 268.0
1386.645142 172.0
1386.963867 156.0
1387.312256 136.0
1387.463135 208.0
1387.779419 116.0
1388.669189 68.0
1392.677124 160.0
1392.885132 196.0
1392.952026 152.0
1393.75647 220.0
1394.512329 220.0
1394.787354 60.0
1395.159058 148.0
1396.735474 112.0
1397.092529 232.0
1397.211548 152.0
1397.99292 40.0
1398.893433 144.0
1399.660278 112.0
1400.270874 200.0
1401.574585 164.0
1402.453979 44.0
1404.362671 140.0
1405.810059 92.0
1406.018921 112.0
1406.168213 188.0
1406.421997 56.0
1407.138672 168.0
1407.220825 40.0
1407.377563 192.0
1408.587402 152.0
1409.252319 196.0
1409.999512 192.0
1410.432983 188.0
1410.64978 224.0
1410.806763 88.0
1412.175171 172.0
1414.404907 156.0
1415.692627 136.0
1416.471558 140.0
1416.793701 196.0
1417.123291 120.0
1418.097534 136.0
1420.444336 156.0
1420.721924 136.0
1421.764893 144.0
1423.288696 188.0
1423.431396 144.0
1424.01709 168.0
1425.196533 64.0
1425.782715 188.0
1425.917969 112.0
1426.940308 92.0
1427.225952 220.0
1428.730225 216.0
1429.866333 216.0
1430.957886 116.0
1431.838867 204.0
1432.239746 236.0
1432.991333 220.0
1433.345459 92.0
1433.435913 168.0
1433.533813 168.0
1435.109253 176.0
1435.252441 192.0
1435.984009 204.0
1436.459229 132.0
1436.85144 196.0
1437.794678 180.0
1438.202148 164.0
1438.428711 188.0
1438.549438 188.0
1438.624878 108.0
1438.813599 228.0
1439.455444 156.0
1439.66687 44.0
1440.225708 128.0
1440.429688 80.0
1440.5354 204.0
1442.008911 160.0
1442.71936 168.0
1442.843872 160.0
1445.192505 136.0
1445.336182 60.0
1445.820557 172.0
1446.214111 196.0
1446.410889 204.0
1446.842407 112.0
1447.705566 228.0
1447.993286 248.0
1448.281128 168.0
1451.130493 180.0
1452.17688 168.0
1452.616821 244.0
1453.679077 200.0
1455.022461 156.0
1455.865356 184.0
1457.620117 56.0
1457.848022 224.0
1459.010986 168.0
1459.155396 176.0
1459.991455 152.0
1460.912109 112.0
1463.568237 172.0
1464.962769 196.0
1465.259155 132.0
1465.624878 188.0
1465.845825 192.0
1466.386841 68.0
1469.009888 52.0
1469.3302 64.0
1470.604614 152.0
1472.658447 212.0
1474.927734 148.0
1475.195312 124.0
1475.317627 116.0
1476.036255 120.0
1476.089844 152.0
1476.158569 172.0
1476.755127 36.0
1477.122314 184.0
1477.581299 184.0
1478.070923 72.0
1479.157715 168.0
1479.33374 92.0
1480.390381 180.0
1480.742554 168.0
1481.462646 116.0
1482.210327 216.0
1482.467041 224.0
1483.661987 80.0
1483.715698 128.0
1483.876709 204.0
1484.106689 128.0
1485.44873 216.0
1486.146973 184.0
1486.638062 172.0
1488.741455 152.0
1491.407349 136.0
1491.937744 176.0
1492.206787 180.0
1493.01416 156.0
1493.50647 164.0
1494.060303 160.0
1494.752686 64.0
1494.921997 176.0
1496.723267 272.0
1497.377808 124.0
1497.855347 180.0
1498.206177 216.0
1498.571777 172.0
1499.404053 144.0
1499.558105 124.0
1500.490845 144.0
1501.662964 224.0
1502.503784 220.0
1502.727539 88.0
1503.036133 136.0
1503.252197 180.0
1503.676636 200.0
1503.923584 208.0
1504.286377 44.0
1504.355835 156.0
1504.946655 136.0
