>compound MLS000876959-01!2-(3,4-dihydroxyphenyl)-5,7-dihydroxy-6-[3,4,5-trihydroxy-6-(hydroxymethyl)oxan-2-yl]chromen-4-one
>formula C21H20O11
>ionization [M+H]+
>parentmass 449.108
#inchi InChI=1S/C21H20O11/c22-6-14-17(27)19(29)20(30)21(32-14)16-11(26)5-13-15(18(16)28)10(25)4-12(31-13)7-1-2-8(23)9(24)3-7/h1-5,14,17,19-24,26-30H,6H2
#inchikey ODBRNZZJSYPIDI
#Ion_Source LC-ESI
#Instrument qTof
#Compound_Source NIH Natural Product Library
#PI Dorrestein
#Data_Collector VVP/LMS
#Scan -1
#Precursor_MZ 449.108
#ExactMass 448.101
#Charge 1
#CAS_Number N/A
#Pubmed_ID N/A
#Smiles OCC1OC(C(O)C(O)C1O)c2c(O)cc3oc(cc(=O)c3c2O)c4ccc(O)c(O)c4
#INCHI_AUX N/A
#Library_Class 1
#SpectrumID CCMSLIB00000080220
#IonMode Positive
#UpdateWorkflowName UPDATE-SINGLE-ANNOTATED-GOLD
#LibraryQualityString Gold
#TaskID b1d8e8f6646f4e71acdff9ca3d919d08
##Scan# 1391
#SpectrumFile p2-G05_GG5_01_18053.mzXML
#LibraryName NIH_Natural_Products_Library.mgf
#MQScore -1
#Organism NIH_Natural_Products_Library
#TIC_Query 0
#RT_Query -1
#MZErrorPPM -1
#SharedPeaks 0
#MassDiff 0
#LibMZ -1
#SpecMZ 449.108
#SpecCharge 0
#internalFilename spec-00000.mgf

>collision 10
95.295914 200.0
96.144928 212.0
96.940872 144.0
97.031036 192.0
97.133018 128.0
97.197762 156.0
98.412247 68.0
98.556435 60.0
98.613747 128.0
98.971817 184.0
101.1679 208.0
101.562508 252.0
103.040283 120.0
104.004227 76.0
108.791588 108.0
109.032532 164.0
109.533981 160.0
109.577728 200.0
110.354416 160.0
111.007462 172.0
113.324059 164.0
113.78006 164.0
115.820892 52.0
117.693062 156.0
120.716789 156.0
121.027519 196.0
121.288223 224.0
122.856148 140.0
123.008415 180.0
124.010429 156.0
124.172287 188.0
124.656258 112.0
126.767326 140.0
128.875793 168.0
131.044937 136.0
131.304794 116.0
131.976181 136.0
133.027786 124.0
133.802536 180.0
133.917664 56.0
135.04184 144.0
135.157394 164.0
136.577209 120.0
137.023163 176.0
137.070953 256.0
137.373871 64.0
139.025772 180.0
142.675217 80.0
142.867859 100.0
144.114777 44.0
145.026566 152.0
147.04213 156.0
147.08075 180.0
149.021591 344.0
149.205292 116.0
149.981842 160.0
158.689621 144.0
158.792435 60.0
159.039383 220.0
159.991043 200.0
160.646271 88.0
161.019348 144.0
162.021545 156.0
162.998383 116.0
163.039078 660.0
164.958344 64.0
165.018524 1224.0
165.093857 160.0
165.308746 112.0
165.969635 40.0
166.01506 140.0
167.033005 176.0
168.569519 148.0
168.768555 116.0
169.03627 40.0
172.321289 120.0
173.47319 100.0
173.722321 248.0
174.839035 236.0
176.638504 44.0
177.016083 324.0
177.061996 56.0
178.13092 120.0
178.9953 280.0
179.03624 260.0
179.690994 152.0
180.799927 180.0
181.05426 160.0
183.031052 132.0
184.036484 88.0
187.040482 128.0
187.94516 196.0
188.047333 144.0
189.016296 120.0
189.042328 180.0
189.635223 156.0
190.016388 176.0
190.647949 136.0
190.815628 92.0
191.031204 272.0
191.211731 148.0
191.646835 184.0
193.223373 48.0
193.887939 112.0
194.143005 80.0
194.523117 172.0
194.681381 56.0
195.023636 148.0
195.57106 200.0
196.16716 180.0
197.015533 136.0
197.205551 152.0
199.046158 76.0
199.762848 136.0
199.999222 80.0
201.262222 60.0
202.20076 176.0
202.432907 148.0
202.702011 88.0
203.038513 172.0
203.396866 164.0
205.012375 128.0
205.05629 136.0
205.557053 140.0
206.008163 152.0
210.272247 168.0
214.01767 100.0
214.128326 160.0
215.032379 308.0
215.481857 136.0
216.22168 92.0
217.030197 196.0
220.974106 156.0
222.696442 208.0
225.007263 156.0
225.688477 136.0
225.879883 148.0
226.062393 196.0
228.845001 168.0
230.059998 120.0
231.030075 124.0
233.018906 140.0
233.575226 60.0
233.91301 140.0
234.241882 96.0
235.046768 124.0
235.184097 196.0
237.083405 128.0
238.984207 140.0
239.966736 52.0
240.750504 136.0
241.043976 112.0
241.07489 112.0
241.201599 84.0
242.644211 196.0
243.027634 164.0
243.066055 180.0
244.032059 164.0
245.046707 148.0
245.991669 84.0
246.048264 176.0
247.032455 208.0
247.104233 128.0
249.402908 108.0
249.884048 160.0
250.217667 140.0
250.775238 148.0
253.087708 152.0
253.369598 176.0
254.098785 132.0
254.447906 204.0
256.018707 68.0
256.064758 132.0
257.038818 176.0
257.399506 92.0
258.076935 168.0
259.056274 296.0
259.088318 144.0
260.631561 184.0
261.036591 140.0
262.824371 132.0
263.612274 108.0
264.692719 120.0
268.074341 84.0
269.046356 132.0
269.082092 172.0
270.052795 140.0
270.84491 224.0
271.061646 176.0
272.07135 156.0
272.288086 212.0
272.84668 84.0
273.758118 160.0
279.045837 72.0
279.285278 108.0
281.237854 160.0
282.320343 128.0
283.059631 744.0
284.008331 144.0
284.063019 216.0
284.086914 228.0
285.025574 120.0
285.05246 148.0
285.57019 124.0
285.610565 144.0
285.923462 180.0
286.049683 292.0
286.415039 44.0
287.05481 500.0
287.500702 60.0
288.06311 160.0
289.034882 168.0
290.271271 212.0
292.010071 92.0
292.200562 104.0
294.498169 132.0
294.82959 148.0
295.059357 288.0
295.103058 152.0
295.441833 132.0
295.848877 236.0
296.05307 240.0
297.076599 644.0
297.357117 92.0
297.978638 76.0
298.075867 428.0
298.404816 68.0
298.841644 180.0
298.9552 132.0
299.054504 5252.0
299.120392 40.0
299.516388 144.0
299.657654 52.0
299.692108 52.0
299.900238 72.0
300.06134 2036.0
300.485107 64.0
300.547211 80.0
300.749664 208.0
300.806061 64.0
300.930328 44.0
300.954498 64.0
300.992493 64.0
301.063049 560.0
301.28952 132.0
301.686951 72.0
301.804504 96.0
301.939362 84.0
302.069397 108.0
302.108856 80.0
302.15036 88.0
302.825378 88.0
302.93277 208.0
303.067871 132.0
303.525421 56.0
304.236694 84.0
304.639526 192.0
305.070465 172.0
305.512115 68.0
306.476532 96.0
307.069153 108.0
307.924225 128.0
308.422577 32.0
309.075958 360.0
310.040894 136.0
310.082947 136.0
310.310791 36.0
311.051483 1124.0
312.058258 204.0
312.098358 380.0
312.717102 80.0
313.029663 184.0
313.035431 144.0
313.074585 284.0
313.206543 128.0
313.971375 44.0
314.040985 124.0
314.069916 164.0
314.334717 100.0
315.033813 128.0
315.673553 104.0
318.327759 120.0
319.066833 72.0
319.664368 104.0
319.97049 176.0
320.07019 136.0
321.066986 308.0
322.063751 124.0
322.796417 64.0
323.050354 184.0
323.916656 264.0
324.06311 336.0
325.072845 1812.0
325.936523 160.0
326.039215 104.0
326.072723 304.0
326.123413 48.0
326.220459 168.0
328.063629 156.0
328.481934 160.0
328.564911 244.0
328.871643 140.0
328.983551 164.0
329.065155 4208.0
329.351288 44.0
329.372223 120.0
329.460236 48.0
329.515381 76.0
329.590302 128.0
329.760162 52.0
329.839691 80.0
330.005981 40.0
330.071411 1008.0
330.326447 104.0
331.068665 228.0
331.384979 36.0
331.743774 144.0
331.838043 52.0
331.874298 108.0
332.051971 144.0
332.106384 120.0
332.139038 40.0
332.367584 88.0
332.904846 36.0
334.209808 80.0
335.06543 136.0
336.056854 152.0
337.071533 312.0
337.112427 84.0
337.931488 196.0
338.070038 348.0
338.39267 116.0
339.030029 168.0
339.084717 960.0
339.154633 68.0
339.194977 124.0
339.583618 64.0
340.092926 468.0
340.357971 64.0
340.938385 56.0
341.048645 132.0
341.074371 96.0
341.122162 136.0
341.261871 44.0
341.964478 80.0
344.087769 140.0
349.030518 156.0
349.075745 312.0
350.068726 152.0
350.735626 60.0
351.049438 316.0
351.089813 132.0
351.119659 76.0
351.406891 60.0
352.053314 92.0
352.179626 132.0
352.642944 188.0
353.06665 1428.0
353.323517 52.0
354.073364 560.0
355.072815 116.0
356.052795 152.0
361.526398 212.0
362.488281 140.0
364.875732 204.0
365.065918 448.0
366.067841 268.0
367.091095 132.0
367.457947 52.0
368.103027 140.0
369.062134 124.0
371.708984 88.0
377.068451 708.0
378.075653 292.0
383.082581 164.0
384.062469 168.0
389.075317 184.0
390.324768 232.0
395.079987 480.0
395.152618 40.0
396.10672 108.0
399.667908 36.0
402.981293 208.0
413.089996 140.0
414.093811 184.0
416.810364 44.0
429.25061 28.0
450.357086 68.0
474.620026 100.0
483.082397 184.0
488.060303 72.0
515.020325 40.0
535.279602 36.0
555.24939 128.0
556.070435 48.0
560.632385 104.0
618.525696 64.0
640.859985 60.0
644.073547 68.0
648.171448 52.0
688.031799 40.0
703.951904 52.0
850.427612 60.0
875.916138 108.0
949.573059 152.0
1174.407715 116.0
1189.981812 96.0
1301.378174 228.0
1442.717041 56.0
