>compound MLS000563514-01!2-hydroxy-4-(2-hydroxy-4-methoxy-3,6-dimethylbenzoyl)oxy-3,6-dimethylbenzoic acid
>formula C19H20O7
>ionization [M+H]+
>parentmass 361.129
#inchi InChI=1S/C19H20O7/c1-8-7-13(11(4)16(20)14(8)18(22)23)26-19(24)15-9(2)6-12(25-5)10(3)17(15)21/h6-7,20-21H,1-5H3,(H,22,23)
#inchikey NMKBRSYSHBPUPY
#Ion_Source LC-ESI
#Instrument qTof
#Compound_Source NIH Natural Product Library
#PI Dorrestein
#Data_Collector VVP/LMS
#Scan -1
#Precursor_MZ 361.129
#ExactMass 360.121
#Charge 1
#CAS_Number N/A
#Pubmed_ID N/A
#Smiles COc1cc(C)c(C(=O)Oc2cc(C)c(C(=O)O)c(O)c2C)c(O)c1C
#INCHI_AUX N/A
#Library_Class 1
#SpectrumID CCMSLIB00000079473
#IonMode Positive
#UpdateWorkflowName UPDATE-SINGLE-ANNOTATED-GOLD
#LibraryQualityString Gold
#TaskID b1d8e8f6646f4e71acdff9ca3d919d08
##Scan# 2715
#SpectrumFile p1-G06_GG6_01_17950.mzXML
#LibraryName NIH_Natural_Products_Library.mgf
#MQScore -1
#Organism NIH_Natural_Products_Library
#TIC_Query 0
#RT_Query -1
#MZErrorPPM -1
#SharedPeaks 0
#MassDiff 0
#LibMZ -1
#SpecMZ 361.129
#SpecCharge 0
#internalFilename spec-00000.mgf

>collision 10
95.367767 160.0
95.694588 168.0
96.443687 136.0
96.852631 188.0
97.023117 152.0
97.392036 136.0
97.480446 140.0
98.047203 284.0
98.491135 220.0
98.811378 208.0
98.858864 28.0
98.943977 160.0
99.276863 192.0
99.868706 144.0
100.183212 236.0
100.94165 120.0
101.079674 184.0
102.169151 96.0
102.489273 164.0
102.864395 240.0
103.058266 176.0
103.072411 184.0
103.137085 132.0
103.84169 72.0
103.859947 164.0
104.024307 180.0
104.430695 140.0
104.701378 180.0
105.06723 144.0
106.187195 124.0
106.273346 152.0
106.731392 120.0
107.047226 172.0
107.254303 172.0
107.384201 124.0
107.510048 172.0
107.555458 88.0
107.881836 144.0
108.05658 500.0
108.086594 144.0
108.103142 48.0
108.455223 184.0
109.058922 296.0
109.762901 128.0
109.994476 156.0
110.090515 172.0
111.074211 160.0
111.546677 32.0
111.898003 180.0
112.127602 48.0
112.161331 28.0
114.281219 140.0
114.457886 172.0
114.500473 136.0
115.039932 144.0
115.093307 108.0
115.454445 228.0
117.60508 96.0
117.870712 160.0
118.262154 144.0
118.838593 108.0
119.048569 200.0
120.176697 216.0
120.316383 60.0
121.066132 224.0
121.570572 72.0
122.073631 128.0
122.516037 140.0
123.042145 308.0
123.080536 2072.0
123.118195 52.0
123.175621 128.0
124.043045 160.0
124.079346 340.0
124.249283 44.0
124.710938 192.0
125.089302 156.0
125.889725 148.0
126.737503 80.0
127.186028 132.0
127.203987 116.0
127.804047 132.0
128.484467 192.0
128.784698 148.0
130.007263 188.0
131.692017 180.0
131.71257 172.0
132.165222 200.0
132.659927 140.0
133.059097 232.0
133.169327 156.0
134.454025 172.0
135.045471 208.0
135.06398 196.0
135.642868 136.0
135.677643 168.0
136.014008 184.0
136.05101 1320.0
136.650757 120.0
137.053558 260.0
137.802521 108.0
139.139847 212.0
139.243164 52.0
139.946274 232.0
140.014557 56.0
140.038116 108.0
140.844788 188.0
141.7509 124.0
142.009308 180.0
142.237091 44.0
143.171494 176.0
145.978607 176.0
146.462357 168.0
146.913116 208.0
147.036713 184.0
148.063675 152.0
148.225983 164.0
148.542908 188.0
148.761978 180.0
149.332993 44.0
151.075348 952.0
151.26796 68.0
151.882996 64.0
152.0793 132.0
152.806686 128.0
153.777588 148.0
153.952866 184.0
153.972626 176.0
154.249359 224.0
154.397705 188.0
155.386047 148.0
155.964661 152.0
156.631516 244.0
156.771027 148.0
157.175003 232.0
157.619461 72.0
158.828674 152.0
159.154938 156.0
159.463928 176.0
159.866302 100.0
159.994675 160.0
160.198654 196.0
160.718018 104.0
162.172134 128.0
162.544586 144.0
162.740387 204.0
163.039261 164.0
163.068085 48.0
163.56662 196.0
163.67099 152.0
164.046753 444.0
164.239304 140.0
164.346451 144.0
164.371964 192.0
164.517456 148.0
165.811737 148.0
166.668839 148.0
167.072495 76.0
167.283508 156.0
167.494659 132.0
167.813431 92.0
168.702332 176.0
171.696136 192.0
171.769165 168.0
172.01445 144.0
172.262527 240.0
176.192627 84.0
176.583847 156.0
176.649963 116.0
177.052277 376.0
177.261566 196.0
177.399384 88.0
177.977753 168.0
178.11319 132.0
178.224777 140.0
178.533127 180.0
178.551743 60.0
178.735306 164.0
178.822403 120.0
178.953552 188.0
179.012146 192.0
179.032959 284.0
179.069229 33272.0
179.127853 72.0
179.235901 48.0
179.296646 60.0
179.332199 88.0
179.382477 32.0
179.420746 56.0
179.443802 104.0
179.473129 68.0
179.537125 80.0
179.571793 92.0
179.71051 112.0
179.747864 84.0
179.791672 140.0
179.817245 40.0
179.846603 80.0
180.030823 52.0
180.07283 2712.0
180.156357 100.0
180.188416 160.0
180.268585 84.0
180.297974 48.0
180.327377 64.0
180.386185 216.0
180.586716 60.0
180.764801 68.0
180.824844 36.0
181.075211 728.0
181.105972 76.0
181.132751 112.0
181.247955 148.0
181.331314 116.0
181.368561 96.0
181.427521 128.0
181.461517 200.0
181.837936 40.0
182.22998 84.0
182.609024 96.0
183.336777 68.0
183.379044 40.0
183.848312 64.0
184.202011 152.0
184.850876 112.0
189.249664 92.0
190.0802 80.0
194.454361 64.0
194.565399 48.0
197.393448 48.0
216.529404 52.0
225.817245 112.0
230.652191 44.0
245.186829 100.0
279.025299 88.0
282.694366 72.0
310.548187 60.0
358.364044 120.0
360.367523 168.0
368.234802 88.0
420.611633 84.0
441.514587 112.0
493.475647 88.0
524.518127 76.0
554.551208 52.0
596.339722 100.0
657.385376 96.0
886.804504 148.0
928.936401 216.0
973.610352 180.0
973.802856 40.0
1003.351562 108.0
1012.342834 96.0
1045.720459 196.0
1078.19458 120.0
1095.510376 128.0
1119.18103 112.0
1139.63501 164.0
1144.982788 132.0
1147.401855 212.0
1154.985352 156.0
1159.548828 164.0
1159.609863 32.0
1169.961914 196.0
1175.496338 88.0
1175.585083 108.0
1175.899048 80.0
1188.771973 160.0
1195.974487 156.0
1213.90271 204.0
1218.205811 116.0
1221.897339 212.0
1227.39978 164.0
1233.935059 84.0
1236.334229 220.0
1237.839355 124.0
1248.055908 68.0
1248.133301 204.0
1277.185913 180.0
1292.782104 184.0
1293.555054 196.0
1317.422607 176.0
1322.838989 128.0
1325.489746 168.0
1339.322388 164.0
1348.749634 184.0
1360.418701 136.0
1369.875732 156.0
1370.273438 160.0
1370.671387 180.0
1373.244263 36.0
1374.026123 256.0
1374.557373 240.0
1400.982178 192.0
1407.19458 208.0
1409.166382 48.0
1413.877197 216.0
1416.437866 108.0
1420.31311 144.0
1424.231323 184.0
1424.997559 136.0
1428.403076 192.0
1434.33667 140.0
1440.10144 148.0
1451.733643 108.0
1474.374268 208.0
1479.759277 176.0
1486.995605 152.0
1496.127441 188.0
1503.318726 132.0
