>compound MLS000697566-01!
>formula C21H20O10
>ionization [M+H]+
>parentmass 433.113
#inchi InChI=1S/C21H20O10/c22-6-8-4-10-14(11(24)5-8)18(27)15-9(16(10)25)2-1-3-12(15)30-21-20(29)19(28)17(26)13(7-23)31-21/h1-5,13,17,19-24,26,28-29H,6-7H2/t13?,17-,19-,20+,21-/m1/s1
#inchikey KIZBWUUJNJEYCM
#Ion_Source LC-ESI
#Instrument qTof
#Compound_Source NIH Natural Product Library
#PI Dorrestein
#Data_Collector VVP/LMS
#Scan -1
#Precursor_MZ 433.113
#ExactMass 432.106
#Charge 1
#CAS_Number N/A
#Pubmed_ID N/A
#Smiles OCC1O[C@@H](Oc2cccc3C(=O)c4cc(CO)cc(O)c4C(=O)c23)[C@@H](O)[C@H](O)[C@@H]1O
#INCHI_AUX N/A
#Library_Class 1
#SpectrumID CCMSLIB00000079814
#IonMode Positive
#UpdateWorkflowName UPDATE-SINGLE-ANNOTATED-GOLD
#LibraryQualityString Gold
#TaskID b1d8e8f6646f4e71acdff9ca3d919d08
##Scan# 1860
#SpectrumFile p1-D11_GD11_01_17919.mzXML
#LibraryName NIH_Natural_Products_Library.mgf
#MQScore -1
#Organism NIH_Natural_Products_Library
#TIC_Query 0
#RT_Query -1
#MZErrorPPM -1
#SharedPeaks 0
#MassDiff 0
#LibMZ -1
#SpecMZ 433.113
#SpecCharge 0
#internalFilename spec-00000.mgf

>collision 10
95.394684 156.0
96.394508 104.0
97.136513 68.0
99.288368 88.0
99.84642 156.0
99.977715 140.0
102.357872 140.0
102.589569 244.0
105.590652 128.0
106.667084 164.0
106.753433 100.0
107.697327 132.0
107.777893 88.0
109.522583 152.0
109.879044 168.0
111.26239 92.0
112.417915 220.0
114.103928 160.0
117.718651 160.0
118.644691 124.0
119.90757 212.0
123.249741 144.0
124.257141 132.0
126.767792 116.0
126.931427 176.0
127.391518 140.0
128.105988 332.0
129.102219 196.0
131.241241 152.0
131.652725 72.0
132.283005 120.0
132.308182 112.0
132.626587 164.0
133.715256 188.0
134.556595 124.0
135.421432 184.0
136.547058 44.0
139.049225 160.0
139.119644 108.0
140.093201 180.0
141.683075 96.0
142.558594 168.0
143.646652 200.0
145.134186 160.0
147.541794 180.0
147.834457 148.0
148.63652 48.0
149.015289 172.0
149.071182 80.0
153.17662 192.0
153.339233 52.0
153.681992 144.0
154.101715 132.0
154.157272 208.0
154.900787 120.0
155.59761 116.0
161.769882 156.0
162.26387 204.0
167.12175 100.0
170.636642 176.0
170.953979 164.0
174.719131 212.0
174.898056 148.0
175.385345 116.0
177.309433 164.0
177.365463 140.0
183.11235 200.0
190.57431 104.0
195.435089 212.0
195.94458 172.0
196.457535 144.0
197.426727 192.0
197.664505 108.0
198.574692 212.0
199.397552 60.0
201.59288 144.0
201.638092 104.0
205.488571 128.0
207.906448 116.0
210.445267 152.0
213.580841 132.0
215.396774 68.0
215.773743 140.0
220.739853 232.0
221.251709 168.0
222.879974 180.0
223.933044 140.0
227.593811 108.0
233.057358 108.0
233.918015 172.0
234.079361 136.0
234.536346 112.0
235.88855 152.0
236.276932 80.0
237.965607 132.0
238.066925 148.0
239.839035 136.0
240.440445 188.0
242.078873 160.0
242.599396 168.0
245.06076 136.0
246.037216 180.0
246.480438 80.0
247.074478 220.0
248.876587 196.0
252.007339 200.0
252.266479 172.0
253.519836 124.0
254.10643 140.0
256.249268 148.0
258.317932 156.0
260.071503 336.0
260.819031 36.0
261.081879 6664.0
261.228943 100.0
261.401154 112.0
261.520203 76.0
261.578156 52.0
261.797089 48.0
261.903351 200.0
262.02359 216.0
262.084595 1228.0
262.599548 44.0
262.925385 184.0
262.97702 76.0
263.089233 256.0
263.128754 180.0
263.677856 56.0
263.865356 136.0
264.069061 80.0
264.276093 124.0
264.803741 124.0
264.923584 164.0
264.975433 44.0
265.137421 92.0
266.695282 152.0
266.822052 112.0
270.184387 160.0
271.494568 232.0
273.995911 60.0
275.101166 280.0
275.724915 152.0
277.631775 96.0
279.09198 4384.0
279.149353 80.0
279.219177 48.0
279.432068 72.0
280.095734 1276.0
280.268646 92.0
280.381073 212.0
281.100586 152.0
281.204834 92.0
281.481903 52.0
281.779175 68.0
282.200287 148.0
282.43103 124.0
283.914703 68.0
284.230011 68.0
287.953217 164.0
288.091492 1004.0
288.389069 64.0
288.608795 168.0
288.635834 136.0
288.676422 52.0
289.075195 1276.0
290.077972 240.0
290.719086 112.0
291.031372 180.0
291.093842 380.0
291.935242 120.0
292.089172 76.0
292.163116 64.0
300.084717 176.0
302.118866 132.0
302.887329 80.0
303.923889 220.0
306.155518 152.0
306.733887 92.0
307.086761 2156.0
307.201141 28.0
307.305786 44.0
308.087006 440.0
309.093048 192.0
311.524384 76.0
311.72464 128.0
315.633789 140.0
317.205688 108.0
317.957611 128.0
318.032135 172.0
318.10083 1656.0
318.156372 48.0
318.188324 48.0
319.107758 144.0
319.186707 180.0
321.183533 108.0
323.006317 188.0
324.442261 64.0
329.625061 136.0
330.019043 128.0
333.666382 96.0
335.723602 192.0
338.017639 108.0
339.101624 160.0
344.023132 108.0
344.355438 188.0
345.146271 156.0
345.419922 76.0
345.75293 140.0
345.949097 116.0
346.134949 6332.0
346.318207 64.0
346.374939 88.0
346.456421 52.0
346.597229 72.0
346.645386 48.0
346.79364 100.0
347.137451 1552.0
347.320129 52.0
347.691132 48.0
347.776123 40.0
348.144592 364.0
348.565979 48.0
349.069336 68.0
349.110229 64.0
349.151154 200.0
349.266449 48.0
350.569489 88.0
353.512085 48.0
353.691742 52.0
360.801422 136.0
367.981873 40.0
368.814636 84.0
388.239929 68.0
426.236572 56.0
429.517731 108.0
433.204803 440.0
434.209198 360.0
435.192596 324.0
436.105316 60.0
436.196747 104.0
437.161652 132.0
460.711517 100.0
461.553467 96.0
564.890381 80.0
602.355286 176.0
628.392578 84.0
633.431702 32.0
658.908691 20.0
667.961792 52.0
771.456909 160.0
789.432312 80.0
984.234375 56.0
1037.670776 64.0
1042.131348 208.0
1205.141846 144.0
1350.350098 80.0
1468.004028 48.0
