>compound MLS001157934-01!(2S)-1-[2-[[(2Z)-2-[(3-methoxyphenyl)methylidene]-3-oxo-1-benzofuran-6-yl]oxy]acetyl]pyrrolidine-2-carboxylic acid
>formula C23H21NO7
>ionization [M+H]+
>parentmass 424.139191
#inchi InChI=1S/C23H21NO7/c1-29-15-5-2-4-14(10-15)11-20-22(26)17-8-7-16(12-19(17)31-20)30-13-21(25)24-9-3-6-18(24)23(27)28/h2,4-5,7-8,10-12,18H,3,6,9,13H2,1H3,(H,27,28)/b20-11-/t18-/m0/s1
#inchikey BYTYHIIQPJFZAU
#Ion_Source LC-ESI
#Instrument qTof
#Compound_Source NIH Natural Product Library
#PI Dorrestein
#Data_Collector VVP/LMS
#Scan -1
#Precursor_MZ 424.14
#ExactMass 423.132
#Charge 1
#CAS_Number N/A
#Pubmed_ID N/A
#Smiles COc1cccc(/C=C/2\Oc3cc(OCC(=O)N4CCC[C@H]4C(=O)O)ccc3C2=O)c1
#INCHI_AUX N/A
#Library_Class 1
#SpectrumID CCMSLIB00000079524
#IonMode Positive
#UpdateWorkflowName UPDATE-SINGLE-ANNOTATED-GOLD
#LibraryQualityString Gold
#TaskID b1d8e8f6646f4e71acdff9ca3d919d08
##Scan# 2089
#SpectrumFile p1-F07_GF7_01_17939.mzXML
#LibraryName NIH_Natural_Products_Library.mgf
#MQScore -1
#Organism NIH_Natural_Products_Library
#TIC_Query 0
#RT_Query -1
#MZErrorPPM -1
#SharedPeaks 0
#MassDiff 0
#LibMZ -1
#SpecMZ 424.14
#SpecCharge 0
#internalFilename spec-00000.mgf

>collision 10
95.800659 84.0
95.892242 156.0
95.937073 144.0
96.810455 148.0
97.284943 80.0
97.428299 144.0
97.626816 60.0
97.68779 196.0
98.060204 804.0
98.509819 48.0
98.845924 156.0
99.061729 160.0
99.077576 200.0
100.07682 2060.0
100.11042 72.0
100.138306 76.0
100.287735 76.0
100.307663 92.0
100.700745 116.0
100.918564 28.0
101.078575 184.0
101.16864 128.0
101.316833 168.0
101.447098 44.0
102.149933 216.0
102.23645 84.0
102.459953 236.0
102.962212 196.0
104.124702 228.0
104.895844 132.0
105.032555 176.0
105.44899 172.0
105.931877 164.0
106.036377 140.0
106.069168 172.0
107.046959 648.0
107.325294 68.0
108.016335 204.0
108.051636 264.0
108.095764 112.0
108.240662 192.0
108.362869 172.0
109.14328 128.0
109.728348 96.0
109.745026 108.0
110.06218 40.0
110.70623 180.0
111.909416 88.0
112.075447 172.0
112.343567 188.0
112.521492 208.0
112.791237 160.0
113.341484 80.0
113.963173 140.0
114.057205 216.0
114.354462 52.0
114.891434 160.0
114.972511 72.0
115.302933 184.0
116.00988 64.0
116.033463 176.0
116.348831 220.0
116.86895 116.0
117.069389 172.0
117.495911 180.0
117.916977 196.0
118.040558 864.0
118.180801 40.0
118.436249 64.0
118.668129 60.0
119.349892 132.0
120.057602 108.0
120.197212 116.0
120.881165 64.0
121.025635 148.0
121.525368 104.0
121.613144 212.0
121.845917 88.0
122.094299 100.0
122.823318 148.0
124.250153 176.0
124.383301 144.0
124.527626 132.0
124.740936 80.0
126.165421 188.0
126.886299 260.0
126.91993 32.0
126.935623 180.0
127.124054 144.0
127.375511 136.0
127.998489 156.0
128.070587 2048.0
128.33873 44.0
129.071472 356.0
130.142044 120.0
131.081467 200.0
131.636093 140.0
131.80481 68.0
131.957947 96.0
132.047119 184.0
132.367508 132.0
132.388123 60.0
133.058807 188.0
133.099075 188.0
133.491913 172.0
133.857803 76.0
134.06781 144.0
134.106613 56.0
136.013748 236.0
137.023743 1008.0
137.635193 48.0
137.924881 56.0
138.023071 184.0
138.123169 80.0
139.645889 164.0
140.722809 68.0
141.069366 180.0
142.071808 56.0
142.09079 148.0
142.268784 40.0
142.363754 148.0
142.96759 128.0
143.053268 128.0
143.66571 132.0
145.064667 224.0
145.426865 116.0
145.919312 180.0
146.542664 188.0
146.843994 236.0
146.983902 128.0
147.039673 148.0
147.524918 120.0
148.050385 320.0
149.019287 160.0
149.046951 140.0
149.426254 108.0
150.022919 160.0
150.054611 208.0
150.786911 160.0
151.038742 176.0
151.06076 140.0
151.981934 96.0
152.613174 180.0
152.996979 208.0
153.059418 180.0
153.228485 108.0
153.410858 188.0
153.731491 120.0
154.025299 120.0
154.079636 208.0
154.539505 184.0
155.054565 220.0
155.925674 136.0
156.065887 1344.0
156.888977 156.0
157.070953 344.0
157.103439 160.0
157.285599 104.0
157.355499 52.0
158.072861 124.0
158.430893 128.0
159.035217 156.0
159.085419 160.0
159.555191 92.0
159.718658 136.0
160.187149 164.0
161.393204 124.0
162.916397 132.0
163.039856 564.0
163.081558 68.0
164.044083 220.0
164.444199 52.0
164.571838 68.0
164.815887 168.0
165.066833 360.0
165.587036 68.0
166.073288 228.0
166.487213 168.0
166.726013 184.0
167.037231 188.0
167.094208 220.0
167.1633 240.0
167.266251 152.0
167.863968 136.0
168.059998 172.0
168.341354 60.0
168.653976 160.0
168.790985 116.0
169.063721 296.0
169.104401 188.0
169.606491 132.0
170.075806 124.0
170.733292 120.0
171.009079 208.0
171.079361 164.0
171.592575 152.0
172.783508 180.0
173.055695 136.0
174.086197 144.0
174.724899 128.0
175.043381 116.0
175.093414 200.0
176.059174 180.0
176.259415 88.0
176.780334 172.0
177.050354 152.0
177.071548 168.0
178.175018 116.0
178.618958 72.0
179.079437 220.0
179.191315 168.0
179.8927 116.0
179.94075 204.0
180.052902 124.0
180.087631 176.0
180.790756 136.0
181.065567 364.0
181.89769 132.0
182.069199 768.0
182.373123 248.0
182.448395 108.0
182.789963 168.0
182.894928 44.0
182.916458 256.0
183.069931 180.0
183.118408 64.0
183.765366 140.0
184.046066 44.0
184.151382 136.0
185.100616 328.0
186.054993 148.0
186.079437 124.0
188.252289 124.0
190.836227 184.0
193.068329 208.0
193.089157 144.0
194.061569 172.0
194.1138 164.0
195.046631 144.0
195.077209 140.0
195.828491 180.0
195.973358 164.0
195.992859 112.0
196.026291 156.0
196.084824 216.0
196.171219 264.0
196.955322 200.0
197.050491 120.0
197.097519 316.0
197.150909 100.0
198.068008 560.0
198.098221 340.0
198.674088 60.0
199.071091 532.0
199.496902 116.0
200.014496 92.0
200.087692 44.0
201.026291 136.0
201.257751 124.0
201.342468 120.0
201.791748 52.0
202.173615 192.0
202.213242 108.0
203.551315 140.0
208.933365 128.0
209.052505 156.0
209.091171 128.0
209.264328 104.0
209.416962 52.0
209.953018 176.0
210.069763 276.0
210.446457 144.0
210.813293 108.0
210.937576 156.0
211.038757 124.0
211.067535 172.0
211.145752 28.0
212.05484 216.0
212.074005 176.0
212.974594 108.0
213.091354 3308.0
213.145996 52.0
213.340729 56.0
214.027344 76.0
214.095032 644.0
214.518936 76.0
214.694656 96.0
215.287064 76.0
215.33963 60.0
215.497375 140.0
216.319168 92.0
217.095581 48.0
218.090851 164.0
219.038315 60.0
219.256348 104.0
219.955154 112.0
220.052979 952.0
220.540207 180.0
220.88678 96.0
221.057877 368.0
221.21167 64.0
221.398193 80.0
221.549255 280.0
221.916748 72.0
222.064041 48.0
222.156982 56.0
223.071609 140.0
223.125122 48.0
223.261887 48.0
223.717133 88.0
223.770721 176.0
223.937485 140.0
224.074509 316.0
224.482849 48.0
224.930374 148.0
224.972168 204.0
225.051498 220.0
225.092804 444.0
225.127426 196.0
225.148331 184.0
225.339508 36.0
225.43811 140.0
225.793869 168.0
226.061142 604.0
226.099014 148.0
226.155884 116.0
227.02771 132.0
227.062515 168.0
228.072525 156.0
228.785446 68.0
228.836044 104.0
228.88179 172.0
229.068512 156.0
229.369843 236.0
230.208588 88.0
230.278046 80.0
230.516708 152.0
232.078598 188.0
232.582199 40.0
232.967834 208.0
233.001251 124.0
234.074005 184.0
234.15715 76.0
235.068268 152.0
235.645752 184.0
236.054108 168.0
236.921524 100.0
237.054916 3240.0
237.090042 188.0
237.277023 140.0
237.365936 96.0
237.415009 68.0
237.856812 128.0
238.056717 1000.0
238.151581 80.0
238.326691 136.0
239.015442 100.0
239.066238 192.0
239.200104 112.0
239.541901 140.0
240.059692 52.0
240.084366 100.0
240.581131 76.0
241.082352 124.0
241.554535 56.0
242.526825 192.0
242.666321 120.0
244.001328 140.0
245.149887 200.0
245.396133 176.0
246.085648 64.0
246.979416 132.0
247.070129 148.0
248.338776 100.0
248.442291 156.0
248.633682 100.0
249.218124 168.0
249.28688 160.0
249.849701 152.0
250.063278 308.0
251.070007 760.0
251.488297 248.0
251.529327 64.0
251.766129 104.0
251.83876 108.0
251.908249 100.0
252.041351 1888.0
252.075241 236.0
252.221085 88.0
252.701767 160.0
252.746063 160.0
253.049301 1240.0
253.083633 720.0
253.239914 52.0
253.265259 44.0
253.547226 112.0
253.594772 148.0
253.686691 60.0
253.823029 112.0
253.886444 76.0
254.054398 1328.0
254.088043 108.0
254.140213 40.0
254.308411 104.0
254.330627 68.0
254.356018 120.0
254.441727 108.0
254.470306 48.0
254.58461 80.0
254.657654 64.0
254.791077 56.0
255.063492 392.0
255.239212 88.0
255.353699 44.0
255.633652 124.0
256.053894 40.0
256.079346 204.0
256.579651 92.0
256.857086 176.0
256.949585 36.0
257.05896 232.0
257.696686 88.0
257.754211 44.0
257.990723 112.0
258.061035 148.0
258.246521 76.0
258.384064 88.0
261.264984 144.0
261.773529 100.0
262.166534 204.0
265.110565 120.0
265.137512 124.0
265.266113 172.0
265.827209 164.0
266.008972 64.0
266.057678 136.0
266.145325 160.0
266.733337 196.0
266.973938 144.0
267.063599 656.0
267.1073 84.0
267.198364 176.0
267.45871 108.0
267.667084 204.0
268.027863 156.0
268.063812 300.0
268.093811 144.0
268.368042 132.0
268.406738 92.0
268.507843 60.0
268.670929 128.0
268.726379 204.0
268.917786 228.0
268.964813 144.0
269.08017 12460.0
269.202942 68.0
269.297668 52.0
269.362976 56.0
269.447937 52.0
269.650513 64.0
270.006866 64.0
270.08374 2632.0
270.130646 180.0
270.183502 64.0
270.36676 88.0
270.867676 104.0
270.992188 72.0
271.041321 116.0
271.08725 168.0
271.657684 32.0
271.697052 176.0
271.989105 136.0
272.086487 164.0
272.136841 156.0
272.195953 40.0
272.347717 92.0
272.79718 48.0
272.92868 40.0
273.132599 96.0
273.744751 108.0
275.281433 104.0
277.587891 76.0
277.903015 148.0
279.035553 144.0
279.310028 116.0
280.065155 152.0
280.55365 100.0
280.693695 44.0
280.997223 92.0
281.079956 6832.0
281.190765 176.0
281.32428 28.0
281.347656 60.0
281.494537 40.0
281.54129 92.0
281.821899 36.0
281.932159 32.0
282.052216 1208.0
282.08609 1160.0
282.162811 68.0
282.216309 72.0
282.347839 40.0
282.457092 48.0
282.564148 60.0
282.9758 76.0
283.058044 1328.0
284.016571 160.0
284.047119 176.0
284.07077 152.0
284.135406 140.0
284.212585 48.0
284.252838 36.0
284.474365 116.0
284.514648 80.0
285.983612 124.0
286.444916 80.0
287.105499 88.0
287.284271 156.0
290.433533 116.0
291.129272 176.0
293.439697 44.0
293.971802 176.0
294.145874 136.0
295.187897 224.0
295.269989 80.0
297.13681 128.0
298.053558 116.0
299.102478 168.0
304.135223 132.0
309.064606 172.0
310.064484 124.0
311.327454 20.0
313.068207 180.0
316.900757 136.0
317.01062 60.0
317.357178 88.0
318.465179 80.0
321.110779 136.0
322.108856 144.0
326.089813 124.0
327.0849 296.0
327.410187 52.0
328.094788 100.0
330.040833 40.0
350.135712 1108.0
350.443207 44.0
351.137756 252.0
352.902863 72.0
355.656311 44.0
361.055359 124.0
367.352905 148.0
368.154419 68.0
371.265686 152.0
373.816467 116.0
376.256287 132.0
378.129974 276.0
379.136353 272.0
389.995941 68.0
396.15509 124.0
407.437683 36.0
415.816467 104.0
422.282288 144.0
424.139191 732.0
424.735748 104.0
424.922058 48.0
425.134308 316.0
426.145874 108.0
429.841339 76.0
437.571533 68.0
446.610565 64.0
473.238037 64.0
477.029755 136.0
495.351135 68.0
510.976379 168.0
524.106812 128.0
527.964111 52.0
533.029541 20.0
553.186829 104.0
554.929565 112.0
598.400635 20.0
615.532837 44.0
674.145081 88.0
683.411316 132.0
767.645142 92.0
870.206726 56.0
882.053772 32.0
969.307007 176.0
972.798828 128.0
1040.964722 156.0
1057.714478 172.0
1087.548584 172.0
1090.780273 152.0
1110.662354 220.0
1111.995972 100.0
1135.950317 140.0
1144.768311 192.0
1152.491821 220.0
1209.933228 220.0
1219.290405 160.0
1231.43396 92.0
1244.803101 164.0
1249.723389 148.0
1268.112183 168.0
1292.989868 64.0
1312.284302 68.0
1319.128174 120.0
1358.877563 216.0
1359.684692 212.0
1361.549438 60.0
1367.43103 240.0
1392.733276 176.0
1395.348145 264.0
1397.698486 196.0
1406.910522 172.0
1407.589966 172.0
1417.156616 20.0
1434.298584 136.0
1453.303223 216.0
1455.253906 144.0
1459.311157 236.0
1464.615234 152.0
1465.392334 128.0
1475.611816 64.0
1494.348755 124.0
