>compound MLS002153372-01!(-)-SCOPOLAMINE N-BUTYL BROMIDE
>formula C21H30NO4
>ionization [M+H]+
>parentmass 361.22475989209056
#inchi InChI=1S/C21H30NO4/c1-3-4-10-22(2)17-11-15(12-18(22)20-19(17)26-20)25-21(24)16(13-23)14-8-6-5-7-9-14/h5-9,15-20,23H,3-4,10-13H2,1-2H3/q+1/t15-,16-,17-,18+,19-,20+,22?/m1/s1
#inchikey YBCNXCRZPWQOBR
#origInchi InChI=1S/C21H30NO4.BrH/c1-3-4-10-22(2)17-11-15(12-18(22)20-19(17)26-20)25-21(24)16(13-23)14-8-6-5-7-9-14;/h5-9,15-20,23H,3-4,10-13H2,1-2H3;1H/q+1;/p-1/t15-,16-,17-,18+,19-,20+,22?;/m1./s1
#Ion_Source LC-ESI
#Instrument qTof
#Compound_Source NIH Pharmacologically Active Library
#PI Dorrestein
#Data_Collector VP/LMS
#Scan -1
#Precursor_MZ 360.219
#ExactMass 360.217
#Charge 1
#CAS_Number N/A
#Pubmed_ID N/A
#Smiles CCCC[N+]1(C)[C@H]2C[C@@H](C[C@@H]1[C@H]3O[C@H]32)OC(=O)[C@H](CO)c4ccccc4.[Br-]
#INCHI_AUX N/A
#Library_Class 1
#SpectrumID CCMSLIB00000084820
#IonMode Positive
#UpdateWorkflowName UPDATE-SINGLE-ANNOTATED-GOLD
#LibraryQualityString Gold
#TaskID d252d724072548979f1f6f1ced849daf
##Scan# 1485
#SpectrumFile p3-B02_GB2_01_18235.mzXML
#LibraryName Pharm_Active_Library.mgf
#MQScore -1
#Organism Pharm_Active_Library
#TIC_Query 0
#RT_Query -1
#MZErrorPPM -1
#SharedPeaks 0
#MassDiff 0
#LibMZ -1
#SpecMZ 360.219
#SpecCharge 0
#internalFilename spec-00000.mgf

>collision 10
44.891705 184.0
44.910378 156.0
45.051876 156.0
45.067905 56.0
45.169514 152.0
45.185566 164.0
45.211842 220.0
45.253826 156.0
45.316776 128.0
45.354301 212.0
45.39452 88.0
45.414639 140.0
45.51395 212.0
45.563644 148.0
45.602615 144.0
45.663116 76.0
45.778507 184.0
45.826 64.0
45.875866 176.0
45.987827 116.0
45.998627 180.0
46.047234 160.0
46.111149 236.0
46.16346 44.0
46.237865 152.0
46.424824 148.0
46.552387 164.0
46.59042 204.0
46.693726 136.0
46.729095 36.0
46.775871 204.0
46.832157 192.0
46.911587 196.0
46.922493 160.0
46.964767 140.0
47.038452 76.0
47.058929 116.0
47.095802 132.0
47.114929 152.0
47.158653 152.0
47.198299 52.0
47.429672 112.0
47.469429 156.0
47.581944 240.0
47.623138 152.0
47.671227 104.0
47.731709 152.0
47.774345 168.0
47.824978 136.0
47.969612 176.0
47.998848 188.0
48.016777 144.0
48.058159 112.0
48.067818 124.0
48.114746 112.0
48.299923 140.0
48.360806 152.0
48.535362 148.0
48.583904 168.0
48.618595 192.0
48.661625 216.0
48.768593 368.0
48.881241 128.0
49.009895 112.0
49.044189 156.0
49.060917 160.0
49.160957 188.0
49.197632 156.0
49.310776 96.0
49.390472 120.0
49.488438 68.0
49.509083 156.0
49.774479 168.0
49.809593 180.0
49.834881 180.0
49.855957 144.0
49.909374 100.0
49.976891 208.0
50.000813 184.0
50.206501 204.0
50.25164 184.0
50.359509 204.0
50.457844 160.0
50.52573 160.0
50.646057 224.0
50.743835 164.0
50.756599 176.0
50.779289 284.0
50.904175 156.0
50.943943 32.0
51.14587 136.0
51.333931 208.0
51.35247 168.0
51.525196 216.0
51.538055 140.0
51.65815 104.0
51.688194 184.0
51.712521 180.0
51.728268 40.0
52.012089 144.0
52.023575 184.0
52.045109 200.0
52.076702 124.0
52.116928 140.0
52.147312 140.0
52.201736 168.0
52.242008 108.0
52.256397 200.0
52.325481 184.0
52.348186 208.0
52.374443 164.0
52.391727 160.0
52.406136 236.0
52.504158 164.0
52.537334 64.0
52.68314 160.0
52.707703 144.0
52.762627 96.0
52.846512 168.0
52.908783 156.0
52.931911 88.0
52.950737 196.0
53.040573 132.0
53.152245 180.0
53.192883 160.0
53.298901 356.0
53.410847 152.0
53.510605 128.0
53.546207 192.0
53.585537 176.0
53.731594 200.0
53.799927 136.0
53.83643 128.0
53.890476 168.0
53.951859 184.0
53.962093 164.0
54.058632 140.0
54.123039 156.0
54.205067 96.0
54.227051 116.0
54.315025 192.0
54.420689 128.0
54.50882 132.0
54.564674 196.0
54.642624 152.0
54.686771 224.0
54.705906 152.0
54.758915 196.0
54.844372 224.0
54.854691 144.0
54.921043 160.0
54.971207 164.0
55.018436 124.0
55.068645 120.0
55.145473 76.0
55.157299 92.0
55.175037 220.0
55.254353 140.0
55.355511 152.0
55.371841 240.0
55.439991 72.0
55.460739 156.0
55.474079 128.0
55.57938 156.0
55.631329 160.0
55.811508 188.0
55.845303 104.0
55.937557 208.0
55.952442 124.0
56.016479 168.0
56.089493 148.0
56.138695 164.0
56.180458 132.0
56.19836 156.0
56.266335 180.0
56.322269 156.0
56.389507 208.0
56.542057 80.0
56.567501 160.0
56.781361 176.0
56.802769 164.0
56.913826 140.0
56.924335 148.0
56.936352 144.0
57.023487 224.0
57.139275 108.0
57.170876 168.0
57.200977 160.0
57.243103 212.0
57.321465 188.0
57.368187 96.0
57.414928 132.0
57.522057 180.0
57.57188 216.0
57.591515 68.0
57.64439 288.0
57.726021 216.0
57.889858 164.0
57.936409 124.0
58.007633 148.0
58.116825 212.0
58.179054 104.0
58.197273 188.0
58.224606 172.0
58.235237 156.0
58.279293 72.0
58.402431 184.0
58.487637 156.0
58.609474 168.0
58.630806 160.0
58.669399 256.0
58.848942 180.0
58.908501 292.0
59.064423 184.0
59.20676 200.0
59.248119 172.0
59.326275 164.0
59.430565 152.0
59.499634 76.0
59.582565 144.0
59.602539 144.0
59.622517 172.0
59.779377 144.0
59.822472 248.0
59.904087 136.0
59.921036 220.0
59.933361 64.0
59.968803 196.0
59.987301 200.0
60.10297 108.0
60.12149 224.0
60.133835 88.0
60.180145 140.0
60.201763 148.0
60.258915 124.0
60.310341 188.0
60.341591 244.0
60.368664 104.0
60.408875 176.0
60.430534 244.0
60.456841 176.0
60.526501 112.0
60.568314 140.0
60.602398 232.0
60.630291 156.0
60.726414 156.0
60.765564 236.0
60.876156 156.0
61.019905 124.0
61.040119 180.0
61.097668 120.0
61.401409 172.0
61.427925 148.0
61.499058 204.0
61.524677 136.0
61.635571 224.0
61.777847 152.0
62.106796 36.0
62.119347 156.0
62.358253 212.0
62.384312 152.0
62.416222 152.0
62.433479 132.0
62.488647 220.0
62.590843 84.0
62.616039 164.0
62.642815 184.0
62.772053 196.0
62.969322 120.0
63.005653 216.0
63.094154 236.0
63.176388 152.0
63.203285 164.0
63.233219 236.0
63.282425 188.0
63.379044 160.0
63.482357 160.0
63.529659 200.0
63.691574 144.0
63.825069 180.0
63.837791 140.0
63.912556 160.0
63.936424 152.0
64.009651 236.0
64.129776 180.0
64.15464 216.0
64.20726 232.0
64.266281 160.0
64.304581 208.0
64.339272 212.0
64.360451 60.0
64.39846 160.0
64.511978 204.0
64.537811 152.0
64.580986 60.0
64.617783 184.0
64.633781 160.0
65.060112 176.0
65.384804 44.0
65.400894 120.0
65.502342 200.0
65.521667 184.0
65.545837 208.0
65.603859 136.0
65.72966 164.0
65.858818 200.0
65.936363 88.0
66.035408 124.0
66.094849 204.0
66.180832 160.0
66.201683 184.0
66.451302 244.0
66.476341 140.0
66.50161 136.0
66.535698 172.0
66.563301 32.0
66.631516 152.0
66.956848 132.0
67.008972 164.0
67.049706 232.0
67.080673 80.0
67.132851 40.0
67.15731 188.0
67.274803 176.0
67.31562 272.0
67.354813 144.0
67.37442 168.0
67.596779 208.0
67.622963 80.0
67.650131 148.0
67.685173 96.0
67.795982 168.0
67.818184 148.0
67.942497 140.0
68.05574 132.0
68.128006 148.0
68.177299 184.0
68.228256 208.0
68.266068 232.0
68.345024 156.0
68.41909 156.0
68.450371 116.0
68.468491 56.0
68.509666 148.0
68.590408 172.0
68.618118 164.0
68.713097 212.0
68.761948 100.0
68.783401 216.0
68.976669 148.0
69.051071 176.0
69.147034 152.0
69.410431 56.0
69.546471 144.0
69.647751 228.0
69.690948 48.0
69.75576 148.0
69.855507 208.0
69.860039 204.0
69.938736 220.0
69.972031 156.0
70.203636 220.0
70.255341 220.0
70.283707 204.0
70.308739 168.0
70.352402 200.0
70.494102 128.0
70.507469 200.0
70.60778 184.0
70.723228 164.0
70.801918 152.0
70.910812 184.0
70.997993 180.0
71.066765 164.0
71.177551 188.0
71.374146 204.0
71.611427 164.0
71.631645 132.0
71.736816 164.0
71.875175 180.0
72.075348 172.0
72.144646 192.0
72.186913 88.0
72.249496 156.0
72.300255 144.0
72.479759 164.0
72.545853 104.0
72.659477 160.0
72.783379 136.0
72.878494 160.0
72.941376 136.0
73.085938 188.0
73.285149 212.0
73.312408 124.0
73.324341 176.0
73.460747 144.0
73.498283 168.0
73.551186 224.0
73.651932 180.0
73.687805 136.0
73.717819 240.0
73.747261 124.0
73.774963 232.0
73.807449 148.0
74.045311 104.0
74.100128 108.0
74.20639 168.0
74.226967 180.0
74.338463 188.0
74.413216 276.0
74.563431 144.0
74.582336 188.0
74.683784 128.0
74.711426 172.0
74.773254 160.0
74.838669 100.0
74.900665 112.0
75.010948 196.0
75.073013 116.0
75.103806 192.0
75.155815 200.0
75.183418 152.0
75.344002 164.0
75.363007 136.0
75.974159 128.0
76.089157 168.0
76.229393 252.0
76.269363 148.0
76.344124 240.0
76.376312 220.0
76.398041 32.0
76.458939 128.0
76.605202 220.0
76.664436 164.0
76.737648 192.0
76.826591 156.0
76.924316 232.0
76.948753 156.0
76.990662 196.0
77.247597 184.0
77.263336 144.0
77.275154 208.0
77.321083 148.0
77.534492 224.0
77.659225 136.0
77.690796 180.0
77.768005 208.0
77.79258 148.0
77.876862 136.0
78.043808 164.0
78.086014 144.0
78.182777 192.0
78.272552 188.0
78.390572 184.0
78.425819 88.0
78.517502 200.0
78.671013 216.0
78.722214 140.0
78.796402 168.0
78.845871 108.0
78.909508 236.0
79.20327 92.0
79.220985 172.0
79.398232 136.0
79.451447 176.0
79.497574 160.0
79.56443 260.0
79.628952 120.0
79.655594 172.0
79.694679 144.0
79.726662 172.0
80.016594 224.0
80.037964 152.0
80.068237 156.0
80.110985 176.0
80.27317 176.0
80.289223 76.0
80.314194 136.0
80.338486 192.0
80.381989 36.0
80.42482 168.0
80.528374 168.0
80.573029 64.0
80.624847 128.0
80.692772 164.0
80.758942 96.0
80.841232 188.0
80.925362 188.0
80.937897 48.0
81.056122 128.0
81.127808 216.0
81.143944 184.0
81.228233 128.0
81.298203 52.0
81.560417 148.0
81.650314 172.0
81.994179 112.0
82.09333 180.0
82.125748 160.0
82.143837 164.0
82.223221 228.0
82.497772 124.0
82.544777 148.0
82.597229 224.0
82.633408 136.0
82.658737 60.0
82.887375 156.0
82.994331 192.0
83.068192 52.0
83.206116 256.0
83.311447 160.0
83.440475 224.0
83.493462 232.0
83.558693 52.0
83.675171 140.0
83.693375 180.0
83.729797 212.0
83.784439 112.0
83.899254 184.0
84.063408 104.0
84.109032 40.0
84.130943 236.0
84.147369 164.0
84.445229 168.0
84.458031 56.0
84.505592 180.0
84.64962 204.0
84.701477 156.0
84.783501 212.0
84.844414 176.0
84.885704 192.0
84.956276 56.0
85.055367 176.0
85.095757 60.0
85.115952 44.0
85.314377 168.0
85.36586 172.0
85.426559 72.0
85.485435 40.0
85.538803 168.0
85.816986 192.0
85.875999 124.0
85.903664 60.0
85.997772 140.0
86.018074 192.0
86.049454 220.0
86.239723 128.0
86.306274 156.0
86.333961 152.0
86.372856 216.0
86.644974 176.0
86.672768 244.0
86.75061 236.0
86.771927 176.0
86.889694 84.0
86.958351 196.0
87.025185 132.0
87.038177 112.0
87.105034 156.0
87.171921 216.0
87.226387 144.0
87.65387 196.0
87.67437 148.0
87.864563 168.0
87.928001 204.0
88.232475 164.0
88.249298 132.0
88.318489 144.0
88.709846 192.0
88.739838 164.0
88.760468 192.0
88.835487 192.0
88.869255 168.0
88.995995 164.0
89.243019 220.0
89.376564 164.0
89.463142 196.0
89.489494 188.0
89.512093 204.0
89.536575 172.0
89.598732 120.0
89.708031 76.0
89.770248 144.0
89.842888 188.0
89.932495 160.0
89.958923 144.0
89.97403 92.0
90.127106 160.0
90.145905 160.0
90.253647 212.0
90.310387 164.0
90.37281 48.0
90.406868 160.0
90.484474 152.0
90.533707 152.0
90.704224 168.0
90.742142 176.0
90.791977 196.0
91.013458 180.0
91.055008 1232.0
91.097023 148.0
91.178726 148.0
91.207237 228.0
91.254761 260.0
91.300392 184.0
91.342239 40.0
91.425575 120.0
91.50209 220.0
91.578262 56.0
91.717354 180.0
91.803146 184.0
91.885162 208.0
91.942406 152.0
92.098969 176.0
92.148636 164.0
92.16774 176.0
92.242271 164.0
92.258469 36.0
92.274773 88.0
92.328316 200.0
92.345528 136.0
92.36274 136.0
92.511993 204.0
92.615395 152.0
92.935547 152.0
92.959206 284.0
93.059563 560.0
93.070801 408.0
93.100624 164.0
93.123672 92.0
93.233177 120.0
93.396599 160.0
93.438927 168.0
93.504349 216.0
93.530167 144.0
93.550545 132.0
93.610229 56.0
93.631409 156.0
93.662224 72.0
93.800964 124.0
93.822166 44.0
93.918587 112.0
94.036278 124.0
94.065643 2432.0
94.119286 224.0
94.165634 32.0
94.36274 92.0
94.44976 148.0
94.529938 180.0
94.577461 164.0
94.618111 124.0
94.765305 120.0
94.88353 168.0
94.89904 40.0
94.963036 152.0
94.986313 156.0
95.025108 44.0
95.05011 244.0
95.071609 656.0
95.132805 192.0
95.182327 188.0
95.21534 44.0
95.289154 148.0
95.322182 188.0
95.411591 192.0
95.432976 176.0
95.48159 184.0
95.613884 156.0
95.64502 164.0
95.672272 128.0
95.837822 180.0
95.880692 32.0
95.97036 144.0
95.996605 156.0
96.024963 244.0
96.044594 688.0
96.082832 1728.0
96.118599 164.0
96.222046 152.0
96.263046 140.0
96.32164 160.0
96.4897 140.0
96.608994 56.0
96.687981 196.0
96.767517 232.0
96.869347 76.0
96.945763 152.0
97.053841 1092.0
97.087975 44.0
97.206932 196.0
97.448769 172.0
97.479515 232.0
97.534546 176.0
97.57386 128.0
97.623177 148.0
97.689888 148.0
97.741043 104.0
97.928062 144.0
98.030144 240.0
98.060905 8396.0
98.096466 152.0
98.115257 176.0
98.129059 220.0
98.188217 56.0
98.227661 168.0
98.31842 152.0
98.34211 216.0
98.374107 132.0
98.391457 164.0
98.435089 164.0
98.517845 144.0
98.539574 72.0
98.559334 76.0
98.575142 104.0
98.595703 208.0
98.642342 40.0
98.660133 212.0
98.753067 100.0
98.76889 32.0
98.78978 112.0
98.861877 152.0
98.885628 176.0
98.941055 196.0
99.062584 504.0
99.179848 256.0
99.265991 100.0
99.359215 32.0
99.379051 164.0
99.4366 152.0
99.462402 212.0
99.48027 128.0
99.678879 80.0
99.794159 84.0
99.83194 196.0
99.92543 188.0
100.064743 164.0
100.180252 204.0
100.2201 212.0
100.311775 136.0
100.449364 84.0
100.587097 152.0
100.605011 144.0
100.619675 208.0
100.834717 108.0
100.878693 188.0
101.03067 172.0
101.194778 236.0
101.224815 212.0
101.246841 120.0
101.292908 60.0
101.334976 144.0
101.395096 184.0
101.465248 176.0
101.479286 44.0
101.685898 156.0
101.72805 232.0
101.830452 204.0
101.955017 204.0
101.975113 112.0
102.049255 824.0
102.092537 196.0
102.224487 184.0
102.322685 208.0
102.439911 48.0
102.482224 116.0
102.584999 212.0
102.699936 188.0
102.758438 200.0
102.816956 168.0
102.882416 164.0
102.939468 192.0
102.973167 224.0
102.996643 212.0
103.019257 164.0
103.055183 33816.0
103.107323 56.0
103.130768 200.0
103.160324 244.0
103.184517 64.0
103.196899 216.0
103.237305 104.0
103.266388 88.0
103.307945 40.0
103.322105 96.0
103.356079 212.0
103.396698 176.0
103.41114 48.0
103.535515 92.0
103.565018 60.0
103.619713 244.0
103.662262 168.0
103.713638 136.0
103.743332 96.0
103.789963 64.0
103.862968 36.0
103.881226 212.0
103.913689 92.0
103.948181 208.0
103.984711 96.0
104.005722 136.0
104.02124 200.0
104.057678 2836.0
104.13382 72.0
104.163383 80.0
104.195885 64.0
104.32798 144.0
104.481789 96.0
104.494751 152.0
104.59639 92.0
104.722183 88.0
104.747177 132.0
104.826637 124.0
104.891853 100.0
104.922432 80.0
104.948936 172.0
104.965714 232.0
105.059822 152.0
105.124359 88.0
105.226418 44.0
105.310143 60.0
105.377548 88.0
105.424545 228.0
105.451225 76.0
105.504257 180.0
105.653549 196.0
105.671959 92.0
105.710838 184.0
105.991371 200.0
106.036453 32.0
106.064209 400.0
106.081543 92.0
106.130753 48.0
106.353134 208.0
106.37899 72.0
106.395416 204.0
106.515114 180.0
107.049057 992.0
107.072617 784.0
107.137817 32.0
107.156357 180.0
107.414047 132.0
107.556419 140.0
107.680305 232.0
107.816658 148.0
107.857994 156.0
107.915878 112.0
107.959297 172.0
108.021347 80.0
108.052452 216.0
108.082039 1408.0
108.11097 152.0
108.134537 136.0
108.246941 168.0
108.300781 212.0
108.487274 64.0
108.522522 140.0
108.719574 40.0
108.794174 68.0
108.835823 120.0
108.852432 156.0
108.9002 84.0
108.931358 172.0
108.997833 184.0
109.020699 160.0
109.062912 340.0
109.088028 420.0
109.120468 232.0
109.241089 132.0
109.411728 64.0
109.451286 176.0
109.699211 128.0
109.730484 260.0
109.799294 208.0
109.874382 272.0
109.936981 124.0
110.007942 160.0
110.03508 240.0
110.060402 2204.0
110.097397 12456.0
110.138504 168.0
110.262764 176.0
110.294434 160.0
110.314537 52.0
110.342194 60.0
110.529434 192.0
110.551361 76.0
110.605782 28.0
110.643456 56.0
110.683746 164.0
110.777481 72.0
110.852913 152.0
111.06044 388.0
111.100189 1136.0
111.120163 208.0
111.184242 52.0
111.25351 96.0
111.276604 232.0
111.474045 132.0
111.551437 240.0
111.585442 240.0
111.631706 72.0
111.711365 160.0
111.741074 120.0
111.810516 212.0
111.82946 136.0
111.943138 92.0
112.033707 76.0
112.16436 144.0
112.35836 168.0
112.383682 128.0
112.398453 224.0
112.423775 208.0
112.548317 84.0
112.573654 84.0
112.658134 112.0
112.875832 160.0
112.996185 208.0
113.053192 172.0
113.389183 144.0
113.458076 136.0
113.644707 176.0
113.90583 148.0
114.057732 320.0
114.090904 176.0
114.124725 164.0
114.303398 144.0
114.477554 108.0
114.507759 148.0
115.060127 280.0
115.098999 160.0
115.22448 92.0
115.369804 180.0
115.562279 180.0
115.581535 64.0
115.624336 52.0
115.765625 88.0
115.909149 152.0
115.944702 196.0
116.086266 204.0
116.091019 128.0
116.098434 184.0
116.258675 68.0
116.310188 164.0
116.363853 172.0
116.408943 180.0
116.735573 140.0
117.051895 132.0
117.228531 164.0
117.409615 156.0
117.556305 140.0
117.711731 164.0
117.795959 148.0
117.875893 180.0
118.042961 224.0
118.068291 360.0
118.105057 108.0
118.260841 180.0
118.561882 152.0
118.624741 132.0
118.722305 104.0
119.043221 172.0
119.071709 128.0
119.095596 184.0
119.149902 440.0
119.304199 160.0
119.367256 92.0
119.85701 180.0
119.898415 116.0
119.920212 180.0
119.959442 156.0
120.046654 256.0
120.081276 3804.0
120.161301 264.0
120.28228 244.0
120.330307 160.0
120.481003 80.0
120.511589 180.0
120.603371 188.0
120.620598 172.0
120.726425 140.0
120.805565 188.0
120.865799 80.0
120.966469 220.0
120.981796 196.0
121.030693 268.0
121.065781 27376.0
121.107559 208.0
121.146034 56.0
121.163559 72.0
121.224907 128.0
121.246826 132.0
121.325729 68.0
121.361908 60.0
121.404663 52.0
121.522209 136.0
121.545059 84.0
121.597725 68.0
121.648209 28.0
121.739494 120.0
121.748505 88.0
121.861229 116.0
121.913963 208.0
121.975502 56.0
122.008476 220.0
122.028267 164.0
122.069443 2328.0
122.096687 5024.0
122.165665 232.0
122.347267 72.0
122.501419 148.0
122.611588 88.0
122.798981 128.0
122.854126 132.0
122.907074 176.0
122.937973 132.0
123.015221 56.0
123.070816 636.0
123.098618 884.0
123.121201 160.0
123.206993 76.0
123.386353 108.0
123.429321 156.0
123.46595 112.0
123.53231 32.0
123.620804 112.0
123.68499 120.0
123.70491 96.0
123.851051 52.0
123.917511 108.0
123.948532 152.0
123.988419 84.0
124.02166 112.0
124.070328 312.0
124.113464 684.0
124.150253 200.0
124.285561 44.0
124.332161 124.0
125.058739 160.0
125.116791 252.0
125.29718 64.0
126.035683 36.0
126.094696 176.0
126.128723 632.0
126.180954 172.0
126.256981 184.0
126.478477 100.0
126.496384 144.0
126.713608 132.0
126.880821 144.0
126.913086 188.0
127.000542 160.0
127.101494 112.0
127.135155 76.0
127.272079 224.0
127.30352 188.0
127.645081 200.0
127.6968 140.0
127.741791 232.0
127.928558 124.0
128.107574 204.0
128.210098 136.0
128.257431 104.0
128.286743 184.0
128.970688 136.0
129.020416 196.0
129.065277 176.0
129.124435 156.0
129.160614 140.0
129.226227 176.0
129.278259 64.0
129.309952 196.0
129.384445 136.0
129.41861 40.0
129.81514 248.0
130.060165 48.0
130.07605 64.0
130.105469 200.0
130.12088 208.0
130.287247 128.0
130.362213 116.0
130.637329 180.0
130.821655 224.0
131.054581 172.0
131.110916 224.0
131.192978 180.0
131.268219 212.0
131.514603 132.0
131.557968 112.0
131.609543 176.0
131.65387 144.0
131.678986 236.0
132.083542 56.0
132.113281 224.0
132.134079 212.0
132.278046 68.0
132.351303 156.0
132.376495 184.0
132.392517 160.0
132.550583 188.0
132.626205 172.0
133.178482 188.0
133.261871 232.0
133.339996 100.0
133.408951 160.0
133.510117 44.0
133.551514 132.0
133.655045 136.0
133.781616 212.0
133.850464 204.0
133.866806 128.0
134.090271 164.0
134.189392 56.0
134.406204 168.0
134.558533 92.0
134.604706 112.0
134.673996 188.0
134.90506 112.0
135.080795 140.0
135.395584 104.0
135.509079 176.0
135.764053 144.0
136.057846 164.0
136.075653 360.0
136.114075 640.0
136.163223 48.0
136.208878 200.0
136.372314 228.0
136.394623 188.0
136.630432 204.0
136.699219 52.0
136.949326 220.0
137.026199 136.0
137.084 244.0
137.210312 120.0
137.296585 120.0
137.317749 168.0
137.371231 84.0
137.62561 208.0
137.641953 116.0
137.695663 36.0
137.721359 160.0
137.744705 204.0
137.796112 40.0
137.952362 148.0
137.976059 124.0
138.015808 184.0
138.052444 340.0
138.066864 276.0
138.092346 44272.0
138.173553 136.0
138.216461 92.0
138.26265 120.0
138.294189 72.0
138.322281 44.0
138.36676 92.0
138.398331 156.0
138.447708 84.0
138.481491 28.0
138.518967 28.0
138.547089 64.0
138.572845 36.0
138.605347 92.0
138.659546 64.0
138.711121 56.0
138.774612 52.0
138.861176 72.0
138.936234 60.0
139.020706 104.0
139.096436 3952.0
139.123978 80.0
139.213959 136.0
139.271912 188.0
139.349426 72.0
139.371094 232.0
139.462234 28.0
139.492783 52.0
139.560959 76.0
139.579773 88.0
139.610352 52.0
139.699722 72.0
139.730301 72.0
139.746765 72.0
139.763245 116.0
139.850708 96.0
139.90036 92.0
139.920364 88.0
139.968018 160.0
139.998642 84.0
140.026901 108.0
140.056168 204.0
140.07605 152.0
140.106888 2280.0
140.168243 116.0
140.201233 68.0
140.217728 64.0
140.244431 144.0
140.295517 144.0
140.387466 48.0
140.486526 100.0
140.578537 156.0
140.782974 80.0
141.005981 40.0
141.072662 192.0
141.115051 376.0
141.138977 92.0
141.214035 148.0
141.294464 96.0
141.602188 108.0
141.659027 108.0
141.917343 32.0
141.971893 152.0
142.076248 144.0
142.111832 180.0
142.261353 124.0
144.47522 32.0
144.491959 212.0
144.721725 152.0
144.898102 176.0
144.990005 120.0
145.06192 168.0
145.733887 136.0
145.976654 232.0
146.332764 100.0
146.376099 160.0
146.424271 156.0
146.631973 112.0
146.68689 88.0
147.080063 196.0
147.145248 172.0
147.278061 140.0
147.466522 112.0
147.587387 164.0
147.730072 156.0
148.308792 124.0
148.328476 136.0
148.607071 132.0
148.704132 64.0
148.801239 56.0
148.95665 188.0
149.506134 168.0
149.883575 40.0
150.017624 56.0
150.117584 168.0
151.116592 148.0
151.136169 168.0
151.25119 36.0
151.922607 144.0
152.023209 68.0
152.087006 124.0
152.111816 300.0
152.148376 160.0
152.585678 152.0
152.900528 200.0
152.932526 212.0
153.131958 116.0
153.358627 52.0
153.706345 156.0
153.933441 144.0
153.965546 160.0
154.083511 1092.0
154.122162 2472.0
154.276062 148.0
154.338669 60.0
154.41066 184.0
154.516754 168.0
154.818726 188.0
155.086288 80.0
155.125092 556.0
155.373932 192.0
155.414444 100.0
155.4328 232.0
155.53772 184.0
155.875473 176.0
155.976212 128.0
156.053238 232.0
156.073547 244.0
156.102798 26360.0
156.187012 180.0
156.31311 68.0
156.347946 76.0
156.395233 64.0
156.417648 92.0
156.50975 60.0
156.558411 88.0
156.666656 48.0
156.689087 48.0
156.836105 148.0
156.900909 40.0
156.953278 120.0
157.104736 2888.0
157.180252 40.0
157.225174 72.0
157.295059 204.0
157.404907 68.0
157.609726 156.0
157.639709 56.0
157.68219 64.0
157.737183 52.0
157.789688 28.0
157.862198 184.0
158.015701 140.0
158.057297 60.0
158.107803 208.0
158.13237 132.0
158.172424 144.0
158.362717 108.0
158.405289 108.0
158.432846 72.0
158.492981 104.0
159.137589 52.0
159.43399 164.0
159.828781 40.0
159.911819 104.0
160.821686 32.0
161.086807 164.0
161.425476 148.0
163.933502 184.0
164.063492 140.0
164.141876 748.0
164.420578 92.0
164.479279 136.0
164.581406 92.0
164.640137 68.0
165.137939 216.0
165.399475 184.0
165.568451 136.0
165.863083 116.0
166.121521 356.0
166.15799 240.0
166.306824 140.0
166.360733 172.0
166.422348 52.0
167.120117 216.0
167.170334 96.0
167.747253 148.0
168.340652 76.0
168.361313 196.0
168.47496 196.0
168.704956 96.0
168.787689 180.0
168.989441 212.0
169.121414 156.0
169.670578 196.0
170.9823 180.0
171.057785 200.0
171.125839 300.0
171.299942 104.0
171.344238 184.0
171.51622 120.0
172.066925 188.0
172.338257 76.0
173.057526 28.0
173.925247 148.0
174.285019 208.0
174.726715 184.0
174.968842 180.0
175.111038 140.0
175.424591 172.0
176.224228 160.0
177.113068 188.0
177.150162 92.0
177.23494 96.0
177.290588 64.0
177.415161 188.0
177.815674 124.0
177.966995 184.0
178.124435 208.0
178.166183 160.0
178.461182 76.0
179.137146 124.0
179.158463 116.0
179.678314 124.0
179.710327 92.0
180.426086 176.0
180.541061 120.0
180.803223 64.0
181.220947 164.0
181.427307 128.0
181.966553 120.0
182.111557 80.0
182.167969 152.0
182.587265 224.0
182.902054 72.0
184.093704 96.0
184.253052 64.0
184.404373 224.0
184.826645 160.0
185.45723 164.0
187.814575 256.0
188.011017 156.0
188.305862 192.0
188.756775 132.0
189.219162 184.0
189.443726 160.0
190.120956 120.0
190.36528 136.0
191.247772 200.0
191.58371 136.0
192.201279 192.0
192.391708 164.0
193.090775 84.0
193.298264 56.0
193.879791 168.0
193.924133 48.0
193.966522 216.0
194.015594 156.0
194.045654 156.0
194.112915 208.0
194.155075 33392.0
194.254089 36.0
194.276276 56.0
194.365067 48.0
194.384476 76.0
194.428879 112.0
194.461823 96.0
194.531586 56.0
194.578766 84.0
194.612091 56.0
194.631531 108.0
194.71701 56.0
194.781876 200.0
194.865265 88.0
194.893005 84.0
195.028778 100.0
195.066315 96.0
195.124115 176.0
195.157318 2424.0
195.287354 60.0
195.323517 64.0
195.479309 192.0
195.526627 36.0
195.830093 64.0
195.86351 96.0
196.0056 204.0
196.154587 420.0
196.179977 56.0
196.267609 88.0
196.340103 48.0
196.524216 68.0
196.666534 40.0
196.697174 168.0
196.730728 108.0
196.808899 52.0
196.920609 168.0
197.018372 68.0
197.054688 68.0
197.183228 108.0
197.272659 68.0
197.353745 64.0
197.40686 32.0
197.429245 92.0
197.753769 52.0
198.243866 88.0
198.656006 108.0
198.678452 64.0
199.34668 60.0
199.371979 132.0
199.481598 48.0
199.771225 64.0
200.21875 116.0
201.366592 76.0
201.527603 64.0
202.104401 172.0
202.138351 48.0
203.268967 184.0
204.704453 112.0
205.080505 148.0
205.257263 84.0
205.342804 176.0
205.973587 140.0
208.391434 72.0
208.494873 76.0
208.59259 196.0
209.006729 116.0
209.06427 132.0
209.34639 196.0
209.455826 132.0
209.787216 108.0
210.1474 576.0
210.869614 144.0
211.148697 204.0
211.676727 108.0
212.111313 168.0
212.164978 6196.0
212.198273 172.0
212.256256 88.0
212.430267 40.0
212.801743 52.0
212.836578 100.0
213.166962 896.0
213.475845 52.0
213.694 52.0
214.172577 340.0
215.630219 48.0
216.007401 84.0
216.783249 76.0
218.833481 108.0
219.183975 48.0
219.882874 44.0
221.517944 132.0
222.009933 148.0
222.855911 152.0
222.918304 68.0
225.573822 136.0
225.654541 68.0
225.905746 140.0
226.369644 36.0
228.879944 136.0
230.841293 76.0
231.267853 92.0
233.993805 100.0
235.833237 168.0
236.001358 52.0
236.643875 112.0
237.308731 56.0
237.61235 164.0
239.151871 36.0
241.097931 96.0
241.153564 104.0
242.016632 144.0
242.614578 80.0
243.151184 72.0
244.580872 152.0
245.007492 148.0
246.139648 192.0
247.590607 80.0
248.427475 80.0
249.023865 160.0
252.288284 208.0
253.367416 112.0
255.15097 132.0
256.134277 164.0
257.137848 104.0
258.153412 160.0
258.327209 60.0
259.467255 132.0
259.913055 112.0
262.489563 92.0
262.73468 120.0
263.606445 112.0
264.981567 184.0
265.432068 72.0
266.337524 104.0
267.049316 200.0
267.706726 116.0
268.374695 76.0
273.129791 124.0
274.142853 220.0
275.860046 168.0
276.419006 224.0
276.958618 168.0
277.913361 116.0
278.155304 220.0
280.510681 124.0
281.701965 108.0
284.696228 224.0
285.580109 148.0
285.859344 152.0
286.135345 80.0
286.603485 48.0
287.112488 100.0
288.081177 128.0
288.161072 1800.0
288.446136 112.0
288.513733 76.0
288.652374 84.0
289.164764 244.0
289.762543 192.0
289.79303 100.0
290.081085 100.0
290.206512 88.0
291.427856 132.0
291.900848 76.0
292.567688 64.0
292.809448 192.0
292.911621 156.0
292.949097 136.0
293.743347 168.0
294.118683 140.0
294.559174 200.0
294.678741 144.0
294.900848 128.0
295.437683 128.0
295.533478 152.0
295.793579 144.0
298.980316 144.0
300.646545 164.0
301.634338 124.0
302.028534 80.0
302.918091 92.0
303.489929 124.0
303.946075 220.0
304.15451 3332.0
304.54834 52.0
304.57962 52.0
305.155884 824.0
305.556427 72.0
305.82785 132.0
306.005371 92.0
306.156036 184.0
306.566162 132.0
306.785767 76.0
307.151886 100.0
307.584564 36.0
308.426361 56.0
308.450836 112.0
312.399261 76.0
316.231201 132.0
316.379883 96.0
316.776489 120.0
317.43924 76.0
319.100952 148.0
320.563843 108.0
321.269806 228.0
321.808685 220.0
323.134644 168.0
323.231232 136.0
323.481781 68.0
325.52536 80.0
325.719299 188.0
325.988739 44.0
326.887726 88.0
327.575378 84.0
328.166412 84.0
330.203827 244.0
330.80365 76.0
331.215393 204.0
331.593262 72.0
332.82663 168.0
332.902893 56.0
333.593201 220.0
335.001465 28.0
336.770538 156.0
339.346741 92.0
339.922607 56.0
340.396118 132.0
343.199921 140.0
346.133728 120.0
348.477844 132.0
348.548431 68.0
349.247345 80.0
351.206512 140.0
353.137482 68.0
353.186096 204.0
353.279633 124.0
353.990753 124.0
354.710083 120.0
356.639374 60.0
357.42157 64.0
358.197113 140.0
358.411865 116.0
358.577667 108.0
358.63797 48.0
358.815125 88.0
359.143188 64.0
359.245056 104.0
359.309174 96.0
359.362 140.0
359.478973 136.0
359.543121 136.0
359.728058 112.0
359.788452 192.0
359.879059 48.0
359.918427 104.0
359.955566 260.0
360.056122 220.0
360.153473 180.0
360.21756 36620.0
360.280518 196.0
360.328308 100.0
360.34848 128.0
360.399109 176.0
360.468323 76.0
360.547668 56.0
360.589233 88.0
360.619476 56.0
360.675934 68.0
360.767242 204.0
360.844116 28.0
360.893341 80.0
360.98996 48.0
361.023987 52.0
361.069366 84.0
361.114746 52.0
361.160919 136.0
361.221252 4816.0
361.276459 144.0
361.342896 168.0
361.633087 40.0
361.792084 40.0
361.898071 60.0
362.038177 84.0
362.113922 80.0
362.221466 896.0
362.29953 52.0
362.348785 56.0
362.405609 68.0
362.468018 76.0
362.532532 40.0
362.655701 56.0
362.739105 96.0
362.77124 84.0
362.911072 44.0
362.977936 104.0
363.042419 88.0
363.101288 92.0
363.237 168.0
363.268341 120.0
363.417938 68.0
363.452087 48.0
363.498383 80.0
363.513214 144.0
363.562134 128.0
363.600067 88.0
363.630432 68.0
363.675018 160.0
363.725311 120.0
363.801239 116.0
363.858185 108.0
364.321503 80.0
364.351898 80.0
364.424072 56.0
364.766113 76.0
364.994202 64.0
366.749207 160.0
367.221985 56.0
368.592438 44.0
371.697845 68.0
374.277008 60.0
374.627472 76.0
375.113007 108.0
375.552582 52.0
375.703003 112.0
382.091339 36.0
383.972717 172.0
384.214539 48.0
387.99231 60.0
390.175079 76.0
394.175598 112.0
398.546051 96.0
399.627533 48.0
404.548279 56.0
408.018341 48.0
412.49704 120.0
413.188538 84.0
419.531952 72.0
420.270142 60.0
430.210297 92.0
430.276337 112.0
430.978455 40.0
437.768738 44.0
456.772003 144.0
457.282562 48.0
457.844543 116.0
462.172943 84.0
476.969757 76.0
485.053741 104.0
498.857239 108.0
501.153656 104.0
505.533997 104.0
515.616577 120.0
525.429077 104.0
533.925842 152.0
545.4245 84.0
547.615967 96.0
554.71814 136.0
558.63916 64.0
562.286072 100.0
581.490173 60.0
599.242004 76.0
606.033264 48.0
621.634644 68.0
622.210388 96.0
624.237549 92.0
633.140259 68.0
639.813293 68.0
646.526428 52.0
662.053406 104.0
680.394165 212.0
694.048096 40.0
695.107666 44.0
702.373047 52.0
704.738098 104.0
706.488037 56.0
709.750488 112.0
754.589294 160.0
766.505249 68.0
770.312012 64.0
770.53302 76.0
787.028625 224.0
796.178467 52.0
806.008301 204.0
809.090759 156.0
811.158386 184.0
817.001709 184.0
834.12854 60.0
836.561768 148.0
837.89209 140.0
847.813049 180.0
850.922058 148.0
865.439697 112.0
872.49176 44.0
878.917358 160.0
879.407166 204.0
879.702332 212.0
879.855774 68.0
881.751892 132.0
886.415039 176.0
892.737 180.0
896.356262 160.0
896.421814 248.0
897.22644 124.0
898.651794 268.0
901.89447 176.0
901.966187 136.0
903.730347 204.0
907.347778 64.0
908.769165 44.0
910.173706 212.0
911.002502 144.0
912.276489 216.0
913.623535 192.0
915.290649 252.0
920.391785 44.0
922.772278 108.0
925.258789 220.0
925.337524 176.0
929.932312 116.0
934.471619 224.0
938.613342 236.0
941.450867 72.0
948.382507 160.0
959.0896 140.0
960.890259 220.0
961.47644 208.0
962.328308 256.0
962.896362 212.0
963.755005 200.0
964.682068 212.0
965.73938 96.0
967.521484 60.0
969.701843 164.0
970.197754 104.0
971.828857 60.0
973.989197 228.0
974.629089 176.0
975.269165 192.0
975.312683 176.0
975.542664 160.0
977.532898 180.0
978.018311 208.0
979.437988 180.0
982.230408 148.0
983.509583 184.0
984.371094 152.0
985.376709 220.0
988.469482 168.0
991.233154 64.0
991.377258 116.0
994.720154 276.0
1000.119507 148.0
1000.868652 252.0
1002.380432 172.0
1002.512756 56.0
1002.695496 212.0
1005.230591 92.0
1005.743347 64.0
1006.695129 80.0
1007.901611 188.0
1008.647339 136.0
1008.950745 164.0
1014.883057 176.0
1015.885071 136.0
1019.014893 192.0
1022.875 72.0
1023.169189 132.0
1023.365173 208.0
1027.208008 220.0
1027.399414 196.0
1029.595093 212.0
1029.927246 184.0
1030.923828 136.0
1031.160278 216.0
1033.104126 228.0
1033.37915 156.0
1033.955078 104.0
1035.248291 132.0
1036.260254 200.0
1040.332642 212.0
1040.396851 164.0
1040.833374 116.0
1041.50769 140.0
1043.666992 52.0
1045.043457 224.0
1049.855103 204.0
1050.016357 140.0
1050.487183 140.0
1051.371094 176.0
1053.430786 160.0
1053.65686 200.0
1055.53125 156.0
1055.867554 188.0
1058.009277 160.0
1060.969849 68.0
1061.378296 220.0
1061.423706 100.0
1062.117554 196.0
1062.558716 200.0
1062.733887 148.0
1066.35083 148.0
1069.765625 172.0
1071.699951 132.0
1071.973633 144.0
1072.051758 128.0
1072.553589 188.0
1072.762207 232.0
1073.055542 212.0
1074.536011 52.0
1076.095825 216.0
1076.605225 144.0
1077.526123 260.0
1077.669922 100.0
1077.885498 212.0
1079.133911 224.0
1079.290894 132.0
1079.78125 96.0
1081.744141 188.0
1085.65564 152.0
1086.075439 156.0
1086.678955 192.0
1088.308594 196.0
1088.713745 252.0
1090.382446 124.0
1092.657471 168.0
1093.598511 56.0
1094.645264 84.0
1095.290649 136.0
1096.23938 232.0
1098.269897 172.0
1100.361816 148.0
1101.966675 140.0
1102.8125 180.0
1103.149658 208.0
1104.101685 236.0
1104.148071 152.0
1104.240601 212.0
1104.419189 188.0
1105.007935 64.0
1105.345337 132.0
1106.602905 196.0
1106.927368 232.0
1109.464966 156.0
1110.592285 204.0
1111.700195 216.0
1111.937378 80.0
1112.071777 104.0
1112.383789 244.0
1113.419556 156.0
1113.85791 192.0
1113.937622 208.0
1114.87439 220.0
1116.749268 104.0
1117.341309 128.0
1118.126465 208.0
1118.592407 176.0
1119.571045 152.0
1122.749878 204.0
1123.984009 184.0
1125.058472 176.0
1125.145264 272.0
1126.120239 212.0
1127.142334 252.0
1127.810547 140.0
1127.884155 120.0
1128.151489 184.0
1129.916992 192.0
1130.137817 148.0
1130.85376 172.0
1131.469604 92.0
1132.587891 168.0
1134.2229 152.0
1134.464111 104.0
1135.476685 188.0
1136.617065 60.0
1137.455933 108.0
1138.859253 148.0
1138.966675 224.0
1143.384033 208.0
1143.511841 124.0
1147.337891 64.0
1147.614258 168.0
1147.870483 160.0
1147.924438 184.0
1148.942871 56.0
1151.595703 164.0
1154.393555 148.0
1155.671997 124.0
1156.389282 192.0
1157.045898 160.0
1160.609619 152.0
1162.244263 232.0
1164.891968 176.0
1165.537354 116.0
1165.612183 172.0
1167.644775 200.0
1167.855591 168.0
1168.685547 156.0
1168.794312 120.0
1170.067139 56.0
1170.264526 224.0
1170.86377 160.0
1170.945557 156.0
1172.205811 108.0
1174.264526 172.0
1174.742065 120.0
1174.817017 100.0
1174.898926 220.0
1175.22644 168.0
1175.956543 164.0
1176.366089 232.0
1176.782593 128.0
1177.68396 36.0
1177.998169 124.0
1178.052856 220.0
1178.729248 200.0
1179.310059 264.0
1180.513306 192.0
1180.739014 152.0
1181.621338 64.0
1182.305664 156.0
1182.428833 192.0
1182.579346 120.0
1184.140381 164.0
1185.284424 204.0
1185.76416 220.0
1186.895264 132.0
1187.99939 92.0
1188.760986 120.0
1189.296265 208.0
1189.399292 164.0
1189.515869 160.0
1191.466187 220.0
1191.686035 44.0
1192.373169 192.0
1192.978027 180.0
1193.576172 160.0
1193.98877 124.0
1194.71106 168.0
1195.818848 168.0
1195.89917 240.0
1196.8927 140.0
1197.016724 176.0
1197.299072 56.0
1197.602051 236.0
1198.600952 248.0
1199.09021 188.0
1199.234985 184.0
1200.310425 60.0
1200.689697 152.0
1201.724365 152.0
1202.480347 188.0
1202.918335 160.0
1203.193481 168.0
1203.967773 180.0
1205.14209 188.0
1205.280273 152.0
1205.370117 140.0
1205.453003 160.0
1205.515137 172.0
1205.936768 76.0
1206.586548 144.0
1206.863037 168.0
1207.623779 164.0
1209.457275 184.0
1211.562378 104.0
1212.000977 204.0
1212.643311 148.0
1213.135498 108.0
1213.246338 176.0
1213.433594 224.0
1215.812744 128.0
1217.339966 168.0
1217.478882 192.0
1217.714966 120.0
1218.39563 116.0
1218.798706 144.0
1219.069702 104.0
1219.806396 120.0
1220.598877 172.0
1220.884033 192.0
1220.995361 148.0
1221.064819 176.0
1221.308228 208.0
1221.586548 196.0
1222.484009 60.0
1225.122803 176.0
1225.199463 172.0
1225.70105 100.0
1226.767456 160.0
1227.834229 68.0
1228.161987 100.0
1228.810791 192.0
1228.992188 156.0
1229.184326 200.0
1229.620239 164.0
1230.059937 128.0
1230.213501 128.0
1231.72876 132.0
1232.098999 156.0
1233.300903 180.0
1233.832153 244.0
1234.531372 160.0
1234.776123 92.0
1235.92334 72.0
1236.434204 164.0
1237.148193 168.0
1238.205444 160.0
1239.025024 140.0
1239.270142 160.0
1240.125122 160.0
1245.008057 136.0
1246.152954 112.0
1246.406006 124.0
1246.911865 100.0
1248.043701 128.0
1249.443237 76.0
1250.456543 160.0
1250.81543 212.0
1251.06189 128.0
1252.38562 204.0
1252.64624 96.0
1252.836548 144.0
1253.125366 168.0
1254.869873 172.0
1255.740601 116.0
1257.384399 40.0
1257.694946 152.0
1257.786743 140.0
1258.422119 160.0
1258.732788 52.0
1259.912231 100.0
1260.322021 136.0
1260.533936 164.0
1261.134644 192.0
1261.982178 200.0
1263.616821 168.0
1264.10498 140.0
1264.388062 132.0
1264.883545 172.0
1264.954224 152.0
1265.279907 160.0
1266.22876 100.0
1266.951294 68.0
1267.255859 240.0
1267.489746 112.0
1268.141724 92.0
1268.446411 208.0
1268.637817 72.0
1270.545532 236.0
1271.14856 168.0
1271.38269 176.0
1273.107788 188.0
1273.271118 80.0
1274.606689 128.0
1275.55188 148.0
1276.049438 152.0
1277.315308 196.0
1277.927124 160.0
1278.723389 188.0
1279.101318 112.0
1279.635254 200.0
1280.845825 152.0
1283.803589 200.0
1284.531128 144.0
1284.780762 116.0
1287.521606 72.0
1287.8573 112.0
1288.271606 172.0
1290.036621 144.0
1291.037598 160.0
1291.65271 192.0
1292.124878 192.0
1293.00415 208.0
1293.255493 192.0
1293.463013 120.0
1293.785156 164.0
1294.300659 112.0
1294.673096 220.0
1295.28186 192.0
1298.543091 168.0
1299.002075 120.0
1299.052246 136.0
1299.748169 152.0
1300.75293 104.0
1301.348755 152.0
1302.785156 148.0
1303.237793 144.0
1303.410156 172.0
1303.69043 168.0
1303.956299 172.0
1304.006714 44.0
1304.739868 244.0
1304.984253 176.0
1307.163696 128.0
1308.15686 80.0
1308.552856 208.0
1308.621826 124.0
1309.128906 196.0
1309.193726 84.0
1310.101196 32.0
1311.946045 164.0
1312.075806 144.0
1313.209473 168.0
1313.986938 176.0
1314.719727 180.0
1316.361572 212.0
1317.040527 172.0
1317.098267 200.0
1319.150391 160.0
1319.244385 92.0
1320.097534 168.0
1321.500854 168.0
1321.703369 92.0
1321.84082 200.0
1322.441528 156.0
1323.027832 76.0
1323.20166 152.0
1323.46228 184.0
1324.092285 216.0
1325.091919 172.0
1325.244019 160.0
1325.302002 68.0
1325.432373 104.0
1325.504883 160.0
1325.555542 224.0
1327.549072 148.0
1327.86084 156.0
1327.940674 244.0
1328.404907 124.0
1329.108643 52.0
1329.195679 72.0
1331.809204 192.0
1331.903564 164.0
1332.012573 116.0
1332.426636 164.0
1333.618408 172.0
1334.563354 180.0
1335.210571 156.0
1337.793579 232.0
1338.674561 116.0
1339.0896 120.0
1340.065796 204.0
1340.153198 132.0
1341.005859 172.0
1342.587891 156.0
1342.638916 116.0
1342.806641 80.0
1343.047363 192.0
1344.221924 136.0
1344.535645 156.0
1345.126831 208.0
1345.287476 148.0
1345.630615 144.0
1345.973755 164.0
1346.273193 72.0
1349.736816 236.0
1349.883057 212.0
1350.160889 84.0
1350.424194 184.0
1351.097168 216.0
1353.343994 176.0
1353.746704 128.0
1353.907837 140.0
1354.383911 92.0
1355.033813 172.0
1355.197021 140.0
1355.460815 216.0
1356.567505 148.0
1357.058716 160.0
1358.041382 196.0
1358.68689 140.0
1359.171143 408.0
1360.455444 32.0
1360.917969 156.0
1362.078369 232.0
1362.291382 176.0
1362.342773 180.0
1362.445557 148.0
1363.54541 200.0
1363.599243 208.0
1363.834473 196.0
1364.121094 48.0
1364.738647 144.0
1366.319946 116.0
1367.725464 188.0
1368.115601 56.0
1368.277466 188.0
1369.131592 180.0
1369.573486 140.0
1369.882935 160.0
1370.030273 188.0
1370.096558 124.0
1370.721436 228.0
1370.751343 184.0
1371.894653 328.0
1372.34436 160.0
1372.395996 136.0
1372.999268 44.0
1373.704712 240.0
1373.782471 168.0
1374.136597 152.0
1376.217896 180.0
1376.963745 148.0
1377.554688 172.0
1377.805786 196.0
1379.453735 196.0
1379.579468 224.0
1380.252686 192.0
1382.212402 248.0
1382.649048 140.0
1382.930176 168.0
1382.996826 112.0
1384.366455 92.0
1385.129272 196.0
1385.214233 192.0
1385.59668 216.0
1386.233154 108.0
1386.299927 136.0
1386.374023 160.0
1386.611206 120.0
1386.67041 180.0
1386.803833 172.0
1387.107788 156.0
1387.611816 104.0
1388.37561 224.0
1388.486816 176.0
1389.050537 156.0
1389.792358 148.0
1390.05957 192.0
1391.039185 156.0
1391.878174 140.0
1392.926025 204.0
1393.497314 132.0
1393.65332 196.0
1393.824219 152.0
1396.247559 172.0
1397.5271 140.0
1397.608887 188.0
1397.943726 164.0
1398.062866 188.0
1398.263794 224.0
1398.94104 164.0
1399.216553 48.0
1401.503052 172.0
1402.046997 84.0
1402.553833 128.0
1403.276855 228.0
1403.366333 192.0
1404.574463 192.0
1405.350342 160.0
1405.775635 108.0
1405.880127 176.0
1406.163696 128.0
1408.067505 196.0
1408.239258 140.0
1409.001221 204.0
1409.068481 204.0
1409.143188 192.0
1409.613892 164.0
1409.882935 144.0
1410.123535 232.0
1410.301392 44.0
1410.413574 152.0
1410.936768 304.0
1411.265747 132.0
1411.475098 84.0
1412.537109 196.0
1412.843872 172.0
1413.105713 148.0
1413.470459 228.0
1413.689331 100.0
1414.722168 236.0
1414.946777 168.0
1415.156372 148.0
1415.560669 120.0
1416.01001 156.0
1416.571777 192.0
1416.661743 136.0
1417.141235 200.0
1417.628174 144.0
1417.860596 168.0
1418.010376 180.0
1418.842407 92.0
1420.289673 84.0
1421.775269 276.0
1422.187134 164.0
1422.796021 144.0
1422.848633 128.0
1423.779663 168.0
1424.673462 176.0
1424.831299 108.0
1426.045044 128.0
1426.289062 208.0
1426.695068 152.0
1427.236328 184.0
1427.604736 184.0
1428.221436 152.0
1428.379395 224.0
1428.597656 156.0
1428.996338 228.0
1429.08667 172.0
1430.102539 164.0
1430.192871 128.0
1430.787476 84.0
1430.892944 144.0
1431.052612 176.0
1432.105225 152.0
1432.707886 72.0
1432.941406 216.0
1434.931152 116.0
1436.356323 104.0
1436.439331 208.0
1437.065552 188.0
1437.352173 112.0
1437.737061 204.0
1439.163696 108.0
1439.390259 188.0
1440.440063 140.0
1440.560913 164.0
1442.018311 180.0
1442.601196 124.0
1442.722168 44.0
1443.674805 188.0
1443.818481 40.0
1444.21936 160.0
1445.255737 216.0
1445.612671 236.0
1446.02002 156.0
1446.898193 112.0
1447.564453 184.0
1448.54895 184.0
1449.783936 216.0
1450.291748 96.0
1450.375122 180.0
1450.928467 244.0
1451.29248 172.0
1451.77771 196.0
1452.096191 56.0
1453.044434 200.0
1453.112671 116.0
1453.833496 204.0
1454.372437 204.0
1454.501465 120.0
1455.898438 176.0
1456.44519 76.0
1456.71875 212.0
1456.832642 108.0
1456.885864 80.0
1457.265747 172.0
1457.349243 104.0
1458.017944 208.0
1458.116699 132.0
1458.869263 220.0
1458.937622 140.0
1459.24939 160.0
1460.230347 216.0
1460.65625 176.0
1461.188721 148.0
1461.333252 220.0
1461.394165 184.0
1461.744141 192.0
1463.068481 272.0
1463.647095 180.0
1464.203003 180.0
1464.256348 60.0
1465.018066 104.0
1465.581787 168.0
1466.907837 164.0
1467.144165 112.0
1467.235718 152.0
1467.464355 204.0
1467.548218 80.0
1467.921875 196.0
1468.55481 100.0
1469.371094 196.0
1469.836548 148.0
1470.538574 160.0
1470.637817 68.0
1471.103394 48.0
1471.362915 196.0
1471.76001 180.0
1471.851562 172.0
1471.989014 128.0
1472.653442 180.0
1472.821533 172.0
1472.981934 144.0
1473.363892 164.0
1474.28833 200.0
1474.456543 172.0
1474.655273 208.0
1474.968628 120.0
1475.037354 156.0
1475.954834 168.0
1476.758789 152.0
1477.323853 180.0
1477.461548 156.0
1478.632202 172.0
1479.244507 176.0
1479.520142 212.0
1479.665527 176.0
1480.546143 92.0
1480.875488 120.0
1481.557129 208.0
1482.108765 88.0
1482.392334 188.0
1482.936401 132.0
1483.013062 168.0
1483.603271 52.0
1484.277954 188.0
1484.577026 160.0
1484.86084 160.0
1485.029541 128.0
1485.098511 144.0
1485.321045 180.0
1485.466675 192.0
1485.528076 68.0
1485.934692 188.0
1486.064209 192.0
1486.563843 120.0
1487.185547 156.0
1487.534546 208.0
1488.037598 116.0
1488.106689 164.0
1488.859131 124.0
1489.09729 152.0
1489.450562 192.0
1490.595337 196.0
1494.347534 116.0
1494.439819 156.0
1495.717285 172.0
1496.394775 200.0
1496.756592 200.0
1496.879761 172.0
1496.972168 136.0
1498.469849 208.0
1498.651367 128.0
1499.830444 100.0
1500.663086 164.0
1501.943115 164.0
1502.244019 224.0
1502.297974 128.0
1503.474365 204.0
1503.949341 160.0
1504.088257 156.0
1504.690308 148.0
1504.991455 196.0
