>compound Genistein
>formula C15H10O5
>ionization [M+H]+
>parentmass 271.059753
#inchi InChI=1S/C15H10O5/c16-9-3-1-8(2-4-9)11-7-20-13-6-10(17)5-12(18)14(13)15(11)19/h1-7,16-18H
#inchikey TZBJGXHYKVUXJN
#Ion_Source DI-ESI
#Instrument qTof
#Compound_Source Isolated
#PI Norberto Lopes
#Data_Collector Denise Silva
#Scan -1
#Precursor_MZ 271.06
#ExactMass 270.053
#Charge 1
#CAS_Number 485-72-3
#Pubmed_ID  
#Smiles O=C1C2=C(O)C=C(O)C=C2OC=C1C3=CC=C(O)C=C3
#INCHI_AUX  
#Library_Class 3
#SpectrumID CCMSLIB00000081284
#IonMode Positive
#UpdateWorkflowName UPDATE-SINGLE-ANNOTATED-BRONZE
#LibraryQualityString Bronze
#TaskID e04bbba8dfd3426d9360f8579c51ac90
##Scan# 1
#SpectrumFile gnps_Genistein_pos_MplusH.mgf
#LibraryName gnps_library.mgf
#MQScore -1
#Organism gnps_library
#TIC_Query 0
#RT_Query -1
#MZErrorPPM -1
#SharedPeaks 0
#MassDiff 0
#LibMZ -1
#SpecMZ 271.06
#SpecCharge 0
#internalFilename spec-00000.mgf

>collision 10
115.052277 661.0
119.047531 420.0
121.026817 561.0
128.059372 326.0
129.067337 180.0
131.046982 728.0
135.043152 375.0
137.022446 274.0
141.067337 2589.0
142.071518 205.0
144.05658 425.0
145.047623 1577.0
147.076187 277.0
149.021606 1256.0
150.030075 344.0
152.060608 325.0
153.0159 8404.0
154.021561 420.0
155.051163 788.0
157.064606 279.0
159.064987 697.0
163.037521 200.0
165.016937 441.0
168.057724 386.0
169.065109 2797.0
170.067017 262.0
172.072525 237.0
173.059326 392.0
179.05455 243.0
183.041031 541.0
185.056671 236.0
187.074066 651.0
197.059357 2696.0
198.062408 374.0
200.044846 672.0
201.055817 365.0
213.053192 438.0
215.07048 3772.0
216.072113 368.0
219.850479 488.0
225.053101 455.0
226.060837 239.0
228.061325 272.0
242.058609 278.0
243.064926 2130.0
244.067337 254.0
253.048553 1546.0
270.075531 639.0
271.059753 2420.0
765.750916 233.0
