>compound MLS001401393-01!ESMOLOL HYDROCHLORIDE
>formula C16H25NO4
>ionization [M+H]+
>parentmass 296.18563473209053
#inchi InChI=1S/C16H25NO4/c1-12(2)17-10-14(18)11-21-15-7-4-13(5-8-15)6-9-16(19)20-3/h4-5,7-8,12,14,17-18H,6,9-11H2,1-3H3
#inchikey AQNDDEOPVVGCPG
#origInchi InChI=1S/C16H25NO4.ClH/c1-12(2)17-10-14(18)11-21-15-7-4-13(5-8-15)6-9-16(19)20-3;/h4-5,7-8,12,14,17-18H,6,9-11H2,1-3H3;1H
#Ion_Source LC-ESI
#Instrument qTof
#Compound_Source NIH Pharmacologically Active Library
#PI Dorrestein
#Data_Collector VP/LMS
#Scan -1
#Precursor_MZ 296.189
#ExactMass 295.178
#Charge 1
#CAS_Number N/A
#Pubmed_ID N/A
#Smiles COC(=O)CCc1ccc(OCC(O)CNC(C)C)cc1.Cl
#INCHI_AUX N/A
#Library_Class 1
#SpectrumID CCMSLIB00000085836
#IonMode Positive
#UpdateWorkflowName UPDATE-SINGLE-ANNOTATED-GOLD
#LibraryQualityString Gold
#TaskID d252d724072548979f1f6f1ced849daf
##Scan# 1388
#SpectrumFile p4-G02_GG2_01_18398.mzXML
#LibraryName Pharm_Active_Library.mgf
#MQScore -1
#Organism Pharm_Active_Library
#TIC_Query 0
#RT_Query -1
#MZErrorPPM -1
#SharedPeaks 0
#MassDiff 0
#LibMZ -1
#SpecMZ 296.189
#SpecCharge 0
#internalFilename spec-00000.mgf

>collision 10
44.891521 132.0
44.95956 120.0
45.066391 152.0
45.11718 184.0
45.230892 176.0
45.279095 120.0
45.521839 160.0
45.579601 112.0
45.637402 196.0
45.692547 224.0
45.727535 124.0
45.906723 236.0
46.052486 136.0
46.080856 152.0
46.111935 148.0
46.152493 68.0
46.189011 132.0
46.201183 140.0
46.263439 224.0
46.307301 156.0
46.325737 92.0
46.359612 148.0
46.384007 108.0
46.400276 172.0
46.578056 96.0
46.59436 132.0
46.639206 208.0
46.746651 172.0
46.810635 156.0
47.011032 184.0
47.086121 180.0
47.241951 196.0
47.326809 232.0
47.392555 176.0
47.507725 160.0
47.612049 164.0
47.665627 120.0
47.786629 272.0
47.80452 144.0
47.841682 128.0
47.871975 148.0
47.961533 192.0
48.041515 136.0
48.099472 156.0
48.183716 152.0
48.218262 152.0
48.251438 76.0
48.438271 180.0
48.465881 168.0
48.502014 152.0
48.535286 140.0
48.57967 120.0
48.615746 160.0
48.671276 104.0
48.68655 172.0
48.778255 152.0
48.832485 140.0
48.961922 48.0
48.988388 112.0
49.000927 140.0
49.028797 276.0
49.218521 144.0
49.275791 124.0
49.440796 116.0
49.489792 224.0
49.514999 136.0
49.547218 232.0
49.664974 220.0
49.694435 120.0
49.704258 144.0
49.911522 204.0
50.002193 152.0
50.055691 240.0
50.128944 144.0
50.167 176.0
50.185329 248.0
50.20507 168.0
50.268257 152.0
50.621975 88.0
50.63678 300.0
50.688557 100.0
50.764454 132.0
50.966682 168.0
50.979473 160.0
51.036335 104.0
51.101765 212.0
51.20105 268.0
51.248421 104.0
51.34108 220.0
51.386936 164.0
51.412415 180.0
51.612411 68.0
51.71685 52.0
51.872986 220.0
51.954731 128.0
52.096859 152.0
52.111229 184.0
52.125092 204.0
52.231991 196.0
52.276596 160.0
52.339935 164.0
52.478264 56.0
52.884212 136.0
52.929092 132.0
53.055149 156.0
53.252502 36.0
53.321537 88.0
53.424034 172.0
53.579811 160.0
53.772301 140.0
53.805874 108.0
53.826317 164.0
53.859909 228.0
53.884415 268.0
53.915432 160.0
53.960747 168.0
53.992916 160.0
54.108521 196.0
54.143665 160.0
54.15831 136.0
54.275555 172.0
54.341564 120.0
54.470757 72.0
54.644714 148.0
54.65601 100.0
54.828308 160.0
54.91235 88.0
54.981693 200.0
55.017117 148.0
55.086529 164.0
55.170765 188.0
55.286346 172.0
55.342392 240.0
55.385342 164.0
55.425343 228.0
55.441647 152.0
55.471252 156.0
55.612209 168.0
55.701305 160.0
55.750336 244.0
55.771145 104.0
55.884171 192.0
55.915421 188.0
56.008778 116.0
56.052433 136.0
56.198563 152.0
56.222443 112.0
56.234383 156.0
56.295593 136.0
56.356838 124.0
56.368793 168.0
56.51384 228.0
56.711525 112.0
56.725014 216.0
56.747505 160.0
56.842003 140.0
56.858513 256.0
57.02673 220.0
57.195198 216.0
57.413673 128.0
57.479389 184.0
57.520802 204.0
57.646164 116.0
57.664299 204.0
57.829166 148.0
57.963955 140.0
58.246155 220.0
58.320614 200.0
58.366222 148.0
58.421398 188.0
58.48489 140.0
58.765305 68.0
58.965355 156.0
59.092281 188.0
59.109112 184.0
59.185955 220.0
59.501507 192.0
59.644379 52.0
59.73357 168.0
60.250019 200.0
60.276287 188.0
60.427822 136.0
60.596588 156.0
60.712849 224.0
60.762486 132.0
60.776451 68.0
60.931717 196.0
61.026531 180.0
61.091854 80.0
61.11208 168.0
61.133865 224.0
61.266216 128.0
61.497009 272.0
61.673512 224.0
61.762642 180.0
61.914467 184.0
62.022575 116.0
62.052364 196.0
62.105682 136.0
62.199833 224.0
62.210823 184.0
62.231232 196.0
62.474846 100.0
62.550381 200.0
62.577145 220.0
62.718933 160.0
62.750462 144.0
62.800926 156.0
62.939808 108.0
63.044071 104.0
63.244938 192.0
63.273434 128.0
63.338364 136.0
63.498455 136.0
63.515903 144.0
63.54763 216.0
63.577782 216.0
63.606354 116.0
63.628578 44.0
63.647633 212.0
63.688923 168.0
63.917866 160.0
63.929005 136.0
63.952877 120.0
64.12809 100.0
64.329079 180.0
64.484024 160.0
64.616753 156.0
64.650352 168.0
64.666359 220.0
64.725594 140.0
64.877808 220.0
64.921104 168.0
64.978851 172.0
65.227776 56.0
65.28405 248.0
65.329086 128.0
65.407944 160.0
65.453018 152.0
65.467514 60.0
65.544838 108.0
65.589966 140.0
65.673813 208.0
65.698013 120.0
65.748032 116.0
65.869362 224.0
66.027534 176.0
66.038857 136.0
66.082542 184.0
66.306015 220.0
66.31736 188.0
66.461693 152.0
66.539604 128.0
66.640305 152.0
66.65168 220.0
66.677681 100.0
66.81102 176.0
66.832176 148.0
66.880997 220.0
66.913559 152.0
66.931465 144.0
66.99173 92.0
67.02758 148.0
67.25264 72.0
67.363686 136.0
67.478081 184.0
67.492798 132.0
67.521606 196.0
67.923538 172.0
67.954712 132.0
68.181328 188.0
68.357292 152.0
68.41655 232.0
68.815544 120.0
68.909691 164.0
68.936127 48.0
68.985718 224.0
69.071709 220.0
69.101486 160.0
69.227287 208.0
69.255447 184.0
69.377808 228.0
69.474258 176.0
69.543961 56.0
69.736435 204.0
69.952881 76.0
70.189468 28.0
70.30291 212.0
70.411423 188.0
70.449844 100.0
70.566833 196.0
70.580215 184.0
70.69062 120.0
70.822884 108.0
70.839638 132.0
70.874825 116.0
71.102898 172.0
71.13311 88.0
71.477661 168.0
71.506271 220.0
71.67131 212.0
71.74041 188.0
71.780876 140.0
71.831474 160.0
72.21492 232.0
72.321518 100.0
72.458687 148.0
72.503952 188.0
72.523087 132.0
72.536644 184.0
72.556992 132.0
72.581795 152.0
72.706261 52.0
72.760582 112.0
73.129471 120.0
73.221413 252.0
73.301483 140.0
73.359436 116.0
73.396942 128.0
73.453224 176.0
73.502701 104.0
73.59317 152.0
73.68882 176.0
73.772568 60.0
73.808472 136.0
73.835838 124.0
73.909393 196.0
74.025803 148.0
74.061768 168.0
74.202293 104.0
74.482025 104.0
74.664223 228.0
74.843193 220.0
75.225952 208.0
75.279472 264.0
75.291565 212.0
75.476471 88.0
75.90419 164.0
76.077011 172.0
76.143684 228.0
76.183632 184.0
76.213173 104.0
76.227074 216.0
76.2966 164.0
76.350502 120.0
76.460114 192.0
76.559349 52.0
76.606377 172.0
76.644707 92.0
76.788231 244.0
76.810333 188.0
76.84523 180.0
77.033783 196.0
77.194588 164.0
77.410088 192.0
77.695541 180.0
77.804352 164.0
77.816643 160.0
77.946625 60.0
78.073204 248.0
78.145325 172.0
78.206917 268.0
78.28791 124.0
78.324898 84.0
78.346039 172.0
78.525841 124.0
78.584053 60.0
78.674065 128.0
78.864853 216.0
79.03994 156.0
79.084763 184.0
79.117813 136.0
79.241791 156.0
79.277237 164.0
79.355232 160.0
79.376511 116.0
79.420845 264.0
79.456329 132.0
79.566368 80.0
79.628517 152.0
79.875587 164.0
79.975235 224.0
79.99482 136.0
80.121262 164.0
80.181847 112.0
80.197891 204.0
80.292389 144.0
80.369095 164.0
80.441849 220.0
80.476196 232.0
80.492264 160.0
80.517265 156.0
80.597656 228.0
80.670937 232.0
80.751762 180.0
80.768867 204.0
80.785393 200.0
80.861382 232.0
81.064713 216.0
81.120277 108.0
81.138206 188.0
81.31041 144.0
81.365402 132.0
81.457649 200.0
81.522331 196.0
81.576256 212.0
81.626595 196.0
81.702141 208.0
81.801125 168.0
81.900162 196.0
81.930786 132.0
81.966827 180.0
82.006935 188.0
82.129082 132.0
82.304146 172.0
82.318596 160.0
82.559219 188.0
82.705505 100.0
82.792412 184.0
82.84494 116.0
82.873039 204.0
82.940987 52.0
83.002701 192.0
83.051598 176.0
83.087875 256.0
83.153206 168.0
83.173172 108.0
83.216743 144.0
83.296654 204.0
83.309364 224.0
83.416588 156.0
83.545708 188.0
83.567535 108.0
83.647614 252.0
83.790291 124.0
84.012093 108.0
84.072304 120.0
84.251251 36.0
84.307899 272.0
84.354591 168.0
84.379189 156.0
84.469109 212.0
84.512711 140.0
84.525513 176.0
84.584084 144.0
84.862556 164.0
84.932243 160.0
85.007469 220.0
85.282959 100.0
85.411674 144.0
85.426392 220.0
85.604935 48.0
85.732048 200.0
85.746788 76.0
85.879547 148.0
86.123192 140.0
86.147209 120.0
86.376434 148.0
86.515228 188.0
86.550407 152.0
86.626343 148.0
86.689346 264.0
86.711586 52.0
86.854355 180.0
86.974968 192.0
87.372658 184.0
87.406151 132.0
87.536461 156.0
87.616554 180.0
87.810417 244.0
87.989563 116.0
88.056793 208.0
88.181976 216.0
88.215622 88.0
88.234314 136.0
88.267975 196.0
88.376465 84.0
88.548691 164.0
88.561806 128.0
88.818604 136.0
88.955589 68.0
89.006287 184.0
89.073898 180.0
89.124626 32.0
89.453758 60.0
89.491417 224.0
89.551682 140.0
89.613846 48.0
89.781616 40.0
89.802368 132.0
89.870277 168.0
89.987305 132.0
90.032623 232.0
90.047737 168.0
90.108185 232.0
90.232925 148.0
90.388031 172.0
90.501602 72.0
90.619041 136.0
90.734657 164.0
90.749825 188.0
90.766891 116.0
90.812408 160.0
90.89785 208.0
91.005974 232.0
91.053963 2524.0
91.074348 220.0
91.087639 196.0
91.13739 216.0
91.214958 56.0
91.268196 32.0
91.298622 156.0
91.397545 144.0
91.443214 152.0
91.481285 88.0
91.538406 156.0
91.780418 156.0
92.020836 116.0
92.056374 248.0
92.081947 172.0
92.114418 204.0
92.206131 204.0
92.263481 148.0
92.403099 36.0
92.676903 128.0
92.724808 120.0
92.780403 192.0
92.953026 124.0
92.989494 192.0
93.032707 328.0
93.089325 128.0
93.161659 260.0
93.275696 136.0
93.323761 204.0
93.502144 148.0
93.57196 128.0
93.600845 164.0
93.97094 184.0
94.12149 184.0
94.610596 200.0
94.717178 132.0
94.742363 124.0
94.943954 152.0
94.967232 164.0
95.023491 156.0
95.046776 160.0
95.079765 152.0
95.108879 96.0
95.136055 60.0
95.18071 72.0
95.215668 180.0
95.260345 180.0
95.287544 140.0
95.376938 176.0
95.507217 144.0
95.62397 108.0
95.807014 176.0
95.908348 68.0
96.199005 92.0
96.361099 208.0
96.45491 100.0
96.531158 140.0
96.764015 220.0
96.891319 172.0
97.001068 224.0
97.199158 232.0
97.279633 124.0
97.603813 96.0
97.753319 172.0
97.792679 196.0
97.857643 208.0
97.88324 156.0
98.0466 248.0
98.097 1328.0
98.129547 160.0
98.273537 136.0
98.301163 176.0
98.336685 132.0
98.354446 96.0
98.389984 204.0
98.625069 136.0
98.646812 176.0
98.735786 204.0
98.927727 64.0
99.044563 180.0
99.098053 188.0
99.226883 84.0
99.387543 196.0
99.435173 88.0
99.540398 140.0
99.639709 156.0
99.665543 120.0
99.774857 164.0
99.80468 156.0
99.898163 152.0
99.975761 208.0
99.989693 108.0
100.023529 120.0
100.113739 208.0
100.143005 188.0
100.165741 232.0
100.226677 200.0
100.278496 168.0
100.483147 148.0
100.587669 96.0
100.699486 184.0
100.731445 184.0
100.823364 168.0
100.979309 108.0
101.087341 216.0
101.111359 48.0
101.325623 188.0
101.399773 200.0
101.425827 200.0
101.508026 76.0
101.580231 36.0
101.656479 80.0
101.754112 188.0
101.87735 212.0
101.953705 128.0
101.971794 200.0
102.040871 172.0
102.068291 184.0
102.102478 68.0
102.358063 60.0
102.408409 124.0
102.444664 160.0
102.458771 188.0
102.56356 188.0
102.779358 108.0
102.821739 132.0
102.843941 172.0
102.938828 244.0
103.001442 196.0
103.053726 2832.0
103.142891 68.0
103.163109 60.0
103.290512 80.0
103.353226 212.0
103.401459 216.0
103.420013 152.0
103.500992 224.0
103.577126 88.0
103.614426 132.0
103.740074 224.0
103.936813 88.0
104.015968 132.0
104.057343 884.0
104.139832 220.0
104.284096 184.0
104.343048 108.0
104.526405 220.0
104.550529 120.0
104.589203 128.0
104.662491 32.0
104.684898 160.0
104.772484 84.0
104.915146 124.0
105.008942 56.0
105.028488 216.0
105.042496 80.0
105.069618 5016.0
105.125237 128.0
105.147682 144.0
105.380486 164.0
105.398872 68.0
105.546051 228.0
105.664688 200.0
105.687195 160.0
105.760872 40.0
105.777245 212.0
105.822281 140.0
105.852997 32.0
105.896011 188.0
105.916489 160.0
105.961563 104.0
106.030296 244.0
106.073112 492.0
106.372726 156.0
106.416893 128.0
106.472343 172.0
106.626427 40.0
106.665482 148.0
106.706604 164.0
106.79834 144.0
106.836174 192.0
106.910248 68.0
106.957588 96.0
107.049171 4792.0
107.084785 196.0
107.098259 88.0
107.106491 128.0
107.177956 156.0
107.225357 212.0
107.260674 208.0
107.361427 160.0
107.565697 56.0
107.584274 156.0
107.625565 180.0
108.052803 452.0
108.190018 136.0
108.206581 156.0
108.262489 164.0
108.482124 112.0
108.498711 152.0
108.55677 188.0
108.604469 120.0
108.656334 156.0
108.772552 252.0
108.901291 196.0
108.949074 112.0
109.036346 164.0
109.06636 372.0
109.142365 176.0
109.304619 136.0
109.369141 136.0
109.429512 184.0
109.49823 184.0
109.694099 136.0
109.744133 192.0
109.769157 160.0
110.057121 48.0
110.082184 196.0
110.146927 140.0
110.251404 184.0
110.381012 160.0
110.504425 176.0
110.573486 64.0
110.613251 124.0
110.707474 220.0
110.797546 184.0
110.885551 64.0
110.981987 224.0
111.046997 200.0
111.063782 176.0
111.420662 168.0
111.574081 132.0
111.593002 188.0
111.784424 156.0
111.828621 96.0
111.879143 92.0
111.965477 228.0
112.009705 52.0
112.16951 168.0
112.31958 172.0
112.349113 172.0
112.393425 220.0
112.743973 348.0
112.789497 204.0
113.482758 208.0
113.51033 164.0
113.633354 132.0
113.78405 160.0
113.875359 120.0
113.890228 228.0
113.990082 124.0
114.077225 196.0
114.09211 136.0
114.204819 72.0
114.238853 184.0
114.302681 156.0
114.31971 140.0
114.349503 80.0
114.583748 248.0
114.705223 148.0
114.867287 232.0
114.892891 156.0
114.97184 200.0
115.053421 6276.0
115.084984 204.0
115.192116 196.0
115.272957 128.0
115.287209 184.0
115.317841 36.0
115.514565 32.0
115.531677 68.0
115.657936 184.0
115.790688 144.0
116.05619 772.0
116.077866 144.0
116.106094 3956.0
116.144348 68.0
116.173248 136.0
116.287537 284.0
116.313873 104.0
116.545822 192.0
116.625336 52.0
116.647293 168.0
116.775848 92.0
116.805962 216.0
116.864693 108.0
116.885567 88.0
116.938759 196.0
116.996216 128.0
117.038406 124.0
117.068871 4520.0
117.10955 716.0
117.215042 188.0
117.240898 76.0
117.37117 204.0
117.544968 212.0
117.5784 104.0
117.745743 200.0
117.814865 68.0
117.847275 184.0
117.974792 56.0
118.071625 500.0
118.134827 168.0
118.158623 48.0
118.258171 308.0
118.38591 156.0
118.533218 152.0
118.557053 152.0
118.756523 188.0
118.864998 100.0
118.921425 172.0
119.010437 128.0
119.048508 15472.0
119.085838 600.0
119.104515 60.0
119.156982 136.0
119.188553 44.0
119.20594 88.0
119.247269 152.0
119.2994 60.0
119.401596 76.0
119.425522 76.0
119.490784 56.0
119.605293 104.0
119.76944 144.0
119.810837 168.0
119.839157 164.0
119.8871 68.0
120.00045 128.0
120.051819 1348.0
120.155304 224.0
120.214218 120.0
120.290192 124.0
120.393234 152.0
120.533051 244.0
120.562691 220.0
120.675125 188.0
120.723236 160.0
120.74292 180.0
120.843544 184.0
120.946404 48.0
120.987999 148.0
121.038811 116.0
121.064117 2248.0
121.099678 148.0
121.193878 104.0
121.235512 200.0
121.31881 180.0
121.777435 252.0
122.027954 152.0
122.065582 188.0
122.309555 120.0
122.40863 104.0
122.62233 40.0
122.699486 140.0
122.756813 192.0
122.783279 68.0
122.825188 192.0
123.019379 88.0
123.073624 168.0
123.167336 44.0
123.211517 132.0
123.306534 156.0
123.350746 96.0
123.532082 128.0
123.731262 204.0
123.746758 140.0
123.76226 188.0
123.881859 152.0
124.114578 208.0
124.221039 176.0
124.243217 144.0
124.506783 152.0
124.827393 144.0
124.956406 200.0
124.974205 156.0
125.012032 216.0
125.290367 84.0
125.801071 212.0
125.816704 156.0
125.845726 64.0
125.868057 176.0
126.01548 128.0
126.046761 156.0
126.131691 152.0
126.176399 164.0
126.520943 92.0
126.552292 164.0
126.639633 188.0
126.677711 152.0
126.850266 344.0
126.939949 60.0
127.053093 520.0
127.258591 72.0
127.854294 44.0
127.953339 128.0
128.059753 204.0
128.300293 132.0
128.361176 116.0
128.503754 228.0
128.810318 212.0
129.068451 636.0
129.110947 188.0
129.212738 144.0
129.246674 208.0
129.579514 128.0
129.78125 120.0
129.964981 144.0
130.073914 292.0
130.169281 216.0
130.230988 184.0
130.328293 172.0
130.603378 184.0
130.708023 96.0
130.789963 40.0
130.835495 236.0
131.047409 756.0
131.085052 820.0
131.168091 152.0
131.252457 52.0
131.327713 164.0
131.482864 184.0
131.576447 148.0
131.770584 144.0
132.056335 528.0
132.083786 160.0
132.330963 192.0
132.435974 220.0
132.518768 220.0
132.580643 48.0
132.603561 84.0
132.695267 128.0
132.773224 92.0
132.821396 56.0
132.862686 196.0
132.940704 224.0
132.973358 212.0
132.998077 164.0
133.024933 336.0
133.064331 27676.0
133.095245 796.0
133.128952 176.0
133.149628 152.0
133.177719 68.0
133.208115 72.0
133.248398 48.0
133.280563 92.0
133.322388 40.0
133.338013 148.0
133.386292 100.0
133.409271 56.0
133.427017 128.0
133.44606 112.0
133.496658 68.0
133.515045 152.0
133.572556 52.0
133.604752 64.0
133.627762 76.0
133.731323 80.0
133.775055 84.0
133.880981 72.0
133.92244 124.0
133.97081 140.0
134.065186 1900.0
134.13443 64.0
134.17131 68.0
134.187454 44.0
134.330444 180.0
134.471191 152.0
134.644363 160.0
134.662842 112.0
134.7229 64.0
134.764481 160.0
134.923965 72.0
134.9702 96.0
135.071793 160.0
135.08046 352.0
135.106674 176.0
135.184998 164.0
135.238571 80.0
135.301361 128.0
135.502579 64.0
135.551239 192.0
135.808578 40.0
135.92923 140.0
135.968674 144.0
136.008133 192.0
136.050903 280.0
136.085358 232.0
136.17067 156.0
136.279846 184.0
136.378937 164.0
136.505325 152.0
136.791519 132.0
136.940536 60.0
137.057861 1328.0
137.175888 120.0
137.549133 168.0
137.698578 56.0
137.803696 156.0
137.988342 188.0
138.067841 228.0
138.280746 176.0
138.428253 172.0
138.461029 60.0
138.664871 192.0
138.857132 288.0
138.955658 96.0
139.035431 248.0
139.080032 84.0
139.101166 88.0
139.352448 180.0
139.373596 148.0
139.430008 92.0
139.746368 196.0
139.782761 48.0
139.874557 176.0
140.098267 152.0
140.282089 152.0
140.398193 236.0
140.796478 104.0
140.964218 184.0
140.990204 148.0
141.020935 220.0
141.070343 404.0
141.127319 148.0
141.408844 164.0
141.707214 200.0
141.877869 180.0
141.915802 136.0
142.518707 32.0
142.6241 60.0
142.687454 124.0
142.711243 200.0
142.732635 128.0
142.775436 204.0
142.963394 148.0
143.049072 208.0
143.090744 176.0
143.122879 148.0
143.1586 60.0
143.184799 172.0
143.396851 128.0
143.578049 168.0
143.647217 52.0
143.759369 152.0
143.804703 116.0
143.842896 172.0
144.019608 152.0
144.055542 1064.0
144.079163 284.0
144.129501 208.0
144.174911 156.0
144.246613 220.0
144.356812 136.0
144.380508 108.0
144.524048 64.0
144.56398 232.0
144.593445 148.0
144.629349 216.0
144.714386 184.0
144.756241 192.0
144.808929 164.0
144.82756 216.0
144.849655 192.0
144.955307 172.0
144.982086 180.0
144.990219 148.0
144.998062 188.0
145.014954 372.0
145.064331 70360.0
145.122803 164.0
145.148758 40.0
145.191803 64.0
145.210678 168.0
145.232788 48.0
145.30101 88.0
145.321945 88.0
145.357941 76.0
145.382477 60.0
145.405945 32.0
145.431992 56.0
145.456146 100.0
145.49678 52.0
145.521164 128.0
145.547104 220.0
145.566788 184.0
145.584274 152.0
145.636444 32.0
145.660461 100.0
145.679672 36.0
145.730133 148.0
145.795013 124.0
145.920013 120.0
145.936844 76.0
146.067169 6580.0
146.223114 56.0
146.269012 60.0
146.374786 40.0
146.396454 180.0
146.434998 128.0
146.491791 76.0
146.589188 76.0
146.625336 84.0
146.692825 84.0
146.725052 184.0
146.750122 188.0
146.774796 76.0
146.797623 88.0
146.817093 96.0
146.86026 164.0
146.991898 128.0
147.008377 116.0
147.043121 300.0
147.074463 980.0
147.110168 112.0
147.139145 116.0
147.168106 112.0
147.212494 168.0
147.255615 140.0
147.55954 92.0
147.598221 48.0
147.61618 168.0
147.80867 64.0
148.048935 808.0
148.072006 124.0
148.089111 220.0
148.225174 104.0
148.438507 60.0
148.462753 28.0
148.540375 88.0
148.668961 52.0
149.055801 316.0
149.084625 128.0
149.356567 48.0
149.802048 68.0
150.006744 112.0
150.065262 196.0
150.255493 260.0
150.362869 128.0
150.743851 116.0
150.839172 200.0
150.990768 200.0
151.075287 2940.0
151.345612 44.0
151.656754 124.0
151.75972 88.0
152.080505 300.0
152.380692 172.0
152.963562 132.0
153.055328 132.0
153.091599 68.0
153.27388 128.0
153.303452 64.0
153.478485 68.0
153.572189 64.0
153.621536 144.0
154.036255 88.0
154.100494 204.0
154.246307 156.0
154.609894 168.0
155.030914 180.0
155.057648 348.0
155.246597 208.0
155.271408 56.0
155.435135 92.0
155.713181 76.0
156.426819 132.0
156.902664 96.0
157.004898 184.0
157.0448 144.0
157.097183 152.0
157.509079 152.0
157.846497 148.0
157.911514 212.0
158.069138 152.0
158.131699 164.0
158.354538 140.0
159.051605 168.0
159.078476 3072.0
159.360504 52.0
160.004379 40.0
160.080536 452.0
160.16304 52.0
160.180679 220.0
160.278931 48.0
160.430161 160.0
160.816116 132.0
161.058411 1908.0
161.095352 512.0
161.124191 48.0
161.619766 64.0
161.662781 88.0
162.041641 252.0
162.062241 408.0
162.067307 332.0
162.089813 5652.0
162.131302 176.0
162.181992 72.0
162.209885 144.0
162.742661 48.0
162.884888 120.0
163.014465 144.0
163.074448 8080.0
163.117554 164.0
163.156799 80.0
163.207657 60.0
163.243256 88.0
163.263611 60.0
163.336044 56.0
163.393326 132.0
163.655487 212.0
163.900024 120.0
164.045303 56.0
164.077484 1064.0
164.162582 116.0
164.216141 164.0
164.26207 52.0
164.300323 100.0
164.351364 100.0
164.384537 112.0
164.512146 88.0
164.859528 136.0
165.081696 120.0
165.129196 160.0
165.167084 120.0
165.214951 68.0
165.307068 128.0
165.346741 48.0
166.088501 156.0
166.165466 184.0
166.458084 172.0
167.05954 196.0
167.118713 112.0
168.082413 144.0
168.234695 60.0
168.294083 124.0
168.485214 208.0
169.073669 192.0
169.289658 212.0
170.018143 72.0
170.097031 220.0
171.086472 172.0
172.351471 188.0
172.492599 56.0
172.895401 136.0
173.264618 156.0
173.484772 52.0
173.670944 132.0
174.098694 156.0
174.138168 164.0
174.39566 128.0
174.858582 168.0
175.011261 156.0
175.076584 408.0
175.345825 40.0
175.596298 48.0
175.825836 52.0
175.989517 196.0
176.079834 340.0
176.899002 92.0
177.086472 636.0
177.272461 36.0
177.33342 64.0
177.821457 64.0
178.092285 340.0
178.137436 196.0
178.788879 192.0
178.945938 56.0
179.103073 168.0
179.860367 156.0
179.980499 84.0
180.099564 772.0
180.218231 120.0
180.753021 156.0
180.945755 160.0
181.10643 132.0
181.704239 88.0
182.061249 88.0
182.109604 68.0
182.251984 104.0
182.289597 176.0
182.690231 64.0
183.190964 68.0
183.73555 64.0
184.105347 160.0
184.205292 140.0
184.334976 76.0
184.389023 136.0
184.894791 212.0
186.971008 44.0
187.074295 856.0
187.111237 428.0
187.170578 52.0
187.61113 52.0
188.074493 360.0
188.383453 72.0
188.62941 96.0
188.787994 32.0
189.07251 132.0
189.093216 216.0
189.355652 108.0
189.85881 184.0
191.079056 1780.0
191.507889 208.0
191.554718 72.0
191.775162 76.0
192.086411 588.0
192.351669 124.0
192.404129 132.0
192.862701 92.0
192.973282 72.0
193.045181 72.0
193.084503 4132.0
193.393784 100.0
193.50174 80.0
193.534973 92.0
193.582047 104.0
194.087814 716.0
194.183456 136.0
194.544189 56.0
194.880249 40.0
195.211044 52.0
195.672943 136.0
195.742554 104.0
196.048996 144.0
196.506302 40.0
198.276428 116.0
198.590454 116.0
198.831741 132.0
199.250153 88.0
199.438431 52.0
199.927826 128.0
200.671494 72.0
201.193451 124.0
201.600204 88.0
201.826355 180.0
202.0979 148.0
202.129013 164.0
202.372452 80.0
202.392273 88.0
203.061081 176.0
203.086609 40.0
203.109314 200.0
203.830444 100.0
203.850342 148.0
204.106186 120.0
204.135834 1056.0
204.296753 52.0
204.661057 104.0
205.079849 120.0
205.136078 400.0
206.610474 108.0
207.098434 380.0
207.874084 192.0
208.09874 164.0
208.120956 168.0
209.066727 156.0
209.108948 180.0
209.354614 176.0
210.317612 220.0
211.096222 388.0
212.169037 104.0
214.628845 48.0
214.827179 256.0
216.118561 152.0
216.596161 176.0
217.076431 180.0
217.14975 72.0
218.071701 60.0
218.401016 180.0
218.548126 56.0
218.614563 104.0
218.754135 104.0
218.904297 144.0
218.933395 164.0
219.000214 84.0
219.03389 52.0
219.100555 11536.0
219.154694 28.0
219.216568 80.0
219.274139 96.0
219.351761 60.0
219.422897 88.0
219.588043 76.0
219.608688 44.0
219.660309 136.0
219.703079 52.0
219.900803 32.0
220.01297 104.0
220.101425 1972.0
220.214584 72.0
220.326019 40.0
220.488541 68.0
220.784195 152.0
221.020859 36.0
221.111481 488.0
221.136276 32.0
221.530106 112.0
221.882782 112.0
222.116364 312.0
222.520676 48.0
223.125 220.0
223.248688 32.0
224.025558 68.0
227.062561 172.0
229.863419 88.0
232.617706 192.0
235.907806 80.0
236.060684 116.0
236.128738 144.0
240.821411 216.0
241.08403 60.0
244.386581 100.0
246.149078 180.0
250.460251 112.0
253.078369 72.0
254.137009 2392.0
254.546539 44.0
255.138504 272.0
255.2202 168.0
255.509644 72.0
255.67511 100.0
256.139496 128.0
256.704132 88.0
256.962494 76.0
259.71051 96.0
259.999298 80.0
261.1492 488.0
268.146576 40.0
272.347839 80.0
276.565216 76.0
277.095062 128.0
278.169678 332.0
279.164703 132.0
280.188263 84.0
282.455048 96.0
282.508575 32.0
285.433319 112.0
285.766327 40.0
290.889923 196.0
291.504669 164.0
294.161377 136.0
294.61557 56.0
295.029083 88.0
295.162445 172.0
295.251343 136.0
295.477112 80.0
295.788544 60.0
296.110413 276.0
296.139404 128.0
296.182312 5424.0
296.35022 72.0
296.596954 52.0
296.633057 68.0
296.778656 48.0
296.857544 68.0
296.963867 136.0
297.066772 52.0
297.12851 132.0
297.184753 544.0
297.371368 172.0
297.440826 104.0
297.780762 28.0
297.935333 104.0
298.184967 228.0
298.60907 52.0
299.025391 116.0
299.097687 40.0
299.159637 116.0
302.200287 168.0
304.304169 76.0
304.613281 140.0
305.833801 68.0
311.309052 64.0
314.093079 156.0
314.707184 80.0
316.978119 88.0
322.498138 56.0
325.992584 112.0
328.617645 52.0
330.210754 96.0
332.297363 64.0
350.514893 92.0
373.795349 72.0
375.089447 48.0
390.419403 64.0
393.52066 128.0
411.028839 48.0
439.268677 68.0
459.955811 112.0
482.093018 76.0
488.890625 80.0
500.4534 108.0
501.255188 80.0
543.15564 48.0
547.473572 68.0
548.661804 152.0
582.603638 32.0
597.684387 68.0
606.215515 84.0
641.675537 108.0
661.203003 108.0
663.964478 84.0
672.897827 32.0
690.049194 104.0
692.50354 44.0
708.941833 188.0
725.299622 160.0
745.295776 148.0
745.556641 76.0
752.53479 184.0
772.900452 96.0
789.103516 152.0
795.277039 152.0
800.899963 156.0
800.978821 68.0
801.407043 116.0
806.220581 44.0
806.542725 200.0
808.748779 60.0
815.913574 216.0
823.081482 176.0
828.681335 80.0
833.156555 144.0
834.708435 236.0
837.580444 152.0
838.755981 48.0
840.001526 220.0
844.229553 268.0
846.422791 136.0
852.62439 204.0
853.194031 140.0
854.333923 244.0
856.103394 196.0
860.867981 252.0
874.640564 168.0
875.029114 120.0
878.352966 216.0
886.201721 200.0
889.460144 148.0
897.885498 92.0
898.350769 164.0
900.356384 180.0
904.966919 136.0
905.182495 48.0
908.533081 172.0
909.025085 240.0
909.661316 168.0
923.617676 140.0
931.619629 176.0
931.917358 172.0
931.972046 204.0
932.65271 196.0
932.81073 164.0
934.002625 120.0
934.927429 128.0
935.189148 208.0
938.472839 156.0
939.973389 56.0
946.275391 136.0
947.714844 160.0
948.646423 144.0
949.860596 188.0
951.431641 236.0
953.781799 212.0
955.974121 40.0
957.402344 180.0
961.162842 204.0
970.683044 232.0
976.719971 104.0
978.804932 68.0
979.770386 248.0
983.618164 176.0
983.786743 112.0
984.267456 180.0
987.823792 192.0
990.152283 84.0
991.618408 216.0
992.671631 164.0
994.142517 156.0
998.254456 120.0
999.103577 104.0
1000.947815 152.0
1001.287903 128.0
1001.558716 144.0
1009.890747 200.0
1010.814453 92.0
1013.619751 132.0
1016.460632 180.0
1018.625732 148.0
1023.548462 136.0
1027.998047 104.0
1029.338623 208.0
1031.351196 68.0
1031.926514 248.0
1033.711182 96.0
1036.131592 136.0
1036.208496 176.0
1037.817261 112.0
1038.586792 148.0
1038.933228 140.0
1042.342651 140.0
1048.701294 144.0
1056.314453 88.0
1058.262451 272.0
1059.382935 192.0
1063.675903 224.0
1064.935669 112.0
1068.146729 136.0
1072.490112 236.0
1073.957153 128.0
1074.120239 196.0
1074.244263 176.0
1074.707397 216.0
1077.175293 164.0
1077.952881 72.0
1080.751587 208.0
1080.889038 92.0
1085.153198 256.0
1086.957031 164.0
1088.847778 208.0
1091.575073 132.0
1091.949951 168.0
1097.112549 56.0
1097.996216 80.0
1098.411743 160.0
1098.985718 196.0
1100.523682 220.0
1102.53186 208.0
1103.212646 132.0
1104.376465 164.0
1104.555176 196.0
1104.958618 252.0
1109.939697 160.0
1111.160156 208.0
1113.118286 212.0
1113.735962 84.0
1116.780273 156.0
1116.959839 88.0
1118.157593 180.0
1119.688843 84.0
1119.924683 68.0
1120.908081 188.0
1124.269165 212.0
1126.098511 216.0
1128.056396 188.0
1130.136353 172.0
1131.82312 216.0
1132.653687 80.0
1135.368164 216.0
1136.03894 156.0
1137.723511 172.0
1140.094604 80.0
1142.757568 180.0
1143.369873 144.0
1146.899292 180.0
1147.762207 180.0
1148.254517 196.0
1148.598511 128.0
1153.933716 152.0
1155.908936 128.0
1156.38269 48.0
1158.685059 148.0
1159.762573 184.0
1160.772705 180.0
1160.860962 48.0
1162.957397 192.0
1164.59375 108.0
1166.136108 140.0
1166.208252 192.0
1167.094727 132.0
1171.109985 212.0
1173.113403 180.0
1173.624756 180.0
1174.299927 132.0
1174.702393 212.0
1175.3573 160.0
1175.473389 176.0
1175.957886 160.0
1176.12854 212.0
1177.050293 144.0
1179.038208 140.0
1179.516724 188.0
1179.571411 216.0
1183.341064 152.0
1184.57373 132.0
1186.053955 224.0
1188.577759 100.0
1189.209229 212.0
1190.47937 216.0
1195.504761 148.0
1195.931519 96.0
1196.020996 144.0
1196.138062 180.0
1196.489136 132.0
1196.978027 144.0
1198.334961 252.0
1198.838013 116.0
1199.961548 104.0
1200.34082 148.0
1200.595947 100.0
1201.085693 240.0
1201.161621 140.0
1202.403564 160.0
1203.51416 232.0
1207.184448 152.0
1207.848389 128.0
1208.125122 172.0
1208.242676 260.0
1209.287598 228.0
1209.848389 208.0
1209.909546 204.0
1210.422974 84.0
1210.575439 136.0
1211.087891 120.0
1211.219482 176.0
1213.437134 208.0
1214.352539 60.0
1214.720215 208.0
1215.580566 176.0
1219.838257 168.0
1222.870972 72.0
1223.288696 232.0
1224.876465 128.0
1225.942505 152.0
1226.27002 148.0
1226.555786 172.0
1228.082886 172.0
1228.543335 128.0
1230.658081 192.0
1231.083984 96.0
1232.166748 244.0
1232.439209 28.0
1232.7677 48.0
1233.124146 208.0
1235.060913 200.0
1235.75354 132.0
1235.865479 152.0
1236.138428 156.0
1237.517334 164.0
1237.734375 236.0
1238.162231 152.0
1240.740356 148.0
1241.062866 180.0
1241.75708 188.0
1241.953491 164.0
1242.051758 264.0
1242.963745 148.0
1245.126099 84.0
1245.421021 148.0
1245.914917 120.0
1247.880737 204.0
1251.701538 236.0
1251.835327 44.0
1252.032593 140.0
1253.13147 216.0
1258.308472 108.0
1258.993408 152.0
1259.240601 140.0
1259.417236 168.0
1259.855225 176.0
1260.081299 248.0
1260.265015 40.0
1260.710205 152.0
1260.929321 156.0
1263.057617 184.0
1264.401978 168.0
1265.074463 76.0
1265.492188 144.0
1266.540283 128.0
1267.121216 176.0
1267.879395 192.0
1269.616333 180.0
1271.794556 160.0
1271.851318 88.0
1272.774292 164.0
1273.612427 156.0
1276.89624 80.0
1277.408325 108.0
1279.550537 136.0
1280.967773 100.0
1281.395142 144.0
1281.737183 220.0
1282.606689 124.0
1284.738892 212.0
1284.860229 112.0
1285.00293 180.0
1285.266968 160.0
1289.208862 248.0
1291.439575 192.0
1292.784668 252.0
1293.878174 140.0
1296.4729 172.0
1296.580322 160.0
1297.634155 128.0
1297.727295 144.0
1298.67395 212.0
1301.063599 104.0
1302.593262 132.0
1304.835571 188.0
1305.979004 164.0
1306.345825 132.0
1307.97937 216.0
1311.37207 172.0
1312.539917 172.0
1312.626465 136.0
1312.871704 112.0
1315.231079 32.0
1316.573975 176.0
1316.675049 144.0
1318.134399 172.0
1318.683716 108.0
1319.117432 160.0
1319.869263 148.0
1320.375488 156.0
1321.077148 168.0
1322.328979 180.0
1322.495483 156.0
1322.705444 176.0
1323.54895 124.0
1329.648438 132.0
1329.867065 184.0
1331.123047 164.0
1331.486206 172.0
1332.33606 216.0
1332.386963 148.0
1332.481445 144.0
1333.193481 208.0
1334.851074 176.0
1336.99707 236.0
1338.897339 200.0
1341.979858 160.0
1342.657959 160.0
1344.087891 156.0
1344.255737 144.0
1345.014771 164.0
1346.621216 124.0
1347.402832 136.0
1347.892334 188.0
1348.747437 172.0
1349.697876 132.0
1349.807617 184.0
1350.714478 172.0
1351.087646 148.0
1352.251099 156.0
1352.412109 160.0
1352.543945 156.0
1354.960571 192.0
1355.98291 136.0
1356.902832 116.0
1356.990845 180.0
1358.142212 192.0
1358.531006 148.0
1358.839111 252.0
1359.697754 168.0
1360.93103 164.0
1361.210083 132.0
1361.445068 164.0
1362.304443 156.0
1362.708496 192.0
1362.76001 156.0
1363.024536 124.0
1363.443359 236.0
1363.899048 32.0
1364.641602 148.0
1364.781372 160.0
1364.935791 212.0
1365.281372 156.0
1365.656494 212.0
1367.024902 228.0
1367.665283 200.0
1370.198608 144.0
1370.264893 180.0
1370.869141 200.0
1372.284424 140.0
1372.579346 192.0
1374.143066 216.0
1376.268799 124.0
1377.251099 40.0
1377.302856 160.0
1377.435791 224.0
1378.536621 84.0
1379.179688 56.0
1379.593628 200.0
1380.628906 56.0
1381.131836 188.0
1382.589355 152.0
1384.625366 180.0
1384.751343 228.0
1386.136719 172.0
1386.322021 152.0
1387.352295 204.0
1387.596924 108.0
1387.915771 136.0
1387.967651 216.0
1388.664795 172.0
1390.237671 132.0
1391.098755 132.0
1391.714966 200.0
1392.101074 112.0
1392.294189 208.0
1393.946533 184.0
1394.025146 232.0
1394.285278 196.0
1394.404175 64.0
1394.887329 104.0
1396.054688 104.0
1396.218262 84.0
1400.520386 148.0
1402.166992 184.0
1404.217407 160.0
1404.456665 156.0
1405.388672 204.0
1405.545288 124.0
1406.463257 112.0
1406.761963 184.0
1407.680298 184.0
1408.128418 140.0
1408.262817 144.0
1408.890381 196.0
1410.855835 180.0
1411.177368 180.0
1412.0 200.0
1412.822754 136.0
1413.183716 200.0
1414.356934 88.0
1415.629761 204.0
1416.670898 120.0
1416.888184 52.0
1417.599976 172.0
1418.027222 160.0
1418.424438 196.0
1418.739258 92.0
1420.314087 216.0
1420.531616 136.0
1420.801758 176.0
1421.244385 216.0
1421.469482 160.0
1421.829712 204.0
1422.302612 172.0
1422.362671 188.0
1423.458862 160.0
1423.616577 216.0
1426.005737 196.0
1427.103271 208.0
1427.238647 132.0
1428.05835 248.0
1428.569946 256.0
1430.217896 128.0
1430.390991 144.0
1430.473877 196.0
1431.957275 200.0
1432.672852 172.0
1433.299194 148.0
1433.825806 200.0
1433.961426 140.0
1434.262939 136.0
1435.778442 232.0
1438.170288 160.0
1438.298584 80.0
1438.366455 68.0
1438.721313 192.0
1439.227173 156.0
1439.423462 132.0
1443.436157 176.0
1443.519287 136.0
1443.610107 96.0
1444.812744 224.0
1445.160767 40.0
1446.379272 204.0
1446.454956 184.0
1446.856201 208.0
1447.416504 160.0
1448.46167 108.0
1449.454224 140.0
1449.651245 176.0
1450.568359 324.0
1450.674438 112.0
1451.379639 132.0
1451.629883 64.0
1451.713257 200.0
1452.100098 56.0
1452.555176 192.0
1452.653809 160.0
1452.881348 144.0
1453.420044 188.0
1455.224854 184.0
1456.335449 196.0
1457.330566 168.0
1457.535767 144.0
1458.645386 156.0
1461.543091 184.0
1461.80188 88.0
1462.212769 136.0
1463.438477 80.0
1464.253296 36.0
1464.49707 132.0
1465.380737 188.0
1465.875977 188.0
1466.645752 196.0
1467.400513 152.0
1468.719849 96.0
1470.177124 244.0
1470.467163 176.0
1470.978638 128.0
1471.062622 116.0
1474.186523 160.0
1474.675659 232.0
1476.128296 184.0
1476.977295 184.0
1477.214355 176.0
1477.994751 172.0
1480.061523 200.0
1480.574707 200.0
1480.896362 164.0
1481.248657 224.0
1482.942139 180.0
1484.0 128.0
1485.250122 148.0
1485.395874 164.0
1485.618408 172.0
1486.439331 128.0
1486.592773 152.0
1487.467773 192.0
1488.796143 76.0
1489.364502 48.0
1490.81665 196.0
1491.416138 160.0
1491.901123 216.0
1491.984985 48.0
1492.430908 84.0
1493.461548 184.0
1493.923096 208.0
1495.315796 160.0
1495.677612 160.0
1496.678467 128.0
1497.271484 160.0
1498.804443 40.0
1499.706177 188.0
1500.076172 52.0
1500.376831 240.0
1500.754639 192.0
1501.363892 140.0
1501.417847 156.0
1502.081177 204.0
1502.767822 184.0
1502.896606 44.0
1503.817383 140.0
1504.319092 208.0
1504.620239 212.0
1504.682007 112.0
1504.844116 208.0
