>compound MLS000728593-01!(1R,12bR)-1,2,3,4,6,7,12,12b-octahydroindolo[2,3-a]quinolizin-1-ol
>formula C15H18N2O
>ionization [M+H]+
>parentmass 243.15
#inchi InChI=1S/C15H18N2O/c18-13-6-3-8-17-9-7-11-10-4-1-2-5-12(10)16-14(11)15(13)17/h1-2,4-5,13,15-16,18H,3,6-9H2/t13-,15+/m1/s1
#inchikey HLJQECPHBQOBCB
#Ion_Source LC-ESI
#Instrument qTof
#Compound_Source NIH Natural Product Library
#PI Dorrestein
#Data_Collector VVP/LMS
#Scan -1
#Precursor_MZ 243.15
#ExactMass 242.142
#Charge 1
#CAS_Number N/A
#Pubmed_ID N/A
#Smiles O[C@@H]1CCCN2CCc3c([nH]c4ccccc34)[C@H]12
#INCHI_AUX N/A
#Library_Class 1
#SpectrumID CCMSLIB00000079749
#IonMode Positive
#UpdateWorkflowName UPDATE-SINGLE-ANNOTATED-GOLD
#LibraryQualityString Gold
#TaskID b1d8e8f6646f4e71acdff9ca3d919d08
##Scan# 1322
#SpectrumFile p1-E10_GE10_01_17930.mzXML
#LibraryName NIH_Natural_Products_Library.mgf
#MQScore -1
#Organism NIH_Natural_Products_Library
#TIC_Query 0
#RT_Query -1
#MZErrorPPM -1
#SharedPeaks 0
#MassDiff 0
#LibMZ -1
#SpecMZ 243.15
#SpecCharge 0
#internalFilename spec-00000.mgf

>collision 10
95.684029 172.0
95.902206 176.0
96.077698 200.0
96.450676 176.0
96.71669 164.0
97.337769 308.0
97.497276 220.0
98.048309 188.0
98.594971 132.0
98.913406 84.0
99.11541 148.0
99.937431 132.0
100.074928 1248.0
100.190277 160.0
101.080757 152.0
101.240898 208.0
101.611717 132.0
102.059601 192.0
102.695755 196.0
102.90583 148.0
103.052017 340.0
103.079536 224.0
103.721092 100.0
103.996941 112.0
104.523293 128.0
105.076866 172.0
105.500229 104.0
106.063156 136.0
106.212837 212.0
108.081635 176.0
108.135201 124.0
108.2677 152.0
108.64286 208.0
108.692657 200.0
109.313957 76.0
109.561729 164.0
109.665916 160.0
109.859833 212.0
110.298347 156.0
110.712608 228.0
111.350151 76.0
111.831612 176.0
112.050613 144.0
112.074959 580.0
112.846283 176.0
113.049339 148.0
113.159409 124.0
113.197517 156.0
113.280121 112.0
113.35215 208.0
113.519432 232.0
113.96537 176.0
114.495033 112.0
114.593018 136.0
115.054276 2052.0
115.083572 68.0
115.117737 28.0
115.224533 188.0
115.611549 100.0
115.673615 160.0
115.883492 216.0
116.009933 272.0
116.057755 156.0
116.368202 216.0
116.567963 132.0
117.068176 1216.0
117.207039 148.0
117.558517 148.0
118.035912 180.0
118.0597 332.0
118.073944 200.0
118.154869 52.0
118.520767 48.0
118.559769 168.0
118.919785 228.0
119.765572 80.0
119.789536 176.0
120.094696 200.0
120.130127 208.0
120.336914 188.0
120.463585 216.0
121.16362 184.0
121.341141 140.0
122.241684 240.0
123.008659 132.0
123.172058 168.0
123.202988 188.0
123.871056 196.0
124.25235 196.0
124.321129 160.0
125.422035 40.0
125.687424 128.0
125.705269 144.0
125.810173 224.0
125.957558 144.0
126.400215 148.0
127.054817 416.0
127.211533 76.0
127.4114 92.0
127.593437 144.0
127.948891 148.0
128.023193 204.0
128.052841 176.0
128.079498 244.0
128.258377 228.0
129.004669 164.0
129.070419 596.0
129.176529 56.0
129.214981 228.0
129.871918 48.0
130.064224 880.0
130.450943 196.0
130.992523 196.0
131.072159 324.0
131.122391 44.0
131.608276 172.0
131.759018 164.0
131.928131 40.0
132.049316 184.0
132.081329 196.0
132.679016 60.0
132.940491 184.0
132.9841 164.0
133.085236 200.0
133.388351 192.0
133.404434 180.0
133.588409 104.0
133.915253 128.0
134.065002 156.0
134.401672 168.0
134.708725 52.0
134.937515 136.0
134.995316 40.0
135.439682 184.0
136.149384 204.0
136.723587 200.0
136.809921 208.0
137.287354 148.0
137.459976 200.0
139.051956 160.0
139.138168 28.0
139.895142 96.0
140.055313 172.0
140.562134 108.0
140.647095 252.0
140.973007 200.0
141.064529 244.0
141.240173 220.0
142.065292 708.0
142.249603 92.0
142.280457 116.0
142.71286 256.0
143.072708 2336.0
143.598709 136.0
143.775253 60.0
143.90654 248.0
143.974701 264.0
144.012344 184.0
144.048691 284.0
144.079971 19924.0
144.122208 192.0
144.166901 68.0
144.197968 76.0
144.218292 88.0
144.252945 56.0
144.295975 28.0
144.312714 76.0
144.851166 52.0
144.997803 100.0
145.082687 1728.0
145.201111 48.0
145.318649 84.0
145.753235 52.0
145.805344 88.0
145.943115 56.0
146.070297 204.0
146.077164 180.0
146.084457 156.0
146.113876 196.0
146.163925 100.0
146.214951 108.0
146.768997 52.0
146.93782 88.0
148.602356 212.0
148.830521 68.0
149.170639 184.0
149.326248 40.0
149.399216 56.0
149.871536 104.0
152.062622 128.0
153.067078 216.0
153.901505 164.0
154.064835 968.0
154.573822 72.0
155.067474 832.0
155.093903 144.0
155.535416 56.0
155.649612 148.0
156.081467 1284.0
156.278458 128.0
156.308319 84.0
156.341049 132.0
156.582153 136.0
157.086945 384.0
158.059998 176.0
158.096054 856.0
158.125229 184.0
158.210159 76.0
159.097427 112.0
159.69313 80.0
160.688141 128.0
163.045578 192.0
163.999985 44.0
164.617371 156.0
165.071136 244.0
166.069351 148.0
166.962204 88.0
167.070801 1708.0
167.304413 80.0
167.592865 100.0
167.746964 172.0
168.079803 1468.0
168.105331 152.0
168.242798 64.0
168.493301 144.0
169.078522 704.0
169.258865 52.0
170.02359 144.0
170.053696 216.0
170.09523 488.0
170.340347 120.0
170.423477 160.0
170.608002 108.0
171.095749 116.0
171.599915 132.0
172.08519 52.0
172.10347 132.0
172.296738 144.0
172.380341 180.0
172.754486 200.0
173.484833 52.0
177.073654 128.0
177.444626 48.0
178.347183 168.0
178.724808 64.0
178.932404 164.0
178.985657 160.0
179.084137 164.0
180.081345 3024.0
180.258026 40.0
180.399673 56.0
181.01503 156.0
181.085205 1204.0
181.878296 60.0
181.953461 144.0
182.089371 748.0
182.208603 148.0
182.227402 92.0
182.482727 120.0
182.541885 36.0
183.091232 684.0
183.484253 56.0
183.699997 212.0
184.07515 164.0
184.098602 148.0
184.21019 168.0
185.108109 176.0
186.084213 136.0
186.605865 168.0
187.182693 40.0
191.074463 188.0
192.077545 412.0
192.624084 244.0
193.089157 576.0
193.686264 148.0
194.095734 400.0
194.132477 164.0
194.504257 144.0
195.093887 368.0
195.955887 48.0
195.986526 200.0
196.109436 2000.0
196.195557 80.0
196.251312 116.0
196.360077 84.0
196.650223 52.0
196.756302 44.0
197.038376 200.0
197.106049 1580.0
197.365372 100.0
198.106522 212.0
198.127869 164.0
198.241516 80.0
198.569519 48.0
199.108368 272.0
199.557968 108.0
200.106598 176.0
205.098129 116.0
205.306259 176.0
206.092728 592.0
206.814743 120.0
207.103256 324.0
208.024368 112.0
208.112457 616.0
208.20813 60.0
208.394836 60.0
208.880692 44.0
209.107986 1004.0
209.139648 164.0
209.940186 148.0
210.113205 972.0
210.436874 108.0
210.543716 100.0
210.823944 76.0
211.002121 56.0
211.075424 156.0
211.122498 316.0
211.587555 156.0
212.34964 152.0
214.131226 160.0
216.675461 168.0
219.47052 92.0
223.118454 360.0
223.704163 144.0
224.127686 268.0
224.872589 80.0
224.926315 260.0
225.006912 148.0
225.054688 40.0
225.13707 5096.0
225.198029 32.0
225.344406 40.0
225.389221 64.0
225.445999 136.0
225.475876 56.0
225.667191 68.0
225.825684 104.0
225.870544 140.0
225.930374 52.0
226.140335 936.0
226.744812 76.0
226.921677 32.0
227.145264 212.0
228.859589 96.0
234.055481 164.0
234.905777 108.0
237.223694 88.0
240.650879 116.0
243.145325 1068.0
243.297928 32.0
243.53392 52.0
243.561874 108.0
243.782455 120.0
244.156891 108.0
245.155853 108.0
245.463409 56.0
245.691101 40.0
262.687347 88.0
270.31604 100.0
271.82666 100.0
275.986877 60.0
279.263306 100.0
279.50946 88.0
297.766479 88.0
312.232025 112.0
321.160919 80.0
341.246796 160.0
352.728271 84.0
359.379242 168.0
375.81723 60.0
393.039703 64.0
437.613586 84.0
488.944458 88.0
523.928772 20.0
538.091064 140.0
589.402283 72.0
687.11377 96.0
688.408203 20.0
769.159485 176.0
832.728577 148.0
855.854553 184.0
857.759583 152.0
899.137573 148.0
903.840515 164.0
906.556091 20.0
907.014526 188.0
941.942139 208.0
945.004944 64.0
993.135681 192.0
999.556152 112.0
1003.259521 192.0
1006.792908 152.0
1011.610779 220.0
1014.328308 128.0
1024.521118 88.0
1044.197632 144.0
1053.246826 96.0
1063.042236 232.0
1086.255981 180.0
1109.820068 72.0
1110.449951 192.0
1111.91626 72.0
1115.948364 172.0
1116.999023 192.0
1127.199463 140.0
1130.268677 168.0
1150.525879 92.0
1156.338989 188.0
1159.705078 96.0
1160.315186 200.0
1165.194824 200.0
1166.499634 124.0
1171.671509 36.0
1176.12439 196.0
1189.986816 120.0
1194.60498 68.0
1205.526245 108.0
1206.265747 160.0
1212.508789 156.0
1215.657227 156.0
1223.511353 140.0
1239.386597 184.0
1240.760254 176.0
1243.608154 180.0
1251.446289 232.0
1253.636963 180.0
1256.245728 156.0
1260.927002 136.0
1262.637939 136.0
1273.169067 208.0
1276.181885 156.0
1281.7052 28.0
1291.392578 128.0
1291.499878 152.0
1292.866333 180.0
1302.408936 220.0
1305.520874 76.0
1308.600586 176.0
1309.551147 152.0
1311.611816 228.0
1313.075439 44.0
1321.389648 132.0
1322.750122 128.0
1328.278931 156.0
1329.534058 100.0
1349.624512 184.0
1350.129028 40.0
1354.762207 108.0
1358.926392 196.0
1363.162964 204.0
1366.582153 184.0
1377.064575 192.0
1377.869629 188.0
1380.160889 212.0
1380.796875 168.0
1382.69812 192.0
1385.415527 176.0
1387.460938 196.0
1388.321045 52.0
1389.574585 172.0
1392.410156 160.0
1396.192993 184.0
1397.941162 172.0
1401.209839 96.0
1409.865356 180.0
1412.781372 76.0
1414.966553 56.0
1416.337036 164.0
1416.994385 132.0
1418.322632 180.0
1418.914795 176.0
1420.564697 304.0
1422.605713 240.0
1422.665771 132.0
1423.611816 204.0
1426.624756 144.0
1429.114136 92.0
1431.010742 236.0
1431.116211 208.0
1431.259277 140.0
1431.394775 244.0
1431.974609 172.0
1433.586792 176.0
1435.554321 148.0
1437.364746 120.0
1438.572266 176.0
1438.806274 144.0
1440.716919 168.0
1451.403564 172.0
1462.86792 216.0
1465.396362 116.0
1466.668945 188.0
1469.009888 136.0
1469.788086 136.0
1470.215454 120.0
1483.968628 216.0
1486.192871 96.0
1487.512939 184.0
1487.620361 196.0
1493.998657 80.0
1496.869507 228.0
1502.611694 92.0
1503.931152 140.0
