>compound MLS001141251-01!(2S)-2-[[2-(6-oxobenzo[c]chromen-3-yl)oxyacetyl]amino]-3-phenylpropanoic acid
>formula C24H19NO6
>ionization [M+H]+
>parentmass 418.129
#inchi InChI=1S/C24H19NO6/c26-22(25-20(23(27)28)12-15-6-2-1-3-7-15)14-30-16-10-11-18-17-8-4-5-9-19(17)24(29)31-21(18)13-16/h1-11,13,20H,12,14H2,(H,25,26)(H,27,28)/t20-/m0/s1
#inchikey LSQXUGCOFZFINB
#Ion_Source LC-ESI
#Instrument qTof
#Compound_Source NIH Natural Product Library
#PI Dorrestein
#Data_Collector VVP/LMS
#Scan -1
#Precursor_MZ 418.129
#ExactMass 417.121
#Charge 1
#CAS_Number N/A
#Pubmed_ID N/A
#Smiles OC(=O)[C@H](Cc1ccccc1)NC(=O)COc2ccc3c(c2)oc(=O)c4ccccc43
#INCHI_AUX N/A
#Library_Class 1
#SpectrumID CCMSLIB00000079624
#IonMode Positive
#UpdateWorkflowName UPDATE-SINGLE-ANNOTATED-GOLD
#LibraryQualityString Gold
#TaskID b1d8e8f6646f4e71acdff9ca3d919d08
##Scan# 2105
#SpectrumFile p1-H08_GH8_01_17964.mzXML
#LibraryName NIH_Natural_Products_Library.mgf
#MQScore -1
#Organism NIH_Natural_Products_Library
#TIC_Query 0
#RT_Query -1
#MZErrorPPM -1
#SharedPeaks 0
#MassDiff 0
#LibMZ -1
#SpecMZ 418.129
#SpecCharge 0
#internalFilename spec-00000.mgf

>collision 10
95.289902 140.0
95.573776 164.0
95.601021 172.0
95.639946 172.0
95.680824 180.0
95.70224 192.0
95.887306 124.0
95.904846 212.0
96.074493 172.0
96.164253 128.0
96.424019 52.0
96.470932 156.0
96.660645 176.0
96.678261 128.0
96.789841 200.0
97.17009 200.0
97.226997 124.0
97.264282 220.0
97.640732 208.0
97.722183 180.0
97.826485 172.0
97.859955 152.0
97.956459 168.0
98.14753 80.0
98.206795 120.0
98.321228 188.0
98.805336 168.0
98.854805 244.0
98.886467 128.0
98.993378 36.0
99.034966 136.0
99.473183 140.0
99.523407 124.0
99.558563 160.0
99.673782 144.0
99.866005 156.0
99.896454 48.0
99.91436 220.0
100.057655 176.0
100.171165 48.0
100.30468 148.0
100.374458 56.0
100.687767 160.0
100.769669 212.0
100.877586 116.0
100.96756 216.0
101.001564 248.0
101.045578 160.0
101.22171 180.0
101.526314 132.0
101.632629 48.0
101.708893 212.0
101.755066 140.0
101.80928 176.0
101.843422 156.0
101.95192 76.0
102.043549 188.0
102.148956 192.0
102.219376 160.0
102.352234 216.0
102.620216 188.0
102.92691 172.0
102.963257 112.0
102.981438 92.0
102.996445 200.0
103.054596 2384.0
103.092552 52.0
103.114784 144.0
103.272011 136.0
103.385788 128.0
103.454605 152.0
103.559906 60.0
103.696724 136.0
103.857857 200.0
103.890312 224.0
103.934952 152.0
104.049423 572.0
104.061127 716.0
104.292381 196.0
104.318802 196.0
104.400131 156.0
104.471321 68.0
104.505913 144.0
104.587311 80.0
104.758682 128.0
104.776695 152.0
104.795036 188.0
104.823563 204.0
104.85582 140.0
104.90509 248.0
105.000221 128.0
105.036697 192.0
105.069786 12496.0
105.13353 168.0
105.178429 176.0
105.202927 108.0
105.245804 64.0
105.276428 224.0
105.29277 56.0
105.32341 112.0
105.34996 76.0
105.431694 52.0
105.468483 76.0
105.603432 228.0
105.705719 176.0
105.806015 124.0
105.838776 132.0
105.881783 132.0
105.924789 120.0
105.940353 248.0
106.008797 232.0
106.072922 1764.0
106.146141 212.0
106.168694 208.0
106.525833 136.0
106.655289 68.0
106.70874 160.0
106.809509 168.0
106.93914 248.0
107.04821 224.0
107.07399 172.0
107.173904 48.0
107.196571 100.0
107.811539 128.0
107.844604 188.0
107.919029 208.0
108.103127 164.0
108.289452 84.0
108.463501 96.0
108.589073 156.0
108.592514 200.0
108.804443 204.0
108.870155 148.0
109.102875 184.0
109.123665 180.0
109.454498 168.0
109.788864 168.0
109.898476 100.0
109.917252 68.0
109.940208 56.0
110.334991 184.0
110.389351 236.0
110.410263 160.0
110.425934 244.0
110.648811 164.0
110.671837 108.0
110.780746 144.0
110.879227 128.0
111.191719 88.0
111.277786 108.0
111.410095 240.0
111.473129 172.0
111.578224 80.0
111.710716 524.0
111.794876 128.0
112.003311 152.0
112.28006 212.0
112.545311 64.0
112.623772 156.0
112.646683 184.0
112.809402 80.0
112.8834 172.0
113.048401 152.0
113.224892 76.0
113.249535 120.0
113.306725 104.0
113.433876 68.0
113.45932 180.0
113.550499 216.0
113.904961 68.0
114.036705 216.0
114.164261 228.0
114.228073 48.0
114.25573 128.0
114.37915 216.0
114.502647 144.0
114.668831 120.0
114.726379 144.0
114.751961 204.0
115.054276 3748.0
115.159554 96.0
115.206551 176.0
115.255684 116.0
115.517029 64.0
115.711266 176.0
115.811913 92.0
115.989761 164.0
116.058617 488.0
116.221382 132.0
116.509079 152.0
116.564941 116.0
116.698212 156.0
116.872437 128.0
116.919777 176.0
117.001572 200.0
117.05851 7320.0
117.195412 120.0
117.229607 216.0
117.247131 48.0
117.31179 52.0
117.508415 204.0
117.706619 244.0
117.8535 60.0
117.926979 176.0
117.946991 108.0
117.974533 96.0
117.996155 120.0
118.03791 308.0
118.062439 1992.0
118.074417 1652.0
118.125908 96.0
118.159225 88.0
118.221107 108.0
118.244919 32.0
118.286041 168.0
118.52211 56.0
118.613129 140.0
118.845184 216.0
118.955872 48.0
118.979752 172.0
119.046562 140.0
119.052124 108.0
119.073151 504.0
119.125252 52.0
119.431747 140.0
119.488304 232.0
119.636292 44.0
119.802361 164.0
119.843201 164.0
119.86721 200.0
119.906395 136.0
119.930367 124.0
119.984863 272.0
120.037193 216.0
120.051765 176.0
120.080727 11484.0
120.129364 200.0
120.154045 196.0
120.205162 96.0
120.254349 56.0
120.290283 116.0
120.360146 160.0
120.75132 160.0
120.844429 192.0
120.882584 216.0
120.921974 120.0
120.948242 120.0
121.022675 184.0
121.083008 716.0
121.254875 68.0
121.294334 144.0
121.463173 60.0
121.750702 132.0
121.829773 132.0
121.893494 108.0
121.981407 120.0
122.040764 176.0
122.056152 92.0
122.086945 304.0
122.119934 88.0
122.22773 48.0
122.247017 204.0
122.271744 220.0
122.643967 164.0
122.692459 176.0
122.714508 264.0
122.815948 168.0
122.91523 104.0
123.089615 172.0
123.208885 184.0
123.270752 176.0
123.449814 160.0
123.538284 148.0
123.567047 160.0
123.600235 232.0
123.99791 188.0
124.091949 200.0
124.185089 200.0
124.258293 152.0
124.524673 124.0
124.686859 216.0
125.185188 228.0
125.280968 140.0
125.421356 200.0
125.512756 192.0
125.569946 180.0
125.758156 284.0
125.889877 144.0
125.963585 152.0
126.093178 176.0
126.164711 180.0
126.236259 144.0
126.592064 200.0
126.829552 152.0
126.943893 112.0
127.047066 120.0
127.08297 204.0
127.675995 180.0
127.88974 112.0
128.03157 124.0
128.06311 312.0
128.287598 204.0
128.423737 80.0
128.48465 36.0
128.550079 204.0
128.622299 216.0
128.798431 356.0
128.849548 140.0
129.037476 252.0
129.071747 380.0
129.108078 188.0
129.214386 144.0
129.282272 132.0
129.350174 108.0
129.438461 180.0
129.835037 164.0
129.878128 152.0
129.955261 164.0
130.042252 196.0
130.064316 8420.0
130.093796 200.0
130.127762 36.0
130.157272 124.0
130.233154 108.0
130.382172 120.0
130.420807 44.0
130.491287 108.0
130.579971 196.0
130.636841 108.0
130.784744 140.0
130.84166 160.0
131.048599 508.0
131.07045 1800.0
131.519302 180.0
131.750351 176.0
131.788177 140.0
131.813309 156.0
131.849869 148.0
131.918976 240.0
131.937897 164.0
131.941757 140.0
131.975601 276.0
132.020828 404.0
132.054291 400.0
132.080139 34840.0
132.11821 148.0
132.132767 184.0
132.165451 116.0
132.208008 60.0
132.224945 72.0
132.240967 68.0
132.259277 96.0
132.316971 128.0
132.355423 48.0
132.419556 140.0
132.457916 32.0
132.545547 180.0
132.573044 56.0
132.648682 28.0
132.729507 188.0
132.790848 84.0
132.813782 68.0
132.841309 56.0
132.860687 80.0
133.00882 60.0
133.045547 168.0
133.083466 4004.0
133.12822 192.0
133.174149 52.0
133.210892 56.0
133.24765 152.0
133.266037 40.0
133.445312 52.0
133.666122 100.0
133.716751 200.0
133.830704 120.0
133.868698 172.0
133.885773 116.0
133.905548 132.0
133.951614 84.0
134.057602 176.0
134.092163 172.0
134.116608 176.0
134.174377 132.0
134.193375 128.0
134.299683 168.0
134.338898 80.0
135.089676 124.0
135.422989 88.0
135.448471 164.0
135.527237 180.0
135.740494 124.0
136.009628 120.0
136.035156 148.0
136.121063 144.0
136.183762 188.0
136.725479 204.0
136.876801 284.0
137.037521 160.0
137.088776 152.0
137.147049 204.0
137.548248 164.0
137.854202 220.0
137.889267 244.0
138.027191 188.0
138.052017 408.0
138.188583 52.0
138.286865 40.0
138.401581 120.0
138.523361 156.0
138.860886 168.0
138.935959 124.0
138.98053 104.0
139.053772 11596.0
139.095535 368.0
139.140137 172.0
139.15892 48.0
139.176254 84.0
139.201187 228.0
139.22702 52.0
139.328018 124.0
139.37735 104.0
139.672577 84.0
139.718277 120.0
139.7724 44.0
139.842987 84.0
139.887711 84.0
139.998383 64.0
140.058258 1076.0
140.269333 32.0
140.665634 172.0
140.708115 80.0
140.797073 148.0
140.850983 284.0
140.979767 108.0
141.029388 104.0
141.069473 3748.0
141.168884 60.0
141.28714 56.0
141.410187 84.0
141.45517 104.0
141.708572 244.0
141.80809 124.0
141.97168 172.0
142.067703 456.0
142.204193 220.0
142.230301 196.0
142.501022 44.0
142.569931 124.0
142.760117 108.0
142.921875 124.0
143.047546 208.0
143.0681 276.0
143.307602 80.0
143.421997 160.0
143.882401 80.0
144.051773 224.0
144.079117 172.0
144.396149 128.0
144.673706 124.0
144.779068 116.0
144.831757 176.0
145.03064 172.0
145.068985 140.0
145.356796 172.0
145.486404 148.0
145.551239 156.0
145.568039 156.0
145.721771 168.0
145.873169 176.0
145.894806 216.0
145.978958 220.0
146.058884 452.0
146.164185 212.0
146.277298 36.0
146.327866 148.0
146.6362 108.0
146.810547 144.0
147.04129 344.0
147.357712 60.0
147.431732 204.0
147.7397 132.0
147.759064 44.0
147.785675 124.0
148.047104 132.0
148.15126 48.0
148.202133 228.0
149.060822 196.0
149.209381 88.0
149.710632 120.0
149.791 52.0
149.837296 68.0
150.089722 508.0
150.635025 136.0
150.671677 164.0
150.722977 52.0
150.825623 160.0
151.04834 192.0
151.092178 108.0
151.319794 148.0
152.013458 208.0
152.061462 2020.0
152.514481 180.0
152.59314 84.0
152.63002 104.0
152.661987 64.0
152.728394 176.0
152.871094 164.0
152.90062 252.0
152.989243 192.0
153.068253 8884.0
153.264374 140.0
153.420364 168.0
153.592972 32.0
153.654648 96.0
153.753357 196.0
153.834808 44.0
153.866898 88.0
154.072815 652.0
154.264648 84.0
154.321503 168.0
154.518936 160.0
154.643097 196.0
154.672806 156.0
154.697556 48.0
155.047104 500.0
155.076538 168.0
155.2724 44.0
155.315125 160.0
155.333817 148.0
155.379074 112.0
155.644638 172.0
155.689346 144.0
156.052002 148.0
156.084457 180.0
156.41037 212.0
156.549805 172.0
156.592133 32.0
156.838806 36.0
157.031845 432.0
157.065964 1544.0
157.347702 208.0
157.407639 164.0
157.477554 140.0
157.522522 68.0
158.029175 152.0
158.130127 124.0
158.22525 92.0
158.435623 200.0
158.696274 220.0
158.934555 116.0
159.039261 144.0
159.072586 192.0
159.205658 168.0
159.328735 216.0
159.534821 44.0
159.693237 200.0
160.073914 376.0
160.244522 132.0
160.52684 156.0
160.753876 144.0
161.080872 740.0
161.150314 188.0
162.061172 168.0
162.08905 320.0
162.507416 32.0
162.659683 128.0
162.804413 148.0
162.84758 68.0
163.231339 92.0
163.31781 204.0
163.493362 116.0
163.612991 52.0
163.646088 108.0
164.410812 192.0
164.68399 52.0
164.824509 160.0
165.068741 204.0
165.118484 184.0
165.167084 64.0
165.333389 180.0
165.515152 100.0
165.599655 152.0
165.769836 160.0
165.878952 128.0
166.055878 72.0
166.099487 124.0
166.168747 80.0
166.353531 72.0
166.412567 120.0
166.433121 132.0
166.566666 92.0
166.677139 88.0
166.779938 60.0
166.80307 92.0
166.898193 176.0
166.939163 176.0
167.004471 232.0
167.049026 41332.0
167.141006 60.0
167.160568 32.0
167.182434 80.0
167.233917 84.0
167.277588 196.0
167.307281 212.0
167.340591 64.0
167.389664 212.0
167.471527 68.0
167.487122 220.0
167.523605 84.0
167.612579 52.0
167.652435 124.0
167.670471 136.0
167.752945 36.0
167.773575 88.0
167.807083 48.0
167.868973 48.0
167.986526 160.0
168.052444 4456.0
168.085434 224.0
168.150177 64.0
168.181152 164.0
168.208191 100.0
168.263748 52.0
168.359299 68.0
168.460022 48.0
168.498779 60.0
168.529785 192.0
168.56337 28.0
168.615067 100.0
168.646072 44.0
168.873611 176.0
168.890793 68.0
168.935989 236.0
168.977081 204.0
169.028015 64.0
169.064331 4964.0
169.129761 44.0
169.221146 120.0
169.256622 40.0
169.29747 108.0
169.350418 72.0
169.388702 60.0
169.519455 112.0
169.538971 68.0
169.583038 52.0
169.624512 168.0
169.847519 60.0
169.886429 52.0
170.029129 136.0
170.067841 652.0
170.130371 156.0
170.169312 112.0
170.195267 172.0
170.216049 112.0
170.273178 96.0
170.416046 32.0
171.043549 1052.0
171.088806 232.0
171.524704 64.0
171.874176 144.0
172.044754 156.0
172.069931 124.0
172.213547 64.0
172.529739 192.0
172.699707 168.0
173.160355 96.0
173.766846 204.0
174.096634 168.0
174.440826 84.0
174.51445 116.0
175.153946 104.0
175.251419 84.0
175.791977 76.0
176.067673 140.0
176.610992 76.0
176.761795 168.0
176.833252 204.0
176.933838 72.0
177.325882 112.0
177.370941 152.0
177.535324 36.0
178.084702 440.0
178.579071 180.0
178.759979 52.0
179.048309 144.0
179.633881 148.0
179.858032 124.0
180.060944 172.0
180.437714 216.0
180.764038 180.0
180.959442 224.0
181.063416 204.0
181.141541 92.0
181.556992 84.0
181.693787 168.0
182.069656 148.0
182.496841 144.0
182.768509 112.0
182.800797 144.0
183.041504 708.0
183.334 68.0
183.363647 84.0
183.433731 116.0
183.946259 124.0
184.051834 588.0
184.119064 80.0
184.302765 44.0
184.359512 144.0
184.857086 208.0
185.053329 192.0
185.268646 176.0
185.507126 172.0
186.071411 160.0
186.416367 48.0
186.489746 44.0
186.53595 236.0
186.704529 212.0
186.835098 40.0
187.529465 60.0
190.67424 96.0
190.704468 136.0
190.973923 68.0
191.309631 164.0
191.38121 116.0
191.816498 220.0
193.067261 176.0
193.60968 168.0
193.814667 108.0
193.895035 128.0
194.846802 176.0
194.99408 180.0
195.043411 13576.0
195.152542 64.0
195.177567 56.0
195.286011 68.0
195.31105 156.0
195.469635 48.0
195.497467 72.0
195.536423 56.0
195.584854 120.0
195.644974 220.0
195.880173 148.0
195.948547 76.0
196.046844 1948.0
196.082306 192.0
196.182648 84.0
196.349945 40.0
196.472687 168.0
196.516998 176.0
196.539642 48.0
196.771301 40.0
196.832733 136.0
196.927689 128.0
196.966782 152.0
197.000305 152.0
197.058792 15384.0
197.13443 164.0
197.152359 84.0
197.243423 64.0
197.267761 68.0
197.304932 48.0
197.376068 72.0
197.442337 112.0
197.472702 116.0
197.492279 64.0
197.511856 40.0
197.601379 88.0
197.633972 88.0
198.020538 152.0
198.062454 1580.0
198.244476 60.0
198.562195 52.0
198.584641 168.0
198.613907 120.0
198.651962 56.0
198.901703 48.0
199.039932 776.0
199.060349 360.0
199.080643 164.0
199.329956 132.0
199.412903 140.0
199.435394 64.0
199.501663 104.0
199.67157 124.0
199.800964 96.0
199.854416 76.0
199.879745 168.0
200.038757 128.0
200.251343 36.0
200.468277 116.0
200.612015 124.0
201.074615 148.0
202.131531 92.0
202.21077 80.0
202.273041 36.0
202.570374 68.0
204.435791 164.0
204.968292 148.0
205.909698 128.0
206.035385 168.0
206.332611 96.0
206.664383 184.0
206.712402 72.0
206.813202 80.0
207.045105 152.0
207.976913 84.0
208.051559 208.0
208.505402 160.0
208.844666 188.0
209.062515 368.0
209.092102 128.0
209.449127 232.0
210.064621 300.0
211.03598 460.0
211.10289 68.0
211.369019 200.0
211.389267 140.0
211.991608 140.0
212.046432 1648.0
212.074722 124.0
212.745728 52.0
212.786377 40.0
212.888 64.0
213.021606 168.0
213.052826 1956.0
213.129105 172.0
213.323837 112.0
213.579727 40.0
213.984222 44.0
214.054352 312.0
214.362885 36.0
214.435745 64.0
215.477509 48.0
216.018341 104.0
216.290482 56.0
216.510071 164.0
217.571533 132.0
217.821152 112.0
217.903397 132.0
218.153214 184.0
219.07431 124.0
219.262894 144.0
219.472183 140.0
221.090988 168.0
221.798859 176.0
222.009369 48.0
222.291183 72.0
222.727615 116.0
222.923706 200.0
223.049561 8292.0
223.158524 48.0
223.296097 76.0
223.352066 80.0
223.560089 128.0
223.679153 72.0
224.018616 140.0
224.052597 1276.0
224.251038 60.0
224.310654 104.0
224.376236 48.0
224.4478 100.0
224.620773 128.0
224.931122 96.0
224.996368 196.0
225.054245 20536.0
225.126953 64.0
225.211792 60.0
225.286102 64.0
225.325317 80.0
225.365082 64.0
225.426895 60.0
225.490967 64.0
225.55542 104.0
225.57634 72.0
225.597275 96.0
225.629028 64.0
225.722839 40.0
225.785645 48.0
225.84845 264.0
225.905289 152.0
226.057587 3140.0
226.105759 124.0
226.192566 56.0
226.243454 28.0
226.291351 220.0
226.38118 28.0
226.440079 84.0
226.602844 92.0
226.725693 72.0
226.77066 40.0
227.068451 296.0
227.301468 40.0
227.382492 112.0
227.495255 120.0
227.538589 140.0
227.661697 108.0
227.697739 84.0
227.778839 128.0
227.862946 188.0
227.902008 100.0
228.067291 128.0
228.677872 92.0
228.707977 72.0
228.795273 44.0
229.000031 48.0
229.92865 108.0
230.16713 68.0
230.54776 44.0
231.110199 176.0
231.852112 108.0
232.064301 76.0
232.549667 104.0
233.558441 104.0
234.118454 84.0
234.560242 168.0
235.765839 56.0
236.083786 112.0
236.371338 72.0
236.806061 88.0
237.052948 912.0
237.173737 44.0
238.057907 128.0
238.167892 80.0
238.78569 76.0
239.007187 96.0
239.09642 188.0
240.077667 196.0
240.523468 32.0
241.094864 164.0
242.097198 152.0
243.064377 148.0
243.259903 76.0
244.802063 168.0
244.945328 72.0
246.102356 172.0
247.110626 220.0
247.334106 88.0
248.317947 112.0
249.064972 148.0
250.03952 176.0
250.048203 168.0
250.096313 172.0
251.054092 424.0
251.757843 60.0
252.065125 528.0
252.102188 324.0
253.056107 244.0
253.136627 236.0
254.347733 48.0
254.970261 60.0
256.415161 96.0
257.107239 160.0
260.957611 80.0
264.745911 28.0
265.102264 120.0
266.086487 256.0
268.093689 140.0
269.093414 168.0
270.083618 132.0
271.055969 148.0
271.442749 76.0
271.518188 76.0
271.60675 56.0
272.516113 128.0
273.074951 172.0
275.805054 152.0
276.671753 68.0
279.097076 160.0
280.058838 408.0
280.245422 68.0
281.069 148.0
283.818542 72.0
285.091583 192.0
285.238678 92.0
286.439972 52.0
287.47168 40.0
295.740692 156.0
297.094208 144.0
299.080414 144.0
299.104004 132.0
306.903076 124.0
308.026855 88.0
308.163086 184.0
313.095154 156.0
314.103912 140.0
314.674896 184.0
315.052795 168.0
315.103241 1116.0
315.222382 260.0
315.33194 76.0
315.533417 72.0
315.936584 64.0
316.098511 404.0
317.122833 172.0
317.917267 112.0
318.407196 116.0
318.456909 52.0
319.886353 56.0
322.018646 88.0
325.07959 120.0
327.013092 160.0
327.097229 304.0
328.194702 92.0
330.995087 112.0
332.111298 108.0
333.098633 116.0
336.073029 148.0
337.077148 204.0
337.102753 96.0
338.090118 112.0
339.091797 120.0
339.577576 108.0
344.127167 172.0
344.450958 92.0
354.101746 136.0
355.124817 148.0
355.156616 116.0
355.291656 172.0
357.060852 108.0
358.103394 92.0
358.250305 68.0
359.147461 44.0
364.117035 100.0
364.322144 44.0
366.467926 108.0
369.744324 52.0
371.031342 72.0
371.867584 112.0
372.119629 564.0
372.723969 68.0
373.123627 256.0
374.131683 132.0
374.204834 116.0
379.653229 64.0
383.167114 84.0
383.272308 36.0
384.048126 120.0
384.180756 68.0
394.552734 68.0
396.956146 108.0
401.035126 76.0
409.207367 120.0
410.799286 68.0
417.803711 72.0
418.023438 100.0
424.846863 60.0
435.459625 56.0
439.376709 40.0
445.169708 40.0
450.983734 40.0
452.78186 36.0
460.569611 44.0
461.877594 76.0
467.885468 44.0
469.915436 56.0
470.066437 52.0
478.784424 168.0
480.004608 60.0
480.702545 60.0
483.617615 96.0
486.919098 48.0
497.217072 20.0
497.405701 80.0
511.639679 72.0
514.240662 72.0
515.122559 64.0
529.004761 40.0
604.162842 52.0
632.5401 104.0
662.638977 88.0
668.883728 52.0
672.533142 128.0
697.016479 68.0
698.867371 84.0
717.500427 68.0
718.705811 64.0
723.168091 84.0
734.6297 168.0
760.510315 68.0
761.59198 112.0
789.26947 80.0
798.488831 88.0
801.962708 40.0
803.366821 56.0
806.139099 64.0
811.284058 36.0
815.683533 156.0
823.975281 80.0
824.03241 192.0
847.571777 156.0
851.342346 200.0
858.891113 84.0
859.048584 100.0
859.334473 224.0
867.739136 224.0
874.023865 108.0
881.187744 208.0
881.707703 56.0
883.771545 148.0
885.150696 112.0
905.176758 148.0
908.221252 152.0
909.085205 60.0
909.2052 128.0
910.111633 176.0
910.297791 200.0
910.802307 196.0
918.314087 152.0
918.887146 60.0
920.619507 56.0
928.159485 228.0
929.129944 136.0
929.754883 128.0
929.888428 140.0
943.515015 164.0
948.896545 196.0
948.963989 216.0
952.019775 152.0
960.87738 220.0
962.778564 272.0
964.384888 136.0
964.619812 228.0
965.10199 116.0
965.485413 136.0
968.511963 172.0
968.871216 164.0
969.236755 100.0
971.940308 224.0
977.750671 156.0
978.559875 196.0
980.141968 108.0
984.065247 204.0
991.390076 144.0
996.353333 124.0
1003.282349 84.0
1008.136169 152.0
1013.407227 148.0
1014.985474 108.0
1016.856934 68.0
1022.417969 252.0
1028.064331 224.0
1033.048096 256.0
1036.973145 108.0
1040.501343 128.0
1040.764526 172.0
1046.499878 164.0
1048.806152 140.0
1057.390015 120.0
1058.769043 200.0
1060.401733 152.0
1060.524902 72.0
1060.615601 68.0
1061.445435 148.0
1063.820068 52.0
1064.560303 156.0
1068.707397 152.0
1069.423218 128.0
1070.360718 192.0
1070.731934 180.0
1071.259521 172.0
1071.409302 176.0
1076.536133 144.0
1077.99939 212.0
1083.377686 144.0
1085.153809 120.0
1087.521973 148.0
1088.500122 84.0
1089.307983 136.0
1094.0625 200.0
1094.977783 204.0
1095.254517 68.0
1102.34021 208.0
1103.232544 112.0
1103.695312 92.0
1113.018311 128.0
1115.908691 152.0
1117.830933 228.0
1120.974121 56.0
1122.367188 104.0
1124.168335 172.0
1125.884033 152.0
1129.071777 156.0
1129.272461 172.0
1130.14209 156.0
1130.684204 88.0
1133.898926 128.0
1134.461182 152.0
1134.602661 192.0
1136.145142 184.0
1139.596069 140.0
1140.395752 184.0
1140.973877 252.0
1141.787476 140.0
1144.324341 220.0
1145.112305 188.0
1145.401855 180.0
1147.814697 156.0
1148.435059 176.0
1149.602295 180.0
1150.999634 224.0
1152.776245 224.0
1154.885498 172.0
1156.86145 156.0
1157.640015 184.0
1159.049072 68.0
1159.130371 184.0
1161.170898 192.0
1164.530518 196.0
1167.371338 164.0
1169.691406 124.0
1170.576416 140.0
1175.470947 192.0
1175.680664 216.0
1177.785278 228.0
1177.86731 108.0
1180.252441 160.0
1183.290283 148.0
1183.728516 164.0
1185.790649 184.0
1187.621338 204.0
1188.060303 84.0
1188.11499 144.0
1189.343506 176.0
1190.819702 148.0
1192.234985 168.0
1198.545288 68.0
1205.507935 200.0
1205.943237 40.0
1206.081543 268.0
1206.876587 60.0
1207.111694 164.0
1209.083252 112.0
1210.211548 156.0
1211.070312 188.0
1212.019409 144.0
1214.376465 220.0
1214.806519 212.0
1215.049316 256.0
1215.632202 216.0
1217.41626 228.0
1217.770508 192.0
1217.846924 168.0
1218.187256 148.0
1218.49292 212.0
1219.020996 268.0
1223.639526 200.0
1225.053345 160.0
1225.436523 160.0
1226.558472 200.0
1226.990723 124.0
1229.145996 208.0
1229.711182 212.0
1231.463745 140.0
1232.26709 172.0
1233.210449 216.0
1233.441162 72.0
1233.49707 40.0
1234.356934 168.0
1234.83252 84.0
1236.644653 156.0
1238.45813 196.0
1239.782227 176.0
1239.915405 96.0
1242.49585 180.0
1242.727417 176.0
1243.716919 140.0
1246.139648 84.0
1248.121826 60.0
1250.218018 140.0
1250.76709 164.0
1252.957153 204.0
1254.944702 252.0
1255.417114 192.0
1256.009521 152.0
1257.081909 180.0
1258.649048 156.0
1259.658936 180.0
1259.92749 96.0
1261.694214 160.0
1263.65332 164.0
1263.915161 140.0
1268.383911 48.0
1274.828369 236.0
1275.070068 132.0
1275.169556 76.0
1278.917847 156.0
1279.309326 104.0
1279.565674 212.0
1279.651245 148.0
1279.779297 84.0
1280.363159 208.0
1282.365234 140.0
1283.6698 216.0
1284.775391 76.0
1285.182007 208.0
1285.538818 84.0
1285.681519 208.0
1287.387695 140.0
1287.673462 176.0
1288.580688 84.0
1288.880737 228.0
1290.395996 168.0
1291.218384 168.0
1292.091064 208.0
1294.660767 120.0
1294.997314 148.0
1295.570435 256.0
1296.315552 208.0
1296.638062 152.0
1298.459106 160.0
1298.774658 144.0
1299.018555 188.0
1299.549438 132.0
1300.14502 200.0
1305.626587 132.0
1307.583496 196.0
1309.556763 240.0
1309.627563 208.0
1310.327026 196.0
1310.384644 176.0
1315.743286 120.0
1316.869751 56.0
1317.115356 136.0
1317.938965 176.0
1318.018433 152.0
1318.090698 56.0
1318.177368 152.0
1318.307495 156.0
1318.372437 172.0
1318.741089 104.0
1320.440186 136.0
1321.149048 200.0
1323.378174 136.0
1323.935669 204.0
1326.246948 112.0
1327.921753 192.0
1329.140503 176.0
1330.505005 160.0
1330.977051 140.0
1331.056885 188.0
1331.311035 216.0
1331.587036 164.0
1331.652344 176.0
1332.327881 148.0
1333.352417 228.0
1333.824951 148.0
1337.440063 348.0
1338.06604 192.0
1339.347778 256.0
1341.038208 204.0
1341.497437 180.0
1341.701538 76.0
1341.752563 136.0
1341.963989 68.0
1344.422241 164.0
1347.123779 60.0
1347.247925 140.0
1348.183228 224.0
1349.360107 104.0
1349.440552 248.0
1351.993408 208.0
1352.871704 164.0
1353.230469 196.0
1353.442749 132.0
1355.149414 168.0
1355.69165 128.0
1355.984741 152.0
1357.406982 56.0
1357.890991 168.0
1358.294434 192.0
1358.668579 192.0
1362.831421 224.0
1365.308716 236.0
1365.808838 104.0
1367.53064 160.0
1368.207886 184.0
1368.259399 112.0
1368.399292 124.0
1369.746948 196.0
1370.822632 112.0
1371.32373 136.0
1371.670166 164.0
1372.672852 132.0
1372.923584 176.0
1373.646484 128.0
1373.98584 252.0
1374.856445 208.0
1374.937622 188.0
1375.81604 144.0
1376.643066 248.0
1378.689331 176.0
1379.339722 152.0
1379.990356 124.0
1381.73584 180.0
1383.926636 220.0
1384.659668 176.0
1385.911621 168.0
1389.29248 204.0
1390.049194 172.0
1390.353516 160.0
1392.699707 80.0
1395.241089 100.0
1396.438232 240.0
1396.67627 60.0
1397.278809 184.0
1397.516968 208.0
1398.283447 180.0
1399.444702 216.0
1401.008667 84.0
1401.090698 168.0
1402.856812 76.0
1403.296753 120.0
1403.818726 184.0
1404.348145 84.0
1405.056885 208.0
1405.631348 124.0
1405.767212 156.0
1406.564331 56.0
1407.198853 304.0
1407.542358 152.0
1407.893311 236.0
1408.543091 164.0
1408.692505 148.0
1409.409668 160.0
1410.127197 136.0
1410.485962 216.0
1412.579712 56.0
1413.11084 200.0
1413.170654 112.0
1413.537354 140.0
1414.330688 160.0
1414.824707 60.0
1415.648315 120.0
1418.600342 168.0
1419.282593 32.0
1420.287598 164.0
1421.135254 44.0
1421.537109 156.0
1421.705566 152.0
1422.80896 156.0
1423.289551 44.0
1425.054688 152.0
1425.558105 216.0
1427.347168 180.0
1429.25769 188.0
1431.199707 64.0
1432.675903 184.0
1434.062378 196.0
1434.220703 48.0
1435.132935 164.0
1435.796509 196.0
1436.407471 140.0
1436.682617 144.0
1437.637207 72.0
1437.690063 144.0
1437.96936 164.0
1438.391968 180.0
1438.57312 108.0
1439.149048 200.0
1439.615112 56.0
1441.322388 112.0
1441.647217 200.0
1441.881592 84.0
1442.040283 240.0
1442.236816 156.0
1442.478638 236.0
1443.80188 136.0
1444.01355 280.0
1445.042358 40.0
1446.116943 196.0
1447.010254 144.0
1447.934082 208.0
1448.100586 168.0
1448.865723 156.0
1449.115723 200.0
1449.653687 184.0
1450.593506 212.0
1451.025635 80.0
1451.237915 172.0
1451.298584 128.0
1452.208618 168.0
1455.616211 188.0
1455.828735 192.0
1457.431641 128.0
1458.221924 116.0
1460.617065 152.0
1462.344238 232.0
1462.435547 188.0
1462.49646 52.0
1463.120728 192.0
1463.470947 104.0
1463.79834 160.0
1464.582764 196.0
1465.542603 228.0
1466.891602 80.0
1467.326172 176.0
1468.500488 124.0
1469.652466 168.0
1472.293579 148.0
1472.385254 240.0
1474.042969 44.0
1474.40979 140.0
1474.501587 180.0
1475.151245 120.0
1475.755249 140.0
1476.411377 152.0
1477.062988 160.0
1477.223633 172.0
1478.287109 88.0
1479.580688 180.0
1479.756714 104.0
1481.548828 204.0
1482.138794 212.0
1483.096802 48.0
1486.156616 96.0
1486.256348 164.0
1487.338501 72.0
1489.35791 188.0
1489.849609 168.0
1490.610229 200.0
1491.540161 164.0
1491.947632 164.0
1492.324341 112.0
1492.578003 60.0
1492.693359 172.0
1492.777954 148.0
1493.131714 124.0
1494.24707 188.0
1496.040283 152.0
1500.107788 160.0
1500.909546 84.0
1502.282471 184.0
1503.408936 168.0
