>compound Sulindac
>formula C20H17FO3S 
>ionization [M+H]+
>parentmass 357.095612
#inchi InChI=1S/C20H17FO3S/c1-12-17(9-13-3-6-15(7-4-13)25(2)24)16-8-5-14(21)10-19(16)18(12)11-20(22)23/h3-10H,11H2,1-2H3,(H,22,23)/b17-9-
#inchikey MLKXDPUZXIRXEP
#Ion_Source LC-ESI
#Instrument qTof
#Compound_Source Isolated
#PI Sirenas
#Data_Collector Ed Esquenazi 
#Scan -1
#Precursor_MZ 357.096
#ExactMass 0.0
#Charge 1
#CAS_Number N/A
#Pubmed_ID N/A
#Smiles N/A
#INCHI_AUX N/A
#Library_Class 3
#SpectrumID CCMSLIB00000006165
#IonMode Positive
#UpdateWorkflowName UPDATE-SINGLE-ANNOTATED-BRONZE
#LibraryQualityString Bronze
#TaskID d19310cd93df49b68e9fcbec27720eb5
##Scan# 2
#SpectrumFile Sulindac.mgf
#LibraryName fda_library.mgf
#MQScore -1
#Organism fda_library
#TIC_Query 0
#RT_Query -1
#MZErrorPPM -1
#SharedPeaks 0
#MassDiff 0
#LibMZ -1
#SpecMZ 357.096
#SpecCharge 0
#internalFilename spec-00000.mgf

>collision 10
104.060547 14.54672
107.047943 85.19342
107.098373 19.190399
120.591454 14.34028
121.028618 75.002121
124.032822 7.111111
125.03627 16.148331
135.023499 54.130619
137.042847 54.80275
138.008957 45.91338
139.359024 2.041667
139.37764 6.818182
139.840271 13.22348
147.061203 15.40741
149.045151 70.58036
150.515717 6.75
151.023468 31.49667
151.05127 61.757469
153.039307 30.828291
161.075638 55.3671
161.697784 9.001068
167.229858 30.763639
167.860214 11.81037
173.077362 189.310699
173.101913 3.675
205.072311 32.027969
213.074799 7.455883
213.144821 18.14674
218.070633 14.62821
220.812653 3.518939
224.100388 16.296301
229.43985 8.482142
231.660141 9.75
231.719818 67.808212
231.774811 13.8125
231.797836 1.6875
231.817261 17.518591
231.879944 38.077301
231.962158 39.785992
231.985733 14.61742
232.029755 31.200001
232.061005 4.670455
232.108597 8.035714
232.195694 7.008333
232.304276 30.009159
232.38855 27.21554
232.606796 14.37745
232.62468 10.54688
232.893768 18.74423
232.924438 2.14881
232.976776 11.89583
233.010513 13.01754
233.03183 41.0019
233.076263 8738.038086
233.144669 80.742119
233.16362 10.38095
233.185776 4.355392
233.206833 16.336309
233.230042 15.68254
233.241776 18.510799
233.275223 9.774123
233.287445 4.963235
233.332916 55.00864
233.373352 54.49527
233.409302 37.715271
233.430267 4.380952
233.443985 6.266666
233.490387 71.928879
233.520874 8.388441
233.53775 45.884071
233.591965 21.889549
233.610352 22.14444
233.650696 29.273491
233.669449 12.69667
233.734283 15.65878
233.749252 15.425
233.797104 8.415
233.866272 4.8
233.932816 24.134951
233.966721 10.025
234.18605 5.055556
234.207916 22.65761
234.281418 20.66667
234.356491 11.84052
234.447021 19.427219
234.513412 9.724359
234.595856 14.53289
234.839966 2.449074
234.958176 12.27
234.984497 11.49597
235.124176 7.695513
235.150223 7.120098
235.162964 21.24575
235.208893 9.642095
235.251541 7.001543
235.615662 6.927469
235.782974 22.83333
236.097672 49.172611
237.118179 20.20577
240.038025 70.384216
240.079544 2.075
240.115707 2.003788
244.966522 24.747129
245.575287 3.675
245.613602 10.41667
245.836212 14.84593
245.955383 7.017544
246.080353 114.860199
246.137238 4.844298
246.519608 6.98077
246.558182 3.008333
246.610916 12.7814
246.726852 11.12255
246.869049 8.534524
246.918503 4.469445
247.090973 1360.501953
247.136932 6.366667
247.156708 15.75
247.218994 8.350877
247.235413 3.34375
247.262756 4.763889
247.290115 4.335784
247.36232 21.330549
247.547485 17.52083
247.804657 12.05797
247.897736 5.121212
248.099625 3246.916016
248.17717 15.36801
248.19635 3.875
248.226486 14.07001
248.27034 9.333333
248.381577 36.400822
248.395599 9.748563
248.47525 10.27222
248.495132 7.033602
248.561111 11.42455
248.59111 7.958333
248.637741 11.02976
248.703568 16.339279
249.070847 179.759201
249.153656 2.695513
249.499527 18.017361
249.769058 1.666667
249.968048 7.852564
250.077728 184.649307
250.379715 3.002451
250.4189 9.1875
250.682114 3.708333
250.809753 43.349209
251.537064 4.351191
253.041275 30.94079
254.825119 4.675
262.116486 85.792038
262.18576 1.671296
262.473511 11.45833
262.739044 20.63377
263.084076 40.75148
263.510437 10.11667
263.657959 5.069444
263.697754 5.416667
263.997192 5.480072
264.026459 26.782049
264.093201 128.084
264.941162 12.66667
265.04776 266.753204
265.287537 7.677381
265.321533 7.719017
265.370026 10.15502
265.534729 22.44907
265.780731 6.001263
267.13797 4.0
275.06601 30.75758
276.089478 77.59568
277.055603 29.44886
278.059662 95.312637
279.06427 165.772797
279.118958 1.666667
279.444824 2.008333
280.035187 141.132599
280.071625 1122.139038
280.160217 6.336538
280.241913 11.13807
280.366821 22.3246
280.416656 30.71784
280.710266 5.708333
280.725922 8.506945
280.838135 3.640152
280.947021 4.66821
281.075897 235.779099
281.994476 37.537281
282.048553 633.805298
282.143494 4.016667
282.219666 3.025
282.967834 8.594136
286.254883 6.667793
291.081848 33.375
292.087311 103.799202
292.289978 11.33929
292.357086 4.120098
292.403046 13.55227
292.42984 2.458333
292.522064 22.62262
292.56366 5.061275
293.029785 20.37376
293.092194 233.395401
293.153076 6.775537
293.254242 7.494444
293.284149 22.01145
293.381195 12.32018
293.415222 26.18881
293.486755 7.334524
293.570282 10.06888
293.626831 6.625
294.017426 5.480072
294.085907 679.019775
294.156647 4.428571
294.325439 14.09624
294.357697 7.291667
294.402283 26.130211
294.447754 13.85722
294.476898 4.335
294.494812 4.041667
294.524658 8.0
294.602692 19.7365
294.616547 11.23132
294.686157 14.05833
294.73996 19.93297
294.775452 2.027778
294.798065 21.2223
295.051514 52.86409
295.094879 2672.687012
295.165161 4.825397
295.218231 20.15476
295.278229 7.2
295.34317 15.66764
295.429871 2.916667
295.486511 4.107143
295.593506 16.861111
295.63913 9.8625
295.733826 29.552931
295.812042 77.228287
295.875793 5.844298
295.965302 11.83712
296.026733 18.674999
296.067657 1591.942017
296.162842 15.12374
296.342468 12.66667
296.372681 17.028009
296.610413 7.629902
296.648438 5.231482
296.68985 2.761364
296.713898 4.666667
296.911682 10.35874
296.974976 9.428572
297.137909 7.041667
297.193085 21.908501
297.21347 3.444444
297.238739 10.70833
297.288208 20.090651
297.343903 6.028846
297.369995 26.912741
297.439453 10.72854
297.504242 22.18939
297.523499 18.00333
297.546692 16.87199
297.609344 5.041667
297.660156 2.893518
297.680298 4.963235
297.854584 5.094697
297.913605 5.742284
298.080536 334.824707
298.219055 28.206051
298.44223 12.00309
298.526398 13.34987
299.958679 17.002689
300.543396 7.34248
300.789154 30.48016
307.056549 87.127571
307.084625 2.482143
309.092621 3.555556
309.199127 11.66748
309.358612 14.3818
310.09671 46.450291
310.276703 4.335318
311.090454 841.961426
311.356262 7.347223
311.405731 30.194071
311.715454 22.404551
312.758453 7.19853
313.053558 14.82051
313.107117 592.986084
313.178802 6.583333
313.471222 11.2807
313.526764 10.76894
313.825836 18.42222
314.155487 14.33397
314.360657 17.190479
315.087982 19.453699
322.072815 20.710119
324.06073 139.086899
337.016113 26.24008
337.8172 6.160088
337.889954 42.82399
337.934235 4.362179
337.97229 28.10597
337.99173 13.76179
338.023987 35.174271
338.093048 341.777191
338.126312 3.675
338.15033 26.758659
338.180267 153.543198
338.240479 32.297009
338.258606 12.03788
338.290009 18.895679
338.305176 7.407407
338.343597 6.351191
338.418793 97.97316
338.548401 4.025
338.798065 27.30208
339.201599 10.24242
339.265686 15.2663
339.328491 2.347222
339.362183 31.02692
339.464478 5.88587
339.541199 7.186728
339.732178 12.81855
339.993988 25.818529
340.028931 31.24621
340.092499 15144.799805
340.219879 58.853531
340.250793 75.167923
340.278748 106.135498
340.302643 79.548599
340.332275 40.05238
340.381531 109.0177
340.396484 56.342251
340.432556 69.831703
340.458344 88.365242
340.488739 37.818649
340.53186 100.6987
340.58075 63.9743
340.613495 28.74094
340.670715 55.065392
340.770081 59.679371
340.794525 37.487541
340.855652 5.160714
340.946625 13.67281
341.01004 13.1875
341.197174 3.703704
341.346344 27.414351
341.544281 14.34483
341.651215 8.888888
341.813782 6.510965
341.898895 17.06897
341.940247 14.90675
342.011505 67.532661
342.072693 4939.339844
342.148895 7.337963
342.166748 48.450981
342.245422 2.680556
342.355621 66.32827
342.490234 12.43841
342.660278 53.672581
342.725708 17.08333
342.74762 23.16927
342.815918 14.92188
342.979523 12.42391
342.997223 4.926282
343.211914 17.72043
343.418793 20.441389
343.461029 16.444441
343.585419 3.703704
343.968658 21.293011
344.533997 4.382936
344.63089 33.671879
346.09845 9.668011
346.357025 3.42803
347.11142 6.054487
347.812866 8.551471
351.928192 13.67432
353.705688 16.066179
354.203033 20.64547
354.733551 4.335145
354.778778 23.44511
354.831787 6.010417
354.852448 73.348831
354.927216 23.15691
354.943268 15.33418
354.98056 25.841339
355.002533 4.675
355.035278 19.72781
355.055023 20.217991
355.09903 10.48007
355.146484 2.0
355.183441 6.704772
355.240448 12.22222
355.527618 18.1523
355.666473 3.375
355.697418 13.23611
355.815491 7.017544
355.915436 20.712061
355.946777 8.001126
356.130554 5.041667
356.380432 38.96143
356.412018 19.084669
356.503571 10.72024
356.557434 6.840517
356.67746 7.490385
356.750214 17.97917
356.771393 64.563431
356.820221 8.001985
357.047974 89.365692
357.095612 16560.560547
357.173706 197.789993
357.24411 49.201061
357.318665 69.905479
357.341217 81.575546
357.403198 96.752052
357.43219 71.017517
357.451813 51.37867
357.472321 52.705921
357.512299 116.942101
357.572845 35.682491
357.600922 57.474918
357.629517 14.34069
357.649139 23.550131
357.710266 34.22821
357.740509 58.949711
357.790833 53.02216
357.869537 24.33333
358.262909 20.85215
358.287811 9.858334
358.534698 8.069444
358.689392 11.67539
358.866913 44.01543
359.321808 19.920019
359.424103 6.080128
359.500977 3.347222
359.621887 2.125
360.241089 18.08
360.886414 9.070402
361.164062 7.242816
361.431244 5.88587
361.52771 7.2
363.680695 6.380208
364.35379 19.79598
365.327911 7.482143
368.092896 12.55408
368.820496 8.462607
371.35025 2.336539
373.43573 1.666667
382.964661 6.371212
919.907837 10.71078
