>compound MLS001158021-01!1-[2-(8-methyl-2-oxo-4-propylchromen-7-yl)oxyacetyl]-4-phenylpiperidine-4-carboxylic acid
>formula C27H29NO6
>ionization [M+H]+
>parentmass 464.2067641000906
#inchi InChI=1S/C27H29NO6/c1-3-7-19-16-24(30)34-25-18(2)22(11-10-21(19)25)33-17-23(29)28-14-12-27(13-15-28,26(31)32)20-8-5-4-6-9-20/h4-6,8-11,16H,3,7,12-15,17H2,1-2H3,(H,31,32)
#inchikey XJBXSWOMPZIREV
#Ion_Source LC-ESI
#Instrument qTof
#Compound_Source NIH Natural Product Library
#PI Dorrestein
#Data_Collector VVP/LMS
#Scan -1
#Precursor_MZ 464.207
#ExactMass 463.199
#Charge 1
#CAS_Number N/A
#Pubmed_ID N/A
#Smiles CCCc1cc(=O)oc2c(C)c(OCC(=O)N3CCC(CC3)(C(=O)O)c4ccccc4)ccc12
#INCHI_AUX N/A
#Library_Class 1
#SpectrumID CCMSLIB00000080167
#IonMode Positive
#UpdateWorkflowName UPDATE-SINGLE-ANNOTATED-GOLD
#LibraryQualityString Gold
#TaskID b1d8e8f6646f4e71acdff9ca3d919d08
##Scan# 2272
#SpectrumFile p2-A05_GA5_01_17982.mzXML
#LibraryName NIH_Natural_Products_Library.mgf
#MQScore -1
#Organism NIH_Natural_Products_Library
#TIC_Query 0
#RT_Query -1
#MZErrorPPM -1
#SharedPeaks 0
#MassDiff 0
#LibMZ -1
#SpecMZ 464.207
#SpecCharge 0
#internalFilename spec-00000.mgf

>collision 10
94.973297 168.0
94.992691 184.0
95.083893 120.0
95.163475 132.0
95.266411 132.0
95.386894 140.0
95.770226 148.0
95.863747 148.0
95.900772 108.0
95.933914 156.0
96.083008 240.0
96.187904 156.0
96.435577 188.0
96.500084 120.0
96.537239 180.0
96.650696 260.0
96.787712 164.0
96.850388 88.0
96.938545 128.0
97.003227 156.0
97.050278 200.0
97.114998 128.0
97.144417 152.0
97.396507 236.0
97.4114 184.0
97.621704 164.0
97.802704 140.0
97.958168 240.0
97.97403 156.0
98.054817 204.0
98.210579 124.0
98.411873 132.0
98.504692 156.0
98.552109 148.0
98.571869 160.0
98.619301 184.0
98.908089 180.0
99.044044 304.0
99.0784 232.0
99.104156 124.0
99.457153 152.0
99.500832 100.0
99.806808 164.0
99.910233 232.0
100.055519 196.0
100.163055 140.0
100.220833 144.0
100.444122 112.0
100.495987 220.0
100.735565 140.0
100.785515 196.0
100.813492 192.0
100.877449 56.0
100.949425 156.0
101.255623 148.0
101.39933 256.0
101.578918 232.0
101.682671 148.0
101.773003 168.0
101.911598 152.0
101.953796 188.0
102.046265 220.0
102.110611 188.0
102.366196 188.0
102.54953 240.0
102.918709 152.0
102.975258 132.0
103.054886 1072.0
103.073296 192.0
103.167221 28.0
103.191483 224.0
103.244057 196.0
103.505104 116.0
103.588142 152.0
103.606377 196.0
103.624611 172.0
103.936867 76.0
104.049911 244.0
104.05854 296.0
104.192749 140.0
104.217072 124.0
104.294296 48.0
104.351219 204.0
104.404091 104.0
104.619774 116.0
104.682892 84.0
104.809189 196.0
104.896828 180.0
105.032196 300.0
105.054535 476.0
105.070854 648.0
105.455544 200.0
105.527664 68.0
105.5522 120.0
105.578789 164.0
105.658562 108.0
105.812057 156.0
105.896011 136.0
106.071358 204.0
106.149353 240.0
106.244728 208.0
106.312202 176.0
106.412781 200.0
106.624367 204.0
106.698364 188.0
106.838211 116.0
106.854675 156.0
106.881424 36.0
106.945221 132.0
106.969917 196.0
107.064636 124.0
107.182053 80.0
107.264496 200.0
107.417091 124.0
107.489296 144.0
107.693687 160.0
107.842453 168.0
107.952026 48.0
108.026489 136.0
108.156853 140.0
108.351509 116.0
108.46756 196.0
108.542198 116.0
108.668724 260.0
108.80986 108.0
108.928238 224.0
109.161018 128.0
109.57106 104.0
109.660667 52.0
109.698189 132.0
109.771164 116.0
109.95475 152.0
110.06002 1284.0
110.153107 172.0
110.194893 220.0
110.234589 184.0
110.280571 128.0
110.314011 128.0
110.37883 76.0
110.65921 184.0
110.81839 156.0
110.83725 32.0
111.007523 192.0
111.040596 152.0
111.067352 172.0
111.114014 84.0
111.168571 196.0
111.326019 148.0
111.525612 128.0
111.573959 112.0
111.6791 176.0
111.794815 244.0
111.811653 172.0
111.883224 168.0
112.047493 152.0
112.075134 900.0
112.112816 168.0
112.144432 160.0
112.262497 96.0
112.302567 168.0
112.373329 228.0
112.509361 84.0
112.771301 128.0
112.898155 152.0
112.944687 180.0
112.991226 164.0
113.078598 352.0
113.393562 120.0
113.423233 148.0
113.512283 68.0
113.580727 132.0
113.665009 248.0
113.902794 208.0
114.051537 80.0
114.077049 168.0
114.157845 172.0
114.247177 188.0
114.270576 64.0
114.694366 140.0
114.899086 128.0
114.939629 176.0
115.005791 200.0
115.022865 124.0
115.05529 1752.0
115.118942 156.0
115.153114 52.0
115.315491 204.0
115.345413 40.0
115.53788 40.0
115.576393 76.0
115.627754 80.0
115.690948 184.0
115.706955 236.0
115.734787 124.0
115.970444 168.0
116.032608 152.0
116.061783 588.0
116.240669 168.0
116.290268 176.0
116.326515 140.0
116.489723 280.0
116.519798 156.0
116.552025 132.0
116.584259 176.0
116.64444 148.0
116.851959 140.0
116.935974 200.0
117.06926 2228.0
117.113525 48.0
117.154457 176.0
117.257889 172.0
117.454094 188.0
117.496956 60.0
117.659103 128.0
117.747635 224.0
117.786514 172.0
118.004791 200.0
118.04155 164.0
118.076622 432.0
118.1259 172.0
118.201622 40.0
118.454933 68.0
118.509094 224.0
118.578445 64.0
118.649979 148.0
118.710686 220.0
118.751892 132.0
118.849518 116.0
118.911667 188.0
118.917877 120.0
119.053383 140.0
119.084694 632.0
119.190422 140.0
119.216499 216.0
119.283882 168.0
119.368675 112.0
119.449142 196.0
119.625412 164.0
119.908569 140.0
120.006668 172.0
120.086136 328.0
120.146255 52.0
120.19207 140.0
120.277191 128.0
120.395088 80.0
120.830078 156.0
120.87384 204.0
120.967949 160.0
120.989838 224.0
121.03363 148.0
121.064285 168.0
121.101517 196.0
121.119041 268.0
121.191338 136.0
121.331612 236.0
121.645515 184.0
121.689232 192.0
121.741928 136.0
121.891312 168.0
122.328987 52.0
122.344398 188.0
122.368614 184.0
122.778481 168.0
122.798325 100.0
122.866707 136.0
122.902016 220.0
122.983665 180.0
123.040726 352.0
123.078598 164.0
123.186424 224.0
123.279617 64.0
123.507339 136.0
123.564857 116.0
123.7397 136.0
123.795059 72.0
124.045425 184.0
124.077698 316.0
124.244125 140.0
124.320457 224.0
124.360405 136.0
124.411461 108.0
124.451622 208.0
124.562469 156.0
124.785652 184.0
124.975983 132.0
125.046638 160.0
125.145149 140.0
125.200821 240.0
125.234222 148.0
125.35453 36.0
125.412285 236.0
125.506111 148.0
125.597549 140.0
125.72419 200.0
125.814003 220.0
125.927887 212.0
125.961395 48.0
125.98597 156.0
126.054169 876.0
126.084282 36.0
126.242264 216.0
126.267609 56.0
126.319054 172.0
126.395126 188.0
126.515991 128.0
126.607796 92.0
126.683945 128.0
126.760124 176.0
126.878922 196.0
127.058701 380.0
127.471481 260.0
127.518677 76.0
127.574867 192.0
127.626579 64.0
127.644569 48.0
127.6828 144.0
127.74353 136.0
127.813278 152.0
127.851532 120.0
128.009109 140.0
128.064224 3072.0
128.136124 176.0
128.417038 224.0
128.457642 148.0
128.686661 240.0
128.889099 192.0
129.069717 1800.0
129.135269 200.0
129.41362 80.0
129.538193 148.0
129.594818 116.0
129.662811 136.0
129.875931 124.0
130.007523 184.0
130.037033 144.0
130.076263 2052.0
130.123291 136.0
130.182327 124.0
130.45726 204.0
130.545929 184.0
130.611893 160.0
130.80304 52.0
130.880432 40.0
130.939651 212.0
131.048813 860.0
131.083969 3072.0
131.126465 36.0
131.174332 152.0
131.22554 156.0
131.302017 156.0
131.379578 148.0
131.49823 172.0
131.660339 140.0
131.84082 148.0
131.896088 176.0
131.918533 164.0
131.973404 124.0
132.055298 196.0
132.086121 460.0
132.222748 228.0
132.254791 44.0
132.399033 80.0
132.415054 180.0
132.486069 36.0
132.708389 196.0
132.72673 248.0
132.825348 128.0
132.969894 60.0
133.064636 340.0
133.103043 376.0
133.155869 248.0
133.201797 132.0
133.376434 96.0
133.397125 76.0
133.5811 160.0
133.728363 116.0
133.779007 108.0
133.972443 136.0
134.09227 172.0
134.126846 140.0
134.214447 108.0
134.320541 180.0
134.345917 212.0
134.458984 96.0
134.488983 136.0
134.525925 128.0
134.549011 112.0
134.721481 164.0
134.791519 136.0
135.004196 164.0
135.073593 140.0
135.110153 204.0
135.118896 164.0
135.351318 176.0
135.397629 200.0
135.420792 128.0
135.499557 116.0
135.705826 160.0
135.928513 176.0
136.032944 196.0
136.067764 176.0
136.218719 104.0
136.386032 208.0
136.409271 120.0
136.562744 180.0
136.690689 72.0
136.730255 188.0
136.900208 288.0
136.9561 156.0
136.972412 164.0
137.063263 176.0
137.543701 152.0
137.730515 144.0
137.837982 192.0
137.992249 92.0
138.043411 136.0
138.069412 164.0
138.090469 160.0
138.26828 52.0
138.331467 140.0
138.42746 108.0
138.713303 68.0
138.797714 212.0
138.877441 36.0
138.973633 176.0
138.997101 148.0
139.029953 164.0
139.058105 180.0
139.099319 136.0
139.135574 124.0
139.25769 104.0
139.279083 36.0
139.438599 160.0
139.577301 196.0
139.737244 144.0
139.840775 152.0
139.942001 140.0
140.111588 120.0
140.194046 96.0
140.252975 168.0
140.455765 164.0
140.47699 28.0
140.4935 108.0
140.658691 180.0
140.951553 64.0
141.070984 928.0
141.197418 188.0
141.223434 184.0
141.289658 156.0
141.365372 196.0
141.436386 184.0
141.50267 184.0
141.841431 248.0
141.971848 232.0
142.042999 172.0
142.076752 1004.0
142.104675 128.0
142.128189 224.0
142.37291 172.0
142.465546 168.0
142.659134 112.0
142.762665 116.0
142.834015 156.0
143.007706 156.0
143.048172 160.0
143.085327 11764.0
143.138641 48.0
143.183899 40.0
143.236298 220.0
143.262497 60.0
143.319687 200.0
143.336365 96.0
143.415009 120.0
143.443604 128.0
143.517899 176.0
143.643921 36.0
143.801407 60.0
143.820496 112.0
143.882568 100.0
143.999573 136.0
144.057938 1980.0
144.081589 2844.0
144.128571 148.0
144.167648 124.0
144.190704 48.0
144.341309 232.0
144.413055 64.0
144.721832 168.0
144.834335 96.0
144.851089 72.0
144.896622 228.0
144.915787 48.0
145.015228 152.0
145.06546 592.0
145.09935 1528.0
145.145889 136.0
145.167465 64.0
145.21402 192.0
145.234619 136.0
145.261002 84.0
145.340179 144.0
145.361771 140.0
145.419373 200.0
145.457779 88.0
145.473312 68.0
145.666702 268.0
145.796448 192.0
145.849319 104.0
146.074799 260.0
146.097488 336.0
146.133087 132.0
146.159561 116.0
146.718338 140.0
146.824432 108.0
146.952286 180.0
147.083221 332.0
147.119156 548.0
147.147781 40.0
147.302353 244.0
147.411072 144.0
147.449738 44.0
147.487457 164.0
147.507751 100.0
147.536758 152.0
147.679428 68.0
147.814911 132.0
148.02066 232.0
148.040039 432.0
148.072815 172.0
148.082794 92.0
148.08931 140.0
148.122391 180.0
148.279877 152.0
148.507797 208.0
148.539322 192.0
149.092773 412.0
149.52095 100.0
149.601273 152.0
149.849686 96.0
149.934967 160.0
150.09343 148.0
150.769623 60.0
151.08017 168.0
151.111969 216.0
151.200058 152.0
151.537994 184.0
151.658066 256.0
151.929382 200.0
152.028412 36.0
152.060318 104.0
152.079956 124.0
152.141312 180.0
152.246902 128.0
152.271454 136.0
152.337784 224.0
152.654846 216.0
152.814728 188.0
152.895935 112.0
152.950089 208.0
153.068253 200.0
153.110123 164.0
153.386078 52.0
153.563614 48.0
153.647476 88.0
153.827637 184.0
154.071732 164.0
154.200607 104.0
154.269821 116.0
154.388504 80.0
154.502289 164.0
154.597412 200.0
154.87114 164.0
155.059128 396.0
155.085205 708.0
155.18338 228.0
155.22554 80.0
155.2677 180.0
155.354507 88.0
155.446304 128.0
155.649857 132.0
155.667236 124.0
156.0811 440.0
156.127243 196.0
156.326004 168.0
156.480331 180.0
156.861496 212.0
156.928818 152.0
156.973694 128.0
156.998627 104.0
157.063019 876.0
157.099426 556.0
157.320511 188.0
157.487808 184.0
157.54776 100.0
157.565247 164.0
157.672699 188.0
157.870193 220.0
157.970245 152.0
158.024323 216.0
158.071808 632.0
158.096786 28216.0
158.180237 188.0
158.272018 176.0
158.317474 148.0
158.435883 60.0
158.506042 40.0
158.604492 92.0
158.648911 144.0
158.696533 56.0
158.751709 60.0
158.781799 176.0
158.919769 152.0
158.957489 236.0
158.977478 44.0
159.061508 456.0
159.102936 6632.0
159.226028 64.0
159.256165 176.0
159.306396 168.0
159.349106 136.0
159.371719 64.0
159.394333 68.0
159.439575 76.0
159.575317 88.0
159.605484 136.0
159.640686 172.0
159.678421 152.0
159.761429 188.0
159.849487 56.0
159.952682 152.0
160.077957 196.0
160.111542 6064.0
160.166718 120.0
160.224655 60.0
160.287033 180.0
160.335526 192.0
160.381836 96.0
160.479202 204.0
160.537201 128.0
160.578781 164.0
160.618607 160.0
160.842499 48.0
160.898026 148.0
161.024292 140.0
161.061646 308.0
161.092407 628.0
161.114166 780.0
161.168274 32.0
161.337616 144.0
161.37149 160.0
161.451401 80.0
161.700485 80.0
161.808182 184.0
162.068558 1232.0
162.12352 292.0
162.180573 68.0
162.294662 80.0
162.312408 232.0
162.446823 180.0
162.479813 80.0
162.525482 104.0
162.571152 60.0
162.753922 88.0
162.94696 132.0
162.996811 136.0
163.048599 152.0
163.074081 332.0
163.113968 240.0
163.130142 200.0
163.371521 112.0
163.572556 60.0
163.625549 64.0
163.666763 64.0
163.865433 160.0
164.038727 136.0
164.173859 160.0
164.344772 176.0
164.444305 116.0
165.061859 136.0
165.103455 32.0
166.05217 168.0
166.071579 320.0
166.104935 116.0
166.179321 64.0
166.371811 176.0
166.41803 144.0
166.865097 184.0
167.057709 116.0
167.112 192.0
167.415741 140.0
167.490433 128.0
167.547119 88.0
168.075867 224.0
168.116959 212.0
168.140182 264.0
168.550781 160.0
169.079224 164.0
169.090576 176.0
169.137863 148.0
169.357956 72.0
169.850449 124.0
169.966888 168.0
170.07666 180.0
170.095917 740.0
170.193024 56.0
170.244949 192.0
170.307297 92.0
170.470963 192.0
170.954666 160.0
170.998901 224.0
171.048355 156.0
171.08136 1016.0
171.175934 164.0
171.256668 84.0
171.519836 76.0
171.89801 80.0
171.916275 184.0
172.0233 32.0
172.084808 328.0
172.11232 6072.0
172.184784 264.0
172.216522 36.0
172.263535 44.0
172.344528 52.0
172.375885 64.0
172.532379 96.0
172.561478 64.0
172.621613 144.0
172.676529 104.0
172.706741 116.0
172.728851 136.0
172.85704 100.0
173.021942 228.0
173.059784 184.0
173.096649 4400.0
173.462051 108.0
173.485641 36.0
173.74527 108.0
173.934219 76.0
173.95784 48.0
174.064362 288.0
174.098328 408.0
174.12236 484.0
174.18631 168.0
174.30043 156.0
174.380753 64.0
174.439529 120.0
174.501663 172.0
174.543732 204.0
174.891006 52.0
174.97525 48.0
175.030548 180.0
175.078323 628.0
175.111984 1280.0
175.149048 176.0
175.66803 132.0
175.750137 112.0
175.808197 56.0
175.879456 76.0
176.048431 180.0
176.077393 324.0
176.11409 340.0
176.291473 88.0
176.323181 52.0
176.34169 152.0
176.439499 44.0
176.553192 104.0
176.58757 192.0
176.664291 176.0
176.92099 164.0
177.078979 356.0
177.254715 84.0
177.384583 56.0
177.604675 164.0
177.803665 144.0
178.026672 124.0
178.050568 236.0
178.552872 196.0
178.62468 140.0
178.749725 124.0
178.965347 136.0
178.986649 128.0
179.210388 168.0
179.245026 104.0
179.604935 176.0
180.090729 188.0
180.146835 240.0
180.262665 168.0
180.432785 144.0
180.614624 44.0
180.855453 116.0
180.900955 124.0
180.954498 128.0
181.01683 156.0
181.513107 208.0
181.581543 148.0
181.630615 68.0
181.72908 96.0
181.787689 124.0
182.070007 148.0
182.095993 544.0
182.231171 172.0
182.298355 156.0
182.559113 156.0
182.790466 60.0
182.852356 160.0
182.938492 184.0
183.081192 228.0
183.385284 148.0
183.490768 144.0
183.544693 144.0
183.906204 92.0
184.110123 184.0
184.1465 184.0
184.173523 236.0
184.538345 220.0
184.763199 124.0
185.063248 184.0
185.094299 336.0
185.681091 140.0
186.001266 112.0
186.050125 176.0
186.090637 3068.0
186.153305 80.0
186.213058 160.0
186.286392 104.0
186.319 56.0
186.378769 44.0
186.463013 108.0
186.555435 260.0
186.593491 116.0
186.638931 208.0
186.64595 248.0
186.659531 112.0
186.667816 168.0
186.73761 92.0
186.808334 164.0
186.936218 52.0
186.971588 84.0
187.006973 52.0
187.034088 200.0
187.100098 53612.0
187.159561 144.0
187.181015 120.0
187.208435 64.0
187.236191 84.0
187.277679 68.0
187.296158 140.0
187.321533 100.0
187.370911 112.0
187.413422 64.0
187.438965 64.0
187.464523 32.0
187.489044 224.0
187.525894 52.0
187.554886 180.0
187.628052 52.0
187.692673 40.0
187.75119 52.0
187.793198 152.0
187.865326 76.0
188.00383 184.0
188.102875 8608.0
188.185669 92.0
188.243256 60.0
188.271805 52.0
188.340302 28.0
188.394928 108.0
188.523361 152.0
188.577209 144.0
188.62352 80.0
188.657288 64.0
188.701035 120.0
188.752975 72.0
188.772125 100.0
188.863968 96.0
188.921036 84.0
188.974533 52.0
189.056412 620.0
189.098541 468.0
189.149689 64.0
189.175964 100.0
189.215393 96.0
189.250977 156.0
189.27562 84.0
189.338608 36.0
189.387909 76.0
189.418045 76.0
189.461868 108.0
189.535843 200.0
189.563248 96.0
189.584366 104.0
189.620804 152.0
189.667404 52.0
189.812698 108.0
189.938858 176.0
189.958069 68.0
190.029388 152.0
190.061661 848.0
190.089188 320.0
190.123047 4788.0
190.198334 96.0
190.235229 152.0
190.255859 68.0
190.284637 40.0
190.388992 140.0
190.416458 136.0
190.452164 68.0
190.630737 88.0
190.754425 56.0
190.803909 60.0
190.946899 52.0
190.988144 48.0
191.06871 140.0
191.104721 328.0
191.124557 908.0
191.160034 160.0
191.227524 148.0
191.560699 44.0
191.604782 40.0
191.662643 60.0
191.858337 112.0
191.880386 116.0
192.123077 432.0
192.349365 92.0
192.404587 44.0
192.592361 92.0
192.631027 84.0
192.90184 36.0
193.076035 48.0
193.37207 136.0
193.665558 44.0
193.831787 100.0
194.145035 132.0
194.686203 184.0
195.069626 32.0
195.353271 180.0
195.651047 64.0
195.726227 80.0
195.979691 76.0
196.403442 176.0
196.559677 156.0
196.743896 84.0
197.109787 72.0
197.154495 136.0
197.425674 124.0
197.680237 128.0
197.870575 96.0
198.327194 80.0
198.764694 116.0
199.081909 152.0
199.514618 108.0
199.584915 32.0
199.717087 136.0
199.781784 160.0
200.071655 300.0
200.106873 1320.0
200.325104 176.0
200.866348 204.0
200.931992 104.0
200.962265 120.0
200.992142 164.0
201.055389 132.0
201.114365 2472.0
201.185226 200.0
201.207809 80.0
201.295349 120.0
201.380066 116.0
201.430908 52.0
201.504364 120.0
201.662613 132.0
201.713501 40.0
201.874649 68.0
201.984955 156.0
202.05983 164.0
202.121063 4676.0
202.208481 52.0
202.319824 96.0
202.364182 96.0
202.399719 116.0
202.449127 48.0
202.672913 56.0
202.723923 48.0
202.845795 60.0
202.871307 164.0
202.893982 36.0
203.066956 144.0
203.106033 3784.0
203.231491 80.0
203.302444 104.0
203.33934 100.0
203.441513 88.0
203.506821 76.0
203.614731 104.0
203.836319 132.0
203.910202 52.0
203.995483 184.0
204.103577 6068.0
204.138336 372.0
204.194519 52.0
204.258987 84.0
204.318314 176.0
204.370895 84.0
204.399338 176.0
204.627045 152.0
204.690048 64.0
205.107361 1892.0
205.239639 52.0
205.285263 128.0
205.345154 168.0
205.531403 112.0
205.604782 152.0
205.844589 44.0
205.963669 132.0
206.070236 164.0
206.117889 3140.0
206.418961 32.0
206.607727 168.0
206.684982 56.0
206.762253 124.0
206.833801 52.0
206.948318 108.0
207.08577 84.0
207.119705 784.0
207.174576 144.0
207.280579 64.0
207.346497 68.0
207.406693 80.0
207.601654 52.0
207.6418 32.0
208.128235 204.0
208.273239 140.0
208.523209 104.0
208.61232 128.0
208.781967 68.0
209.31723 140.0
209.340256 72.0
209.472748 100.0
209.807037 120.0
209.8647 88.0
210.052429 132.0
210.375366 28.0
211.068771 108.0
211.117935 116.0
211.465103 128.0
211.908173 140.0
212.337189 48.0
212.517044 84.0
213.089905 240.0
213.15004 120.0
213.373856 136.0
213.545425 176.0
213.615234 88.0
213.830551 164.0
214.086746 168.0
214.299393 156.0
214.585022 76.0
214.865005 56.0
215.002151 248.0
215.080811 164.0
215.422607 124.0
215.527786 96.0
216.293259 136.0
216.370148 172.0
216.654221 220.0
216.759705 88.0
217.049835 192.0
217.087219 736.0
217.152542 172.0
217.316818 60.0
217.542801 140.0
217.669052 64.0
217.765961 256.0
217.906967 228.0
217.951035 156.0
217.974548 132.0
218.018631 176.0
218.050903 204.0
218.117523 15588.0
218.265198 64.0
218.273758 56.0
218.324371 64.0
218.379486 68.0
218.448074 72.0
218.512634 48.0
218.547943 52.0
218.674484 312.0
218.771622 56.0
218.942398 64.0
218.975876 120.0
219.048431 104.0
219.120453 2564.0
219.360794 124.0
219.413849 96.0
219.779587 36.0
219.956665 104.0
220.103241 424.0
220.110825 176.0
220.237167 36.0
220.29921 48.0
220.529465 160.0
220.719788 112.0
220.914093 244.0
220.991013 20.0
221.10051 116.0
221.18338 40.0
221.313644 124.0
221.488373 112.0
222.766876 248.0
223.269211 92.0
223.798889 100.0
224.567749 104.0
224.809402 148.0
225.078064 96.0
225.191559 224.0
226.873245 184.0
228.113068 100.0
228.639435 124.0
229.024826 88.0
229.085068 172.0
229.11644 208.0
229.467804 112.0
229.778458 44.0
230.044037 140.0
230.113464 160.0
230.543167 188.0
230.732834 144.0
230.887039 148.0
230.914261 212.0
231.102951 16668.0
231.162338 136.0
231.189575 48.0
231.23497 60.0
231.274323 68.0
231.340912 80.0
231.4711 80.0
231.701294 56.0
231.74675 28.0
231.798264 88.0
231.870987 96.0
232.022552 68.0
232.106094 2488.0
232.189331 84.0
232.48056 48.0
232.562515 40.0
232.605011 68.0
232.626251 64.0
232.733459 64.0
233.106339 288.0
233.416199 56.0
233.464859 48.0
233.516556 76.0
233.918213 160.0
234.012589 76.0
234.100891 96.0
234.259262 40.0
234.685944 40.0
234.7668 68.0
235.794067 100.0
236.442444 156.0
236.849655 84.0
237.085571 140.0
237.21431 60.0
237.340012 36.0
237.655945 100.0
237.886124 64.0
239.041763 52.0
239.257217 72.0
239.944244 124.0
240.718719 40.0
241.636734 52.0
241.689331 48.0
242.116531 152.0
242.711517 100.0
243.092621 164.0
243.825974 136.0
244.062225 68.0
244.121307 200.0
244.609787 52.0
244.89003 48.0
245.089401 120.0
245.881485 212.0
246.075027 216.0
246.112564 1140.0
246.146835 32.0
247.006317 168.0
247.118271 444.0
247.153366 152.0
247.779556 64.0
247.823425 44.0
248.12648 240.0
248.575974 64.0
249.081451 68.0
249.112869 184.0
249.134857 136.0
249.216537 56.0
250.084503 196.0
250.130417 112.0
252.425415 96.0
252.811356 92.0
253.80603 52.0
256.776245 100.0
258.072754 100.0
258.107941 160.0
258.821503 92.0
259.096588 2448.0
259.175446 96.0
259.43985 96.0
259.757324 56.0
260.10144 728.0
260.781616 48.0
261.104706 272.0
261.646942 60.0
261.853027 96.0
262.084961 60.0
262.307343 128.0
262.462097 56.0
263.042816 60.0
266.898224 68.0
272.124573 200.0
273.121887 204.0
274.135925 132.0
276.123932 1304.0
277.12442 272.0
277.162842 176.0
279.111298 144.0
279.147858 52.0
279.324127 60.0
280.069763 136.0
280.933105 32.0
286.437531 100.0
288.122986 784.0
289.123932 280.0
289.605927 132.0
290.348175 88.0
296.50885 124.0
297.46582 60.0
297.664948 84.0
298.345245 132.0
300.128876 176.0
301.125549 160.0
302.786133 84.0
305.29184 80.0
305.448334 60.0
305.549225 88.0
305.991241 116.0
306.161865 132.0
309.157196 44.0
309.52475 48.0
311.699585 64.0
311.987793 80.0
316.125153 80.0
322.141144 92.0
323.117096 108.0
327.035767 100.0
335.031372 56.0
342.029449 60.0
344.415161 160.0
345.047058 44.0
347.313416 208.0
348.167053 104.0
349.174225 96.0
351.028839 84.0
353.733826 164.0
355.086487 124.0
355.229004 48.0
356.825104 148.0
359.552307 40.0
363.131378 136.0
368.040527 128.0
368.800781 60.0
371.174377 92.0
373.128723 76.0
374.29071 184.0
376.048645 60.0
378.76297 104.0
380.19754 80.0
381.891479 52.0
389.17984 144.0
390.207733 240.0
391.208527 144.0
391.247894 120.0
392.221008 156.0
395.661682 124.0
396.881989 104.0
397.15564 144.0
397.401581 136.0
401.191803 140.0
402.480499 40.0
404.139282 56.0
405.212311 96.0
410.485901 92.0
412.371216 36.0
412.545044 128.0
418.205383 3872.0
418.281067 36.0
418.399109 72.0
418.515137 152.0
419.107788 212.0
419.204559 1244.0
419.266724 236.0
419.988373 132.0
420.216187 236.0
421.227844 160.0
421.519348 72.0
422.173401 136.0
422.852539 76.0
423.950104 64.0
431.073578 40.0
431.664703 100.0
434.024994 104.0
436.217102 112.0
444.595795 44.0
446.183533 152.0
446.578827 152.0
451.356964 56.0
451.957611 96.0
457.811371 56.0
460.318848 56.0
461.284454 148.0
463.321442 180.0
463.715668 204.0
463.906555 60.0
464.130432 80.0
464.204712 4820.0
464.534668 120.0
464.783508 72.0
465.105377 112.0
465.209595 1608.0
465.805298 92.0
465.934174 172.0
466.15329 48.0
466.20874 272.0
466.901306 108.0
468.097656 112.0
468.485291 48.0
469.045502 76.0
469.097229 80.0
481.306152 112.0
483.426239 76.0
486.639252 92.0
499.161804 92.0
499.281891 40.0
517.098267 40.0
517.569031 68.0
519.164124 100.0
520.103271 68.0
522.175171 160.0
525.459534 64.0
563.560608 128.0
570.722534 72.0
571.483582 112.0
573.536072 88.0
585.230225 48.0
702.513611 120.0
733.508301 56.0
739.725769 244.0
779.66449 44.0
782.406677 208.0
791.759521 124.0
803.005554 132.0
806.150085 80.0
830.294312 136.0
830.982605 64.0
836.620544 208.0
840.678284 76.0
852.550049 120.0
852.887146 56.0
854.660889 48.0
858.458801 76.0
883.054749 116.0
885.641296 96.0
902.034546 44.0
904.804321 132.0
910.656921 60.0
933.149048 108.0
937.543884 172.0
946.713562 84.0
948.140991 148.0
952.663086 124.0
953.062439 200.0
976.367615 56.0
978.919067 124.0
980.015381 80.0
981.36792 148.0
982.671448 248.0
983.919678 68.0
984.362976 64.0
991.344177 132.0
999.192871 196.0
999.589294 148.0
1000.596313 128.0
1011.568298 188.0
1012.727051 68.0
1024.185425 192.0
1040.338135 188.0
1047.527588 60.0
1049.087036 160.0
1053.746582 212.0
1058.50061 148.0
1058.675537 152.0
1065.083374 156.0
1065.447144 156.0
1070.722412 28.0
1072.592285 172.0
1074.398682 116.0
1077.754517 112.0
1079.506348 196.0
1084.278687 116.0
1085.091553 136.0
1086.180176 40.0
1090.099731 108.0
1091.716797 180.0
1094.342285 160.0
1094.961304 216.0
1096.359253 64.0
1098.922974 172.0
1101.72229 120.0
1102.799316 144.0
1104.240723 180.0
1106.483887 188.0
1108.325195 36.0
1108.431152 76.0
1108.855347 156.0
1112.510132 120.0
1116.789429 156.0
1119.831177 248.0
1121.223633 160.0
1125.119019 124.0
1128.686768 148.0
1129.228516 96.0
1130.132568 112.0
1131.831665 168.0
1134.793213 184.0
1141.843994 228.0
1144.212646 144.0
1144.865723 164.0
1145.317017 60.0
1145.795288 68.0
1147.048706 228.0
1147.149902 140.0
1149.881592 132.0
1151.353394 68.0
1152.670654 136.0
1154.103638 60.0
1157.40564 192.0
1163.025635 116.0
1164.696045 92.0
1166.85022 160.0
1168.346436 204.0
1168.707031 164.0
1169.755005 172.0
1172.152344 188.0
1173.052002 144.0
1175.091064 188.0
1175.138916 148.0
1176.51062 168.0
1177.937866 120.0
1178.463989 160.0
1180.965942 192.0
1184.12793 160.0
1188.8927 172.0
1190.78064 176.0
1191.632446 204.0
1199.119263 236.0
1199.477783 120.0
1204.328491 184.0
1207.777588 92.0
1216.050415 164.0
1216.390503 132.0
1227.682739 80.0
1229.915283 196.0
1230.781006 48.0
1233.358887 120.0
1233.736328 176.0
1234.071899 188.0
1235.666504 176.0
1235.891235 148.0
1237.46521 236.0
1237.934326 88.0
1254.489746 204.0
1255.129272 112.0
1255.73584 148.0
1257.739624 148.0
1258.770386 172.0
1260.303223 132.0
1261.42688 168.0
1262.296509 72.0
1269.129517 180.0
1277.061768 164.0
1277.154297 140.0
1278.214355 32.0
1278.548828 68.0
1278.840576 36.0
1279.246338 144.0
1279.879883 180.0
1281.981323 128.0
1284.077271 220.0
1284.476685 216.0
1284.626465 168.0
1285.51123 192.0
1288.174316 252.0
1289.145996 172.0
1289.481934 184.0
1293.508789 136.0
1293.909668 256.0
1295.349121 204.0
1297.262451 184.0
1299.80127 140.0
1304.110229 208.0
1305.619995 212.0
1305.871704 176.0
1307.18103 124.0
1310.781494 160.0
1310.911133 128.0
1311.45166 76.0
1312.006714 152.0
1312.187012 148.0
1312.432129 152.0
1315.180664 132.0
1319.102905 240.0
1320.303101 192.0
1321.930786 216.0
1322.734253 96.0
1324.682129 40.0
1326.645874 116.0
1329.227905 148.0
1332.103027 180.0
1333.723389 176.0
1335.279297 164.0
1338.007446 160.0
1340.382446 64.0
1343.057983 180.0
1345.853027 108.0
1345.904175 180.0
1346.115967 172.0
1346.298462 72.0
1346.685547 128.0
1347.490723 208.0
1348.819092 188.0
1349.696411 212.0
1350.829956 140.0
1356.996338 216.0
1357.763672 172.0
1358.05957 116.0
1361.824829 204.0
1362.868042 188.0
1364.462891 52.0
1367.103516 160.0
1367.397827 180.0
1367.626099 204.0
1367.927856 152.0
1368.708252 184.0
1370.2771 108.0
1373.970703 68.0
1374.155151 52.0
1374.228882 124.0
1377.233398 196.0
1377.491943 40.0
1378.105103 132.0
1381.742676 172.0
1382.911865 108.0
1383.03772 116.0
1383.185791 136.0
1386.637329 132.0
1387.215454 172.0
1387.600952 144.0
1388.876465 112.0
1389.269531 228.0
1390.241577 116.0
1391.763306 212.0
1393.248657 224.0
1396.913574 184.0
1397.694824 164.0
1399.853516 224.0
1400.650391 116.0
1402.490845 156.0
1403.5271 188.0
1404.339844 144.0
1405.01123 236.0
1405.302246 144.0
1405.779785 88.0
1406.809814 128.0
1407.250244 116.0
1411.868164 140.0
1412.092529 200.0
1413.140625 180.0
1413.693481 208.0
1414.344604 48.0
1415.909424 176.0
1416.306396 136.0
1416.493652 168.0
1416.740845 148.0
1421.119141 196.0
1422.537598 152.0
1423.708862 180.0
1426.120605 120.0
1426.579102 52.0
1428.052856 124.0
1428.85022 108.0
1429.685425 204.0
1429.978882 100.0
1430.453125 184.0
1431.431885 104.0
1433.9104 152.0
1435.53125 84.0
1436.866211 172.0
1437.598145 124.0
1437.8396 108.0
1440.369019 76.0
1441.145874 236.0
1443.354248 180.0
1444.503784 44.0
1445.222412 140.0
1445.517578 176.0
1450.190186 108.0
1450.265991 180.0
1452.025024 140.0
1453.549805 184.0
1455.014648 168.0
1455.508179 88.0
1456.396729 180.0
1457.665405 80.0
1458.015015 180.0
1458.949951 184.0
1459.459351 144.0
1459.588623 176.0
1459.847168 256.0
1460.037231 144.0
1461.421631 180.0
1463.019897 116.0
1464.360107 48.0
1465.525635 104.0
1466.798218 244.0
1467.743652 96.0
1468.170654 152.0
1469.612305 132.0
1471.673096 196.0
1474.514771 212.0
1475.500854 128.0
1476.869629 120.0
1477.045654 80.0
1480.060913 188.0
1480.137451 184.0
1480.711792 248.0
1480.92627 184.0
1482.205688 160.0
1482.550415 228.0
1483.631226 136.0
1484.911743 100.0
1487.489746 200.0
1491.007568 184.0
1493.329346 156.0
1493.767822 188.0
1493.867798 80.0
1494.298706 172.0
1495.930176 140.0
1496.492188 172.0
1496.946411 176.0
1498.456177 36.0
1498.671875 56.0
1499.920288 256.0
1499.989746 176.0
1500.190063 36.0
1500.668091 136.0
1503.622559 72.0
