>compound MLS001140981-01!4-[[2-(4-methyl-6-oxobenzo[c]chromen-3-yl)oxypropanoylamino]methyl]cyclohexane-1-carboxylic acid
>formula C25H27NO6
>ionization [M+H]+
>parentmass 438.192
#inchi InChI=1S/C25H27NO6/c1-14-21(12-11-19-18-5-3-4-6-20(18)25(30)32-22(14)19)31-15(2)23(27)26-13-16-7-9-17(10-8-16)24(28)29/h3-6,11-12,15-17H,7-10,13H2,1-2H3,(H,26,27)(H,28,29)/t15?,16-,17-
#inchikey AWLOHOKCXNGHMM
#Ion_Source LC-ESI
#Instrument qTof
#Compound_Source NIH Natural Product Library
#PI Dorrestein
#Data_Collector VVP/LMS
#Scan -1
#Precursor_MZ 438.192
#ExactMass 437.184
#Charge 1
#CAS_Number N/A
#Pubmed_ID N/A
#Smiles CC(Oc1ccc2c3ccccc3c(=O)oc2c1C)C(=O)NC[C@H]4CC[C@@H](CC4)C(=O)O
#INCHI_AUX N/A
#Library_Class 1
#SpectrumID CCMSLIB00000079367
#IonMode Positive
#UpdateWorkflowName UPDATE-SINGLE-ANNOTATED-GOLD
#LibraryQualityString Gold
#TaskID b1d8e8f6646f4e71acdff9ca3d919d08
##Scan# 2157
#SpectrumFile p1-B05_GB5_01_17889.mzXML
#LibraryName NIH_Natural_Products_Library.mgf
#MQScore -1
#Organism NIH_Natural_Products_Library
#TIC_Query 0
#RT_Query -1
#MZErrorPPM -1
#SharedPeaks 0
#MassDiff 0
#LibMZ -1
#SpecMZ 438.192
#SpecCharge 0
#internalFilename spec-00000.mgf

>collision 10
94.974419 176.0
95.052017 120.0
95.084732 2436.0
95.110237 124.0
95.22673 144.0
95.333588 172.0
95.847298 252.0
96.067612 92.0
96.088074 236.0
96.483566 128.0
96.747673 100.0
96.972931 140.0
97.351562 192.0
97.82737 148.0
97.884468 164.0
97.979004 136.0
97.994766 148.0
99.066994 168.0
99.448227 140.0
100.427132 160.0
100.790466 120.0
100.986694 224.0
101.050385 140.0
101.082405 168.0
101.186478 168.0
101.200493 184.0
101.549179 168.0
101.565224 196.0
102.163826 228.0
102.560516 164.0
102.627037 140.0
102.840874 176.0
103.224716 128.0
103.36631 256.0
103.611298 220.0
103.753159 204.0
104.583977 160.0
104.618835 224.0
104.898697 136.0
104.964935 144.0
105.032242 160.0
105.119965 148.0
105.271027 80.0
105.416061 144.0
105.444672 168.0
105.780113 52.0
106.286316 128.0
106.4608 148.0
106.549126 184.0
106.746437 200.0
107.050987 156.0
107.160156 152.0
107.180763 148.0
107.219292 40.0
107.296181 152.0
107.341537 116.0
107.382782 132.0
107.446732 64.0
107.580872 132.0
107.828735 148.0
108.004471 188.0
108.10585 144.0
108.238327 184.0
108.569885 188.0
108.644554 172.0
109.009979 164.0
109.104416 284.0
109.553009 192.0
109.663445 152.0
109.730148 100.0
110.057945 348.0
110.095627 692.0
110.13916 208.0
110.222725 48.0
110.293449 104.0
110.844193 132.0
111.028664 164.0
111.060127 136.0
111.077797 156.0
111.104607 704.0
111.125153 144.0
111.259476 180.0
111.385468 64.0
112.035477 160.0
112.112343 1372.0
112.14505 120.0
112.252563 136.0
112.282089 196.0
112.615547 180.0
112.807831 148.0
112.858574 116.0
113.084923 124.0
113.114555 380.0
113.262779 148.0
113.324211 180.0
113.61042 172.0
113.708023 112.0
113.782318 112.0
114.00959 140.0
114.466949 104.0
114.481857 124.0
114.648018 96.0
115.05661 152.0
115.110924 232.0
115.318153 176.0
115.626122 160.0
115.690338 176.0
115.733154 160.0
116.052406 200.0
116.099579 108.0
116.163918 192.0
116.247597 164.0
116.748123 180.0
116.763176 52.0
117.077377 196.0
117.200165 156.0
117.491219 136.0
117.735123 148.0
118.28862 192.0
118.331917 132.0
118.617874 100.0
118.750137 88.0
118.793175 152.0
119.05397 144.0
119.212555 140.0
119.926384 136.0
120.072464 184.0
120.530884 172.0
120.686073 120.0
120.727623 148.0
120.852303 156.0
121.064629 216.0
121.334137 176.0
121.693939 124.0
122.072395 344.0
122.099991 216.0
122.820671 108.0
122.975121 188.0
123.010437 132.0
123.081635 696.0
123.116234 180.0
123.658058 188.0
123.766533 184.0
124.075073 528.0
124.113029 168.0
124.234161 56.0
124.322914 44.0
124.482742 152.0
124.622681 120.0
124.704903 236.0
125.055977 188.0
125.08316 188.0
126.084465 92.0
126.18058 136.0
126.334892 168.0
126.820793 156.0
127.10112 68.0
127.824654 156.0
127.939438 240.0
128.058777 204.0
128.128616 192.0
128.509628 164.0
128.685669 176.0
128.934143 76.0
129.06929 164.0
129.300522 152.0
129.418228 156.0
129.89415 128.0
130.152863 244.0
130.464127 160.0
131.046738 144.0
131.213104 184.0
131.281509 72.0
132.053421 164.0
132.451691 112.0
132.767975 36.0
133.162704 156.0
133.443054 140.0
133.975174 208.0
134.207458 128.0
134.302002 28.0
134.622803 156.0
135.868042 152.0
136.158813 256.0
136.325455 112.0
136.54863 188.0
137.249573 184.0
137.47583 200.0
137.716293 152.0
137.732651 196.0
137.819092 212.0
137.875168 180.0
138.048157 116.0
138.089935 1372.0
138.127823 1976.0
138.232956 100.0
138.39212 76.0
138.551392 172.0
138.592972 180.0
138.616989 52.0
138.673233 56.0
138.879562 184.0
138.973389 132.0
139.097916 196.0
139.127563 336.0
139.148071 188.0
139.196381 152.0
139.222214 44.0
139.323212 84.0
139.358444 168.0
139.50415 40.0
139.555878 236.0
139.798157 132.0
140.007675 256.0
140.10704 3224.0
140.165497 84.0
140.49794 100.0
140.717422 140.0
140.743393 208.0
141.070145 844.0
141.109955 772.0
141.291718 208.0
142.07663 136.0
142.130432 192.0
142.355942 128.0
142.617279 104.0
142.748199 160.0
143.042007 192.0
143.07637 160.0
143.302628 168.0
143.421768 80.0
143.960953 164.0
144.058884 108.0
144.350464 220.0
145.027985 136.0
145.049545 76.0
145.222183 180.0
145.41893 164.0
145.627808 80.0
147.729691 228.0
148.114578 136.0
148.246002 184.0
148.82756 104.0
149.004868 92.0
149.121506 144.0
149.311142 156.0
149.457092 120.0
149.668854 188.0
149.94899 232.0
150.105011 324.0
150.126953 224.0
151.020813 128.0
151.103989 60.0
151.155365 240.0
151.53244 212.0
151.90506 184.0
152.061722 1076.0
152.106216 936.0
152.145554 200.0
152.489441 128.0
152.809113 136.0
153.045395 156.0
153.06781 1256.0
153.111313 484.0
153.745453 132.0
154.0728 328.0
154.124023 180.0
154.293793 128.0
154.558441 132.0
155.084106 904.0
155.584518 156.0
155.656509 92.0
156.055283 196.0
156.088394 184.0
156.10704 248.0
156.208252 108.0
156.447144 72.0
156.975342 136.0
157.02771 180.0
157.062012 132.0
157.097549 160.0
157.197357 176.0
157.242279 96.0
157.626846 160.0
158.06694 140.0
158.117462 200.0
158.497635 184.0
158.612915 132.0
158.768356 200.0
159.080353 300.0
159.647308 112.0
160.274094 140.0
160.39505 160.0
160.465637 224.0
160.591721 132.0
160.707764 148.0
161.250687 176.0
161.399841 168.0
161.523758 156.0
161.916061 120.0
162.042709 84.0
163.230576 224.0
163.576584 164.0
163.79303 180.0
164.06601 160.0
164.101379 144.0
164.466171 212.0
164.558075 112.0
164.598923 216.0
165.067932 1700.0
165.145813 148.0
165.342819 220.0
165.9935 48.0
166.081284 1468.0
166.120956 1632.0
166.20639 88.0
166.653152 168.0
166.735382 212.0
166.812485 228.0
167.05188 240.0
167.085052 200.0
167.129791 6032.0
167.213745 76.0
167.283234 36.0
167.301254 68.0
167.427414 80.0
167.754639 52.0
167.821671 104.0
167.899033 156.0
167.92482 168.0
167.986725 164.0
168.055969 248.0
168.132172 612.0
168.376465 124.0
168.439026 72.0
168.459122 52.0
168.583145 240.0
168.963226 32.0
169.063934 648.0
169.101974 136.0
169.148224 148.0
169.23497 148.0
169.271225 112.0
169.851761 88.0
170.030777 64.0
170.070938 232.0
170.105164 176.0
170.152786 100.0
170.667206 172.0
171.041061 352.0
171.08342 140.0
171.286591 104.0
171.310028 76.0
171.706223 184.0
172.014099 148.0
172.079361 160.0
172.570557 200.0
172.787628 140.0
173.080765 152.0
173.140991 180.0
173.243149 180.0
173.410843 180.0
173.982666 164.0
174.003662 68.0
174.216385 204.0
174.376678 196.0
175.079102 168.0
175.442719 44.0
175.490173 116.0
176.303177 228.0
176.398315 96.0
177.367126 108.0
178.080856 320.0
178.470627 232.0
179.027634 184.0
179.04628 156.0
179.085098 1064.0
179.395325 44.0
179.488632 64.0
179.966248 152.0
180.057037 336.0
180.093002 180.0
180.650406 128.0
180.701248 120.0
180.738693 292.0
180.840393 176.0
181.029083 264.0
181.064835 5156.0
181.102264 640.0
181.148315 52.0
181.247437 44.0
181.775681 168.0
181.955139 124.0
182.068939 1436.0
182.104416 124.0
182.164978 192.0
183.047134 168.0
183.082977 692.0
183.208725 32.0
183.300339 116.0
183.4944 96.0
183.621704 132.0
183.828857 64.0
183.899033 32.0
184.054306 160.0
184.095184 1572.0
184.131729 3080.0
184.487885 144.0
184.585205 52.0
184.650116 116.0
184.867218 60.0
185.059586 652.0
185.09433 1056.0
185.137543 272.0
185.863724 156.0
185.98584 76.0
186.056412 196.0
186.096161 156.0
186.148727 152.0
186.548111 124.0
186.648712 76.0
187.03775 128.0
187.320938 196.0
187.797943 156.0
188.74556 84.0
189.813446 72.0
190.075577 188.0
190.271652 248.0
190.332062 144.0
191.081711 536.0
191.861786 260.0
192.087906 148.0
192.341766 60.0
192.399734 164.0
192.841705 80.0
193.073135 336.0
193.206696 136.0
193.530502 140.0
193.782547 184.0
194.074036 432.0
194.117523 1960.0
194.166702 48.0
194.234421 80.0
194.566437 148.0
194.706497 44.0
194.9785 56.0
195.063309 156.0
195.118179 396.0
195.554214 172.0
195.946838 220.0
196.19487 184.0
196.406799 80.0
196.85054 176.0
197.063324 612.0
197.095413 1028.0
197.188568 144.0
197.238876 32.0
197.666779 60.0
198.059814 204.0
198.102554 356.0
198.386566 48.0
199.069885 140.0
199.512283 172.0
199.661301 116.0
199.689438 112.0
199.807571 176.0
199.945847 144.0
200.06929 144.0
200.92038 56.0
201.256241 196.0
202.945389 200.0
203.007782 160.0
203.291443 132.0
203.359558 180.0
204.066895 160.0
204.821014 168.0
205.185776 164.0
205.50235 152.0
206.613724 68.0
207.078659 772.0
207.406921 200.0
207.969101 48.0
208.063187 176.0
208.20166 228.0
208.56366 224.0
208.603912 88.0
208.787918 152.0
208.931732 176.0
209.06012 720.0
209.097122 528.0
209.746674 120.0
210.066544 888.0
210.098587 168.0
210.135986 108.0
210.840546 172.0
211.074936 1224.0
211.268463 80.0
211.410248 172.0
212.047043 248.0
212.072861 136.0
212.12294 276.0
213.05304 620.0
213.083298 192.0
213.134964 748.0
213.403 164.0
213.469864 28.0
213.504761 68.0
213.798584 168.0
213.903366 208.0
214.060577 352.0
214.132355 292.0
215.34375 80.0
215.396332 188.0
215.787918 72.0
216.176941 124.0
217.082108 136.0
217.158356 116.0
218.247833 144.0
218.383118 88.0
218.444885 152.0
218.465469 152.0
219.080734 96.0
219.116074 120.0
220.0569 172.0
220.349289 176.0
220.600479 192.0
220.780838 164.0
222.674591 244.0
223.658722 188.0
224.045837 140.0
224.079941 184.0
224.200775 52.0
224.510818 224.0
225.053345 2796.0
225.091675 2876.0
225.738159 52.0
225.854797 96.0
225.959503 164.0
226.009537 176.0
226.06134 6004.0
226.095352 548.0
226.159058 64.0
226.312668 168.0
226.408478 92.0
226.451843 100.0
226.546265 156.0
226.66011 44.0
226.914871 64.0
226.983841 68.0
227.069839 8812.0
227.199783 140.0
227.244781 44.0
227.310791 76.0
227.373825 40.0
227.481873 56.0
227.607071 108.0
227.631989 48.0
228.07225 1440.0
228.106674 52.0
228.229935 160.0
228.272034 60.0
228.401352 60.0
228.557144 56.0
228.569077 80.0
228.611954 64.0
228.654099 64.0
229.079865 216.0
231.062027 136.0
231.083206 84.0
231.697784 124.0
232.76236 148.0
234.572571 152.0
235.00563 76.0
235.071991 1232.0
236.080093 332.0
236.705078 104.0
237.094208 164.0
237.501892 188.0
238.05687 280.0
238.278534 56.0
238.315399 104.0
239.065796 332.0
239.104218 168.0
240.069931 308.0
240.844589 184.0
241.512207 116.0
241.7164 84.0
242.267502 88.0
245.122787 164.0
245.172653 152.0
245.381485 180.0
245.690231 128.0
247.124252 48.0
249.583267 208.0
251.06958 52.0
251.296692 212.0
251.947052 40.0
252.16507 152.0
252.20932 84.0
252.294678 72.0
252.395844 160.0
252.69632 116.0
252.832382 104.0
252.949493 192.0
252.977982 56.0
253.02446 176.0
253.085968 20708.0
253.183258 72.0
253.262955 92.0
253.298141 112.0
253.364334 84.0
253.434021 52.0
253.459381 64.0
253.554443 76.0
253.616425 164.0
253.684402 40.0
253.73114 116.0
253.798523 88.0
253.941238 80.0
254.020523 116.0
254.088135 3700.0
254.184113 64.0
254.287048 56.0
254.315613 132.0
254.366409 116.0
254.560074 36.0
254.65535 72.0
254.897751 92.0
255.091507 476.0
255.294128 152.0
255.496109 168.0
255.634506 60.0
255.777725 96.0
255.819107 116.0
255.857315 100.0
256.077026 72.0
256.105682 156.0
256.233124 56.0
256.344635 44.0
256.730347 44.0
256.810089 88.0
256.89621 76.0
257.07486 132.0
257.700714 56.0
257.73587 56.0
257.780609 68.0
257.969177 40.0
259.069977 176.0
259.403259 40.0
261.371979 136.0
263.06839 232.0
263.351349 88.0
264.832703 40.0
266.055176 180.0
266.318207 44.0
271.356689 68.0
271.855255 116.0
277.535492 56.0
278.574249 44.0
280.11441 72.0
280.646332 72.0
281.080048 1872.0
281.308197 52.0
282.086121 380.0
282.166748 28.0
282.2771 44.0
282.721985 64.0
283.0961 128.0
283.696686 52.0
283.840851 48.0
285.153442 100.0
291.085663 40.0
292.288971 144.0
294.276093 148.0
298.10965 1212.0
298.280823 44.0
298.800079 76.0
299.110046 364.0
300.110077 236.0
301.645111 88.0
306.68512 56.0
308.608612 76.0
310.115753 136.0
312.737549 92.0
314.069397 76.0
319.133514 184.0
335.169739 88.0
346.167816 156.0
355.209625 128.0
359.147858 160.0
361.285858 52.0
362.09967 124.0
362.190582 60.0
364.11731 124.0
364.656799 40.0
374.058563 128.0
375.522736 104.0
376.974304 128.0
387.574097 124.0
392.183624 1216.0
392.258698 48.0
393.055359 84.0
393.183411 408.0
394.181061 196.0
395.244385 132.0
395.869812 84.0
427.289917 44.0
436.480316 56.0
437.233276 68.0
437.94519 40.0
438.253479 164.0
440.184692 140.0
478.559509 56.0
484.902283 36.0
496.617004 100.0
504.248199 32.0
506.31958 60.0
536.843323 76.0
546.920044 132.0
548.774109 96.0
567.677002 124.0
594.038269 72.0
615.193665 88.0
648.013367 60.0
659.974243 44.0
667.979797 76.0
752.06427 112.0
775.395691 96.0
863.934753 36.0
866.047913 100.0
903.191223 144.0
907.437012 184.0
911.218079 152.0
922.674866 132.0
926.663208 116.0
935.097778 48.0
953.273193 164.0
958.990417 112.0
962.420349 148.0
966.066711 140.0
1015.358215 180.0
1031.671265 100.0
1045.126709 140.0
1076.358643 200.0
1085.838989 204.0
1090.796265 160.0
1091.631226 196.0
1093.927368 148.0
1100.170044 156.0
1106.966919 240.0
1109.83606 224.0
1110.751221 76.0
1113.837769 232.0
1121.196411 160.0
1124.551025 112.0
1125.712646 148.0
1139.322632 44.0
1145.693359 184.0
1151.156616 80.0
1180.923462 224.0
1193.741089 160.0
1196.093994 52.0
1222.685791 160.0
1223.047729 220.0
1223.458374 220.0
1224.321777 48.0
1225.073975 160.0
1227.207275 192.0
1233.978882 100.0
1243.604248 200.0
1244.762207 228.0
1245.057129 68.0
1248.282715 188.0
1252.484253 164.0
1256.022583 36.0
1259.707275 152.0
1277.137451 220.0
1277.301025 96.0
1285.505005 160.0
1290.193848 228.0
1290.487061 116.0
1290.923218 156.0
1294.608521 208.0
1294.816162 184.0
1300.142822 140.0
1305.358154 192.0
1310.756836 136.0
1315.53125 124.0
1316.534912 164.0
1320.155396 176.0
1321.392212 128.0
1322.347412 148.0
1329.079468 80.0
1329.914062 176.0
1329.986694 80.0
1333.4729 148.0
1335.850586 184.0
1336.417969 156.0
1337.633423 160.0
1338.317749 160.0
1340.284302 76.0
1346.477539 172.0
1346.850098 144.0
1348.377075 128.0
1349.751343 132.0
1352.450928 68.0
1355.1604 144.0
1359.053711 144.0
1362.217773 128.0
1364.576782 216.0
1365.996216 148.0
1371.371216 172.0
1372.654053 140.0
1374.483276 116.0
1377.081909 160.0
1377.28125 52.0
1377.731934 248.0
1378.943726 232.0
1381.191406 176.0
1382.804321 144.0
1385.381104 172.0
1386.559204 44.0
1388.242065 152.0
1388.397827 188.0
1389.799805 148.0
1398.07019 144.0
1401.860596 132.0
1402.583496 148.0
1410.457764 276.0
1411.609619 208.0
1414.602295 180.0
1417.620605 144.0
1418.594971 176.0
1422.218018 172.0
1422.307983 52.0
1423.464233 196.0
1424.034912 124.0
1425.296997 132.0
1433.60437 152.0
1436.597656 160.0
1438.363403 100.0
1443.6521 136.0
1454.379883 156.0
1458.694214 184.0
1469.691406 136.0
1470.118652 192.0
1471.347534 216.0
1473.134521 32.0
1473.302612 188.0
1477.598999 172.0
1478.59375 128.0
1481.610596 180.0
1484.06311 60.0
1487.89917 132.0
1490.203247 108.0
1492.386108 184.0
1494.747437 112.0
1495.22168 208.0
1497.372437 184.0
1497.849976 156.0
1500.809326 44.0
