>compound MLS002153891-01!
>formula C20H27N5O2
>ionization [M+H]+
>parentmass 370.22467
#inchi InChI=1S/C20H27N5O2/c26-20-12-9-15-14-17(10-11-18(15)21-20)27-13-5-4-8-19-22-23-24-25(19)16-6-2-1-3-7-16/h10-11,14,16H,1-9,12-13H2,(H,21,26)
#inchikey RRGUKTPIGVIEKM
#Ion_Source LC-ESI
#Instrument qTof
#Compound_Source NIH Pharmacologically Active Library
#PI Dorrestein
#Data_Collector VP/LMS
#Scan -1
#Precursor_MZ 370.223
#ExactMass 369.216
#Charge 1
#CAS_Number N/A
#Pubmed_ID N/A
#Smiles O=C1CCc2cc(OCCCCc3nnnn3C4CCCCC4)ccc2N1
#INCHI_AUX N/A
#Library_Class 1
#SpectrumID CCMSLIB00000085047
#IonMode Positive
#UpdateWorkflowName UPDATE-SINGLE-ANNOTATED-GOLD
#LibraryQualityString Gold
#TaskID d252d724072548979f1f6f1ced849daf
##Scan# 2023
#SpectrumFile p3-E02_GE2_01_18271.mzXML
#LibraryName Pharm_Active_Library.mgf
#MQScore -1
#Organism Pharm_Active_Library
#TIC_Query 0
#RT_Query -1
#MZErrorPPM -1
#SharedPeaks 0
#MassDiff 0
#LibMZ -1
#SpecMZ 370.223
#SpecCharge 0
#internalFilename spec-00000.mgf

>collision 10
44.911877 132.0
44.929218 112.0
45.029339 220.0
45.268738 196.0
45.382641 160.0
45.495346 116.0
45.82753 172.0
46.042053 144.0
46.146107 112.0
46.155575 136.0
46.247574 120.0
46.2584 172.0
46.373543 168.0
46.391167 188.0
46.479328 176.0
46.537697 136.0
46.597462 128.0
46.669498 192.0
46.930939 168.0
46.952759 176.0
47.112469 208.0
47.126133 188.0
47.138432 140.0
47.213623 116.0
47.275185 168.0
47.403919 112.0
47.491665 84.0
47.525963 164.0
47.65641 80.0
47.683895 156.0
47.875137 120.0
47.967453 212.0
48.251854 40.0
48.319626 148.0
48.538479 116.0
48.584251 152.0
48.659199 156.0
48.793972 176.0
48.874645 208.0
48.885777 228.0
48.983242 156.0
49.23711 48.0
49.281811 236.0
49.411846 140.0
49.437035 156.0
49.481827 132.0
49.718731 144.0
49.770676 56.0
49.780502 84.0
50.045856 120.0
50.06881 128.0
50.094166 128.0
50.187187 176.0
50.218212 56.0
50.30994 148.0
50.480911 200.0
50.725861 124.0
50.883339 60.0
50.96146 216.0
50.981354 164.0
51.514263 104.0
51.684402 136.0
52.088718 180.0
52.110268 256.0
52.127514 104.0
52.334656 164.0
52.61293 224.0
52.737164 176.0
52.78632 96.0
53.173141 136.0
53.232666 76.0
53.328556 140.0
53.346001 160.0
53.427917 196.0
53.495842 176.0
53.721729 80.0
53.743614 116.0
54.257004 228.0
54.302464 88.0
54.328869 116.0
54.490368 64.0
54.510941 136.0
54.699207 160.0
54.909916 56.0
55.029449 152.0
55.07671 80.0
55.107735 144.0
55.273346 180.0
55.354763 164.0
55.37698 140.0
55.511848 240.0
55.930836 172.0
55.964249 136.0
56.139431 160.0
56.1991 152.0
56.400719 180.0
56.541317 176.0
56.571255 168.0
56.733055 180.0
56.857555 136.0
56.989708 48.0
57.240917 136.0
57.258987 60.0
57.489658 116.0
57.71172 192.0
57.956936 196.0
58.028175 156.0
58.067604 208.0
58.123737 52.0
58.163197 40.0
58.48241 180.0
58.938416 48.0
59.059193 180.0
59.147945 208.0
59.27047 228.0
59.291927 184.0
59.63266 220.0
59.714149 136.0
60.022163 140.0
60.18882 172.0
60.453167 160.0
60.573936 176.0
60.968052 84.0
61.095558 48.0
61.365002 176.0
61.460476 192.0
61.522583 116.0
61.536633 156.0
61.926029 104.0
62.012207 116.0
62.079624 176.0
62.495907 112.0
62.994122 148.0
63.049423 220.0
63.569283 176.0
63.586334 116.0
63.753098 72.0
63.959866 88.0
63.988522 160.0
64.025146 224.0
64.061783 268.0
64.144653 228.0
64.233955 132.0
64.4431 168.0
64.454285 172.0
64.598183 160.0
64.663788 160.0
64.751846 192.0
64.860802 28.0
64.896072 156.0
64.934563 240.0
65.024635 316.0
65.168945 64.0
65.38739 148.0
65.415016 140.0
65.632523 128.0
65.955414 220.0
66.117165 160.0
66.186775 128.0
66.236984 132.0
66.345558 88.0
66.537003 128.0
66.574348 228.0
66.852348 232.0
67.134186 188.0
67.385574 88.0
67.544151 204.0
67.568695 176.0
67.789749 144.0
67.829086 216.0
68.193489 180.0
68.308594 92.0
68.362892 160.0
68.50779 240.0
68.606667 156.0
68.631401 56.0
69.006218 164.0
69.592766 28.0
69.645912 152.0
69.700737 208.0
69.742287 180.0
69.946892 188.0
69.97686 76.0
70.051804 172.0
70.183472 176.0
70.278549 112.0
70.303581 88.0
70.816864 120.0
70.840309 156.0
71.043159 100.0
71.06665 68.0
71.2379 132.0
71.289993 128.0
71.333694 148.0
71.601234 152.0
71.629868 144.0
71.864212 40.0
72.176704 136.0
72.516991 152.0
72.744293 260.0
72.785042 152.0
72.802017 108.0
72.822403 52.0
73.687805 176.0
73.699768 264.0
73.715149 196.0
73.739075 240.0
73.881004 204.0
74.233849 216.0
74.261292 88.0
74.27845 152.0
74.312759 156.0
74.331635 128.0
74.348793 188.0
74.448372 156.0
74.658035 176.0
75.264633 152.0
75.331993 132.0
75.703873 140.0
75.76796 140.0
75.804344 156.0
75.901421 180.0
76.071457 124.0
76.133965 172.0
76.210396 232.0
76.415573 108.0
76.434708 136.0
76.54612 112.0
76.954147 192.0
77.085159 184.0
77.153328 172.0
77.261757 140.0
77.282753 180.0
77.319504 180.0
77.473595 184.0
77.806145 276.0
77.820869 236.0
77.89814 192.0
78.012375 120.0
78.114372 144.0
78.628883 184.0
78.775444 76.0
78.904343 128.0
78.939819 108.0
78.982269 104.0
79.551102 184.0
79.568855 204.0
79.837173 120.0
80.227127 148.0
80.400154 200.0
80.494774 156.0
80.566216 156.0
80.584084 60.0
80.637695 176.0
80.800423 180.0
80.84874 168.0
81.008095 148.0
81.142509 196.0
81.196304 144.0
81.494301 68.0
82.003593 108.0
82.037674 172.0
82.097343 180.0
82.225441 32.0
82.386147 272.0
82.574867 220.0
82.619362 224.0
82.641075 136.0
82.69899 184.0
82.905464 184.0
83.197495 108.0
83.779465 96.0
83.828659 124.0
84.266594 120.0
84.286697 176.0
84.821121 160.0
84.936646 156.0
84.971504 136.0
85.006363 116.0
85.099983 72.0
85.314941 120.0
85.33149 68.0
85.463921 112.0
85.51545 80.0
85.592773 140.0
85.624084 164.0
85.657234 204.0
86.083298 152.0
86.24958 172.0
86.37162 100.0
86.490044 148.0
86.723434 144.0
86.814285 172.0
86.988701 200.0
87.25808 156.0
87.332466 152.0
87.412468 136.0
87.537193 136.0
87.58934 216.0
87.652687 256.0
88.32518 184.0
88.523209 72.0
88.89064 196.0
88.9338 160.0
88.952576 48.0
89.219337 52.0
89.258827 200.0
89.445084 200.0
89.782356 168.0
89.888 160.0
89.904984 56.0
90.159943 196.0
90.231773 212.0
90.322548 140.0
90.799866 144.0
90.860565 148.0
91.051918 628.0
91.071281 168.0
91.171982 160.0
91.253723 132.0
91.645821 108.0
91.659157 100.0
91.784966 132.0
91.920403 160.0
91.989113 152.0
92.029213 28.0
92.17247 144.0
92.310104 120.0
92.430618 128.0
92.775383 144.0
93.038216 188.0
93.06649 204.0
93.293732 148.0
93.401421 116.0
93.784607 132.0
93.915726 204.0
94.019913 184.0
94.065056 224.0
94.164719 208.0
94.234261 160.0
94.530113 156.0
94.76635 140.0
94.921425 228.0
94.958267 196.0
95.449608 196.0
95.506012 156.0
95.840256 148.0
95.854507 160.0
95.951965 128.0
96.055328 188.0
96.068985 116.0
96.152885 168.0
96.229019 176.0
96.248543 152.0
96.287605 244.0
96.483009 192.0
96.551453 128.0
96.694275 136.0
97.039047 148.0
97.074539 356.0
97.095917 188.0
97.661583 200.0
97.759956 196.0
97.872162 176.0
98.083328 1204.0
98.301895 96.0
98.534889 172.0
98.813667 160.0
99.094818 204.0
99.513321 160.0
99.6464 200.0
99.886955 184.0
100.099915 76.0
100.50856 228.0
100.554466 120.0
100.614349 176.0
100.634315 172.0
100.910042 156.0
101.37043 160.0
101.478676 52.0
101.66523 168.0
101.831871 60.0
101.892136 52.0
102.042877 248.0
102.062721 156.0
102.205795 212.0
102.219887 96.0
102.594521 92.0
103.053764 384.0
103.564499 208.0
103.781342 136.0
103.945648 180.0
104.050621 156.0
104.402733 136.0
104.54718 60.0
104.614349 128.0
104.828217 176.0
104.997421 140.0
105.052498 176.0
105.068817 136.0
105.209641 108.0
105.234138 184.0
105.334213 164.0
105.44046 136.0
105.978668 196.0
106.007355 180.0
106.062401 344.0
106.105743 268.0
106.450462 128.0
106.473053 212.0
106.631248 172.0
107.015938 108.0
107.048454 172.0
107.069443 212.0
107.355949 168.0
107.446709 208.0
107.574661 32.0
107.963112 104.0
108.044472 180.0
108.074821 148.0
108.176231 148.0
108.31498 132.0
108.497345 148.0
108.667412 160.0
108.694389 152.0
109.043282 180.0
109.240822 180.0
109.365677 112.0
109.446869 136.0
109.50518 144.0
109.70105 176.0
109.719818 156.0
109.740662 184.0
109.84494 164.0
109.897102 140.0
110.064674 228.0
110.172699 120.0
110.193588 96.0
110.235382 56.0
110.367073 156.0
110.457008 128.0
110.838051 124.0
110.892105 348.0
111.028816 136.0
111.217651 144.0
111.427658 232.0
111.827209 204.0
111.980911 144.0
112.020927 148.0
112.105209 220.0
112.596771 176.0
112.641129 164.0
112.753113 208.0
112.801727 92.0
112.84613 284.0
112.967453 188.0
113.042847 52.0
113.30117 72.0
113.519493 80.0
113.559792 204.0
113.581001 160.0
113.614944 160.0
113.640404 256.0
113.752884 120.0
113.867546 176.0
114.016266 212.0
114.090668 164.0
114.405525 196.0
114.835968 160.0
114.889297 120.0
115.021606 120.0
115.089928 176.0
115.149719 180.0
115.532349 124.0
115.547325 196.0
115.607239 88.0
115.874908 32.0
116.046371 332.0
116.104271 184.0
116.200798 48.0
116.688347 152.0
116.864716 84.0
117.054665 452.0
117.131676 140.0
117.18985 156.0
117.347672 180.0
117.647079 176.0
117.690262 160.0
117.722649 28.0
117.953835 232.0
117.999237 156.0
118.064072 2452.0
118.154961 168.0
118.176598 64.0
118.291298 72.0
118.445045 228.0
118.542542 140.0
118.822594 184.0
118.883018 188.0
118.898209 144.0
119.049767 252.0
119.070068 448.0
119.156616 44.0
119.495789 140.0
119.589371 152.0
120.042839 792.0
120.08078 716.0
120.136322 136.0
120.15377 84.0
120.184319 236.0
120.203957 56.0
120.326195 180.0
120.660469 112.0
120.697639 60.0
120.929535 128.0
121.041191 108.0
121.161659 136.0
121.483932 52.0
121.536583 116.0
121.683647 144.0
121.960449 172.0
122.058456 1728.0
122.085335 224.0
122.145157 84.0
122.29258 44.0
122.347618 184.0
122.38945 136.0
122.559059 208.0
122.728783 76.0
122.808174 92.0
122.916275 64.0
123.028839 176.0
123.058632 160.0
123.132629 204.0
123.174591 92.0
123.442024 60.0
124.006577 112.0
124.075294 156.0
124.108551 140.0
124.223877 80.0
124.384445 124.0
124.401413 92.0
124.423615 216.0
124.643509 208.0
124.750191 136.0
124.883614 84.0
124.952576 164.0
125.056221 208.0
125.082031 13460.0
125.139534 32.0
125.405197 204.0
125.446983 52.0
125.603081 84.0
125.745888 60.0
125.794991 92.0
126.081917 868.0
126.232918 192.0
126.27317 136.0
126.338043 216.0
126.402924 60.0
126.539467 84.0
126.767944 92.0
126.947289 176.0
126.991066 200.0
127.091415 168.0
127.14695 88.0
127.355759 120.0
127.375977 148.0
127.475204 196.0
127.587219 64.0
127.674919 112.0
127.897659 64.0
128.049057 344.0
128.395599 104.0
128.562546 128.0
128.716064 188.0
128.742493 148.0
128.768005 112.0
129.065186 148.0
129.190704 176.0
129.272446 124.0
129.306107 160.0
129.487228 236.0
129.697952 168.0
129.897507 200.0
129.923813 204.0
130.031372 108.0
130.066315 488.0
130.224365 136.0
130.408417 184.0
130.856567 112.0
131.018265 48.0
131.0439 192.0
131.067963 740.0
131.095734 184.0
131.750595 168.0
131.940292 152.0
132.05603 144.0
132.080917 1652.0
132.432281 100.0
132.649979 188.0
133.047836 84.0
133.068634 276.0
133.157074 60.0
133.317902 156.0
133.338577 84.0
133.573105 48.0
133.955246 152.0
134.019745 184.0
134.059982 4152.0
134.105652 188.0
134.130371 92.0
134.559479 56.0
134.663391 200.0
135.066284 708.0
135.139603 40.0
135.667664 96.0
136.03653 328.0
136.071136 420.0
136.208374 52.0
136.375671 112.0
136.682663 128.0
136.785065 96.0
136.941071 132.0
137.043579 172.0
137.066879 112.0
137.337326 112.0
137.76918 176.0
138.618515 128.0
138.803268 208.0
138.859985 56.0
139.298935 96.0
139.461075 196.0
139.693863 204.0
139.724442 224.0
139.755035 224.0
139.849167 216.0
139.896255 160.0
140.167114 104.0
140.417007 164.0
141.04744 220.0
141.111267 132.0
141.437744 184.0
141.80014 148.0
141.91629 176.0
142.060974 320.0
142.079941 60.0
142.512054 72.0
142.55484 76.0
142.902008 156.0
143.028137 164.0
143.064209 240.0
143.090027 176.0
143.271027 88.0
143.311539 56.0
143.414017 120.0
143.638153 104.0
144.049042 192.0
144.083588 380.0
144.235138 40.0
144.256653 192.0
144.426422 184.0
144.725571 212.0
144.859695 128.0
144.956619 176.0
145.038956 440.0
145.052063 348.0
145.071838 616.0
145.111343 76.0
145.4496 60.0
145.716171 104.0
146.059372 3768.0
146.091995 1136.0
146.17543 60.0
146.257263 152.0
146.39209 160.0
146.762741 172.0
146.828293 76.0
147.063553 960.0
147.726852 48.0
147.763138 40.0
147.91803 128.0
148.075668 3996.0
148.135971 104.0
148.163696 108.0
148.191696 36.0
148.308014 60.0
148.351654 36.0
148.378311 72.0
148.540802 108.0
148.577194 132.0
148.68396 64.0
148.836899 80.0
149.075821 640.0
149.150299 40.0
149.194061 160.0
149.228104 60.0
149.668503 172.0
149.892609 56.0
150.014481 72.0
150.070541 120.0
150.092499 208.0
150.194931 168.0
150.326675 136.0
150.541504 244.0
150.856689 76.0
151.297043 220.0
151.510117 164.0
151.838593 180.0
152.069214 132.0
152.098679 152.0
152.314758 136.0
152.833511 160.0
153.508453 180.0
153.898331 144.0
154.071503 176.0
154.464294 144.0
154.701859 128.0
154.77861 128.0
155.36377 132.0
155.567047 204.0
155.765717 80.0
155.996811 152.0
156.04776 212.0
156.075974 580.0
156.325134 92.0
156.569107 180.0
156.915482 104.0
157.079605 148.0
157.179871 144.0
157.384552 184.0
157.751816 152.0
157.776825 276.0
157.986893 124.0
158.063202 456.0
158.098511 304.0
158.199615 64.0
158.836121 156.0
159.056503 352.0
159.549332 160.0
159.634811 268.0
159.80838 164.0
160.034912 364.0
160.075058 3132.0
160.430466 40.0
160.672577 88.0
160.834091 188.0
160.866898 124.0
161.049591 200.0
161.05864 176.0
161.080063 604.0
161.233154 68.0
161.425964 176.0
161.473343 60.0
161.637772 52.0
161.668137 96.0
161.741867 156.0
161.842804 140.0
161.952911 176.0
162.054443 5564.0
162.087997 420.0
162.111328 168.0
162.162003 144.0
162.248199 32.0
162.419037 120.0
162.440933 144.0
162.458694 100.0
162.547501 92.0
162.666779 204.0
162.869934 36.0
162.920731 92.0
162.943604 40.0
163.061005 4104.0
163.118958 32.0
163.360535 76.0
163.627762 124.0
163.663406 144.0
163.974197 200.0
164.069168 8068.0
164.097717 396.0
164.16153 164.0
164.242706 144.0
164.389908 32.0
164.574783 140.0
164.597275 236.0
164.618225 100.0
164.691162 76.0
164.946701 88.0
165.000381 124.0
165.073303 656.0
165.125687 172.0
165.266388 96.0
165.320114 36.0
165.371307 68.0
165.650406 92.0
165.84259 136.0
165.860535 92.0
165.886169 72.0
165.970779 112.0
166.032318 128.0
166.075882 416.0
166.104141 96.0
166.124664 48.0
166.286316 36.0
166.584183 160.0
166.864319 128.0
166.962021 160.0
167.054626 144.0
167.600449 112.0
167.621063 44.0
167.806656 144.0
167.865952 160.0
168.679245 188.0
169.046524 140.0
169.087936 152.0
169.56189 244.0
170.028732 100.0
170.055939 144.0
170.091202 224.0
170.376678 172.0
171.051682 176.0
171.500854 196.0
171.725098 76.0
172.014725 236.0
172.074203 440.0
172.111328 172.0
172.518921 80.0
173.04216 156.0
173.070282 2732.0
173.107758 156.0
173.340775 56.0
173.414154 48.0
173.660614 128.0
173.68161 64.0
173.770798 60.0
173.936127 148.0
174.062759 776.0
174.091095 8924.0
174.222366 44.0
174.243393 68.0
174.267044 44.0
174.595627 188.0
174.742935 120.0
174.874512 100.0
174.974548 68.0
175.09407 980.0
175.303802 100.0
175.422409 60.0
175.556885 236.0
175.775833 80.0
175.810135 48.0
175.902527 192.0
175.97644 196.0
176.026611 60.0
176.069016 8796.0
176.102249 412.0
176.124664 184.0
176.163956 40.0
176.249939 132.0
176.282852 72.0
176.33078 76.0
176.351562 88.0
176.417648 56.0
176.623917 48.0
176.668884 56.0
176.711227 100.0
176.981201 44.0
177.006058 216.0
177.072998 1260.0
177.134811 272.0
177.598694 40.0
177.824219 56.0
177.93306 32.0
178.073318 580.0
178.206619 116.0
178.53624 104.0
178.749512 156.0
179.087692 168.0
179.577606 188.0
180.084595 184.0
180.319855 120.0
180.384018 156.0
182.104279 232.0
183.0672 180.0
183.571045 76.0
183.773346 56.0
184.008163 160.0
184.073212 1400.0
184.135086 128.0
184.481781 132.0
185.0728 184.0
185.119507 104.0
185.384995 56.0
185.585587 36.0
185.713043 64.0
185.797134 108.0
185.924667 52.0
186.048401 324.0
186.097412 460.0
186.424377 244.0
187.014557 144.0
187.049301 516.0
187.087036 336.0
187.130768 168.0
187.281387 40.0
187.324982 112.0
187.646561 156.0
188.02301 96.0
188.065567 676.0
188.100479 200.0
188.181335 76.0
188.301483 80.0
188.424408 172.0
188.45993 32.0
188.498184 88.0
188.708664 152.0
189.064178 2552.0
189.098984 416.0
189.171021 60.0
189.554474 64.0
189.743591 76.0
189.776489 100.0
190.082581 380.0
190.393921 192.0
190.536758 168.0
191.09906 144.0
191.185699 96.0
191.215973 52.0
191.447235 140.0
191.573944 108.0
191.689651 140.0
192.312958 136.0
193.061676 156.0
193.593033 132.0
193.861755 212.0
195.191452 168.0
195.263763 176.0
195.299911 132.0
195.489105 168.0
196.121323 64.0
196.66803 180.0
197.072968 132.0
198.060532 156.0
198.086304 656.0
198.626755 128.0
198.663223 68.0
199.048401 496.0
199.087906 160.0
199.176941 112.0
200.067719 848.0
200.102081 412.0
200.141586 144.0
200.260925 212.0
200.614914 216.0
201.064209 3596.0
201.100769 1100.0
201.136795 108.0
201.257248 72.0
201.289246 124.0
201.42482 72.0
201.498276 148.0
201.746979 76.0
201.874207 196.0
202.084641 6928.0
202.233521 56.0
202.270325 40.0
202.326935 40.0
202.406219 36.0
202.509064 76.0
202.578979 60.0
202.629974 80.0
202.697983 56.0
202.754105 144.0
202.865204 208.0
203.087952 916.0
203.115372 952.0
203.202698 52.0
203.326538 56.0
203.378647 44.0
203.408707 136.0
203.65123 52.0
203.821686 92.0
203.929672 140.0
204.067886 156.0
204.098557 168.0
204.256683 64.0
204.299347 76.0
204.9086 72.0
205.230682 52.0
205.438889 48.0
206.092697 100.0
207.073929 200.0
207.951279 120.0
208.715454 40.0
209.855698 52.0
212.142578 188.0
214.088547 204.0
214.095551 432.0
215.081406 524.0
215.114502 508.0
215.340515 132.0
215.498276 64.0
215.556717 200.0
215.895813 132.0
215.974792 76.0
216.097778 768.0
217.078934 100.0
217.10144 376.0
217.709885 112.0
218.009537 112.0
218.117249 1068.0
218.479996 68.0
218.656555 32.0
218.683044 68.0
218.736023 52.0
218.824341 124.0
219.076172 1304.0
219.123123 308.0
219.373596 92.0
220.073105 408.0
220.168991 56.0
222.089859 156.0
223.706375 92.0
224.159103 88.0
225.098007 300.0
226.085648 352.0
226.487488 132.0
227.069031 68.0
227.114365 264.0
228.043762 156.0
228.090485 132.0
229.094849 160.0
229.482727 92.0
230.120895 236.0
231.404358 36.0
233.18808 80.0
237.315414 56.0
241.09259 136.0
241.729538 120.0
242.116516 60.0
243.10994 1996.0
243.285492 104.0
244.056015 196.0
244.115677 228.0
244.351501 100.0
244.989731 56.0
245.011536 236.0
245.126312 3284.0
245.553925 36.0
245.7099 52.0
245.772293 72.0
245.893997 80.0
246.130783 564.0
246.646759 92.0
247.134628 168.0
247.939423 96.0
251.121201 120.0
252.431854 40.0
254.18045 28.0
260.084808 72.0
260.139465 1148.0
260.229279 44.0
260.30957 84.0
260.348083 52.0
260.389862 52.0
260.913635 100.0
261.135498 348.0
262.110962 64.0
262.852631 152.0
262.949463 108.0
263.46933 44.0
263.782806 76.0
264.089996 60.0
264.122345 96.0
265.97583 76.0
267.142426 80.0
268.853058 188.0
269.130524 172.0
277.65387 84.0
279.234772 76.0
286.525635 160.0
287.824219 140.0
288.07077 144.0
288.142578 2116.0
288.253204 76.0
288.33432 64.0
289.017426 92.0
289.145386 548.0
295.177795 104.0
297.758331 68.0
302.305664 56.0
303.102112 76.0
304.114807 100.0
304.423798 116.0
309.105499 172.0
310.145691 116.0
313.650208 32.0
316.111908 96.0
323.390076 92.0
324.436066 72.0
334.613739 28.0
345.077972 60.0
346.469574 36.0
349.718842 112.0
359.240662 68.0
359.425537 64.0
367.023407 52.0
368.256073 108.0
369.276581 80.0
370.22467 156.0
388.463654 68.0
394.386047 72.0
402.97403 72.0
405.086395 68.0
421.329865 116.0
425.002502 60.0
425.44986 88.0
436.332184 52.0
438.455109 56.0
439.184753 116.0
462.819397 68.0
464.32785 68.0
477.496674 88.0
486.046082 124.0
486.783569 72.0
501.030853 188.0
506.91098 80.0
509.136078 92.0
570.751953 32.0
589.679199 72.0
641.182373 80.0
648.429932 84.0
663.431702 160.0
675.326965 184.0
675.81842 64.0
681.267517 40.0
728.384583 56.0
761.882996 140.0
766.29541 96.0
812.850159 184.0
813.536926 212.0
834.25769 116.0
838.044739 192.0
858.011963 168.0
876.693176 268.0
903.892029 100.0
908.979553 228.0
931.305908 80.0
936.329773 80.0
941.177917 108.0
949.016174 100.0
959.352112 136.0
959.936951 180.0
962.226196 40.0
967.116028 84.0
968.36676 220.0
969.80426 184.0
979.086609 220.0
983.064087 160.0
985.999329 212.0
986.430603 168.0
991.099548 128.0
1014.85675 124.0
1019.935608 160.0
1023.434692 120.0
1025.403198 148.0
1026.608154 132.0
1028.426392 144.0
1035.030518 180.0
1037.484497 192.0
1047.058838 144.0
1061.022827 184.0
1074.407349 64.0
1075.967163 124.0
1106.692383 156.0
1106.785156 152.0
1112.908203 136.0
1119.934692 196.0
1122.634033 148.0
1122.794067 76.0
1125.356567 172.0
1140.698608 120.0
1141.962769 116.0
1142.453857 156.0
1145.48999 200.0
1146.857788 80.0
1148.786377 208.0
1152.709229 204.0
1155.183838 228.0
1158.345215 216.0
1158.399414 164.0
1165.061279 144.0
1170.189331 176.0
1173.739258 136.0
1183.901001 212.0
1184.339355 184.0
1184.503662 160.0
1198.078247 112.0
1200.552856 188.0
1202.20166 40.0
1207.230957 116.0
1212.305298 164.0
1213.608521 176.0
1215.287109 172.0
1221.602417 160.0
1223.161255 256.0
1225.724243 120.0
1226.037842 208.0
1227.202026 216.0
1230.79541 204.0
1231.172607 116.0
1232.080566 200.0
1235.884155 144.0
1240.506592 176.0
1242.505249 144.0
1253.755981 176.0
1256.15332 112.0
1261.343628 40.0
1262.724487 188.0
1266.615356 192.0
1268.259399 100.0
1271.47229 188.0
1277.732666 188.0
1286.213135 256.0
1292.359253 84.0
1294.850464 144.0
1295.695801 188.0
1298.010864 240.0
1306.78186 240.0
1307.58728 96.0
1309.300781 120.0
1310.842407 140.0
1311.649658 144.0
1311.801025 144.0
1311.851562 60.0
1318.015259 180.0
1321.116943 180.0
1321.276123 116.0
1324.570068 136.0
1324.671509 124.0
1325.548096 208.0
1326.396118 128.0
1328.404785 216.0
1330.385986 192.0
1331.257324 184.0
1342.340454 152.0
1342.522827 164.0
1344.755371 136.0
1345.010742 116.0
1347.844482 196.0
1348.816528 204.0
1349.986328 76.0
1351.317627 76.0
1359.135742 136.0
1359.664185 48.0
1360.647827 184.0
1360.904785 144.0
1363.549316 180.0
1366.821899 164.0
1367.189941 152.0
1368.63269 148.0
1370.075806 164.0
1370.459473 152.0
1370.525757 176.0
1373.194458 96.0
1374.301025 176.0
1379.234375 60.0
1380.358154 72.0
1381.179077 44.0
1382.703247 164.0
1384.332031 176.0
1386.613892 180.0
1389.476196 148.0
1391.930664 64.0
1392.824219 176.0
1395.023804 128.0
1397.455811 156.0
1397.723755 220.0
1399.882446 264.0
1400.418701 188.0
1400.710083 184.0
1403.98877 164.0
1409.102051 220.0
1414.583984 52.0
1414.890869 88.0
1416.021606 168.0
1416.313721 180.0
1416.815674 172.0
1417.474976 136.0
1418.336914 220.0
1418.464355 236.0
1418.974121 208.0
1421.036743 248.0
1421.659546 140.0
1423.588867 152.0
1424.61792 184.0
1427.127319 232.0
1427.41394 204.0
1429.640625 176.0
1430.408325 156.0
1430.588989 196.0
1431.530151 160.0
1432.057373 220.0
1434.370728 148.0
1435.584595 200.0
1436.006958 224.0
1440.762573 176.0
1441.162964 140.0
1443.415527 184.0
1444.035767 172.0
1448.653076 180.0
1449.19104 88.0
1454.803467 160.0
1458.609253 164.0
1460.593994 144.0
1460.685303 216.0
1463.661133 176.0
1467.737793 160.0
1468.805542 152.0
1469.309082 44.0
1470.201782 108.0
1472.392944 196.0
1473.531128 120.0
1474.478638 180.0
1475.074829 204.0
1475.525879 176.0
1476.466431 192.0
1476.634766 192.0
1484.408081 76.0
1487.699707 80.0
1489.611816 68.0
1491.217773 108.0
1492.024902 244.0
1492.124878 56.0
1496.718384 132.0
1498.220337 156.0
1498.305054 152.0
1499.669067 200.0
1500.154663 104.0
1501.164673 180.0
1501.635132 64.0
1502.005371 180.0
1502.869507 188.0
1503.023804 48.0
1503.108643 256.0
1503.618042 184.0
