>compound MLS001075495-01!
>formula C19H21N3O3
>ionization [M+H]+
>parentmass 340.1655679840905
#inchi InChI=1S/C19H21N3O3/c1-25-17-7-3-2-5-15(17)20-19(24)21-10-13-9-14(12-21)16-6-4-8-18(23)22(16)11-13/h2-8,13-14H,9-12H2,1H3,(H,20,24)/t13-,14-/m0/s1
#inchikey XMFNWUGXDIPNJY
#Ion_Source LC-ESI
#Instrument qTof
#Compound_Source NIH Natural Product Library
#PI Dorrestein
#Data_Collector VVP/LMS
#Scan -1
#Precursor_MZ 340.166
#ExactMass 339.158
#Charge 1
#CAS_Number N/A
#Pubmed_ID N/A
#Smiles COc1ccccc1NC(=O)N2C[C@@H]3C[C@@H](C2)c4cccc(=O)n4C3
#INCHI_AUX N/A
#Library_Class 1
#SpectrumID CCMSLIB00000080060
#IonMode Positive
#UpdateWorkflowName UPDATE-SINGLE-ANNOTATED-GOLD
#LibraryQualityString Gold
#TaskID b1d8e8f6646f4e71acdff9ca3d919d08
##Scan# 1590
#SpectrumFile p2-F03_GF3_01_18039.mzXML
#LibraryName NIH_Natural_Products_Library.mgf
#MQScore -1
#Organism NIH_Natural_Products_Library
#TIC_Query 0
#RT_Query -1
#MZErrorPPM -1
#SharedPeaks 0
#MassDiff 0
#LibMZ -1
#SpecMZ 340.166
#SpecCharge 0
#internalFilename spec-00000.mgf

>collision 10
95.058159 188.0
95.084839 168.0
95.112007 136.0
95.209084 180.0
95.347023 124.0
95.405334 196.0
95.448112 132.0
95.592056 188.0
95.736115 152.0
95.784805 164.0
95.856895 108.0
96.045265 344.0
96.085022 124.0
96.098679 156.0
96.213829 152.0
96.336868 40.0
96.370079 116.0
96.405251 84.0
96.784744 52.0
96.978691 192.0
97.02182 56.0
97.047302 168.0
97.3004 184.0
97.351456 188.0
97.490936 148.0
98.014381 172.0
98.069557 196.0
98.168137 180.0
98.197716 156.0
98.381233 200.0
98.472061 172.0
98.566887 172.0
98.594437 196.0
98.649467 128.0
98.681473 144.0
99.033783 232.0
99.162567 284.0
99.317223 32.0
99.368797 104.0
99.499786 172.0
99.595108 100.0
99.618942 176.0
99.636826 208.0
99.917152 204.0
99.992767 172.0
100.026604 164.0
100.148064 144.0
100.237717 176.0
100.389221 172.0
100.405174 216.0
100.488953 168.0
100.784462 160.0
101.164459 48.0
101.396812 404.0
101.487022 184.0
101.535149 136.0
101.555206 64.0
101.633446 208.0
101.773949 152.0
101.952728 148.0
102.181961 124.0
102.196045 124.0
102.242325 184.0
102.328888 176.0
102.512184 168.0
102.639175 196.0
102.663376 124.0
102.951965 120.0
103.054588 248.0
103.129753 172.0
103.236908 176.0
103.271294 212.0
103.332382 100.0
103.461502 152.0
103.609344 192.0
103.627579 148.0
103.641762 116.0
103.692421 204.0
103.769455 132.0
103.836372 220.0
104.050148 160.0
104.077866 220.0
104.102234 56.0
104.13269 32.0
104.224113 48.0
104.258659 144.0
104.356232 228.0
104.394867 168.0
104.614609 232.0
105.064285 372.0
105.165771 144.0
105.246635 152.0
105.336502 152.0
105.436615 116.0
105.538826 148.0
105.722931 204.0
105.776146 220.0
105.913338 64.0
105.93792 160.0
105.9748 104.0
106.028076 184.0
106.063782 1116.0
106.110069 32.0
106.126472 172.0
106.214661 220.0
106.69725 176.0
106.904999 92.0
106.99556 144.0
107.046104 344.0
107.071182 320.0
107.074844 232.0
107.137665 180.0
107.162392 328.0
107.203133 248.0
107.42215 188.0
107.479919 140.0
107.558861 128.0
107.599632 108.0
107.661583 140.0
107.725365 168.0
107.857857 116.0
107.915749 120.0
107.944984 172.0
107.961235 152.0
107.981918 216.0
108.045517 1084.0
108.087425 152.0
108.126747 176.0
108.460213 136.0
108.686264 148.0
108.715538 188.0
108.746445 228.0
108.856476 184.0
108.885551 152.0
109.006042 80.0
109.051071 1140.0
109.070473 164.0
109.112053 128.0
109.176514 40.0
109.326294 148.0
109.647018 156.0
109.668129 156.0
109.711632 192.0
109.907684 92.0
110.035004 192.0
110.058411 512.0
110.327492 200.0
110.463249 144.0
110.733437 160.0
110.848976 108.0
110.896866 164.0
111.018463 208.0
111.715797 248.0
112.01683 148.0
112.056854 64.0
112.109535 136.0
112.4533 160.0
112.487076 164.0
112.508186 184.0
112.683876 128.0
112.854683 148.0
112.913895 136.0
113.180534 164.0
113.322441 56.0
113.549263 28.0
113.606537 200.0
113.761452 192.0
113.778435 168.0
113.846382 164.0
113.971718 108.0
114.125237 248.0
114.429008 176.0
114.567444 120.0
114.729408 204.0
114.818962 128.0
114.893623 180.0
115.002449 136.0
115.051094 276.0
115.085709 184.0
115.117737 72.0
115.188217 140.0
115.342072 100.0
115.391243 180.0
115.436142 148.0
115.71431 204.0
115.817101 176.0
116.049629 508.0
116.252327 60.0
116.289574 236.0
116.378975 224.0
116.929291 112.0
116.952026 200.0
117.057518 1232.0
117.178596 196.0
117.263123 92.0
117.36013 132.0
117.67141 152.0
117.752884 156.0
117.804726 48.0
117.828491 48.0
118.063431 1552.0
118.200386 160.0
118.367065 100.0
118.393051 248.0
118.527557 132.0
118.557693 120.0
118.593605 176.0
118.598007 100.0
118.607422 136.0
118.859123 44.0
119.066582 156.0
119.088249 160.0
119.340462 200.0
119.598038 140.0
119.833916 216.0
119.894241 248.0
120.043015 328.0
120.078529 372.0
120.446251 184.0
120.520531 208.0
120.566414 132.0
120.70414 268.0
121.048805 152.0
121.087112 216.0
121.468498 120.0
121.488243 352.0
121.59137 132.0
121.692345 236.0
121.758224 228.0
121.82412 244.0
121.848289 268.0
121.885643 132.0
122.059029 1120.0
122.129669 152.0
122.153061 132.0
122.512688 184.0
122.551659 64.0
122.699562 212.0
122.821304 180.0
122.953499 184.0
123.114853 252.0
123.353477 252.0
123.594543 192.0
123.691917 148.0
123.727341 252.0
123.769409 144.0
124.072952 224.0
124.250374 120.0
124.341347 208.0
124.399803 168.0
124.512299 176.0
124.701149 152.0
124.752274 224.0
125.237373 60.0
125.255188 116.0
125.281921 112.0
125.429001 148.0
125.571701 120.0
125.752419 144.0
125.888603 200.0
125.948906 260.0
126.057083 172.0
126.118729 224.0
126.384857 164.0
126.693825 208.0
126.734154 200.0
126.767761 140.0
127.070473 216.0
127.106499 144.0
127.335358 128.0
127.445427 132.0
128.059326 440.0
128.113632 236.0
128.30069 260.0
128.417953 228.0
128.503662 160.0
128.573624 168.0
129.034424 92.0
129.069824 920.0
129.140717 176.0
129.405472 188.0
129.482468 152.0
129.55722 108.0
129.799744 160.0
129.824677 168.0
129.854172 76.0
129.899536 184.0
129.976669 140.0
130.008438 132.0
130.035675 212.0
130.065201 1536.0
130.103775 32.0
130.201416 160.0
130.279053 152.0
130.31044 156.0
130.335434 208.0
130.511017 148.0
130.587784 168.0
130.724274 228.0
130.766403 180.0
131.013443 68.0
131.046463 388.0
131.071732 1836.0
131.12738 192.0
131.241302 152.0
131.462631 160.0
131.494583 160.0
131.611008 128.0
131.825729 224.0
131.891998 212.0
131.987747 168.0
132.0448 4136.0
132.080246 1656.0
132.107941 112.0
132.152863 176.0
132.187027 160.0
132.264847 60.0
132.379318 120.0
132.418259 100.0
132.674896 144.0
132.71846 136.0
132.830841 84.0
132.854477 156.0
132.977692 212.0
133.051926 5748.0
133.088638 472.0
133.129211 180.0
133.15448 28.0
133.235626 200.0
133.432526 80.0
133.462402 136.0
133.519897 100.0
133.740768 84.0
133.825958 120.0
133.885818 112.0
133.920898 136.0
134.060059 3496.0
134.09584 100.0
134.256866 232.0
134.27301 112.0
134.314514 72.0
134.481995 192.0
134.603012 136.0
134.759094 188.0
134.90799 152.0
134.938049 188.0
135.02977 984.0
135.059387 316.0
135.099442 204.0
135.199432 196.0
135.250351 176.0
135.299973 224.0
135.336014 44.0
135.361481 76.0
135.551422 176.0
135.76265 176.0
135.906204 68.0
135.952606 180.0
136.005997 148.0
136.031525 152.0
136.07489 148.0
136.305588 180.0
136.41066 264.0
136.449753 140.0
136.479919 164.0
136.679962 152.0
136.747452 192.0
137.019897 128.0
137.129425 192.0
137.157394 216.0
137.343933 188.0
137.397583 172.0
137.563278 112.0
137.787476 84.0
137.836533 188.0
137.911316 152.0
138.025879 156.0
138.070312 144.0
138.172699 196.0
138.285553 140.0
138.330032 160.0
138.362793 48.0
138.618103 176.0
138.650909 216.0
138.829086 64.0
139.07074 140.0
139.136475 212.0
139.159943 180.0
139.387787 228.0
139.549973 240.0
139.59935 200.0
139.825195 176.0
140.048874 276.0
140.067474 160.0
140.44957 124.0
140.619461 108.0
140.869751 184.0
141.055679 180.0
141.082443 152.0
141.122635 204.0
141.510864 140.0
141.875519 100.0
141.932419 108.0
141.954941 200.0
142.039139 132.0
142.064758 1260.0
142.221848 108.0
142.274078 164.0
142.435547 76.0
142.616135 136.0
142.737381 128.0
142.788483 200.0
142.922928 92.0
142.963379 212.0
143.043121 308.0
143.071823 520.0
143.127625 160.0
143.161652 28.0
143.384903 116.0
143.449265 204.0
143.470718 168.0
143.487411 80.0
143.580399 88.0
144.048294 148.0
144.08136 1004.0
144.110336 164.0
144.12706 52.0
144.160522 208.0
144.215485 140.0
144.30394 180.0
144.490494 104.0
144.70517 128.0
144.772934 180.0
144.927094 236.0
144.959793 180.0
145.052963 688.0
145.08165 188.0
145.317062 196.0
145.34346 156.0
145.417862 112.0
145.588318 156.0
145.845398 172.0
145.969131 128.0
146.004135 172.0
146.060135 18964.0
146.095062 2040.0
146.206726 164.0
146.235046 40.0
146.256699 124.0
146.312073 212.0
146.34819 192.0
146.391525 124.0
146.471008 60.0
146.579422 72.0
146.687668 44.0
146.719223 56.0
146.73851 144.0
146.813263 152.0
146.849426 48.0
146.933121 104.0
147.00383 176.0
147.025558 212.0
147.063202 2212.0
147.095825 192.0
147.356369 252.0
147.702072 184.0
147.801071 204.0
147.918289 124.0
147.928879 44.0
147.938263 112.0
148.004471 232.0
148.028809 56.0
148.075363 8264.0
148.130524 32.0
148.191086 48.0
148.2444 88.0
148.39711 136.0
148.460159 152.0
148.513519 104.0
148.615402 176.0
148.753738 44.0
149.003876 40.0
149.037888 164.0
149.078033 852.0
149.36853 72.0
149.432343 120.0
149.782349 180.0
149.814011 208.0
149.9272 124.0
150.055069 2108.0
150.104538 160.0
150.139496 96.0
150.200134 140.0
150.286987 60.0
150.350433 112.0
150.372406 100.0
150.435867 156.0
150.489578 228.0
150.7314 124.0
150.753387 148.0
151.007645 192.0
151.059326 348.0
151.089874 208.0
151.105927 156.0
151.166672 160.0
151.291489 104.0
151.658936 116.0
151.678543 140.0
151.810944 184.0
152.220749 204.0
152.682755 256.0
153.345032 132.0
153.564468 48.0
153.75444 176.0
153.99147 168.0
154.026047 68.0
154.06517 988.0
154.097687 152.0
154.383636 248.0
154.456146 148.0
154.602127 236.0
154.688751 168.0
154.822449 84.0
155.073257 392.0
155.171844 164.0
155.218948 168.0
155.414902 164.0
155.814651 36.0
155.859375 48.0
155.915665 268.0
155.971207 40.0
156.015945 184.0
156.081436 2260.0
156.110092 148.0
156.142761 132.0
156.289536 124.0
156.364197 60.0
156.670471 136.0
156.710327 148.0
156.765152 180.0
157.05806 116.0
157.083542 424.0
157.466187 92.0
157.563599 188.0
157.594986 192.0
157.761032 160.0
157.813538 172.0
157.948578 204.0
158.01088 160.0
158.059341 4056.0
158.126236 172.0
158.456772 128.0
158.529434 116.0
158.552002 144.0
158.569534 92.0
158.742523 144.0
158.950729 52.0
158.995895 204.0
159.067749 4608.0
159.123917 112.0
159.162552 72.0
159.216034 64.0
159.274597 44.0
159.38765 60.0
159.435394 200.0
159.470581 60.0
159.49823 100.0
159.633987 144.0
159.656631 300.0
159.699387 168.0
159.734604 172.0
159.811493 140.0
159.86409 216.0
159.907181 196.0
159.973282 216.0
159.994766 220.0
160.07605 39228.0
160.17511 80.0
160.2146 96.0
160.234818 80.0
160.262589 72.0
160.291 72.0
160.316208 40.0
160.361572 56.0
160.427338 176.0
160.473831 60.0
160.499222 124.0
160.543091 252.0
160.633896 68.0
160.660599 68.0
160.727234 76.0
160.802948 184.0
160.848389 136.0
160.884354 160.0
160.96199 240.0
160.997345 112.0
161.017548 40.0
161.03775 68.0
161.080505 6000.0
161.227249 80.0
161.313187 68.0
161.338455 116.0
161.442123 64.0
161.603104 64.0
161.778641 52.0
161.819153 56.0
161.852066 60.0
161.884995 60.0
161.917908 88.0
161.964569 152.0
162.059769 228.0
162.088303 1204.0
162.116608 176.0
162.151001 168.0
162.187927 148.0
162.193359 84.0
162.202515 124.0
162.227036 80.0
162.282822 92.0
162.338608 80.0
162.389328 32.0
162.457809 120.0
162.739517 80.0
163.062149 72.0
163.090073 184.0
163.129272 204.0
163.191788 72.0
163.405441 108.0
163.784744 152.0
164.95343 76.0
165.16568 144.0
165.198929 96.0
165.344772 148.0
165.523972 60.0
166.927628 192.0
166.955917 116.0
167.295547 160.0
167.429443 88.0
167.751526 60.0
167.790192 136.0
167.880447 116.0
168.042953 52.0
168.061005 64.0
168.329453 144.0
168.634308 64.0
168.691177 44.0
168.760971 144.0
169.869431 124.0
170.056244 140.0
170.601746 148.0
170.861801 120.0
170.978897 148.0
171.069153 256.0
171.091248 404.0
171.416397 100.0
171.468521 48.0
171.551941 148.0
171.661438 112.0
171.755325 104.0
171.904037 140.0
172.039764 148.0
172.075165 6256.0
172.122131 176.0
172.188599 148.0
172.253906 108.0
172.332275 168.0
172.745346 156.0
172.774124 44.0
173.080627 720.0
173.143204 96.0
173.175583 44.0
173.271545 44.0
173.310852 156.0
173.431412 116.0
173.51004 108.0
173.798553 180.0
173.927155 232.0
173.974396 160.0
174.013779 40.0
174.053635 140.0
174.091843 16052.0
174.218628 60.0
174.250168 212.0
174.267288 100.0
174.319794 96.0
174.365906 172.0
174.420975 48.0
174.439377 116.0
174.470917 136.0
174.505096 80.0
174.64711 64.0
175.00238 96.0
175.052368 168.0
175.095184 2096.0
175.205185 168.0
175.25975 152.0
175.365921 40.0
175.42128 28.0
175.50827 64.0
175.640137 112.0
175.864426 28.0
176.036026 88.0
176.065079 184.0
176.096573 336.0
176.358337 156.0
176.413849 60.0
176.495819 100.0
176.556641 128.0
176.691544 100.0
176.87413 36.0
177.017105 88.0
177.194565 44.0
177.293488 36.0
177.502029 136.0
177.621384 108.0
178.091202 208.0
178.383499 116.0
178.566956 116.0
180.03009 176.0
180.152954 92.0
180.195709 116.0
180.481689 156.0
181.735229 164.0
182.081528 80.0
182.159424 64.0
182.315262 172.0
182.892075 204.0
183.453812 316.0
184.060867 56.0
184.888062 144.0
184.955734 192.0
185.199432 60.0
186.189377 156.0
186.515427 144.0
186.662231 48.0
187.08609 160.0
187.113907 140.0
187.954758 224.0
188.070572 1200.0
188.134613 60.0
188.174484 40.0
188.297363 36.0
188.423019 188.0
188.60611 156.0
188.893219 108.0
189.040604 152.0
189.102829 12136.0
189.16687 32.0
189.188766 64.0
189.211121 48.0
189.292816 144.0
189.385925 124.0
189.405106 64.0
189.429749 80.0
189.583191 72.0
189.698303 88.0
189.733948 48.0
189.842712 96.0
190.024658 196.0
190.06308 76.0
190.10527 1416.0
190.263428 92.0
190.452911 40.0
190.516098 76.0
190.664474 60.0
190.702942 40.0
191.117538 5340.0
191.297089 164.0
191.360413 68.0
191.443024 144.0
191.476074 40.0
191.555954 68.0
191.666153 108.0
191.820496 48.0
191.916977 68.0
192.122833 536.0
192.554443 220.0
192.808609 76.0
192.924713 136.0
193.121628 148.0
193.464157 56.0
193.696777 140.0
193.985687 148.0
194.06813 196.0
194.367706 216.0
194.611969 144.0
195.226074 172.0
195.562714 188.0
197.974915 172.0
198.056137 168.0
198.720535 76.0
199.088226 364.0
199.335464 136.0
200.057785 216.0
200.065918 136.0
200.072769 204.0
200.404724 96.0
200.427261 52.0
200.754257 148.0
201.067398 144.0
201.087158 148.0
201.202881 164.0
201.550293 140.0
201.793365 124.0
202.072067 156.0
202.421524 64.0
202.70491 104.0
203.079025 208.0
203.164124 220.0
205.147018 180.0
205.260315 96.0
205.508469 176.0
205.753922 192.0
205.808167 176.0
205.945236 164.0
205.979523 84.0
206.230972 80.0
208.362991 124.0
208.969635 168.0
209.291992 220.0
209.643433 164.0
210.783295 216.0
211.173569 192.0
211.761108 172.0
212.018967 120.0
214.253448 208.0
214.317551 196.0
214.480743 232.0
214.670258 204.0
214.999908 204.0
215.085953 168.0
215.873383 148.0
216.077408 192.0
216.098618 228.0
216.227371 100.0
216.350311 140.0
216.408875 80.0
216.49379 140.0
216.57579 208.0
216.599228 116.0
216.76915 204.0
216.883453 196.0
216.908966 108.0
217.02417 132.0
217.053497 144.0
217.097885 39128.0
217.167999 104.0
217.217728 68.0
217.261734 52.0
217.307144 128.0
217.352692 48.0
217.446594 80.0
217.481644 68.0
217.512878 124.0
217.535919 84.0
217.561722 188.0
217.592499 108.0
217.628601 72.0
217.678513 100.0
217.869431 32.0
217.916443 204.0
217.96933 48.0
218.028107 44.0
218.057495 128.0
218.100266 5236.0
218.145676 256.0
218.180954 116.0
218.272095 112.0
218.339737 112.0
218.436798 56.0
218.557419 44.0
218.663361 44.0
218.719284 72.0
218.754608 96.0
218.928329 40.0
219.066757 52.0
219.101608 440.0
219.175766 64.0
219.258286 52.0
219.42041 128.0
219.491379 112.0
219.632721 200.0
219.688782 124.0
219.715332 92.0
219.784592 148.0
220.101974 136.0
220.227295 64.0
220.314621 92.0
220.388489 124.0
220.429855 52.0
220.521469 48.0
220.633804 108.0
220.66449 116.0
220.929535 116.0
222.025482 48.0
222.408218 68.0
222.782379 104.0
223.826324 52.0
223.924606 36.0
225.634445 104.0
225.698013 76.0
226.256729 112.0
227.452835 124.0
228.456512 76.0
228.606949 140.0
229.21524 72.0
229.444305 132.0
229.803207 84.0
230.301315 64.0
234.061905 176.0
234.976288 188.0
235.049515 128.0
235.106842 1628.0
235.492188 84.0
236.111328 624.0
236.143204 240.0
237.021805 224.0
237.119873 100.0
242.563263 96.0
252.252045 48.0
254.136429 48.0
255.980042 104.0
259.135864 116.0
263.863861 60.0
264.737518 76.0
265.408295 88.0
269.571655 124.0
271.352264 80.0
271.650696 96.0
272.898682 144.0
273.082855 96.0
273.135468 88.0
277.325623 64.0
278.427124 104.0
278.616455 60.0
282.603973 44.0
282.627411 52.0
297.016632 212.0
298.008759 64.0
298.847717 148.0
308.139923 184.0
312.293976 136.0
314.1362 132.0
321.694946 84.0
322.157684 204.0
328.159912 56.0
330.153137 76.0
330.934753 92.0
334.376099 80.0
338.84198 96.0
340.104401 160.0
340.168488 1340.0
340.261322 76.0
340.397186 56.0
340.569794 56.0
341.165955 272.0
342.08844 136.0
342.191528 128.0
342.397736 80.0
344.127197 120.0
344.625824 44.0
348.078003 80.0
348.204285 168.0
361.551544 76.0
365.890137 80.0
366.888275 44.0
373.874908 56.0
382.245392 80.0
388.367371 116.0
396.128815 104.0
412.924866 136.0
414.07428 40.0
440.450348 124.0
453.95224 76.0
455.042725 124.0
456.274811 116.0
457.802338 48.0
461.078735 56.0
490.465851 60.0
500.464783 20.0
540.312195 60.0
541.487915 72.0
542.720581 112.0
625.396484 92.0
632.339111 52.0
652.51709 84.0
675.59613 60.0
686.300293 120.0
706.367798 76.0
707.648499 212.0
711.248047 60.0
712.995422 84.0
714.670471 112.0
721.86615 104.0
750.158752 84.0
770.066162 136.0
778.806274 100.0
780.71814 212.0
812.687439 76.0
820.353821 188.0
826.871094 120.0
854.739197 100.0
881.662109 160.0
884.495178 140.0
888.99353 104.0
890.69751 140.0
896.605652 148.0
898.340698 208.0
903.67572 200.0
906.549866 112.0
910.706726 164.0
916.030823 176.0
917.832825 164.0
924.247559 140.0
928.530396 80.0
934.793762 184.0
936.248657 148.0
937.857117 168.0
942.391296 180.0
971.605652 152.0
971.940674 216.0
973.610535 192.0
978.398315 52.0
983.160339 176.0
983.878174 164.0
984.071716 60.0
985.352051 128.0
995.574463 220.0
998.301819 160.0
1004.600281 64.0
1005.27533 132.0
1007.952759 160.0
1009.273804 28.0
1018.545532 128.0
1019.206238 216.0
1022.481201 120.0
1022.684875 184.0
1023.614319 136.0
1033.642456 168.0
1039.717529 44.0
1041.534424 64.0
1051.682129 188.0
1055.700562 232.0
1057.858398 20.0
1058.904053 52.0
1063.572266 148.0
1069.044556 216.0
1073.989502 160.0
1076.508667 140.0
1077.312012 152.0
1077.62561 156.0
1085.558838 156.0
1086.300049 164.0
1086.503296 188.0
1088.157227 72.0
1089.27356 120.0
1093.40271 36.0
1094.469116 112.0
1099.914673 128.0
1101.446533 160.0
1103.276978 204.0
1110.262451 184.0
1110.474731 120.0
1116.046265 148.0
1120.898682 212.0
1122.79187 144.0
1125.040527 224.0
1128.501221 80.0
1130.246948 160.0
1132.462769 36.0
1138.794312 64.0
1141.610229 192.0
1142.66626 160.0
1147.88623 152.0
1152.955933 64.0
1154.713745 196.0
1156.513428 152.0
1161.534302 136.0
1164.303467 68.0
1171.343018 140.0
1177.16748 128.0
1177.508911 172.0
1182.06189 92.0
1182.376709 112.0
1184.375854 216.0
1184.485474 132.0
1186.575562 184.0
1191.140259 124.0
1192.547729 188.0
1193.296997 216.0
1204.447144 76.0
1209.07251 180.0
1209.577759 156.0
1213.318604 164.0
1214.192261 144.0
1220.622803 152.0
1222.723633 212.0
1222.834961 172.0
1223.043823 180.0
1226.895874 192.0
1227.411865 124.0
1230.370117 164.0
1232.703003 196.0
1233.206177 124.0
1233.387939 156.0
1240.878296 156.0
1242.828125 164.0
1244.526733 160.0
1248.869629 100.0
1254.220825 156.0
1256.315186 160.0
1257.917114 160.0
1258.241821 172.0
1261.887329 124.0
1263.245117 172.0
1264.688599 216.0
1264.922241 184.0
1267.393188 212.0
1272.706421 76.0
1273.871216 160.0
1274.38269 200.0
1276.33728 52.0
1278.585205 216.0
1280.614258 176.0
1280.799438 244.0
1281.32666 160.0
1282.210205 148.0
1282.366943 140.0
1282.695801 148.0
1285.997314 164.0
1288.660889 188.0
1288.96814 188.0
1290.025879 136.0
1291.234253 156.0
1292.92981 96.0
1293.581177 216.0
1294.984619 152.0
1299.055908 220.0
1300.95752 136.0
1301.969971 252.0
1305.369019 144.0
1306.722168 156.0
1308.268555 172.0
1309.550293 216.0
1312.504883 152.0
1314.755615 160.0
1314.979248 72.0
1316.228149 172.0
1318.165894 232.0
1320.766724 108.0
1322.48877 164.0
1323.523926 196.0
1324.914551 172.0
1327.371582 180.0
1328.793213 60.0
1329.351929 204.0
1329.867188 72.0
1330.215576 56.0
1331.181152 108.0
1331.805786 168.0
1333.120728 48.0
1337.440796 64.0
1340.43396 244.0
1340.95874 200.0
1342.591797 204.0
1342.708496 212.0
1344.174683 108.0
1346.247925 160.0
1347.131592 152.0
1351.664551 160.0
1353.340698 156.0
1354.922729 120.0
1359.035767 60.0
1361.20105 196.0
1361.671021 152.0
1367.096558 72.0
1367.376221 144.0
1367.773682 32.0
1370.925903 200.0
1372.348511 156.0
1372.429565 120.0
1373.653809 176.0
1374.266235 100.0
1374.421143 144.0
1374.620361 168.0
1375.483887 68.0
1375.720093 172.0
1379.80542 104.0
1380.005005 216.0
1380.231323 52.0
1382.76416 124.0
1384.037476 184.0
1385.126099 144.0
1387.653198 156.0
1388.379883 132.0
1389.321777 184.0
1390.019287 156.0
1390.30127 204.0
1390.924683 52.0
1391.38208 52.0
1392.283325 132.0
1392.610107 148.0
1393.14502 216.0
1394.125732 80.0
1394.341187 144.0
1394.445312 132.0
1395.367065 160.0
1399.764404 196.0
1400.136719 120.0
1401.552002 224.0
1402.826416 232.0
1405.414307 156.0
1405.944214 192.0
1407.033936 216.0
1407.907593 176.0
1408.101685 152.0
1408.803833 160.0
1410.328247 132.0
1411.374756 176.0
1412.212402 256.0
1413.140015 136.0
1413.394409 204.0
1414.000488 128.0
1414.591797 104.0
1415.235596 116.0
1416.606201 292.0
1417.512695 148.0
1418.082275 236.0
1420.12915 104.0
1420.63916 160.0
1423.588867 192.0
1425.106201 168.0
1426.030518 244.0
1427.022705 140.0
1427.203247 44.0
1429.038452 132.0
1436.632446 44.0
1439.394775 144.0
1439.795044 244.0
1440.097168 128.0
1440.64856 172.0
1441.056519 168.0
1441.540039 132.0
1447.432739 160.0
1447.803711 100.0
1448.94751 136.0
1449.477905 156.0
1449.735474 64.0
1450.629883 196.0
1450.933105 204.0
1453.504272 196.0
1454.597168 164.0
1456.305542 232.0
1459.885132 208.0
1460.875 256.0
1462.669678 96.0
1462.867554 236.0
1463.826904 124.0
1464.177246 164.0
1469.581787 132.0
1470.680664 160.0
1470.985962 136.0
1471.390503 84.0
1474.583496 252.0
1474.636963 120.0
1475.56189 144.0
1475.959473 248.0
1479.079956 184.0
1480.007202 152.0
1482.412354 140.0
1483.132812 148.0
1483.293701 184.0
1483.546753 196.0
1484.259766 36.0
1485.371704 164.0
1485.540527 56.0
1485.670898 168.0
1485.80896 180.0
1488.42627 196.0
1488.47998 180.0
1489.048218 212.0
1489.486084 160.0
1490.115967 200.0
1492.898438 160.0
1493.098389 192.0
1494.052246 144.0
1497.34668 120.0
1497.783813 164.0
1502.572876 180.0
