>compound MLS000860018-01!(+/-)-6-Chloro-PB hydrobromide
>formula C16H16ClNO2
>ionization [M+H]+
>parentmass 290.0942328840905
#inchi InChI=1S/C16H16ClNO2/c17-15-11-6-7-18-9-13(10-4-2-1-3-5-10)12(11)8-14(19)16(15)20/h1-5,8,13,18-20H,6-7,9H2
#inchikey GHWJEDJMOVUXEC
#origInchi InChI=1S/C16H16ClNO2.BrH/c17-15-11-6-7-18-9-13(10-4-2-1-3-5-10)12(11)8-14(19)16(15)20;/h1-5,8,13,18-20H,6-7,9H2;1H
#Ion_Source LC-ESI
#Instrument qTof
#Compound_Source NIH Pharmacologically Active Library
#PI Dorrestein
#Data_Collector VP/LMS
#Scan -1
#Precursor_MZ 290.096
#ExactMass 289.087
#Charge 1
#CAS_Number N/A
#Pubmed_ID N/A
#Smiles Oc1cc2C(CNCCc2c(Cl)c1O)c3ccccc3.Br
#INCHI_AUX N/A
#Library_Class 1
#SpectrumID CCMSLIB00000085112
#IonMode Positive
#UpdateWorkflowName UPDATE-SINGLE-ANNOTATED-GOLD
#LibraryQualityString Gold
#TaskID d252d724072548979f1f6f1ced849daf
##Scan# 1341
#SpectrumFile p3-F02_GF2_01_18283.mzXML
#LibraryName Pharm_Active_Library.mgf
#MQScore -1
#Organism Pharm_Active_Library
#TIC_Query 0
#RT_Query -1
#MZErrorPPM -1
#SharedPeaks 0
#MassDiff 0
#LibMZ -1
#SpecMZ 290.096
#SpecCharge 0
#internalFilename spec-00000.mgf

>collision 10
45.010593 100.0
45.215141 132.0
45.314236 52.0
45.332996 48.0
45.358463 180.0
45.5853 120.0
45.612183 160.0
45.726517 140.0
45.750748 184.0
45.805965 164.0
45.921894 216.0
46.143372 124.0
46.188 160.0
46.265141 124.0
46.28545 140.0
46.550545 228.0
46.986839 240.0
47.016861 188.0
47.053566 176.0
47.081032 216.0
47.149342 176.0
47.161644 144.0
47.240959 168.0
47.287487 156.0
47.439541 100.0
47.839325 128.0
47.951805 184.0
48.014328 268.0
48.142681 140.0
48.465012 156.0
48.488571 140.0
48.60368 108.0
48.684196 80.0
49.103127 92.0
49.186852 220.0
49.327946 184.0
49.51405 132.0
49.783329 144.0
49.845966 204.0
49.950596 200.0
50.016735 120.0
50.085735 176.0
50.177341 164.0
50.380581 148.0
50.466797 248.0
50.490837 44.0
50.664955 176.0
50.86208 188.0
50.931763 112.0
50.967178 140.0
50.997608 244.0
51.238953 176.0
51.307365 212.0
51.36441 116.0
51.739151 260.0
51.793262 188.0
52.009789 148.0
52.195129 184.0
52.21814 144.0
52.269936 132.0
52.596722 164.0
52.651978 120.0
52.719883 92.0
52.73 156.0
52.9282 172.0
53.14999 72.0
53.322811 176.0
53.380966 180.0
53.444973 72.0
53.867794 148.0
53.894093 108.0
53.905785 96.0
54.100323 208.0
54.186737 176.0
54.386185 124.0
54.521317 196.0
54.606594 124.0
54.677216 120.0
54.901161 104.0
54.988209 164.0
55.263088 140.0
55.408192 144.0
55.586128 144.0
55.606907 152.0
55.641048 140.0
55.948811 64.0
56.009869 160.0
56.044136 244.0
56.15744 136.0
56.448681 184.0
56.51899 184.0
56.580357 160.0
56.82296 204.0
56.940258 208.0
56.974808 124.0
57.037926 236.0
57.179317 48.0
57.256104 128.0
57.675571 144.0
57.838367 196.0
57.848553 196.0
57.960106 156.0
58.057129 136.0
58.122364 264.0
58.494736 88.0
58.505394 128.0
58.602871 200.0
58.969135 240.0
58.98748 144.0
59.030293 144.0
59.103722 200.0
59.17131 128.0
59.746624 208.0
59.857449 180.0
59.888252 192.0
59.908276 156.0
60.014626 108.0
60.050098 172.0
60.301777 140.0
60.326508 120.0
60.362072 188.0
60.444061 136.0
60.772572 204.0
60.870365 228.0
60.932499 176.0
61.042862 88.0
61.259216 136.0
61.352722 104.0
61.577435 192.0
61.636799 148.0
61.821335 140.0
62.043766 224.0
62.666172 80.0
62.849083 156.0
62.928005 104.0
62.965347 80.0
62.975384 176.0
63.00066 224.0
63.104973 212.0
63.236279 68.0
63.256859 156.0
63.317028 176.0
63.328117 116.0
63.383568 156.0
63.66436 128.0
63.783527 180.0
63.845539 220.0
63.972836 128.0
64.238976 132.0
64.280464 120.0
64.475304 64.0
64.513664 104.0
64.556839 208.0
64.849831 200.0
64.96048 288.0
65.005402 72.0
65.068008 288.0
65.143494 124.0
65.277824 204.0
65.605377 112.0
65.629555 184.0
65.736023 152.0
65.853882 188.0
66.041389 144.0
66.055946 152.0
66.086685 176.0
66.285858 176.0
66.310173 180.0
66.42289 240.0
66.673729 148.0
66.823341 56.0
66.894951 168.0
66.91069 276.0
67.087189 232.0
67.222511 108.0
67.325424 104.0
67.443062 48.0
67.495377 128.0
67.631172 180.0
67.657364 172.0
67.688477 164.0
67.840218 224.0
67.880211 84.0
68.047585 144.0
68.255806 200.0
68.461975 120.0
68.671295 116.0
68.729034 68.0
68.874321 144.0
68.895798 168.0
69.241524 140.0
69.520058 168.0
69.603058 156.0
70.002167 188.0
70.280556 100.0
70.609665 140.0
70.844009 220.0
70.865791 60.0
71.137497 212.0
71.256737 152.0
71.27858 100.0
71.643707 120.0
71.798782 116.0
72.346275 112.0
72.722603 172.0
72.792213 172.0
73.055672 124.0
73.367332 64.0
73.392906 208.0
73.457718 164.0
73.621582 128.0
73.633537 32.0
73.65062 140.0
74.014908 156.0
74.086845 188.0
74.285713 160.0
74.661888 152.0
74.689407 104.0
74.723816 204.0
75.068329 116.0
75.082123 224.0
75.11145 48.0
75.430916 120.0
75.591774 72.0
75.820374 200.0
76.023293 208.0
76.184776 124.0
76.216049 104.0
76.294266 84.0
76.557014 100.0
76.930161 216.0
76.947617 128.0
76.993019 192.0
77.017471 60.0
77.216736 164.0
77.488075 220.0
77.52137 180.0
78.01812 184.0
78.296143 144.0
78.354271 188.0
78.548203 124.0
79.003983 112.0
79.085388 204.0
79.097778 192.0
79.166832 88.0
79.317436 144.0
79.374168 92.0
79.407867 100.0
79.487701 196.0
80.106453 144.0
80.211594 152.0
80.290047 140.0
80.514931 40.0
80.928024 128.0
81.462494 72.0
81.599083 220.0
81.777184 140.0
81.827591 84.0
81.8564 216.0
82.005936 104.0
82.580116 176.0
83.036552 204.0
83.40152 108.0
83.454239 72.0
83.516296 200.0
83.574295 140.0
83.601593 184.0
83.818298 180.0
83.93679 164.0
84.051712 212.0
84.706261 124.0
84.830879 192.0
84.98127 152.0
85.091393 60.0
85.157509 144.0
85.388779 208.0
85.470047 192.0
85.674423 76.0
85.718643 120.0
85.834778 160.0
85.947304 72.0
85.991592 172.0
86.006363 168.0
86.133698 176.0
86.157791 184.0
86.438843 84.0
86.485115 160.0
86.538803 176.0
86.651787 100.0
86.683289 208.0
86.842735 128.0
86.978188 220.0
87.13047 72.0
87.17321 176.0
87.554596 284.0
87.601158 160.0
88.248787 168.0
88.402184 168.0
88.538849 168.0
88.679367 112.0
88.746857 180.0
89.038902 632.0
89.08094 44.0
89.419403 148.0
89.603951 180.0
89.641808 176.0
89.728348 164.0
90.044167 244.0
90.342155 224.0
90.582581 208.0
90.715439 184.0
90.791077 220.0
90.819527 144.0
91.053673 3160.0
91.111122 180.0
91.206902 180.0
91.374252 184.0
91.397087 136.0
91.446564 44.0
91.570328 152.0
91.635101 152.0
91.656059 196.0
91.701797 64.0
91.989838 116.0
92.056671 772.0
92.076454 188.0
92.125427 140.0
92.391167 228.0
92.404564 168.0
92.63813 236.0
92.799126 144.0
92.960258 196.0
93.035118 140.0
93.051903 280.0
93.073929 176.0
93.190689 144.0
93.225281 232.0
93.369469 148.0
93.519547 216.0
94.028389 148.0
94.095955 116.0
94.236954 180.0
94.323921 132.0
94.544426 336.0
94.87178 40.0
95.082748 200.0
95.287117 32.0
95.30072 96.0
95.432892 128.0
95.590454 180.0
95.781258 144.0
95.931313 172.0
95.94886 80.0
96.036613 136.0
96.09124 144.0
96.157585 212.0
96.448624 148.0
96.622673 136.0
96.636368 152.0
96.722481 268.0
96.759682 204.0
97.279213 164.0
97.373466 64.0
97.497246 100.0
97.581772 188.0
97.678139 172.0
97.699783 172.0
97.784393 176.0
97.874954 164.0
97.989197 84.0
98.012848 176.0
98.042404 144.0
98.060143 228.0
98.119286 168.0
98.213943 184.0
98.352066 144.0
98.763077 224.0
98.997749 460.0
99.095673 176.0
99.363335 128.0
99.724762 60.0
99.871902 156.0
99.998657 148.0
100.176476 172.0
100.262154 212.0
100.294044 184.0
100.461555 104.0
100.675133 216.0
100.771019 144.0
100.828964 168.0
100.995544 288.0
101.213074 212.0
101.251122 132.0
101.271149 180.0
101.317223 44.0
101.45752 56.0
101.613953 172.0
101.676163 140.0
101.698242 180.0
101.836784 168.0
102.042435 472.0
102.23085 260.0
102.399971 180.0
102.470482 144.0
102.653908 116.0
102.797142 152.0
103.052574 2596.0
103.136452 144.0
103.193062 128.0
103.229462 76.0
103.322502 160.0
103.358925 204.0
103.660652 176.0
103.869492 176.0
103.889778 152.0
104.025749 164.0
104.056824 492.0
104.267464 164.0
104.49379 188.0
104.645844 72.0
104.67231 168.0
104.725266 204.0
104.821022 188.0
105.00042 144.0
105.067009 1168.0
105.145279 168.0
105.202438 48.0
105.588638 180.0
105.619316 132.0
105.701157 172.0
106.072113 172.0
106.141472 220.0
106.176445 172.0
106.219521 168.0
106.400116 144.0
106.570595 180.0
106.631218 192.0
106.80085 172.0
106.823479 188.0
106.874908 164.0
106.889313 164.0
107.016937 196.0
107.047813 1612.0
107.103668 216.0
107.150818 28.0
107.227066 120.0
107.266228 92.0
107.530258 268.0
107.614899 68.0
107.891754 184.0
108.05204 196.0
108.156555 132.0
108.701645 124.0
108.788818 204.0
108.807503 144.0
109.077576 160.0
109.108765 68.0
109.352516 136.0
109.412514 128.0
109.558304 132.0
109.881462 108.0
109.998329 40.0
110.035072 204.0
110.257339 128.0
110.493637 36.0
110.998436 92.0
111.044571 104.0
111.157867 140.0
111.210335 200.0
111.292213 108.0
111.451851 128.0
111.685211 72.0
111.704147 212.0
111.775681 208.0
111.855659 100.0
111.933563 180.0
112.055733 112.0
112.07048 152.0
112.144241 148.0
112.167427 72.0
112.563438 208.0
112.638008 136.0
112.766907 156.0
113.048195 148.0
113.304405 156.0
113.346786 184.0
113.705193 188.0
114.045448 224.0
114.079041 84.0
114.166222 80.0
114.425827 172.0
114.790199 108.0
115.031296 148.0
115.051865 1016.0
115.114952 268.0
115.155151 184.0
115.17437 172.0
115.62767 88.0
115.644791 228.0
116.054489 216.0
116.330742 280.0
116.776665 116.0
117.032852 400.0
117.069138 752.0
117.11779 124.0
117.175957 128.0
117.272934 116.0
117.292336 152.0
117.855629 64.0
118.038811 1104.0
118.060997 124.0
118.102089 144.0
118.264374 116.0
118.402946 88.0
119.005806 136.0
119.044487 248.0
119.068779 128.0
119.664627 68.0
119.865021 116.0
119.882454 220.0
120.05468 192.0
120.079536 6964.0
120.137573 32.0
120.327446 56.0
120.539322 132.0
120.681404 128.0
120.712021 40.0
120.85421 176.0
121.028641 200.0
121.082497 492.0
121.101593 236.0
121.230858 60.0
121.447914 200.0
121.671753 64.0
121.739822 188.0
121.968323 124.0
122.034279 128.0
122.059387 112.0
122.089256 156.0
122.428177 184.0
122.813889 180.0
123.044006 400.0
123.114273 172.0
123.259857 140.0
123.396904 132.0
123.465454 180.0
123.635811 172.0
123.655731 160.0
123.899315 160.0
124.365013 60.0
124.562637 96.0
124.633736 188.0
124.782661 152.0
124.878281 212.0
124.945015 132.0
124.973946 196.0
125.014168 15208.0
125.076614 60.0
125.109039 132.0
125.214371 76.0
125.234413 164.0
125.368752 68.0
125.488472 100.0
125.551773 72.0
125.680298 216.0
125.798584 76.0
125.878967 176.0
125.928101 224.0
126.017944 1512.0
126.055443 148.0
126.149323 236.0
126.185089 96.0
126.207451 48.0
126.28125 184.0
126.325989 168.0
126.402061 100.0
126.482635 144.0
126.550858 112.0
126.646095 160.0
126.684181 156.0
126.711067 48.0
126.733467 56.0
126.761032 200.0
126.850014 52.0
126.919518 140.0
126.975578 88.0
127.010757 3256.0
127.055191 544.0
127.087746 52.0
127.173027 256.0
127.196327 116.0
127.216515 68.0
127.251602 124.0
127.559868 236.0
127.602104 164.0
128.013214 444.0
128.061874 1804.0
128.218903 72.0
128.351913 40.0
128.622818 64.0
128.647476 152.0
128.676834 184.0
128.787491 56.0
129.007401 376.0
129.032471 376.0
129.069275 1716.0
129.149155 72.0
129.427521 144.0
129.447906 144.0
129.527176 188.0
129.570221 36.0
129.611008 36.0
129.683517 40.0
129.776474 100.0
129.876266 92.0
129.926163 48.0
129.973816 136.0
130.013702 104.0
130.043472 156.0
130.064117 432.0
130.079315 228.0
130.114548 188.0
130.266708 56.0
130.293961 52.0
130.509888 72.0
130.728271 68.0
130.95195 196.0
130.999222 152.0
131.01973 200.0
131.048309 2304.0
131.079544 176.0
131.39592 216.0
131.471222 160.0
131.557953 184.0
131.713242 168.0
131.756653 124.0
131.772644 68.0
131.813766 140.0
131.889191 68.0
132.00351 164.0
132.049484 340.0
132.204834 204.0
132.278076 100.0
132.410873 104.0
132.617096 48.0
133.027695 124.0
133.048355 120.0
133.744904 164.0
133.763321 164.0
133.929123 96.0
134.031555 156.0
134.057556 140.0
134.60257 136.0
134.780441 204.0
135.018555 180.0
135.040436 1856.0
135.064224 312.0
135.092575 164.0
135.335587 140.0
135.639084 204.0
135.673859 176.0
135.715591 104.0
135.813004 176.0
135.847794 108.0
135.897797 168.0
136.022461 240.0
136.05101 4296.0
136.23085 196.0
136.316818 204.0
136.34935 164.0
136.612106 176.0
136.656311 76.0
136.865799 80.0
136.962173 132.0
137.013916 380.0
137.054337 560.0
137.17334 132.0
137.205978 160.0
137.658661 180.0
137.997482 356.0
138.018524 168.0
138.063889 120.0
138.15184 204.0
138.916794 268.0
139.002579 368.0
139.184601 108.0
139.298218 184.0
140.017975 352.0
140.248886 104.0
140.534256 100.0
140.933289 244.0
141.008514 424.0
141.067123 196.0
141.082794 236.0
141.129486 220.0
141.160233 160.0
141.638321 36.0
142.007904 152.0
142.042755 284.0
142.070511 280.0
142.337982 76.0
142.440109 112.0
142.466232 228.0
142.987 200.0
143.02565 320.0
143.048965 196.0
143.260834 208.0
143.277512 196.0
143.310867 72.0
143.449097 160.0
143.580246 180.0
144.026581 164.0
144.045685 172.0
144.413803 164.0
144.473618 192.0
144.490356 72.0
144.569321 124.0
144.973587 164.0
145.020981 172.0
145.044495 244.0
145.066818 172.0
145.454071 152.0
145.494568 164.0
145.645859 192.0
145.876556 128.0
146.062607 228.0
146.750504 124.0
146.856613 156.0
147.041473 1784.0
147.090668 52.0
147.146194 84.0
147.216232 60.0
147.402237 64.0
147.511002 80.0
147.646408 128.0
148.050308 512.0
148.070694 412.0
148.481979 152.0
149.014267 3460.0
149.046982 380.0
149.08165 144.0
149.105957 80.0
149.183731 64.0
149.375854 52.0
150.017929 380.0
150.060532 232.0
150.104095 112.0
150.277283 144.0
150.34317 60.0
150.391983 132.0
150.443253 120.0
150.724136 124.0
150.853668 80.0
150.936798 60.0
151.009933 832.0
151.061539 120.0
151.077316 80.0
151.249969 236.0
151.918961 120.0
152.060699 564.0
152.171753 224.0
152.36824 140.0
152.650925 196.0
152.670593 100.0
152.943695 52.0
153.008987 4300.0
153.066071 476.0
153.295898 196.0
153.318085 132.0
153.591324 68.0
154.013214 60.0
154.076157 316.0
154.166946 200.0
154.349991 40.0
154.942657 176.0
155.005646 840.0
155.057785 352.0
155.08287 168.0
156.008972 160.0
156.571091 52.0
157.003952 1728.0
157.104523 48.0
157.161896 168.0
157.401535 36.0
157.446487 176.0
157.578888 192.0
157.811325 204.0
157.841339 200.0
158.007294 352.0
158.057861 264.0
158.249207 148.0
158.379425 160.0
158.477142 156.0
158.522247 88.0
158.652588 32.0
158.810562 136.0
158.875778 168.0
159.001617 1092.0
159.040909 1024.0
159.12175 64.0
159.169449 108.0
159.310104 132.0
159.410614 80.0
159.606689 192.0
159.662018 92.0
160.00676 176.0
160.050003 3760.0
160.2939 116.0
160.382111 160.0
160.432526 152.0
161.0578 364.0
161.164474 32.0
161.225128 164.0
161.318649 108.0
161.351517 188.0
161.472885 188.0
161.548782 136.0
161.589249 152.0
161.90274 172.0
161.923401 60.0
162.027267 192.0
162.051987 424.0
162.10582 140.0
162.201797 120.0
162.389771 140.0
162.851715 332.0
162.978745 164.0
163.063858 540.0
163.13887 28.0
163.375381 164.0
163.403366 188.0
163.500061 204.0
163.561157 96.0
163.88205 112.0
164.004517 292.0
164.074417 372.0
164.256821 40.0
164.425232 164.0
164.698807 212.0
165.009399 176.0
165.068527 2844.0
165.278778 44.0
165.423294 120.0
165.506592 76.0
165.778137 120.0
165.808884 180.0
165.852463 44.0
166.037552 172.0
166.075333 1304.0
166.188416 188.0
166.357819 56.0
166.432266 220.0
166.532425 256.0
166.558121 48.0
166.617203 148.0
166.820236 68.0
167.004135 124.0
167.022827 128.0
167.081818 500.0
167.365677 176.0
167.400864 216.0
167.687698 116.0
167.847534 120.0
168.017776 192.0
168.059784 200.0
168.090027 152.0
168.260376 160.0
168.296524 144.0
168.317184 60.0
168.517441 152.0
168.782318 40.0
169.001602 428.0
169.028061 116.0
169.06163 300.0
169.103119 192.0
169.142166 136.0
169.408676 56.0
169.789703 144.0
170.106567 172.0
170.143829 120.0
170.314011 100.0
170.350372 104.0
170.397141 148.0
170.49588 124.0
170.618057 204.0
171.019775 17628.0
171.053391 364.0
171.09877 52.0
171.135818 160.0
171.292084 36.0
171.576141 56.0
171.633499 224.0
171.677841 84.0
171.700348 128.0
171.852615 52.0
171.915237 212.0
172.021896 984.0
172.079697 148.0
172.275574 72.0
172.325211 256.0
172.393158 36.0
172.429749 96.0
172.557831 116.0
172.587372 76.0
172.8508 44.0
173.016388 3292.0
173.048859 252.0
173.193771 52.0
173.358826 56.0
173.487259 116.0
173.990982 140.0
174.016983 540.0
174.582199 60.0
174.734772 188.0
175.902267 140.0
176.06311 756.0
176.380402 48.0
176.443848 80.0
176.549622 48.0
176.706268 180.0
176.89888 100.0
176.970367 140.0
177.007477 2008.0
177.073593 892.0
177.298843 184.0
177.497681 124.0
177.534805 112.0
177.757645 52.0
178.008545 132.0
178.075684 1020.0
178.262207 188.0
178.392441 80.0
178.818039 224.0
179.004303 752.0
179.084579 1916.0
179.266998 140.0
179.401413 40.0
179.462738 64.0
179.588074 88.0
179.814865 80.0
179.994965 236.0
180.018768 172.0
180.05249 144.0
180.089935 1196.0
180.1353 72.0
181.006149 544.0
181.063416 292.0
181.099106 700.0
181.136551 152.0
181.227463 72.0
181.325409 212.0
181.473465 76.0
181.620956 76.0
182.009506 572.0
182.037979 200.0
182.066299 380.0
182.095016 176.0
182.113693 204.0
182.364746 128.0
182.768143 144.0
182.795059 52.0
182.819275 184.0
183.009201 476.0
183.080994 244.0
184.016937 280.0
184.037735 164.0
184.13765 160.0
184.586273 84.0
184.981293 120.0
185.022339 168.0
185.382156 188.0
185.685806 56.0
185.788879 112.0
185.957123 136.0
186.201492 40.0
186.603668 148.0
187.80191 60.0
188.020187 108.0
188.208557 140.0
189.065781 400.0
189.354416 160.0
189.417404 64.0
189.945755 152.0
190.042496 164.0
190.07576 812.0
190.209915 36.0
190.58342 92.0
191.03157 136.0
191.083725 5608.0
191.158218 220.0
191.615219 80.0
191.699265 136.0
191.836182 228.0
191.88533 80.0
191.918411 164.0
192.028732 396.0
192.058151 144.0
192.092041 4460.0
192.170334 96.0
192.27153 100.0
192.398499 104.0
192.478577 108.0
192.522751 36.0
192.660873 176.0
192.82666 76.0
192.895767 120.0
193.066772 196.0
193.094055 808.0
193.222107 116.0
193.335556 64.0
193.360458 120.0
193.501648 108.0
193.523788 44.0
193.55426 68.0
194.003113 108.0
194.068954 948.0
194.105545 148.0
194.569077 112.0
195.017731 2216.0
195.074753 300.0
195.274902 108.0
195.405655 44.0
196.020325 184.0
196.085144 436.0
196.259674 124.0
196.29422 192.0
196.394623 84.0
196.483887 180.0
196.553635 64.0
197.019165 968.0
197.05777 132.0
197.091873 300.0
197.371109 168.0
197.797363 76.0
198.029755 2844.0
198.098511 192.0
198.402466 28.0
199.032272 904.0
199.424286 108.0
199.663269 48.0
199.913651 112.0
200.030533 796.0
200.06987 152.0
200.488174 200.0
200.515045 112.0
201.029999 352.0
201.069046 380.0
201.464478 188.0
202.032715 160.0
202.073868 616.0
202.107681 464.0
202.13176 148.0
202.151566 40.0
202.613098 36.0
203.084198 364.0
203.958252 132.0
204.04921 228.0
204.096344 316.0
204.75209 112.0
204.942947 176.0
205.062164 500.0
205.399109 196.0
205.69017 48.0
206.067154 272.0
207.03688 176.0
207.073715 368.0
207.103821 152.0
207.696106 56.0
208.084183 1484.0
208.112961 176.0
208.50293 128.0
209.057999 172.0
209.091797 912.0
209.118439 360.0
210.063385 576.0
210.105148 368.0
210.675598 248.0
211.071381 740.0
211.349258 72.0
211.687943 56.0
212.03772 580.0
212.081818 224.0
212.119659 68.0
212.917587 136.0
213.037918 196.0
213.724014 60.0
213.815964 240.0
213.906204 168.0
213.964432 124.0
214.037979 364.0
214.748322 56.0
215.063263 248.0
216.077499 172.0
216.122879 188.0
216.428741 48.0
217.064804 120.0
217.088928 164.0
217.281662 176.0
218.069275 360.0
218.115692 172.0
218.177429 68.0
218.248001 72.0
218.382416 164.0
218.447998 168.0
218.630417 80.0
219.020477 164.0
219.07988 1452.0
219.122177 200.0
219.245941 64.0
219.416916 176.0
219.773804 180.0
219.909561 128.0
220.087311 2728.0
221.050354 316.0
221.0905 1192.0
221.269394 144.0
221.438187 96.0
221.467804 92.0
222.060608 144.0
222.096207 64.0
222.208939 72.0
222.553238 132.0
222.734406 60.0
223.037506 136.0
223.073227 4492.0
223.224808 76.0
223.325928 72.0
223.510376 76.0
223.712769 48.0
223.733612 112.0
223.772324 80.0
224.016525 72.0
224.077667 1460.0
224.106415 216.0
224.278763 44.0
224.31752 48.0
225.037323 164.0
225.084717 688.0
225.17688 120.0
225.212723 172.0
225.568314 96.0
225.67894 156.0
225.921188 164.0
226.096436 1224.0
226.131454 196.0
226.304291 104.0
226.37915 40.0
226.422653 76.0
226.534897 60.0
227.05954 680.0
227.093567 352.0
227.128448 116.0
227.407501 104.0
227.48555 84.0
228.052338 152.0
229.04834 128.0
229.077301 184.0
229.230057 132.0
230.03537 172.0
230.083664 116.0
230.131973 128.0
231.093155 116.0
232.041183 136.0
234.48526 116.0
234.738297 168.0
235.039871 204.0
235.067764 148.0
236.082581 144.0
236.101578 268.0
237.088226 2476.0
237.414185 60.0
237.70256 108.0
238.097031 4620.0
238.15387 104.0
238.239883 76.0
238.292114 40.0
238.313629 52.0
238.528763 72.0
238.657883 48.0
238.762436 88.0
239.100052 916.0
239.147034 100.0
239.975739 120.0
240.033813 296.0
240.103729 308.0
240.166931 96.0
240.870728 92.0
241.037567 104.0
241.080841 60.0
241.79834 112.0
242.132721 168.0
243.0457 104.0
243.14035 132.0
244.027481 332.0
244.051071 160.0
244.80983 72.0
244.940643 28.0
245.024246 176.0
245.059662 152.0
245.76059 36.0
246.014755 240.0
246.042786 92.0
246.085205 172.0
247.032181 164.0
247.0672 124.0
250.170425 64.0
251.516495 136.0
252.075516 152.0
253.350647 144.0
254.10997 140.0
255.058426 528.0
255.121521 112.0
255.63681 56.0
256.061188 344.0
256.111206 100.0
256.241821 116.0
256.889008 144.0
257.029388 196.0
257.060638 360.0
257.789398 96.0
257.818176 72.0
258.04541 1104.0
258.141052 64.0
258.937958 84.0
259.04657 156.0
259.082092 76.0
260.041473 292.0
260.076202 60.0
260.487213 80.0
261.060242 108.0
262.073334 176.0
263.86792 116.0
268.084534 88.0
268.78894 92.0
272.265594 124.0
272.692719 80.0
273.067444 704.0
273.179382 44.0
274.058441 160.0
274.084412 172.0
274.94223 180.0
275.063995 292.0
276.035706 108.0
276.062164 176.0
276.538605 20.0
277.983582 96.0
281.014984 76.0
285.830109 184.0
289.726562 96.0
290.041718 136.0
290.090576 1704.0
290.16037 132.0
290.204437 60.0
290.972931 40.0
291.102173 164.0
292.08725 852.0
292.276459 32.0
292.610016 68.0
293.093353 168.0
293.71759 32.0
294.069031 80.0
299.214569 88.0
315.063721 108.0
323.442261 44.0
326.459717 92.0
328.844788 64.0
334.13559 52.0
345.738892 104.0
346.779633 112.0
347.350647 96.0
358.025879 148.0
369.01944 88.0
380.812073 112.0
383.231812 48.0
415.803833 108.0
419.94989 144.0
440.917542 100.0
447.853149 116.0
448.405121 52.0
452.701752 104.0
455.658295 100.0
505.094238 104.0
511.452698 96.0
523.965454 172.0
526.172913 148.0
576.751587 60.0
626.368958 48.0
633.051819 64.0
642.365479 72.0
652.987549 36.0
653.089294 64.0
654.142639 152.0
677.877991 52.0
708.315491 20.0
749.745972 144.0
774.73175 56.0
809.087036 148.0
823.885437 36.0
837.671143 40.0
838.956238 120.0
840.986816 48.0
848.431885 148.0
874.521362 60.0
883.248474 64.0
887.334717 196.0
902.589844 160.0
907.182129 180.0
918.40918 228.0
923.065674 236.0
925.782898 128.0
926.449158 168.0
929.978455 76.0
933.094849 196.0
938.708984 148.0
938.782166 164.0
947.737671 188.0
951.958069 140.0
963.711365 232.0
972.697754 164.0
977.545776 152.0
985.852478 44.0
986.096252 124.0
987.390442 132.0
992.895691 232.0
993.177917 116.0
1000.50531 228.0
1002.495728 168.0
1002.949524 188.0
1004.847778 100.0
1017.753845 160.0
1018.839905 184.0
1021.00116 268.0
1021.783569 240.0
1021.834473 80.0
1028.730347 112.0
1034.73999 92.0
1034.989624 180.0
1037.103882 200.0
1037.482056 100.0
1041.390015 104.0
1044.700562 180.0
1045.273193 164.0
1050.601807 52.0
1064.109131 188.0
1066.0448 184.0
1074.692505 92.0
1075.997925 136.0
1079.38916 60.0
1084.207397 168.0
1094.218384 64.0
1094.547607 136.0
1096.036377 252.0
1105.307495 160.0
1108.121582 176.0
1111.4104 172.0
1122.952881 136.0
1129.82666 112.0
1131.084717 144.0
1136.399292 204.0
1137.426147 76.0
1140.186768 128.0
1141.686035 172.0
1145.02417 196.0
1146.391846 124.0
1147.665894 152.0
1147.726562 132.0
1154.094116 92.0
1154.337524 184.0
1154.90564 180.0
1155.37915 92.0
1155.744507 204.0
1156.082886 52.0
1157.15918 208.0
1161.021729 32.0
1164.340454 124.0
1164.82959 52.0
1166.535278 172.0
1166.671265 156.0
1167.22876 168.0
1175.389526 176.0
1176.065186 160.0
1178.400757 160.0
1178.803955 100.0
1181.067017 192.0
1182.011108 228.0
1184.647217 176.0
1186.504395 204.0
1188.024902 164.0
1195.819458 44.0
1196.976074 188.0
1199.787231 208.0
1202.647827 144.0
1204.169189 164.0
1204.887573 232.0
1205.848145 152.0
1206.470215 184.0
1206.80896 168.0
1210.310303 64.0
1210.552612 248.0
1210.710815 132.0
1212.014282 144.0
1213.976074 168.0
1215.176147 164.0
1217.814087 144.0
1219.460815 224.0
1219.537354 164.0
1219.752808 188.0
1219.933594 144.0
1220.719238 160.0
1222.033936 164.0
1223.126587 32.0
1223.7323 144.0
1225.626831 76.0
1226.107666 132.0
1232.667847 200.0
1236.115356 192.0
1239.056274 120.0
1240.365723 192.0
1245.173218 220.0
1246.093506 96.0
1247.783447 116.0
1249.123535 204.0
1250.192993 204.0
1250.552002 60.0
1251.129272 160.0
1251.2771 44.0
1251.734741 52.0
1253.96106 124.0
1254.792847 104.0
1254.849243 160.0
1258.292358 108.0
1258.468872 132.0
1260.121704 204.0
1260.595093 76.0
1261.598755 252.0
1261.839233 116.0
1265.150269 108.0
1266.474487 144.0
1269.160522 192.0
1272.268188 144.0
1275.934204 216.0
1281.777954 168.0
1281.948975 36.0
1282.982544 152.0
1283.175049 152.0
1284.629883 236.0
1286.071411 204.0
1286.692383 156.0
1287.106567 52.0
1292.245972 148.0
1292.532104 168.0
1293.054565 116.0
1294.328857 144.0
1297.761108 180.0
1297.961914 96.0
1300.350952 192.0
1300.451416 140.0
1303.819946 276.0
1306.861816 200.0
1308.207642 224.0
1309.273315 156.0
1310.562866 232.0
1310.952026 136.0
1313.569336 264.0
1315.611572 204.0
1318.045654 180.0
1319.722656 208.0
1320.756836 136.0
1321.046143 164.0
1321.342773 148.0
1323.14502 184.0
1323.869141 188.0
1326.811035 112.0
1326.912476 192.0
1330.133667 32.0
1330.394897 68.0
1335.307129 164.0
1335.481689 180.0
1336.507568 104.0
1338.800659 124.0
1342.116333 148.0
1348.460327 168.0
1349.096313 108.0
1349.944458 172.0
1350.119995 96.0
1350.800293 84.0
1352.146606 120.0
1353.303223 144.0
1358.675293 228.0
1360.069946 140.0
1361.376953 160.0
1365.808838 160.0
1367.574829 168.0
1368.855957 180.0
1370.911255 180.0
1372.282349 112.0
1372.577271 68.0
1372.754272 164.0
1374.915894 60.0
1376.650757 216.0
1376.901855 112.0
1378.083862 164.0
1378.249878 156.0
1380.826538 128.0
1387.239014 204.0
1389.322998 148.0
1389.760742 224.0
1391.5896 172.0
1393.50293 188.0
1393.859619 152.0
1393.911621 216.0
1394.788696 156.0
1396.171631 156.0
1397.168335 120.0
1397.280029 244.0
1397.696655 268.0
1400.056519 108.0
1400.615112 204.0
1401.457031 180.0
1401.553955 184.0
1402.299194 132.0
1403.596313 116.0
1408.096436 188.0
1408.410156 156.0
1411.384766 220.0
1412.274658 172.0
1412.349487 120.0
1412.60376 176.0
1413.202393 196.0
1414.489624 32.0
1414.631836 160.0
1415.245728 128.0
1417.305054 224.0
1417.537964 116.0
1418.647339 220.0
1419.629517 116.0
1420.567139 140.0
1422.12793 124.0
1422.353149 188.0
1422.540771 140.0
1423.208984 140.0
1425.161987 192.0
1427.259155 176.0
1428.22937 148.0
1430.336304 92.0
1430.855713 128.0
1431.646362 140.0
1433.695557 144.0
1433.778442 164.0
1434.24585 140.0
1435.30127 148.0
1436.734375 260.0
1437.602173 164.0
1439.270508 132.0
1439.459229 236.0
1439.65564 192.0
1440.501587 168.0
1442.511719 180.0
1443.18457 180.0
1444.273682 56.0
1447.702271 164.0
1447.906738 124.0
1448.224854 152.0
1450.263062 132.0
1451.271362 240.0
1454.245239 172.0
1455.984009 180.0
1456.189087 172.0
1456.485229 248.0
1458.020142 108.0
1461.655273 108.0
1463.109009 148.0
1464.060791 136.0
1464.403564 328.0
1464.837769 164.0
1465.043457 136.0
1466.994385 56.0
1468.565308 172.0
1469.915649 108.0
1470.159912 160.0
1470.488037 180.0
1472.190552 204.0
1474.17688 120.0
1474.841797 240.0
1477.08667 228.0
1477.227661 236.0
1477.656128 112.0
1478.406006 204.0
1478.620361 184.0
1479.454712 208.0
1479.952393 128.0
1481.147095 164.0
1483.177734 168.0
1487.350586 136.0
1487.765137 220.0
1487.957153 152.0
1488.5177 48.0
1489.815674 208.0
1491.798462 92.0
1492.082886 140.0
1494.413452 128.0
1495.714111 196.0
1496.075928 196.0
1497.261719 176.0
1497.893311 156.0
1502.349121 220.0
1502.534302 176.0
1503.197876 108.0
1503.985107 152.0
