>compound MLS001401441-01!Paroxetine
>formula C19H20FNO3
>ionization [M+H]+
>parentmass 330.149963
#inchi InChI=1S/C19H20FNO3/c20-15-3-1-13(2-4-15)17-7-8-21-10-14(17)11-22-16-5-6-18-19(9-16)24-12-23-18/h1-6,9,14,17,21H,7-8,10-12H2/t14-,17-/m0/s1
#inchikey AHOUBRCZNHFOSL
#origInchi InChI=1S/C19H20FNO3.C4H4O4/c20-15-3-1-13(2-4-15)17-7-8-21-10-14(17)11-22-16-5-6-18-19(9-16)24-12-23-18;5-3(6)1-2-4(7)8/h1-6,9,14,17,21H,7-8,10-12H2;1-2H,(H,5,6)(H,7,8)/b;2-1-/t14-,17-;/m0./s1
#Ion_Source LC-ESI
#Instrument qTof
#Compound_Source NIH Pharmacologically Active Library
#PI Dorrestein
#Data_Collector VP/LMS
#Scan -1
#Precursor_MZ 330.148
#ExactMass 329.143
#Charge 1
#CAS_Number N/A
#Pubmed_ID N/A
#Smiles Fc1ccc(cc1)[C@@H]2CCNC[C@H]2COc3ccc4OCOc4c3.OC(=O)/C=C\C(=O)O
#INCHI_AUX N/A
#Library_Class 1
#SpectrumID CCMSLIB00000085281
#IonMode Positive
#UpdateWorkflowName UPDATE-SINGLE-ANNOTATED-GOLD
#LibraryQualityString Gold
#TaskID d252d724072548979f1f6f1ced849daf
##Scan# 1762
#SpectrumFile p3-G09_GG9_01_18302.mzXML
#LibraryName Pharm_Active_Library.mgf
#MQScore -1
#Organism Pharm_Active_Library
#TIC_Query 0
#RT_Query -1
#MZErrorPPM -1
#SharedPeaks 0
#MassDiff 0
#LibMZ -1
#SpecMZ 330.148
#SpecCharge 0
#internalFilename spec-00000.mgf

>collision 10
44.901909 120.0
44.992653 36.0
45.04073 184.0
45.076805 176.0
45.149147 160.0
45.195824 68.0
45.205193 140.0
45.281506 36.0
45.383358 124.0
45.454456 216.0
45.676151 44.0
45.781139 188.0
45.836376 88.0
45.983383 196.0
46.063053 156.0
46.092777 176.0
46.104942 120.0
46.126568 200.0
46.140087 96.0
46.176601 116.0
46.333633 180.0
46.367512 156.0
46.379711 224.0
46.420387 76.0
46.459724 128.0
46.512653 128.0
46.549313 176.0
46.677055 184.0
46.809059 96.0
46.833576 148.0
46.912617 232.0
46.924885 160.0
46.938782 188.0
47.001274 68.0
47.038124 172.0
47.095478 44.0
47.110508 108.0
47.126904 156.0
47.178841 220.0
47.346004 224.0
47.521706 172.0
47.541843 204.0
47.573414 172.0
47.694305 48.0
47.767189 264.0
47.86216 180.0
47.881329 100.0
47.926903 68.0
48.009617 128.0
48.023411 180.0
48.158684 208.0
48.187695 180.0
48.216717 112.0
48.227776 272.0
48.317665 96.0
48.406258 136.0
48.564259 204.0
48.798965 204.0
48.808697 164.0
48.829559 136.0
48.850426 168.0
48.872688 208.0
48.894955 240.0
48.924187 176.0
48.933933 172.0
49.092793 200.0
49.109531 156.0
49.136036 172.0
49.173717 188.0
49.28265 144.0
49.306408 168.0
49.373516 108.0
49.407001 188.0
49.423882 176.0
49.708355 176.0
49.726601 196.0
49.775738 212.0
49.803829 160.0
49.882523 196.0
49.944401 144.0
49.954247 116.0
50.00209 172.0
50.079533 68.0
50.104889 144.0
50.230366 72.0
50.29528 192.0
50.640305 224.0
50.654469 188.0
50.671837 232.0
50.71257 128.0
50.753685 224.0
50.905529 160.0
51.131584 136.0
51.17429 96.0
51.207047 132.0
51.240101 236.0
51.254059 228.0
51.313927 60.0
51.498028 196.0
51.618084 160.0
51.662422 192.0
51.871513 192.0
52.040813 160.0
52.055172 208.0
52.098263 188.0
52.141373 196.0
52.180187 140.0
52.221893 180.0
52.360073 188.0
52.53738 216.0
52.550468 112.0
52.701981 148.0
53.111706 212.0
53.129028 132.0
53.19878 180.0
53.243793 92.0
53.262676 76.0
53.31789 184.0
53.374592 168.0
53.782539 144.0
53.801517 236.0
53.87162 140.0
53.894997 100.0
53.91692 148.0
53.979782 148.0
54.101231 192.0
54.111481 208.0
54.24334 108.0
54.277061 168.0
54.288792 180.0
54.356277 48.0
54.494308 140.0
54.506065 76.0
54.543564 156.0
54.614864 132.0
54.642815 196.0
54.689911 160.0
54.716408 152.0
54.828365 200.0
54.843105 188.0
54.88586 148.0
54.912407 100.0
55.071819 212.0
55.176746 184.0
55.252178 124.0
55.321739 168.0
55.338024 152.0
55.441723 172.0
55.490639 164.0
55.50695 248.0
55.693962 156.0
55.814751 220.0
55.824261 180.0
55.922955 68.0
56.082336 212.0
56.130047 168.0
56.282257 132.0
56.454113 192.0
56.51395 176.0
56.577312 192.0
56.595577 128.0
56.656193 240.0
56.692154 148.0
56.855633 124.0
56.898602 192.0
56.956657 156.0
57.008823 204.0
57.094517 204.0
57.130619 172.0
57.142654 180.0
57.258572 208.0
57.545101 248.0
57.572281 180.0
57.685558 120.0
57.767273 180.0
58.001278 188.0
58.149139 128.0
58.234169 116.0
58.297981 240.0
58.393764 160.0
58.599285 140.0
58.628239 136.0
58.660248 184.0
58.817375 232.0
58.893726 100.0
59.037399 220.0
59.191967 184.0
59.382011 140.0
59.553925 160.0
59.619045 136.0
59.630753 136.0
59.65535 216.0
59.684563 212.0
59.721474 160.0
59.784557 124.0
59.881554 172.0
59.950886 116.0
59.992504 164.0
60.17765 140.0
60.240974 120.0
60.274967 256.0
60.394016 180.0
60.412579 152.0
60.463646 136.0
60.575134 136.0
60.858963 184.0
60.904003 156.0
61.009678 188.0
61.027119 220.0
61.170223 204.0
61.402092 232.0
61.550354 68.0
61.670654 156.0
61.839729 220.0
61.856808 128.0
61.892818 124.0
62.071461 176.0
62.12479 240.0
62.167156 132.0
62.228378 168.0
62.310055 128.0
62.426376 36.0
62.457832 52.0
62.543243 72.0
62.675102 116.0
62.728691 184.0
62.783882 136.0
63.004875 152.0
63.540024 140.0
63.557476 160.0
63.705139 112.0
63.775063 212.0
63.872059 208.0
63.905472 108.0
64.120461 128.0
64.18264 156.0
64.259201 192.0
64.540329 84.0
64.634712 196.0
64.831688 260.0
64.934296 200.0
64.948738 172.0
64.969589 176.0
65.003288 124.0
65.170288 156.0
65.241013 100.0
65.318207 132.0
65.33429 168.0
65.427643 148.0
65.477562 132.0
65.56295 76.0
65.72422 252.0
65.745201 124.0
65.811386 188.0
65.858223 160.0
65.911537 172.0
66.233505 212.0
66.385864 64.0
66.426414 184.0
66.532295 180.0
66.537071 220.0
66.608231 220.0
66.6521 128.0
66.676476 176.0
66.715492 148.0
66.775658 128.0
66.788666 108.0
66.809814 172.0
66.837479 116.0
66.865143 180.0
66.910728 68.0
66.949806 180.0
67.029633 184.0
67.062233 140.0
67.20575 164.0
67.251442 248.0
67.288994 136.0
67.34288 180.0
67.471985 148.0
67.530861 132.0
67.60939 164.0
67.968292 220.0
68.000504 236.0
68.063499 144.0
68.119347 116.0
68.165047 128.0
68.278793 92.0
68.341301 180.0
68.451591 160.0
68.54879 216.0
68.573509 112.0
68.682343 52.0
68.776398 132.0
68.839142 120.0
68.891998 92.0
68.918434 160.0
69.098663 140.0
69.141685 164.0
69.156006 184.0
69.287415 160.0
69.386856 220.0
69.416702 212.0
69.478081 204.0
69.541138 124.0
69.612526 152.0
69.698914 100.0
69.788673 148.0
69.855202 172.0
70.0933 148.0
70.109756 160.0
70.115158 140.0
70.118637 176.0
70.298424 100.0
70.336807 100.0
70.877037 164.0
70.897148 176.0
70.980965 184.0
71.017868 48.0
71.128616 200.0
71.142044 128.0
71.17395 164.0
71.273056 196.0
71.481575 160.0
71.607849 144.0
71.635239 184.0
71.653107 180.0
71.729172 76.0
71.860718 196.0
71.940048 216.0
72.086456 124.0
72.099861 216.0
72.124184 188.0
72.185051 188.0
72.254402 72.0
72.566048 128.0
72.586395 192.0
72.701759 112.0
72.728592 232.0
72.756081 164.0
72.788338 56.0
72.810417 88.0
72.844391 204.0
72.866478 124.0
73.03138 144.0
73.076088 244.0
73.09433 152.0
73.131775 192.0
73.50502 140.0
73.684311 208.0
73.771477 172.0
73.904884 180.0
73.921997 188.0
73.978485 84.0
74.070961 140.0
74.098373 148.0
74.151497 96.0
74.240646 176.0
74.292107 196.0
74.388214 148.0
74.403664 40.0
74.477509 168.0
74.645943 240.0
74.678192 192.0
74.684738 144.0
74.699608 160.0
74.796104 160.0
74.816292 180.0
74.957535 52.0
75.031654 156.0
75.047173 204.0
75.066139 172.0
75.131683 160.0
75.18 216.0
75.416626 148.0
75.518646 204.0
75.54113 124.0
75.566856 180.0
75.59996 148.0
75.634583 132.0
75.771393 200.0
75.941284 160.0
76.120049 116.0
76.189529 164.0
76.26252 152.0
76.385979 196.0
76.586166 168.0
76.777153 160.0
76.816269 180.0
76.979996 204.0
77.149834 164.0
77.387787 128.0
77.461342 164.0
77.475357 224.0
77.627853 124.0
77.755928 220.0
77.776993 220.0
77.803329 108.0
77.845467 160.0
77.868301 160.0
77.910461 204.0
77.968445 140.0
77.987785 232.0
78.119667 224.0
78.188293 108.0
78.329163 156.0
78.355591 140.0
78.389069 160.0
78.516006 188.0
78.60598 212.0
78.618332 80.0
78.657166 220.0
78.849693 164.0
78.987617 196.0
79.145134 168.0
79.237244 156.0
79.311676 272.0
79.332947 160.0
79.363091 132.0
79.588448 172.0
79.682587 116.0
80.075737 132.0
80.212944 124.0
80.262863 116.0
80.519852 176.0
80.634201 184.0
80.669952 164.0
80.707497 120.0
80.82914 184.0
80.852402 160.0
80.983109 140.0
81.119301 268.0
81.133636 132.0
81.298912 204.0
81.325592 204.0
81.368675 212.0
81.607643 96.0
81.713768 196.0
81.756958 104.0
81.827164 144.0
82.072212 120.0
82.086639 244.0
82.286934 188.0
82.360977 212.0
82.539909 144.0
82.694061 156.0
82.780594 68.0
82.816414 164.0
82.900162 132.0
82.947281 100.0
83.057899 140.0
83.161331 156.0
83.261192 124.0
83.275726 212.0
83.330223 152.0
83.364754 148.0
83.415642 220.0
83.448372 80.0
83.495651 172.0
83.73954 100.0
83.79055 204.0
83.932724 140.0
84.036697 148.0
84.062248 208.0
84.091446 172.0
84.191864 392.0
84.288689 164.0
84.365456 92.0
84.526421 200.0
84.608788 132.0
84.652733 152.0
84.715248 184.0
84.83963 168.0
84.885475 164.0
85.048767 272.0
85.072624 60.0
85.184654 112.0
85.21405 140.0
85.254478 172.0
85.278366 152.0
85.3703 92.0
85.478836 48.0
85.499084 416.0
85.517487 228.0
85.765053 60.0
85.795654 164.0
85.902618 236.0
86.168579 148.0
86.229462 148.0
86.332993 184.0
86.564323 128.0
86.64212 152.0
86.745911 176.0
86.760742 172.0
86.807098 136.0
86.897987 140.0
87.12822 120.0
87.19326 180.0
87.301086 208.0
87.420151 124.0
87.487167 264.0
87.623123 44.0
87.666138 240.0
87.844986 196.0
87.927086 184.0
87.951347 144.0
88.007362 196.0
88.04097 196.0
88.078331 156.0
88.233444 120.0
88.302635 112.0
88.35688 164.0
88.375595 140.0
88.420509 192.0
88.536591 320.0
88.710854 72.0
88.798981 116.0
88.825241 144.0
88.98101 156.0
89.157593 36.0
89.363907 152.0
89.422791 96.0
89.466087 168.0
89.522575 176.0
89.57531 120.0
89.624298 132.0
89.663872 96.0
89.68084 180.0
89.780769 116.0
89.876976 252.0
89.952477 116.0
90.04689 116.0
90.060112 112.0
90.084671 128.0
90.3134 104.0
90.548111 168.0
90.565155 228.0
90.663681 244.0
90.754677 156.0
90.785019 152.0
90.89505 172.0
91.064018 188.0
91.543297 128.0
91.571861 144.0
91.800575 60.0
91.867332 176.0
91.981834 220.0
92.018105 180.0
92.058205 120.0
92.151596 144.0
92.277962 156.0
92.395111 204.0
92.551582 100.0
92.605209 152.0
92.942627 156.0
93.03109 428.0
93.04628 176.0
93.071236 192.0
93.246063 108.0
93.526886 84.0
93.603905 48.0
93.638565 180.0
93.694435 280.0
93.931557 184.0
94.031898 172.0
94.062782 136.0
94.702843 100.0
94.822975 232.0
95.025658 220.0
95.042877 420.0
95.065407 160.0
95.131401 176.0
95.181877 272.0
95.197418 224.0
95.315918 112.0
95.329521 124.0
95.38311 168.0
95.416992 168.0
95.448105 200.0
95.498672 88.0
95.516174 144.0
95.588165 180.0
95.695229 148.0
95.812088 192.0
95.979713 104.0
96.038223 160.0
96.053833 176.0
96.078751 812.0
96.514763 204.0
96.584114 192.0
96.749557 244.0
96.796547 128.0
96.869019 208.0
96.902321 172.0
96.923882 92.0
96.968956 40.0
96.988556 200.0
97.047371 184.0
97.089027 540.0
97.335823 172.0
97.351532 164.0
97.691238 92.0
97.734871 176.0
97.882507 112.0
98.089386 124.0
98.154449 176.0
98.264908 188.0
98.419525 180.0
98.454414 60.0
98.638176 176.0
98.715286 84.0
98.792427 224.0
98.930191 340.0
98.984421 164.0
99.073807 160.0
99.176605 132.0
99.629059 180.0
99.666817 104.0
99.690659 112.0
100.146278 220.0
100.407387 156.0
100.702782 196.0
100.749451 156.0
100.885628 160.0
101.05864 208.0
101.118675 180.0
101.168716 40.0
101.254822 164.0
101.302895 148.0
101.565506 136.0
101.58757 180.0
101.603622 288.0
101.738091 280.0
101.800339 132.0
101.96106 196.0
102.045486 548.0
102.168175 152.0
102.339256 152.0
102.394691 164.0
102.512497 136.0
102.566917 172.0
102.625389 232.0
102.758507 148.0
102.954315 144.0
102.985748 192.0
103.020973 44.0
103.053528 4412.0
103.312096 68.0
103.457817 220.0
103.488182 152.0
103.680634 232.0
103.74955 88.0
103.852974 168.0
104.057121 332.0
104.147301 44.0
104.185898 180.0
104.202156 104.0
104.387131 188.0
104.470528 140.0
104.635033 140.0
104.83297 60.0
104.878815 348.0
105.067757 220.0
105.110313 172.0
105.142967 84.0
105.232788 200.0
105.341026 156.0
105.436752 208.0
105.492256 164.0
105.518837 132.0
105.621094 88.0
105.637459 120.0
105.707024 108.0
105.801178 192.0
105.842133 112.0
105.868752 188.0
106.055199 356.0
106.239761 136.0
106.25618 108.0
106.270538 64.0
106.313637 104.0
106.408058 116.0
106.609367 208.0
106.703926 164.0
107.021194 164.0
107.051682 132.0
107.160858 192.0
107.197952 172.0
107.253601 100.0
107.350502 248.0
107.433006 168.0
107.449966 128.0
107.532059 132.0
107.565086 60.0
107.598122 88.0
107.81295 172.0
107.870827 128.0
107.957664 28.0
108.166649 164.0
108.32196 180.0
108.427635 140.0
108.477386 156.0
108.562393 180.0
108.597656 220.0
108.676491 156.0
108.695168 72.0
108.71492 172.0
108.879929 180.0
108.91732 192.0
108.983803 124.0
109.043945 21344.0
109.14386 72.0
109.168816 212.0
109.20417 252.0
109.22081 84.0
109.258255 72.0
109.326927 64.0
109.364388 128.0
109.401443 60.0
109.438545 84.0
109.48497 232.0
109.512962 88.0
109.567886 184.0
109.591393 48.0
109.689346 52.0
109.831146 40.0
109.864944 80.0
109.968864 136.0
110.00853 160.0
110.046738 1000.0
110.066132 136.0
110.106667 60.0
110.328171 140.0
110.365807 156.0
110.40345 76.0
110.489212 112.0
110.521797 124.0
110.562447 148.0
110.577103 96.0
110.721565 56.0
110.794579 164.0
110.947876 104.0
111.047485 312.0
111.0821 176.0
111.126152 216.0
111.201706 200.0
111.454979 160.0
111.563011 124.0
111.60717 212.0
111.733368 104.0
111.859642 52.0
111.887009 76.0
111.996521 172.0
112.061829 60.0
112.14402 172.0
112.181961 184.0
112.209366 252.0
112.238892 48.0
112.257866 68.0
112.591316 100.0
112.889305 76.0
112.963341 172.0
112.988724 160.0
113.215225 52.0
113.295715 128.0
113.486473 48.0
113.53949 144.0
113.949188 132.0
114.01506 180.0
114.040565 120.0
114.168137 208.0
114.209557 160.0
114.287262 120.0
114.38517 124.0
114.510803 60.0
114.708969 184.0
114.807053 116.0
114.994804 160.0
115.031097 148.0
115.052925 2944.0
115.075981 160.0
115.127182 96.0
115.176308 132.0
115.257492 48.0
115.532433 156.0
115.642448 44.0
115.752602 216.0
115.822311 112.0
115.864502 156.0
115.905869 160.0
115.925156 140.0
115.9916 164.0
116.056587 872.0
116.227524 104.0
116.315521 228.0
116.467987 152.0
116.68074 248.0
116.751701 156.0
116.863564 96.0
116.902298 180.0
116.971176 192.0
117.014229 136.0
117.033607 240.0
117.061333 188.0
117.113297 156.0
117.169304 36.0
117.233948 160.0
117.354668 188.0
117.410736 216.0
117.468971 164.0
117.615715 240.0
117.637299 156.0
117.775505 140.0
117.833839 204.0
117.946213 128.0
118.186279 164.0
118.23822 128.0
118.42659 160.0
118.54142 96.0
118.677986 136.0
119.046432 752.0
119.245522 264.0
119.322861 152.0
119.485977 140.0
119.605675 148.0
119.684052 44.0
119.788597 72.0
120.010902 136.0
120.152679 168.0
120.255241 168.0
120.495461 192.0
120.75779 192.0
120.805916 76.0
120.834351 172.0
120.886871 60.0
120.904381 168.0
120.942963 236.0
121.027908 1228.0
121.044327 1664.0
121.11483 68.0
121.215355 192.0
121.252281 236.0
121.307411 48.0
121.364418 104.0
121.417053 204.0
121.432404 228.0
121.715515 56.0
121.761635 120.0
121.981361 112.0
121.998955 160.0
122.03476 768.0
122.053207 332.0
122.17141 96.0
122.234299 220.0
122.41922 44.0
122.584442 80.0
122.643951 156.0
122.721115 152.0
122.77845 208.0
122.829185 116.0
122.858612 212.0
122.874229 124.0
122.907623 188.0
123.059769 13480.0
123.099556 136.0
123.108109 172.0
123.114227 200.0
123.153999 160.0
123.202271 156.0
123.25972 220.0
123.463104 68.0
123.591415 172.0
123.622391 188.0
123.7995 136.0
123.883736 144.0
123.943497 88.0
124.060699 1052.0
124.084106 192.0
124.260574 204.0
124.328506 176.0
124.633606 184.0
124.76252 180.0
124.880379 100.0
124.947113 204.0
124.969528 160.0
125.023346 232.0
125.06176 340.0
125.100677 80.0
125.131851 268.0
125.439293 164.0
125.682404 196.0
125.697403 144.0
125.715874 124.0
125.881081 188.0
126.070969 204.0
126.325874 132.0
126.404182 64.0
126.455658 148.0
126.645981 144.0
126.686302 112.0
126.78714 36.0
126.834206 76.0
127.054138 644.0
127.087639 56.0
127.321106 100.0
127.491852 180.0
127.799934 184.0
127.829185 144.0
127.948486 152.0
128.059753 800.0
128.227814 192.0
128.252609 120.0
128.324753 164.0
128.710953 180.0
128.744476 128.0
128.861938 48.0
129.012222 180.0
129.045029 168.0
129.068268 492.0
129.106079 48.0
129.13826 68.0
129.176193 132.0
129.232758 168.0
129.434219 112.0
129.493103 176.0
129.513489 184.0
129.635834 152.0
129.731033 100.0
129.794525 116.0
129.819473 188.0
130.062698 240.0
130.081726 144.0
130.198471 112.0
130.255264 48.0
130.409775 148.0
130.764603 168.0
131.003708 252.0
131.050415 356.0
131.082397 304.0
131.16095 116.0
131.176895 140.0
131.195145 172.0
131.258987 188.0
131.349716 200.0
131.402679 168.0
131.489395 148.0
131.756577 180.0
131.802277 72.0
131.877686 156.0
132.024017 112.0
132.088058 120.0
132.131531 116.0
132.332947 136.0
132.447464 56.0
132.51619 228.0
132.580353 208.0
132.67392 200.0
132.708725 168.0
132.799408 44.0
132.818802 116.0
132.878448 132.0
133.043961 3072.0
133.110291 208.0
133.258942 140.0
133.38446 208.0
133.567673 48.0
133.602173 32.0
133.764984 156.0
133.783981 144.0
133.991272 212.0
134.05014 1912.0
134.226379 68.0
134.244827 184.0
134.265579 148.0
134.464005 184.0
134.514786 124.0
134.565567 152.0
134.634857 108.0
134.771149 168.0
134.829788 128.0
134.997696 252.0
135.05983 33176.0
135.104156 152.0
135.137436 88.0
135.25914 32.0
135.29155 68.0
135.319336 64.0
135.356384 52.0
135.381851 124.0
135.398071 32.0
135.45462 68.0
135.488419 72.0
135.553085 180.0
135.582108 156.0
135.655273 60.0
135.676132 56.0
135.710922 140.0
135.764252 84.0
135.810638 80.0
135.901123 168.0
136.066071 7168.0
136.095657 64.0
136.140228 52.0
136.156479 64.0
136.177139 76.0
136.207581 288.0
136.248627 120.0
136.310394 160.0
136.376099 48.0
136.416733 112.0
136.481552 68.0
136.514389 60.0
137.021683 348.0
137.072159 1352.0
137.112717 96.0
137.187302 92.0
137.21994 92.0
137.254913 112.0
137.303894 80.0
137.401871 48.0
137.473618 128.0
137.560562 168.0
137.592621 220.0
137.623611 92.0
137.759064 108.0
137.857208 64.0
137.930603 120.0
137.97641 112.0
137.999802 100.0
138.030853 268.0
138.070084 1188.0
138.179901 56.0
138.322662 224.0
138.357773 180.0
138.42334 52.0
139.037613 1384.0
139.077469 156.0
139.12207 88.0
139.173721 112.0
139.288803 196.0
139.523819 152.0
139.544968 220.0
139.60611 124.0
139.636688 136.0
139.702545 64.0
139.761368 152.0
140.043304 320.0
140.164703 112.0
140.286606 188.0
140.312531 128.0
140.81282 156.0
141.027832 236.0
141.068558 444.0
141.297424 184.0
141.529388 52.0
142.164688 248.0
142.250137 160.0
142.347488 120.0
142.416367 168.0
142.756241 184.0
142.85376 68.0
142.908478 36.0
142.998917 32.0
143.049103 140.0
143.085419 948.0
143.508728 184.0
143.797379 148.0
143.914368 128.0
143.933472 180.0
144.007492 48.0
144.385132 84.0
144.667496 200.0
144.808777 192.0
144.880646 84.0
144.954926 104.0
145.062424 144.0
145.39859 36.0
145.61467 244.0
145.655518 104.0
145.708359 140.0
145.763626 200.0
145.818909 228.0
146.051956 3240.0
146.138748 140.0
146.249451 172.0
146.538712 180.0
146.584229 60.0
146.704742 184.0
146.774673 120.0
146.965225 152.0
147.059723 5568.0
147.095901 192.0
147.158325 64.0
147.19783 236.0
147.230774 64.0
147.351547 124.0
147.421631 72.0
147.469971 40.0
147.693542 224.0
147.740814 148.0
147.760162 208.0
147.859375 96.0
147.879929 164.0
147.980423 184.0
148.029251 168.0
148.066345 4688.0
148.113617 60.0
148.217331 148.0
148.394745 136.0
148.449417 180.0
148.525711 132.0
148.581497 48.0
148.69313 92.0
148.73439 160.0
148.900879 132.0
148.94809 84.0
149.010834 208.0
149.074539 3892.0
149.103592 164.0
149.137619 88.0
149.17894 64.0
149.212982 120.0
149.458649 60.0
149.50975 60.0
149.592514 100.0
149.619293 64.0
149.672852 64.0
149.894531 116.0
150.043213 204.0
150.071655 3844.0
150.133438 72.0
150.460419 156.0
150.47995 136.0
150.526352 100.0
150.881805 136.0
150.934448 104.0
150.963791 208.0
151.003983 268.0
151.038147 16964.0
151.072449 436.0
151.127243 44.0
151.14389 96.0
151.274536 60.0
151.316147 112.0
151.392059 96.0
151.431244 64.0
151.556198 56.0
151.615005 196.0
151.713058 68.0
151.823395 164.0
151.953415 108.0
152.040955 1376.0
152.066299 224.0
152.105576 60.0
152.294647 44.0
152.493668 92.0
152.707581 104.0
152.901962 196.0
153.041794 180.0
153.238297 172.0
153.574615 176.0
153.670822 48.0
153.905319 196.0
153.976929 176.0
154.043625 192.0
154.963974 164.0
155.059784 308.0
155.276321 192.0
155.308578 196.0
155.514526 48.0
155.827423 116.0
155.996429 196.0
156.080963 220.0
156.449203 144.0
156.660889 164.0
156.763062 104.0
157.032822 100.0
157.062256 132.0
157.097168 148.0
157.204468 80.0
157.396683 116.0
157.544052 168.0
157.574295 76.0
157.616501 132.0
157.6465 136.0
157.821487 140.0
158.321976 56.0
158.384598 136.0
158.662766 144.0
158.740494 160.0
159.057877 628.0
159.13446 68.0
159.506287 100.0
159.654633 164.0
159.808075 120.0
159.848343 96.0
160.066895 668.0
160.155502 140.0
160.238632 68.0
160.32431 168.0
160.594086 56.0
160.789474 164.0
160.854004 140.0
160.997925 152.0
161.020645 64.0
161.074844 7836.0
161.154541 96.0
161.193008 72.0
161.23793 32.0
161.417435 100.0
161.437668 96.0
161.455368 48.0
161.473068 104.0
161.553268 148.0
161.634201 180.0
161.728622 52.0
161.764069 84.0
161.921051 52.0
162.075775 956.0
162.209915 124.0
162.283447 88.0
162.31134 44.0
162.727478 204.0
162.851913 88.0
162.878937 168.0
162.97995 216.0
163.011978 144.0
163.036423 332.0
163.090683 15088.0
163.173538 124.0
163.19928 76.0
163.289093 88.0
163.320633 96.0
163.339966 164.0
163.36795 44.0
163.409683 168.0
163.543533 44.0
163.632629 168.0
163.726852 64.0
163.751678 160.0
163.793076 108.0
163.895782 64.0
163.984192 92.0
164.004578 156.0
164.027512 48.0
164.046448 312.0
164.090302 3304.0
164.149902 152.0
164.185608 40.0
164.223862 264.0
164.302948 48.0
164.343765 44.0
164.508621 204.0
164.734406 108.0
165.0522 208.0
165.089508 540.0
165.140839 204.0
165.215027 76.0
165.259521 184.0
165.389038 76.0
165.445358 84.0
165.517059 168.0
165.555466 176.0
165.631027 152.0
165.724533 224.0
165.77066 64.0
166.061905 148.0
166.090729 232.0
166.229706 96.0
166.429932 204.0
166.527512 116.0
166.573761 48.0
166.599442 92.0
167.082779 64.0
167.221741 108.0
167.837463 88.0
168.139297 48.0
168.180588 192.0
168.296768 120.0
168.441406 144.0
168.92482 176.0
170.355835 84.0
170.516937 208.0
170.600113 112.0
171.076202 108.0
171.328827 140.0
171.550339 200.0
172.001648 172.0
172.106079 220.0
172.558121 164.0
172.814438 128.0
173.052765 232.0
173.081436 168.0
173.136429 52.0
173.162613 144.0
173.24353 176.0
173.301468 184.0
174.064789 212.0
174.091049 92.0
174.225021 160.0
174.3564 160.0
174.777649 92.0
175.03833 424.0
175.08873 1016.0
175.122055 136.0
175.169464 56.0
175.280121 120.0
175.488373 64.0
175.567474 68.0
175.596497 140.0
175.691452 108.0
175.939529 52.0
175.99762 224.0
176.047531 564.0
176.09903 1456.0
176.359558 112.0
176.40715 220.0
176.454742 148.0
176.58696 200.0
176.864792 72.0
177.048599 372.0
177.078964 140.0
177.095779 172.0
177.174637 76.0
177.209076 160.0
177.232071 176.0
177.416443 188.0
177.444962 32.0
177.632202 160.0
177.999542 60.0
178.100906 6996.0
178.191681 132.0
178.267853 68.0
178.456589 164.0
178.554977 96.0
178.592209 152.0
178.922195 96.0
178.983444 204.0
179.050018 116.0
179.071991 176.0
179.102814 632.0
179.132599 116.0
179.209854 88.0
179.231171 48.0
179.252487 60.0
179.271149 172.0
179.64444 48.0
180.033234 188.0
180.108932 40.0
180.151672 164.0
180.271515 136.0
180.675674 132.0
180.705109 184.0
180.959381 176.0
181.063812 172.0
181.484558 196.0
182.655518 148.0
183.053864 280.0
183.549271 196.0
183.657578 92.0
184.065125 176.0
184.354172 104.0
185.072449 188.0
185.282303 152.0
185.455734 132.0
185.561462 172.0
186.052536 164.0
186.085129 88.0
186.120422 144.0
186.791733 128.0
187.079361 404.0
187.123764 212.0
188.183884 252.0
188.214447 164.0
188.361923 180.0
189.057877 144.0
189.368546 172.0
190.102249 1032.0
191.064667 436.0
191.1008 236.0
191.131073 48.0
191.384323 144.0
191.549561 196.0
191.60466 108.0
191.659775 124.0
191.786545 128.0
191.836166 92.0
191.883041 72.0
191.914307 164.0
191.935425 96.0
191.962997 188.0
192.062286 156.0
192.11795 43264.0
192.198029 80.0
192.241638 44.0
192.283035 36.0
192.320694 204.0
192.371475 104.0
192.484558 84.0
192.515945 76.0
192.539795 68.0
192.571167 88.0
192.59227 80.0
192.630951 128.0
192.68248 172.0
192.722122 64.0
192.805023 36.0
192.835434 44.0
192.860306 64.0
192.979187 48.0
193.02179 216.0
193.066833 184.0
193.120956 6980.0
193.183258 148.0
193.211517 56.0
193.269623 60.0
193.310135 112.0
193.405533 72.0
193.437119 100.0
193.557495 32.0
193.723679 80.0
193.787415 48.0
193.815109 56.0
193.86264 80.0
194.036865 176.0
194.085205 64.0
194.127014 592.0
194.273697 132.0
194.330856 64.0
194.38913 84.0
194.497375 128.0
194.533463 68.0
194.613983 68.0
194.640121 120.0
194.727844 160.0
194.872299 40.0
195.027924 76.0
195.114105 116.0
195.397797 88.0
195.417267 64.0
195.581467 148.0
195.759659 96.0
195.926788 44.0
196.155304 96.0
196.208282 76.0
196.718826 64.0
197.079117 144.0
197.604782 76.0
198.080719 144.0
198.285263 92.0
199.107315 168.0
200.136581 64.0
200.86937 108.0
201.044296 56.0
201.578049 56.0
202.021973 76.0
202.075714 128.0
202.976486 152.0
203.04454 124.0
203.262985 112.0
203.492905 44.0
204.084824 180.0
204.11058 160.0
205.017639 148.0
205.083191 76.0
205.103134 76.0
205.128799 192.0
205.776413 192.0
205.859222 160.0
205.887787 132.0
206.342133 72.0
206.619568 104.0
206.713989 100.0
208.113876 304.0
209.064774 144.0
209.120438 300.0
209.228455 92.0
209.8479 52.0
210.127686 132.0
210.578018 176.0
211.08667 100.0
212.683075 124.0
213.067093 136.0
213.965103 48.0
213.985489 32.0
214.07576 208.0
215.046616 140.0
215.908539 208.0
216.118851 148.0
217.757935 116.0
218.09584 52.0
221.119171 212.0
222.082138 124.0
223.089798 132.0
224.199066 140.0
224.416687 176.0
225.078537 164.0
225.120926 196.0
225.901047 168.0
226.841385 88.0
227.045273 160.0
227.078262 172.0
227.810699 132.0
228.120239 152.0
228.460068 168.0
228.929626 128.0
230.111679 156.0
230.138855 80.0
231.699554 148.0
233.098358 216.0
234.108551 176.0
234.949646 132.0
235.08696 124.0
235.453323 164.0
237.102386 276.0
237.126907 28.0
237.151428 40.0
238.044235 104.0
240.090775 188.0
241.059814 164.0
242.9086 172.0
245.094299 124.0
245.992554 192.0
246.236115 76.0
246.607925 132.0
247.076996 120.0
248.094864 132.0
248.747375 168.0
250.07074 140.0
250.896072 44.0
250.921295 180.0
251.072662 140.0
252.079742 192.0
253.069839 152.0
253.890594 148.0
254.071411 124.0
254.144379 240.0
255.033615 188.0
255.123871 164.0
255.800247 56.0
257.135834 172.0
258.068634 204.0
258.279724 180.0
258.891052 76.0
258.996735 52.0
259.589691 172.0
262.074524 136.0
265.108887 92.0
266.078796 32.0
267.080475 168.0
269.098938 204.0
269.619659 156.0
269.724274 36.0
271.075104 176.0
271.485809 60.0
272.14032 272.0
272.21106 128.0
273.137909 136.0
273.720459 84.0
276.715363 176.0
276.801483 92.0
277.712891 160.0
278.59256 124.0
279.999634 124.0
280.106201 144.0
281.206573 164.0
283.112946 404.0
284.067596 152.0
284.114563 148.0
286.993652 172.0
287.108307 124.0
288.627991 144.0
289.643341 96.0
290.446716 112.0
292.325592 80.0
294.295868 96.0
294.941589 172.0
296.882935 152.0
299.03714 128.0
299.136963 144.0
300.132416 340.0
300.154144 224.0
301.140381 140.0
301.696747 200.0
301.869629 56.0
302.129059 44.0
302.164215 148.0
302.264008 76.0
302.570709 104.0
303.098541 132.0
303.15744 188.0
306.023285 196.0
306.214813 96.0
307.941315 128.0
309.371552 112.0
310.237549 104.0
310.429718 64.0
312.132874 108.0
312.326324 48.0
312.914032 172.0
313.124084 336.0
313.160553 60.0
314.133453 256.0
314.758179 164.0
315.139648 120.0
315.878571 44.0
316.235962 104.0
321.014557 108.0
321.724609 52.0
324.006378 148.0
324.081604 132.0
327.357697 84.0
327.609833 96.0
327.710724 32.0
328.20813 68.0
329.077728 96.0
329.13913 176.0
329.761169 224.0
329.802734 76.0
329.868958 140.0
329.944885 144.0
330.009949 180.0
330.082275 164.0
330.149963 17504.0
330.226929 140.0
330.256714 68.0
330.414001 56.0
330.496002 80.0
330.574249 112.0
330.737122 108.0
330.761292 76.0
330.88916 48.0
330.954346 64.0
331.152252 3532.0
331.218719 60.0
331.381744 44.0
331.414368 52.0
331.521362 92.0
331.715179 92.0
331.776825 92.0
331.860565 124.0
332.063293 36.0
332.110443 64.0
332.154541 844.0
332.64386 140.0
332.94162 40.0
333.211884 128.0
333.25766 124.0
333.286713 80.0
333.355774 100.0
333.493866 100.0
333.608337 132.0
333.762909 68.0
334.159363 144.0
334.38501 92.0
334.435944 36.0
334.475983 72.0
334.559723 108.0
335.044098 84.0
335.8461 68.0
337.325012 60.0
338.939087 48.0
343.177277 116.0
356.737488 56.0
357.960327 52.0
363.767975 48.0
369.61087 84.0
370.80188 220.0
383.491577 80.0
402.401154 84.0
402.504974 52.0
416.49295 76.0
421.716766 100.0
421.839417 112.0
422.702423 56.0
422.993011 64.0
436.796936 68.0
437.720917 148.0
441.238434 104.0
450.61969 60.0
457.486206 96.0
461.834625 44.0
468.376434 64.0
492.756683 48.0
503.712463 44.0
504.163757 88.0
510.628876 80.0
514.486206 112.0
521.085083 112.0
525.6203 112.0
563.322327 72.0
567.126892 128.0
578.076538 112.0
586.221375 68.0
687.9646 172.0
696.306213 40.0
697.914307 68.0
729.110779 224.0
735.369263 76.0
738.038086 140.0
738.568054 228.0
741.193909 76.0
753.840759 172.0
770.158813 192.0
773.698059 56.0
787.891418 204.0
789.065125 40.0
790.127747 136.0
797.31665 164.0
813.641907 84.0
820.286743 168.0
823.35083 116.0
833.720703 208.0
837.621826 120.0
838.209534 60.0
838.941528 152.0
848.811401 188.0
852.724365 192.0
854.754028 168.0
858.412415 280.0
870.831665 112.0
872.030334 188.0
883.269165 132.0
895.217102 188.0
897.254211 160.0
907.377197 76.0
908.306763 76.0
910.413513 168.0
910.545654 96.0
913.725647 144.0
914.014465 132.0
916.169983 160.0
918.671936 160.0
918.828796 188.0
932.350647 196.0
940.048523 200.0
945.793762 104.0
945.965149 72.0
949.163452 124.0
960.362915 64.0
975.534424 196.0
981.848389 200.0
984.332214 132.0
990.549255 196.0
994.611572 64.0
994.788513 184.0
997.772705 48.0
1001.989563 44.0
1003.382446 168.0
1008.281006 112.0
1009.147034 144.0
1011.500549 164.0
1017.066162 72.0
1017.745483 148.0
1018.012207 56.0
1019.765747 164.0
1022.182495 128.0
1022.487976 176.0
1022.908081 148.0
1027.26062 144.0
1030.689209 148.0
1031.085449 208.0
1036.807129 288.0
1037.70459 180.0
1038.53833 236.0
1039.006592 140.0
1040.309448 148.0
1041.029175 204.0
1041.60022 140.0
1050.432373 176.0
1064.847778 148.0
1066.615112 124.0
1069.015137 152.0
1071.457031 180.0
1074.253906 56.0
1076.740845 144.0
1077.675049 204.0
1078.674927 128.0
1081.258667 180.0
1081.356812 72.0
1082.122803 168.0
1083.550659 148.0
1084.723755 176.0
1086.999634 180.0
1087.892334 160.0
1087.997314 140.0
1091.098389 68.0
1092.433472 64.0
1092.880859 164.0
1094.315796 44.0
1094.842529 160.0
1095.079712 180.0
1095.349731 48.0
1098.058838 168.0
1098.718506 100.0
1100.513794 144.0
1102.25769 132.0
1102.508789 144.0
1107.259155 224.0
1112.723389 172.0
1115.101562 116.0
1115.294312 132.0
1115.713135 168.0
1117.056519 44.0
1119.079834 68.0
1120.158691 148.0
1122.824951 228.0
1123.493042 132.0
1128.782104 164.0
1130.227051 140.0
1132.463013 196.0
1132.536743 172.0
1134.808594 76.0
1138.271118 36.0
1139.30542 188.0
1141.725342 196.0
1142.839233 216.0
1142.969849 168.0
1143.299683 220.0
1143.562134 132.0
1145.663086 220.0
1147.887451 204.0
1150.410889 140.0
1150.761963 224.0
1153.133179 212.0
1153.836304 68.0
1154.302856 188.0
1155.669189 144.0
1156.068481 148.0
1156.636963 124.0
1157.354614 144.0
1160.824219 128.0
1164.421143 176.0
1164.971436 160.0
1165.331421 144.0
1169.459473 164.0
1169.704468 160.0
1169.98291 160.0
1171.972534 172.0
1172.613037 144.0
1173.274292 140.0
1177.416382 132.0
1180.443848 244.0
1181.203125 216.0
1183.728638 192.0
1185.675781 168.0
1186.140381 132.0
1186.517456 192.0
1187.161987 236.0
1187.94397 172.0
1189.213501 168.0
1190.58667 172.0
1191.060547 188.0
1193.115356 200.0
1193.720459 48.0
1196.452148 124.0
1196.775757 108.0
1197.44165 216.0
1197.650391 120.0
1199.731567 168.0
1202.994751 124.0
1203.298462 140.0
1203.629883 180.0
1204.983765 188.0
1205.052856 172.0
1205.128906 156.0
1207.015991 116.0
1207.63147 188.0
1209.589722 240.0
1211.210083 184.0
1211.272461 128.0
1211.840576 188.0
1216.917847 156.0
1217.006104 236.0
1217.133057 232.0
1217.584473 172.0
1218.202759 148.0
1218.279175 136.0
1219.766357 204.0
1220.552002 152.0
1222.499756 88.0
1227.076294 208.0
1228.436279 176.0
1229.866821 188.0
1230.292725 216.0
1231.032837 140.0
1233.527222 140.0
1234.037598 356.0
1235.702271 220.0
1238.047363 68.0
1238.208374 180.0
1239.469482 116.0
1239.686646 228.0
1243.031738 212.0
1245.29248 136.0
1245.882568 148.0
1247.112305 220.0
1249.130371 88.0
1250.221069 116.0
1252.861572 72.0
1252.960205 156.0
1253.023682 188.0
1253.072998 168.0
1253.368896 64.0
1253.904541 224.0
1254.870239 112.0
1255.300415 176.0
1255.378052 156.0
1256.033936 92.0
1256.690063 196.0
1257.868652 120.0
1258.617065 152.0
1264.520264 128.0
1264.845825 204.0
1267.827759 160.0
1268.401855 180.0
1269.763306 168.0
1270.153442 64.0
1271.55127 156.0
1273.425781 148.0
1275.777832 208.0
1276.951172 240.0
1277.641113 164.0
1279.876099 176.0
1280.324707 136.0
1282.619019 152.0
1283.574463 172.0
1284.031982 128.0
1284.251953 200.0
1285.493408 228.0
1285.671875 200.0
1286.90686 132.0
1287.278076 168.0
1289.349976 240.0
1293.205078 208.0
1294.901978 204.0
1295.109741 240.0
1298.263428 32.0
1298.478516 124.0
1300.588013 140.0
1301.076172 100.0
1302.038452 148.0
1302.404785 192.0
1303.022583 124.0
1303.410645 240.0
1304.30896 240.0
1304.485107 196.0
1305.351562 168.0
1307.257935 56.0
1308.157593 152.0
1309.734741 132.0
1310.354248 108.0
1310.649658 172.0
1311.355957 160.0
1311.709106 152.0
1313.050293 76.0
1313.944824 152.0
1314.103516 148.0
1314.708984 188.0
1315.178833 116.0
1315.640869 232.0
1316.491455 164.0
1317.496948 164.0
1317.677612 92.0
1318.34314 188.0
1318.956787 176.0
1319.108521 80.0
1319.180786 108.0
1320.185913 124.0
1323.145508 164.0
1324.708618 220.0
1326.623047 168.0
1327.427856 132.0
1327.899292 212.0
1335.050171 208.0
1337.898315 212.0
1338.684692 84.0
1339.267334 92.0
1339.981323 88.0
1341.32959 220.0
1342.496216 120.0
1343.035889 144.0
1343.583008 168.0
1343.670532 204.0
1346.123169 208.0
1346.561401 196.0
1346.714722 192.0
1346.911987 124.0
1348.307617 212.0
1351.356934 136.0
1352.659668 192.0
1353.216187 168.0
1353.509033 136.0
1353.758057 148.0
1354.468506 188.0
1355.940063 104.0
1356.007202 128.0
1356.857544 244.0
1358.434326 184.0
1358.889282 92.0
1359.821289 196.0
1361.06189 148.0
1361.531982 224.0
1362.361938 172.0
1362.781616 188.0
1364.30957 204.0
1364.706543 156.0
1365.728882 136.0
1369.497559 184.0
1369.998413 80.0
1370.713135 180.0
1370.890015 84.0
1371.066895 140.0
1371.501831 88.0
1372.460205 208.0
1372.548706 108.0
1372.90271 132.0
1373.954834 184.0
1374.355957 40.0
1374.96106 208.0
1376.186523 160.0
1376.400635 52.0
1376.533569 104.0
1376.873291 148.0
1377.013672 140.0
1377.286987 96.0
1377.434692 164.0
1377.515991 152.0
1378.328613 52.0
1378.491211 208.0
1379.289429 208.0
1380.07312 84.0
1380.41333 176.0
1380.938477 144.0
1382.255371 116.0
1383.084229 156.0
1383.261963 228.0
1383.928223 76.0
1384.683594 204.0
1385.683716 228.0
1386.869385 276.0
1386.958374 200.0
1388.463501 156.0
1391.283936 248.0
1391.468994 176.0
1391.713989 168.0
1392.411987 188.0
1393.749268 96.0
1394.708008 220.0
1396.120728 228.0
1396.641357 140.0
1397.459717 172.0
1397.593628 52.0
1397.921021 64.0
1398.151733 116.0
1400.065186 176.0
1405.149048 56.0
1407.335938 188.0
1408.17981 224.0
1410.085083 220.0
1412.171265 180.0
1413.360718 164.0
1414.902588 216.0
1414.955078 96.0
1418.348755 192.0
1419.255859 152.0
1419.383423 132.0
1419.435913 200.0
1420.320923 212.0
1420.913574 132.0
1422.467041 84.0
1422.692261 80.0
1422.902466 164.0
1423.015137 192.0
1425.651855 148.0
1426.095215 132.0
1426.17041 180.0
1427.441162 208.0
1428.178101 204.0
1429.4646 132.0
1430.179688 88.0
1430.3302 188.0
1430.653931 48.0
1431.030396 80.0
1431.143311 164.0
1432.197632 200.0
1432.732544 164.0
1433.267456 336.0
1434.428223 204.0
1434.707153 152.0
1435.906128 244.0
1436.524658 108.0
1437.082886 184.0
1438.018677 168.0
1438.094238 160.0
1438.433838 140.0
1439.060547 108.0
1439.294556 168.0
1440.238647 64.0
1440.699463 188.0
1442.755127 72.0
1442.808105 156.0
1443.851562 156.0
1444.381104 128.0
1444.615601 164.0
1444.774414 180.0
1445.046875 204.0
1446.507446 192.0
1446.757324 88.0
1446.91626 120.0
1447.029907 156.0
1448.180908 116.0
1448.703613 192.0
1450.075195 40.0
1450.567871 172.0
1450.643677 148.0
1451.583862 192.0
1451.674927 260.0
1453.556274 208.0
1454.785889 44.0
1455.659058 188.0
1456.319824 184.0
1456.464111 144.0
1456.752808 188.0
1457.071899 136.0
1457.983765 112.0
1459.276001 172.0
1459.777954 164.0
1460.812378 220.0
1461.946045 164.0
1462.144775 196.0
1462.220093 132.0
1462.40271 136.0
1462.950806 196.0
1464.321533 168.0
1464.656616 220.0
1467.16394 160.0
1469.276489 132.0
1471.207397 184.0
1471.260864 112.0
1472.780518 152.0
1473.078369 300.0
1473.834839 164.0
1474.071655 228.0
1475.050049 108.0
1475.562256 196.0
1475.661621 184.0
1475.776367 208.0
1477.420776 168.0
1477.864502 72.0
1478.69104 76.0
1478.752319 108.0
1479.869995 164.0
1480.406006 180.0
1481.210205 244.0
1481.78479 232.0
1482.842407 196.0
1484.199341 148.0
1485.403442 128.0
1486.070923 132.0
1487.805542 188.0
1488.527222 168.0
1489.318359 144.0
1489.779297 168.0
1490.201782 152.0
1490.263306 128.0
1490.685059 144.0
1491.592896 164.0
1492.146362 128.0
1492.254028 244.0
1492.684692 124.0
1494.31543 48.0
1494.530884 96.0
1494.761719 168.0
1495.900879 196.0
1496.016357 188.0
1496.255005 148.0
1498.54248 120.0
1499.343994 140.0
1500.793213 224.0
1501.348511 192.0
1501.880615 56.0
1502.420654 204.0
1502.590454 180.0
1503.037964 84.0
1503.485474 136.0
1503.840576 160.0
1504.126221 192.0
1504.35144 160.0
1505.369263 84.0
