>compound MLS002667412-01!
>formula C21H34O3
>ionization [M+H]+
>parentmass 335.259
#inchi InChI=1S/C21H34O3/c1-12(22)15-4-5-16-14-11-19(24)18-10-13(23)6-8-21(18,3)17(14)7-9-20(15,16)2/h13-19,23-24H,4-11H2,1-3H3
#inchikey HHUZGDMRRLQZIQ
#Ion_Source LC-ESI
#Instrument qTof
#Compound_Source NIH Natural Product Library
#PI Dorrestein
#Data_Collector VVP/LMS
#Scan -1
#Precursor_MZ 335.259
#ExactMass 334.251
#Charge 1
#CAS_Number N/A
#Pubmed_ID N/A
#Smiles CC(=O)C1CCC2C3CC(O)C4CC(O)CCC4(C)C3CCC12C
#INCHI_AUX N/A
#Library_Class 3
#SpectrumID CCMSLIB00000079460
#IonMode Positive
#UpdateWorkflowName UPDATE-SINGLE-ANNOTATED-BRONZE
#LibraryQualityString Bronze
#TaskID b1d8e8f6646f4e71acdff9ca3d919d08
##Scan# 1951
#SpectrumFile p1-F06_GF6_01_17938.mzXML
#LibraryName NIH_Natural_Products_Library.mgf
#MQScore -1
#Organism NIH_Natural_Products_Library
#TIC_Query 0
#RT_Query -1
#MZErrorPPM -1
#SharedPeaks 0
#MassDiff 0
#LibMZ -1
#SpecMZ 335.259
#SpecCharge 0
#internalFilename spec-00000.mgf

>collision 10
95.084854 212.0
95.399513 172.0
95.724434 124.0
96.081116 188.0
97.015915 220.0
97.062523 176.0
98.986191 224.0
99.952888 96.0
100.385147 104.0
101.472878 128.0
102.707619 188.0
103.058884 192.0
104.055374 136.0
104.577797 160.0
104.647011 140.0
105.070824 548.0
105.526375 200.0
105.990997 68.0
106.046326 128.0
106.068871 116.0
106.370407 236.0
106.954178 116.0
107.085007 152.0
107.098312 220.0
107.679939 136.0
108.087189 244.0
108.766953 56.0
108.966309 172.0
109.093086 136.0
110.102974 176.0
110.976227 184.0
111.135635 108.0
113.11245 152.0
113.178078 140.0
114.560684 188.0
115.052383 132.0
116.057991 196.0
116.346367 192.0
117.06881 696.0
118.073311 216.0
119.084785 208.0
119.366959 64.0
119.970055 168.0
120.087807 160.0
120.883018 148.0
121.099754 164.0
122.102753 208.0
122.232552 120.0
122.915634 148.0
123.116516 196.0
126.704414 92.0
128.058929 80.0
128.469177 112.0
129.069077 320.0
130.032715 284.0
130.080383 256.0
130.555252 116.0
130.680359 152.0
130.996796 120.0
131.085358 664.0
131.110718 144.0
132.085327 292.0
133.061874 168.0
133.101303 432.0
134.108536 200.0
135.117981 468.0
137.651154 176.0
138.242569 184.0
139.0065 120.0
139.07692 48.0
139.093338 80.0
140.51709 152.0
141.071152 216.0
142.072617 140.0
143.085815 296.0
144.093582 352.0
144.35318 132.0
144.422531 132.0
145.103439 740.0
146.101685 112.0
146.274948 176.0
147.117065 864.0
147.688934 68.0
148.119781 136.0
149.095139 216.0
149.133713 252.0
150.950287 208.0
151.119064 144.0
152.234344 144.0
153.07782 136.0
154.079208 156.0
154.138504 188.0
155.565094 128.0
156.089905 264.0
157.09787 568.0
157.117966 220.0
158.107452 176.0
159.067398 204.0
159.115936 1432.0
159.838974 156.0
160.119736 136.0
161.127747 192.0
161.339661 100.0
161.402863 68.0
162.82196 120.0
163.14975 176.0
163.309937 176.0
163.414246 220.0
167.082443 148.0
169.100815 168.0
170.213104 52.0
171.115387 380.0
172.126984 152.0
172.537186 160.0
173.130035 804.0
174.148743 196.0
174.169754 72.0
175.147614 480.0
177.118729 172.0
177.375763 120.0
180.292847 100.0
181.097092 148.0
181.317841 60.0
183.111435 140.0
183.122498 164.0
184.118469 332.0
185.13028 328.0
185.948624 56.0
186.068054 48.0
186.133224 268.0
187.147827 220.0
188.14801 152.0
188.169861 72.0
189.16452 176.0
190.58284 180.0
190.615814 84.0
195.112808 140.0
196.126083 180.0
197.129776 140.0
198.146484 184.0
199.148285 736.0
200.144852 144.0
200.219467 160.0
201.161377 644.0
202.165894 140.0
203.139923 128.0
207.172989 180.0
208.340576 128.0
209.039246 108.0
210.141663 288.0
211.147446 596.0
211.984695 128.0
212.144104 128.0
213.157455 136.0
214.167038 188.0
215.178436 212.0
219.182068 136.0
223.143936 288.0
224.160294 160.0
224.834244 136.0
225.163223 504.0
227.175247 284.0
228.471832 112.0
229.189713 164.0
231.172272 140.0
237.164886 120.0
238.175385 352.0
239.177704 68.0
241.161179 136.0
241.191238 352.0
241.226089 148.0
241.312653 80.0
243.16507 100.0
244.013092 108.0
244.215225 120.0
245.264526 48.0
251.184677 160.0
253.189697 284.0
255.214249 456.0
256.184906 192.0
256.234741 40.0
256.802155 68.0
258.197815 156.0
258.309784 48.0
259.21582 144.0
266.206268 108.0
271.197876 140.0
273.974548 148.0
276.182922 124.0
280.903046 52.0
281.228516 1016.0
282.237366 216.0
294.503571 116.0
298.46521 120.0
299.24173 440.0
299.652649 96.0
299.683655 60.0
300.228302 80.0
308.572449 112.0
314.195251 100.0
317.059357 148.0
317.243652 128.0
333.174957 148.0
361.182953 52.0
364.95636 64.0
415.409576 20.0
1003.722534 116.0
1083.453735 76.0
1119.984863 160.0
1129.469727 160.0
1133.345947 280.0
1170.865234 204.0
1184.032349 144.0
1359.79834 128.0
1377.846436 196.0
1383.170776 128.0
1391.993286 184.0
1396.496948 176.0
1400.88855 132.0
1410.873535 116.0
1412.084839 204.0
1416.01416 168.0
1420.92395 196.0
1428.315918 148.0
1441.872314 64.0
1463.392822 140.0
1465.098755 160.0
1483.148804 200.0
1489.186523 204.0
