>compound MLS001165782-01!TADALAFIL
>formula C22H19N3O4
>ionization [M+H]+
>parentmass 390.145
#inchi InChI=1S/C22H19N3O4/c1-24-10-19(26)25-16(22(24)27)9-14-13-4-2-3-5-15(13)23-20(14)21(25)12-6-7-17-18(8-12)29-11-28-17/h2-8,16,21,23H,9-11H2,1H3/t16-,21-/m1/s1
#inchikey WOXKDUGGOYFFRN
#Ion_Source LC-ESI
#Instrument qTof
#Compound_Source NIH Pharmacologically Active Library
#PI Dorrestein
#Data_Collector VP/LMS
#Scan -1
#Precursor_MZ 390.145
#ExactMass 389.138
#Charge 1
#CAS_Number N/A
#Pubmed_ID N/A
#Smiles CN1CC(=O)N2[C@@H](c3[nH]c4ccccc4c3C[C@@H]2C1=O)c5ccc6OCOc6c5
#INCHI_AUX N/A
#Library_Class 1
#SpectrumID CCMSLIB00000085391
#IonMode Positive
#UpdateWorkflowName UPDATE-SINGLE-ANNOTATED-GOLD
#LibraryQualityString Gold
#TaskID d252d724072548979f1f6f1ced849daf
##Scan# 1916
#SpectrumFile p4-A03_GA3_01_18327.mzXML
#LibraryName Pharm_Active_Library.mgf
#MQScore -1
#Organism Pharm_Active_Library
#TIC_Query 0
#RT_Query -1
#MZErrorPPM -1
#SharedPeaks 0
#MassDiff 0
#LibMZ -1
#SpecMZ 390.145
#SpecCharge 0
#internalFilename spec-00000.mgf

>collision 10
44.952038 192.0
45.278229 220.0
45.355942 224.0
45.393482 168.0
45.492767 148.0
46.136715 184.0
46.184044 236.0
46.567623 140.0
46.79472 228.0
47.465607 204.0
47.950886 92.0
48.307129 64.0
48.617493 76.0
48.930244 156.0
49.436928 152.0
49.647064 168.0
49.659687 124.0
49.967323 172.0
50.851929 152.0
50.905876 180.0
51.093498 100.0
51.808743 140.0
51.818771 232.0
51.954971 152.0
52.194828 124.0
52.269627 76.0
52.376163 136.0
52.465508 156.0
52.974194 88.0
53.056713 136.0
53.350052 128.0
53.734531 208.0
54.022335 124.0
54.054523 68.0
54.470901 276.0
54.933128 252.0
55.403229 184.0
55.512913 124.0
56.051029 184.0
56.206104 140.0
56.446598 152.0
56.536354 128.0
57.827667 136.0
57.954876 128.0
58.056473 172.0
58.268944 124.0
58.396198 140.0
58.591476 228.0
58.786648 176.0
58.870605 152.0
58.884354 40.0
59.202457 96.0
59.305107 156.0
59.355698 220.0
59.389435 144.0
60.026138 140.0
60.163456 180.0
60.265388 124.0
60.348854 80.0
60.367409 36.0
60.762386 220.0
60.863274 116.0
61.213142 232.0
61.775017 132.0
62.140041 160.0
62.576973 128.0
62.617916 92.0
62.632092 112.0
62.92857 156.0
64.429443 256.0
64.5765 188.0
64.606895 208.0
64.677307 128.0
64.699715 108.0
65.964165 76.0
67.219635 132.0
67.946114 196.0
68.074142 168.0
68.16613 136.0
68.25161 112.0
68.358528 148.0
70.052315 112.0
71.0923 196.0
71.256851 176.0
71.35601 76.0
71.628639 68.0
71.652222 192.0
71.952423 116.0
71.992943 144.0
72.173752 72.0
72.490295 192.0
72.868729 140.0
73.154388 200.0
73.495247 192.0
73.549858 140.0
73.857422 156.0
74.263367 140.0
74.414375 144.0
74.508835 156.0
74.687614 36.0
74.851112 160.0
75.057892 160.0
75.423889 156.0
75.470566 128.0
75.714561 108.0
76.421066 124.0
76.602127 148.0
76.954407 148.0
77.277748 136.0
78.234245 152.0
78.392761 168.0
78.440353 160.0
78.526749 128.0
78.960632 60.0
79.092155 160.0
79.600975 176.0
79.812431 132.0
80.061562 132.0
80.084709 176.0
80.979546 152.0
81.180267 124.0
81.300163 120.0
81.715538 152.0
81.830727 220.0
82.451256 188.0
83.551903 132.0
84.040184 156.0
85.519073 108.0
86.360428 176.0
89.463707 156.0
90.089844 188.0
90.157822 148.0
90.93811 212.0
90.958992 212.0
91.053925 168.0
91.597908 136.0
91.710327 164.0
91.899124 180.0
92.6026 112.0
93.98288 176.0
94.578102 192.0
94.700089 104.0
94.843468 204.0
95.190742 180.0
95.776138 152.0
96.089996 224.0
96.127068 96.0
96.999359 76.0
97.085625 204.0
97.415367 168.0
97.533272 112.0
97.578484 176.0
97.643372 140.0
97.745674 140.0
97.875587 168.0
97.916939 120.0
97.972092 136.0
98.415848 132.0
98.686539 84.0
98.737953 236.0
99.053383 176.0
100.039589 160.0
100.539879 60.0
100.803482 216.0
101.177513 156.0
101.774986 116.0
102.092476 148.0
102.23732 104.0
102.344009 52.0
102.692642 160.0
103.050758 156.0
104.825409 156.0
105.032814 548.0
105.100685 160.0
105.854958 140.0
106.090576 128.0
106.180801 164.0
106.49482 72.0
106.73732 168.0
106.817528 144.0
107.010979 204.0
107.111885 148.0
107.229332 184.0
107.390152 220.0
107.427277 120.0
107.567604 136.0
107.825783 156.0
108.499481 220.0
108.842934 164.0
108.959244 180.0
109.05899 192.0
109.171257 228.0
109.545898 180.0
110.00676 124.0
110.157112 92.0
110.541809 140.0
110.728134 168.0
112.906395 204.0
113.302216 188.0
113.806992 188.0
113.99604 152.0
114.149094 180.0
114.404411 168.0
114.694115 168.0
114.775131 160.0
115.055672 344.0
115.749504 160.0
116.107384 84.0
116.233948 128.0
116.704353 88.0
116.865669 204.0
117.55088 196.0
117.617783 140.0
117.775414 120.0
117.997993 100.0
118.065025 220.0
118.588959 116.0
118.604134 84.0
119.281372 172.0
119.659904 40.0
120.353249 152.0
120.517059 192.0
121.215073 156.0
121.770103 124.0
122.251564 172.0
122.348412 224.0
122.650208 272.0
122.976646 184.0
123.053909 124.0
123.223969 116.0
123.285843 152.0
123.43837 192.0
123.805717 108.0
123.940842 144.0
124.575371 132.0
125.055664 132.0
125.144707 44.0
125.412033 80.0
125.610481 100.0
125.688568 96.0
126.600609 184.0
126.802238 184.0
127.054489 348.0
127.11396 208.0
127.345192 104.0
128.202362 168.0
128.775406 104.0
128.813797 140.0
128.888351 92.0
129.064667 156.0
129.123459 212.0
129.703186 184.0
130.065155 880.0
130.513565 44.0
130.593155 100.0
130.936829 64.0
131.063858 220.0
131.088089 364.0
131.194305 152.0
132.048294 160.0
133.120834 112.0
133.302307 140.0
133.412628 136.0
133.789917 124.0
134.089355 120.0
134.319931 152.0
134.446838 124.0
134.56456 140.0
134.735458 160.0
134.850342 228.0
134.964279 120.0
135.043808 6524.0
135.082214 60.0
135.115494 168.0
135.216415 48.0
135.366898 252.0
135.524414 176.0
135.617111 96.0
135.918594 120.0
135.958038 208.0
136.047836 896.0
136.090347 76.0
136.143753 168.0
136.229691 100.0
136.285461 64.0
136.315659 184.0
136.569077 164.0
136.79245 140.0
136.948456 60.0
136.974091 124.0
137.055832 236.0
137.141846 80.0
138.0056 212.0
138.054703 64.0
138.141251 148.0
138.295685 132.0
138.433807 48.0
138.49704 132.0
138.700897 216.0
139.106705 152.0
139.38385 152.0
139.76712 132.0
140.000168 88.0
140.050674 120.0
140.223969 192.0
141.06427 176.0
141.201401 112.0
142.065277 324.0
142.146637 232.0
142.999802 148.0
143.064072 148.0
143.745728 68.0
143.767212 156.0
143.943863 192.0
144.039383 128.0
144.07933 460.0
144.570175 88.0
144.725754 172.0
145.05397 156.0
145.747559 216.0
146.021606 160.0
146.551208 192.0
146.746445 120.0
147.043152 348.0
147.103485 300.0
147.202484 64.0
147.466934 232.0
147.952011 204.0
148.521469 48.0
148.555435 180.0
148.982697 108.0
149.0224 292.0
149.082306 124.0
149.378937 104.0
149.512756 136.0
149.705078 104.0
149.890213 140.0
150.055954 168.0
150.246185 124.0
150.648987 232.0
150.9814 176.0
151.140411 180.0
151.192001 148.0
152.044647 116.0
152.064285 164.0
152.304901 180.0
152.491638 116.0
153.109161 116.0
154.065994 480.0
154.679489 128.0
155.289017 188.0
155.413055 140.0
155.626511 208.0
155.951935 144.0
156.080505 348.0
156.111053 164.0
157.531738 116.0
157.556717 180.0
158.66037 160.0
159.044174 192.0
159.070938 152.0
159.219925 144.0
159.265137 112.0
159.373169 164.0
159.438492 228.0
159.830795 168.0
160.052505 184.0
160.178223 156.0
160.415085 160.0
160.495758 240.0
160.520981 140.0
162.143967 128.0
162.798492 84.0
163.405991 144.0
163.894852 220.0
164.564377 40.0
165.06369 196.0
165.161102 132.0
165.506592 88.0
165.934464 168.0
165.967804 200.0
166.066071 200.0
167.057526 176.0
167.088394 188.0
167.275482 68.0
167.517548 264.0
167.940277 156.0
168.035721 216.0
168.069672 328.0
168.218948 52.0
168.673584 156.0
168.872681 236.0
168.952881 204.0
169.022736 176.0
169.076477 13420.0
169.139191 68.0
169.325607 44.0
169.380005 56.0
169.481049 116.0
169.519913 76.0
169.696167 192.0
170.078934 1856.0
170.145004 36.0
170.840424 128.0
170.932556 80.0
171.062195 196.0
171.083023 196.0
171.151199 44.0
171.17984 68.0
171.487259 116.0
171.51593 64.0
171.560242 100.0
171.63324 64.0
172.027206 172.0
172.241318 72.0
172.515701 84.0
172.832169 124.0
173.38208 140.0
173.901367 60.0
173.951248 196.0
173.995865 44.0
174.059525 332.0
174.171814 92.0
174.671249 124.0
174.834366 64.0
175.013367 172.0
175.930862 184.0
176.035843 464.0
176.057602 176.0
176.639069 204.0
177.068848 204.0
177.613861 136.0
177.926987 132.0
177.982742 76.0
178.073608 224.0
179.070404 164.0
179.08905 204.0
179.382156 164.0
180.079468 288.0
180.233521 172.0
180.62384 212.0
181.080002 316.0
181.140472 128.0
181.633698 56.0
182.063126 136.0
182.675934 188.0
183.025818 208.0
183.089584 112.0
183.31134 136.0
183.332901 116.0
183.357162 36.0
183.597092 36.0
183.699585 160.0
184.072037 128.0
184.093643 68.0
185.068802 208.0
185.581894 184.0
186.064835 216.0
186.176407 224.0
186.564713 124.0
187.075912 188.0
187.103363 240.0
188.071304 156.0
188.592789 272.0
189.06694 228.0
190.003036 116.0
190.041214 188.0
190.077118 176.0
190.153961 128.0
190.634567 92.0
191.077347 120.0
191.729843 172.0
192.049667 132.0
192.083008 356.0
192.880783 116.0
192.991364 116.0
193.057724 108.0
193.085007 684.0
193.450623 48.0
193.794037 112.0
193.824509 188.0
193.904877 84.0
194.060196 144.0
194.082413 184.0
195.065979 188.0
195.091476 196.0
195.674347 152.0
195.824707 128.0
196.055954 180.0
196.761642 96.0
197.071747 2660.0
197.099609 160.0
197.398697 80.0
197.583313 52.0
197.644852 28.0
197.77359 76.0
198.011581 44.0
198.075989 352.0
198.297348 232.0
198.350601 192.0
198.661865 144.0
199.341324 100.0
199.431259 72.0
199.597137 76.0
200.281006 132.0
200.365509 84.0
200.757309 108.0
201.067627 176.0
201.462936 100.0
201.570297 160.0
201.78511 180.0
203.045197 208.0
203.101929 116.0
203.547501 164.0
203.60997 176.0
204.016296 160.0
204.080856 5368.0
204.132874 36.0
204.164154 40.0
204.334808 72.0
204.579559 96.0
204.761795 80.0
205.088654 4888.0
205.212036 184.0
205.2491 120.0
205.326096 60.0
206.011139 220.0
206.093582 1132.0
206.196854 52.0
206.339783 88.0
206.399826 52.0
206.454163 88.0
206.519943 68.0
206.651535 112.0
206.840408 60.0
207.077499 184.0
207.100296 324.0
207.244217 52.0
207.367432 76.0
207.553772 40.0
208.103088 224.0
208.656311 60.0
208.759811 184.0
208.943909 224.0
209.068893 376.0
209.269135 236.0
209.326721 80.0
209.934753 48.0
210.070312 224.0
210.399292 136.0
210.818115 60.0
210.968414 80.0
211.066711 64.0
211.089386 176.0
211.491989 200.0
211.984329 68.0
212.129242 184.0
213.072403 204.0
213.098557 136.0
213.409546 148.0
213.540405 96.0
213.720764 128.0
214.119583 156.0
214.454636 96.0
214.591644 132.0
215.075378 376.0
215.481812 92.0
215.782852 112.0
215.917358 116.0
216.080444 1000.0
216.50267 132.0
217.064987 176.0
217.086441 804.0
217.546494 200.0
217.931229 56.0
218.092712 444.0
219.072586 160.0
219.641647 196.0
219.694748 116.0
219.957382 76.0
220.076294 304.0
221.072617 240.0
221.643127 136.0
222.096725 144.0
222.675491 184.0
223.07547 72.0
223.100403 180.0
223.237183 72.0
224.08847 100.0
224.121246 132.0
224.544556 164.0
224.729507 60.0
225.064667 448.0
225.090668 76.0
225.90361 212.0
226.038254 112.0
226.062195 124.0
226.676071 228.0
227.08078 124.0
227.266769 152.0
227.413818 152.0
227.452835 156.0
228.089645 240.0
230.095871 140.0
231.074142 176.0
231.214371 172.0
231.529221 128.0
231.941284 176.0
231.98674 196.0
232.077377 2740.0
232.869736 60.0
233.084564 2744.0
233.121902 76.0
234.088638 908.0
234.576736 52.0
234.671249 56.0
234.927429 68.0
235.094391 340.0
235.513504 88.0
235.654037 160.0
236.075851 152.0
236.850174 104.0
237.116745 184.0
237.812958 156.0
237.917328 196.0
238.095413 104.0
238.341171 44.0
239.537949 196.0
239.673492 72.0
239.719727 120.0
239.938568 164.0
240.018723 96.0
240.113724 4236.0
240.422836 40.0
240.543213 40.0
240.694489 48.0
240.972473 56.0
241.07753 148.0
241.116791 572.0
241.417572 108.0
241.587692 52.0
241.965256 32.0
242.106903 172.0
242.128159 380.0
242.265656 56.0
242.414383 48.0
242.684052 32.0
242.761566 44.0
242.795685 84.0
242.823593 80.0
243.087296 184.0
243.326294 112.0
244.073761 952.0
244.323914 240.0
245.08017 164.0
245.155258 88.0
245.60733 56.0
245.838211 120.0
246.087616 184.0
246.334641 56.0
246.587723 136.0
246.618988 72.0
246.650238 120.0
246.984818 152.0
247.066147 108.0
248.077667 300.0
248.739548 108.0
249.078674 216.0
249.361465 52.0
249.719879 132.0
250.082657 1100.0
250.143814 220.0
251.082352 160.0
251.294952 92.0
252.084351 128.0
252.745224 200.0
253.248581 108.0
254.088623 196.0
254.955475 140.0
256.629822 44.0
257.619202 196.0
258.095398 140.0
258.94342 132.0
259.164459 168.0
259.966095 164.0
260.017456 84.0
260.075226 200.0
260.987579 176.0
261.076721 276.0
261.248108 132.0
261.450806 176.0
261.766296 372.0
261.885437 120.0
261.947052 228.0
261.972412 180.0
261.994965 88.0
262.030396 160.0
262.086548 10136.0
262.145721 56.0
262.230194 80.0
262.377838 80.0
262.49588 176.0
262.568726 76.0
262.668701 48.0
262.73645 60.0
262.860413 76.0
262.884888 32.0
263.010742 116.0
263.090118 3348.0
263.217377 52.0
263.336853 124.0
263.391754 100.0
263.498383 52.0
263.70517 36.0
263.733185 72.0
263.828003 68.0
263.970276 52.0
264.034943 160.0
264.100189 2000.0
264.507324 116.0
264.607697 64.0
264.643311 52.0
264.750153 104.0
264.811707 36.0
265.106171 648.0
265.35611 72.0
265.596069 48.0
265.729095 76.0
266.112061 208.0
266.258179 120.0
266.28418 36.0
266.436829 68.0
266.657806 48.0
267.00647 184.0
267.402588 56.0
267.457916 152.0
267.715118 88.0
267.832367 64.0
267.936615 128.0
268.108063 4504.0
268.259247 108.0
268.282074 108.0
268.392914 40.0
268.500519 44.0
269.111237 740.0
269.149933 168.0
269.381805 76.0
269.45694 48.0
270.120575 380.0
270.464172 132.0
271.073334 60.0
271.106079 40.0
271.184753 48.0
271.571625 56.0
272.066467 532.0
272.671509 52.0
273.062744 176.0
273.092346 152.0
273.599121 140.0
273.908661 160.0
274.084656 3492.0
274.135986 180.0
274.323853 68.0
274.396393 60.0
274.515076 52.0
275.090424 1004.0
275.283966 52.0
276.085541 304.0
276.440979 60.0
277.099884 176.0
277.159546 88.0
278.068176 76.0
280.716309 48.0
280.896393 68.0
281.230072 164.0
282.891357 196.0
289.101349 200.0
291.111603 144.0
291.787781 136.0
292.121185 188.0
293.10498 64.0
293.626556 144.0
297.778046 48.0
300.369873 88.0
301.972534 120.0
302.079498 1556.0
302.124725 48.0
302.515778 56.0
303.087006 484.0
304.714508 64.0
304.853485 140.0
305.10376 56.0
313.102173 112.0
314.072052 124.0
315.116974 132.0
317.080902 116.0
318.091766 204.0
319.108795 144.0
320.392578 108.0
320.649139 44.0
322.708862 64.0
331.259918 92.0
331.876038 56.0
344.03772 112.0
346.493347 80.0
347.180084 200.0
348.563721 48.0
353.478455 100.0
356.08017 48.0
379.839417 100.0
390.131439 136.0
396.864777 68.0
409.770966 104.0
434.135223 124.0
436.897339 68.0
455.72937 44.0
470.087158 84.0
506.380219 60.0
525.365723 64.0
579.300781 68.0
606.795471 100.0
646.347839 76.0
679.231018 152.0
681.219177 144.0
702.963745 64.0
709.188477 52.0
746.476807 60.0
800.302368 192.0
821.909729 260.0
823.845215 128.0
828.272827 108.0
832.436584 192.0
847.428101 44.0
859.294739 140.0
876.079651 152.0
927.41449 104.0
934.623108 160.0
958.171326 116.0
967.026367 152.0
985.245972 60.0
985.764587 52.0
995.574768 100.0
1000.72467 124.0
1013.00824 148.0
1023.271057 152.0
1045.907593 160.0
1066.964233 204.0
1099.711426 184.0
1123.86084 132.0
1131.694458 212.0
1151.026001 184.0
1153.262085 148.0
1155.473389 64.0
1204.622559 252.0
1242.929688 192.0
1245.049683 180.0
1282.477905 188.0
1286.436768 196.0
1312.978149 128.0
1314.76001 168.0
1323.506836 128.0
1335.670166 112.0
1341.189575 184.0
1344.208862 104.0
1345.800171 88.0
1346.851807 132.0
1346.932129 132.0
1347.319336 56.0
1352.650391 200.0
1354.407715 124.0
1357.485962 200.0
1360.809814 104.0
1389.705933 144.0
1401.617676 164.0
1402.280884 116.0
1414.770264 112.0
1420.915649 176.0
1424.023682 176.0
1426.510498 140.0
1428.578491 204.0
1431.077148 112.0
1446.32666 144.0
1448.446899 48.0
1461.558105 228.0
1462.357178 176.0
1462.943359 164.0
1466.767334 212.0
1470.642212 148.0
1473.574585 52.0
1479.761963 180.0
1484.267334 120.0
1487.896484 152.0
1488.364868 236.0
1488.556763 84.0
1496.037842 236.0
1497.539429 172.0
1498.887573 176.0
1499.843262 180.0
1500.621826 212.0
1503.730591 100.0
