>compound ORMETOPRIM
>formula C14H18N4O2
>ionization [M+H]+
>parentmass 275.1521
#inchi InChI=1S/C14H18N4O2/c1-8-4-11(19-2)12(20-3)6-9(8)5-10-7-17-14(16)18-13(10)15/h4,6-7H,5H2,1-3H3,(H4,15,16,17,18)
#inchikey KEEYRKYKLYARHO
#Ion_Source LC-ESI
#Instrument qTof
#Compound_Source Commercial
#PI Dorrestein
#Data_Collector Garg_Neha
#Scan -1
#Precursor_MZ 275.15
#ExactMass 274.143
#Charge 1
#CAS_Number N/A
#Pubmed_ID N/A
#Smiles COc1cc(C)c(Cc2cnc(N)nc2N)cc1OC
#INCHI_AUX N/A
#Library_Class 1
#SpectrumID CCMSLIB00000079023
#IonMode Positive
#UpdateWorkflowName UPDATE-SINGLE-ANNOTATED-GOLD
#LibraryQualityString Gold
#TaskID 278b19f5865741e282cec7349aa7e7a1
##Scan# 1044
#SpectrumFile NCP003352_E2_F11_BC6_01_15720.mzXML
#LibraryName NIHcollectionI_05062014.mgf
#MQScore -1
#Organism NIHcollectionI_05062014
#TIC_Query 0
#RT_Query -1
#MZErrorPPM -1
#SharedPeaks 0
#MassDiff 0
#LibMZ -1
#SpecMZ 275.15
#SpecCharge 0
#internalFilename spec-00000.mgf

>collision 10
45.178562 188.0
45.965908 176.0
47.073608 140.0
47.418358 164.0
48.20417 224.0
48.691811 144.0
49.172138 148.0
49.55249 184.0
57.465759 156.0
59.373333 176.0
60.867149 140.0
60.957245 160.0
61.546043 180.0
61.564785 144.0
61.625702 192.0
62.735291 144.0
64.423828 164.0
64.577278 156.0
68.032227 284.0
68.180054 196.0
68.372467 180.0
68.481133 152.0
68.530548 188.0
72.893234 140.0
73.458488 144.0
73.496017 196.0
74.452927 160.0
75.72226 192.0
76.768242 136.0
76.902802 180.0
77.807808 208.0
78.734001 164.0
78.746368 140.0
79.098228 188.0
81.035835 184.0
82.137848 152.0
84.777847 152.0
85.289902 152.0
87.299606 144.0
87.724113 144.0
88.49382 196.0
89.888512 152.0
90.851555 192.0
91.865509 172.0
92.616737 156.0
92.942642 152.0
93.044365 232.0
93.569214 212.0
94.799606 144.0
95.383797 164.0
95.442123 192.0
96.036087 176.0
97.868416 232.0
97.917641 148.0
99.328888 208.0
100.618423 216.0
101.20623 176.0
102.814377 160.0
103.054672 176.0
105.77578 168.0
105.86586 140.0
106.042252 200.0
106.686577 156.0
106.949883 152.0
107.737595 144.0
108.700356 144.0
108.790245 180.0
109.064835 144.0
110.057144 260.0
111.067276 668.0
111.856285 156.0
112.864731 160.0
112.902794 172.0
113.044525 148.0
113.446945 192.0
113.669647 196.0
114.502975 212.0
115.653778 156.0
116.005074 160.0
117.159073 208.0
117.624863 164.0
117.670197 164.0
120.056953 160.0
120.351646 192.0
120.657524 208.0
121.044792 156.0
121.063438 136.0
121.340584 152.0
121.933258 208.0
122.322563 204.0
122.628731 148.0
123.029037 136.0
123.067657 17396.0
123.218536 160.0
123.365379 104.0
123.748711 148.0
124.005669 212.0
124.072502 1356.0
125.081116 192.0
125.575348 160.0
126.05085 156.0
126.080811 164.0
127.422104 140.0
127.462547 256.0
128.006912 196.0
128.054199 148.0
129.966675 188.0
131.724228 140.0
132.016785 160.0
132.051987 184.0
132.428726 156.0
135.017944 172.0
135.453064 252.0
136.132614 140.0
136.557907 172.0
137.065826 600.0
137.098038 156.0
137.766891 144.0
138.061356 148.0
138.593552 192.0
139.262131 140.0
139.776978 144.0
145.087936 168.0
145.342178 148.0
146.587738 196.0
147.526627 192.0
147.826538 164.0
149.060349 360.0
149.091232 232.0
150.064972 172.0
150.795959 176.0
152.081818 148.0
154.066528 144.0
154.724365 148.0
155.110809 156.0
155.155426 188.0
155.539932 208.0
155.924911 176.0
156.514481 152.0
157.946976 156.0
158.062057 232.0
159.062042 168.0
159.929214 144.0
160.707901 176.0
161.068115 164.0
161.205338 148.0
162.928284 148.0
163.062958 148.0
163.101074 160.0
165.090927 800.0
166.941223 164.0
166.990082 180.0
167.062119 156.0
167.767715 140.0
167.917267 144.0
168.090118 172.0
169.071228 132.0
169.116089 156.0
169.141968 152.0
170.058304 240.0
170.919724 172.0
171.031616 192.0
171.075867 176.0
171.706436 140.0
171.988205 184.0
172.078979 524.0
172.795685 164.0
173.07869 136.0
174.062485 200.0
174.086685 316.0
174.104904 128.0
174.742416 148.0
176.073242 156.0
176.729141 172.0
177.621933 164.0
179.062515 156.0
179.118454 152.0
179.459564 172.0
182.071243 180.0
182.302277 172.0
183.0905 248.0
183.912811 252.0
184.075439 404.0
184.304398 156.0
184.999451 156.0
185.059021 192.0
185.084366 368.0
186.056976 304.0
186.091644 116.0
187.008118 164.0
187.095352 804.0
187.847351 180.0
188.065643 156.0
188.117508 152.0
188.96196 144.0
189.118362 384.0
189.15625 184.0
190.090836 140.0
190.222565 148.0
192.408356 148.0
192.980255 180.0
193.868805 168.0
193.954376 160.0
194.631638 144.0
194.91217 180.0
194.978867 140.0
195.415436 208.0
197.026871 140.0
197.090439 160.0
197.748306 180.0
197.885468 248.0
198.061905 156.0
199.08374 372.0
199.905228 176.0
200.083008 544.0
200.1091 168.0
201.07341 220.0
201.113205 476.0
201.954651 156.0
202.08461 136.0
202.11586 268.0
202.937302 168.0
203.083466 172.0
203.125092 112.0
203.164185 144.0
203.899597 148.0
204.855621 168.0
205.742508 152.0
205.848145 168.0
206.488297 188.0
207.438889 164.0
208.1418 152.0
210.10759 152.0
211.089615 144.0
212.076813 456.0
213.116608 512.0
213.435455 168.0
214.098694 428.0
215.092468 840.0
215.12941 508.0
215.282913 140.0
215.411423 144.0
215.466919 212.0
216.01944 156.0
216.099136 504.0
216.125473 132.0
217.110062 2656.0
217.158859 300.0
218.112701 284.0
219.119537 176.0
219.381821 160.0
220.013367 248.0
221.459106 140.0
221.580551 160.0
223.061386 168.0
223.302231 148.0
224.079147 172.0
224.102982 168.0
224.371216 160.0
224.636627 168.0
225.723755 160.0
225.82843 200.0
226.079727 148.0
226.100677 232.0
226.91243 172.0
227.052734 172.0
227.092514 832.0
228.075455 336.0
228.101227 140.0
228.198929 132.0
228.796127 152.0
228.982819 216.0
229.107254 972.0
229.168427 104.0
229.986832 200.0
230.08577 200.0
230.11557 2072.0
230.237411 164.0
230.699707 184.0
231.125153 10456.0
231.181473 224.0
231.863251 116.0
232.127594 1676.0
232.162125 164.0
232.714386 156.0
233.136841 164.0
233.221695 144.0
233.543991 196.0
233.966568 124.0
234.015671 164.0
239.984238 148.0
240.269791 176.0
240.317337 168.0
240.625977 172.0
241.107956 712.0
241.741806 180.0
242.093811 1008.0
242.488144 152.0
243.122986 1056.0
243.788483 176.0
244.091507 216.0
244.127121 292.0
244.882095 184.0
244.94899 160.0
245.103592 5140.0
245.375931 192.0
245.831314 172.0
246.110992 1100.0
246.571442 192.0
246.666458 120.0
247.104218 156.0
247.215668 172.0
247.603867 172.0
248.113922 164.0
248.174179 140.0
248.26825 148.0
250.635269 144.0
250.701447 148.0
251.950912 144.0
252.848923 164.0
252.956543 200.0
253.628067 172.0
253.897552 148.0
254.926117 152.0
254.951538 160.0
255.536606 204.0
256.517059 132.0
257.105286 612.0
257.414001 232.0
257.845398 96.0
258.100891 316.0
258.669189 156.0
258.712067 168.0
258.940826 128.0
259.043823 188.0
259.120209 80000.0
259.198303 108.0
259.434753 216.0
259.582916 244.0
259.624237 116.0
259.973083 176.0
260.123993 12524.0
260.472015 140.0
260.659515 104.0
260.774475 128.0
261.081879 180.0
261.124756 1368.0
261.564087 184.0
261.610901 140.0
261.749878 124.0
262.027069 224.0
262.052979 120.0
262.137665 240.0
262.290588 180.0
262.511444 136.0
262.62146 176.0
262.877563 144.0
263.144806 140.0
266.87793 156.0
267.440735 184.0
268.91394 176.0
269.413544 148.0
269.518066 180.0
270.830139 180.0
272.932098 168.0
273.048615 212.0
273.135895 236.0
273.298615 140.0
273.861542 184.0
274.072388 228.0
274.093842 144.0
274.219574 96.0
274.279999 176.0
274.332092 124.0
274.374176 168.0
274.417145 172.0
274.500885 156.0
274.530975 100.0
274.632812 160.0
274.672394 324.0
274.803772 160.0
274.873627 152.0
274.912903 404.0
274.994354 200.0
275.051025 240.0
275.084473 140.0
275.1521 172596.0
275.21994 208.0
275.282715 188.0
275.344086 292.0
275.401093 148.0
275.458221 112.0
275.487946 184.0
275.517059 236.0
275.548615 176.0
275.602936 168.0
275.659363 220.0
275.694153 1060.0
275.726746 200.0
275.771973 212.0
275.903229 128.0
276.032227 176.0
276.096863 636.0
276.153778 24184.0
276.214752 180.0
276.367157 176.0
276.457733 116.0
276.666138 152.0
276.723541 164.0
276.78244 128.0
277.016876 104.0
277.054993 116.0
277.086426 144.0
277.155914 2252.0
277.310059 136.0
277.714081 152.0
277.894562 140.0
277.972839 136.0
278.007294 124.0
278.040375 96.0
278.089905 200.0
278.154602 528.0
278.304321 96.0
278.664825 144.0
278.921692 204.0
278.974548 124.0
279.123505 168.0
279.279816 148.0
279.345642 152.0
280.198456 120.0
284.765381 136.0
288.29248 96.0
288.650238 164.0
1268.944214 160.0
1391.843384 172.0
1493.335205 176.0
1497.614502 204.0
1691.125244 172.0
1721.090088 180.0
1781.154053 240.0
1804.023926 148.0
1825.083496 156.0
1834.900391 172.0
1841.120728 172.0
1883.100708 180.0
1904.945801 192.0
1907.995972 168.0
1911.153076 152.0
1925.5802 148.0
1975.400757 232.0
