>compound MLS002153296-01!L-750,667 trihydrochloride
>formula C18H19IN4
>ionization [M+H]+
>parentmass 419.07272106009054
#inchi InChI=1S/C18H19IN4/c19-15-3-5-16(6-4-15)23-10-8-22(9-11-23)13-14-12-21-18-17(14)2-1-7-20-18/h1-7,12H,8-11,13H2,(H,20,21)
#inchikey OOEUHRGMLFVKQO
#origInchi InChI=1S/C18H19IN4.ClH/c19-15-3-5-16(6-4-15)23-10-8-22(9-11-23)13-14-12-21-18-17(14)2-1-7-20-18;/h1-7,12H,8-11,13H2,(H,20,21);1H
#Ion_Source LC-ESI
#Instrument qTof
#Compound_Source NIH Pharmacologically Active Library
#PI Dorrestein
#Data_Collector VP/LMS
#Scan -1
#Precursor_MZ 419.079
#ExactMass 418.065
#Charge 1
#CAS_Number N/A
#Pubmed_ID N/A
#Smiles Ic1ccc(cc1)N2CCN(Cc3c[nH]c4ncccc34)CC2.Cl
#INCHI_AUX N/A
#Library_Class 1
#SpectrumID CCMSLIB00000085829
#IonMode Positive
#UpdateWorkflowName UPDATE-SINGLE-ANNOTATED-GOLD
#LibraryQualityString Gold
#TaskID d252d724072548979f1f6f1ced849daf
##Scan# 1608
#SpectrumFile p4-F11_GF11_01_18395.mzXML
#LibraryName Pharm_Active_Library.mgf
#MQScore -1
#Organism Pharm_Active_Library
#TIC_Query 0
#RT_Query -1
#MZErrorPPM -1
#SharedPeaks 0
#MassDiff 0
#LibMZ -1
#SpecMZ 419.079
#SpecCharge 0
#internalFilename spec-00000.mgf

>collision 10
44.892628 40.0
44.909966 300.0
44.992706 136.0
45.062157 144.0
45.08408 220.0
45.112942 100.0
45.123638 196.0
45.144047 168.0
45.164093 128.0
45.197205 132.0
45.210587 76.0
45.239723 240.0
45.29628 152.0
45.323364 220.0
45.386078 124.0
45.406193 124.0
45.427124 160.0
45.474552 156.0
45.479191 148.0
45.483097 216.0
45.505844 200.0
45.522953 136.0
45.569965 168.0
45.594154 132.0
45.610287 180.0
45.633141 168.0
45.685593 200.0
45.701736 280.0
45.735382 212.0
45.787895 140.0
45.809444 52.0
45.839088 156.0
45.853912 116.0
45.874134 196.0
45.9011 164.0
45.926956 208.0
45.937843 148.0
45.956402 164.0
46.020351 180.0
46.045502 316.0
46.06171 236.0
46.081974 92.0
46.103596 208.0
46.184719 108.0
46.202259 116.0
46.234783 184.0
46.282162 220.0
46.320084 52.0
46.346737 208.0
46.469215 188.0
46.482784 136.0
46.505856 160.0
46.548191 132.0
46.561523 188.0
46.570801 164.0
46.582706 168.0
46.603638 116.0
46.614506 180.0
46.736893 152.0
46.781807 136.0
46.804951 244.0
46.881241 224.0
46.897594 144.0
46.920769 132.0
46.965771 176.0
46.991692 228.0
47.00452 260.0
47.021713 212.0
47.054478 108.0
47.098179 176.0
47.154198 108.0
47.165134 172.0
47.199314 116.0
47.24445 196.0
47.281395 152.0
47.293713 176.0
47.307404 120.0
47.329308 108.0
47.343002 80.0
47.416985 132.0
47.459484 208.0
47.491028 132.0
47.506115 160.0
47.548035 124.0
47.600822 132.0
47.653019 148.0
47.710743 140.0
47.735493 148.0
47.768505 176.0
47.786388 156.0
47.808407 176.0
47.827675 72.0
47.871735 128.0
47.950264 196.0
47.959911 164.0
47.972317 152.0
48.01656 144.0
48.039894 92.0
48.071629 164.0
48.186821 180.0
48.197292 120.0
48.258724 224.0
48.282215 148.0
48.321735 144.0
48.334187 96.0
48.3591 132.0
48.399246 152.0
48.519791 176.0
48.532269 116.0
48.587749 136.0
48.609779 196.0
48.622913 212.0
48.642391 172.0
48.677048 168.0
48.740482 208.0
48.7794 116.0
48.793301 164.0
48.824986 204.0
48.839195 156.0
48.881302 180.0
48.931042 200.0
49.009068 212.0
49.022758 128.0
49.048065 32.0
49.062004 196.0
49.108025 152.0
49.134529 168.0
49.151272 64.0
49.18058 64.0
49.198727 224.0
49.222466 176.0
49.268559 188.0
49.296501 156.0
49.320263 208.0
49.339836 152.0
49.397175 128.0
49.416759 156.0
49.450378 180.0
49.47348 152.0
49.506348 136.0
49.525955 204.0
49.567986 160.0
49.586205 144.0
49.615643 224.0
49.652103 56.0
49.675819 176.0
49.689976 160.0
49.702606 180.0
49.739098 132.0
49.777004 196.0
49.809307 88.0
49.828976 180.0
49.852863 140.0
49.874405 356.0
49.896439 140.0
49.933002 32.0
49.965355 76.0
49.985054 128.0
49.997719 184.0
50.072338 196.0
50.134331 156.0
50.149734 112.0
50.16111 340.0
50.19495 408.0
50.209049 76.0
50.245186 396.0
50.269714 132.0
50.283123 144.0
50.292587 356.0
50.333241 172.0
50.359989 136.0
50.398216 108.0
50.451927 152.0
50.473133 132.0
50.485863 80.0
50.512737 160.0
50.556835 168.0
50.573582 356.0
50.600479 160.0
50.615429 280.0
50.646976 192.0
50.696804 260.0
50.727985 100.0
50.757759 216.0
50.769104 160.0
50.783287 80.0
50.804565 200.0
50.892563 148.0
50.932331 148.0
50.96294 212.0
50.996273 124.0
51.07143 240.0
51.105774 48.0
51.124084 180.0
51.162708 168.0
51.205425 112.0
51.259563 52.0
51.303749 96.0
51.326939 220.0
51.36507 120.0
51.402168 104.0
51.43071 144.0
51.46069 160.0
51.480682 96.0
51.509247 68.0
51.551056 168.0
51.569263 160.0
51.609837 200.0
51.635033 140.0
51.655472 152.0
51.730904 164.0
51.756676 100.0
51.802509 148.0
51.812534 216.0
51.87846 224.0
51.912872 116.0
52.000389 104.0
52.016178 188.0
52.046329 72.0
52.092289 136.0
52.132523 104.0
52.170963 172.0
52.205841 124.0
52.220222 104.0
52.246796 188.0
52.276333 208.0
52.290722 128.0
52.350533 96.0
52.371357 172.0
52.383289 224.0
52.422646 220.0
52.436272 148.0
52.463581 168.0
52.50684 168.0
52.53569 116.0
52.553284 180.0
52.596298 92.0
52.6194 168.0
52.706062 88.0
52.74942 224.0
52.771107 144.0
52.7906 152.0
52.875263 56.0
52.889736 180.0
52.914349 124.0
52.938965 160.0
52.979176 152.0
52.987843 256.0
53.007053 192.0
53.031242 180.0
53.041836 176.0
53.059235 76.0
53.089684 76.0
53.103912 148.0
53.10796 120.0
53.125946 132.0
53.139004 136.0
53.189796 56.0
53.202717 200.0
53.233356 220.0
53.260139 188.0
53.275715 148.0
53.292912 136.0
53.317616 176.0
53.352711 168.0
53.388855 208.0
53.428131 60.0
53.468872 176.0
53.495075 168.0
53.527355 140.0
53.578087 172.0
53.617428 104.0
53.630547 132.0
53.640751 164.0
53.664078 144.0
53.675743 200.0
53.68956 160.0
53.701073 120.0
53.751698 176.0
53.77203 164.0
53.800526 192.0
53.821667 80.0
53.851593 140.0
53.884472 188.0
53.916622 124.0
53.934162 64.0
53.963398 176.0
54.001423 232.0
54.090679 192.0
54.113209 124.0
54.124355 148.0
54.169243 148.0
54.193199 164.0
54.204922 228.0
54.228371 160.0
54.312466 216.0
54.333881 80.0
54.423798 208.0
54.465382 220.0
54.471344 116.0
54.4739 172.0
54.543957 312.0
54.564541 152.0
54.646904 148.0
54.660149 180.0
54.773518 192.0
54.785301 68.0
54.826561 144.0
54.844246 68.0
54.87373 128.0
54.885525 144.0
54.914413 232.0
54.94305 164.0
54.962231 108.0
55.024223 136.0
55.092159 80.0
55.108414 156.0
55.118755 196.0
55.135635 164.0
55.146835 128.0
55.173447 132.0
55.183796 160.0
55.241474 84.0
55.253723 200.0
55.281425 176.0
55.334713 144.0
55.356239 176.0
55.399879 212.0
55.418255 184.0
55.428028 164.0
55.444332 120.0
55.48732 92.0
55.576115 360.0
55.588707 148.0
55.604507 136.0
55.620838 152.0
55.638653 100.0
55.683342 168.0
55.702511 212.0
55.745598 100.0
55.779781 344.0
55.92556 220.0
55.955334 132.0
55.979156 32.0
56.017883 124.0
56.038742 72.0
56.166954 160.0
56.195297 176.0
56.247532 196.0
56.274727 148.0
56.304104 180.0
56.320702 136.0
56.39093 76.0
56.411858 112.0
56.425312 164.0
56.444748 180.0
56.457867 192.0
56.485062 172.0
56.500423 220.0
56.528522 168.0
56.604866 116.0
56.675587 172.0
56.692528 248.0
56.768211 120.0
56.826714 220.0
56.86573 88.0
56.882244 56.0
56.897255 176.0
56.960331 52.0
56.994884 220.0
57.067699 172.0
57.094883 160.0
57.145947 216.0
57.17384 112.0
57.196419 88.0
57.237068 164.0
57.303345 120.0
57.362118 116.0
57.452602 232.0
57.512104 88.0
57.524288 112.0
57.556747 164.0
57.600548 204.0
57.627743 132.0
57.641342 140.0
57.677616 172.0
57.701801 36.0
57.741119 188.0
57.838219 208.0
57.881863 116.0
57.900036 60.0
58.01368 296.0
58.02581 120.0
58.05891 116.0
58.11985 140.0
58.144131 148.0
58.162346 156.0
58.197266 140.0
58.230507 216.0
58.27169 168.0
58.33704 160.0
58.352692 164.0
58.373913 108.0
58.399387 124.0
58.433453 204.0
58.457203 132.0
58.495255 140.0
58.51194 100.0
58.5513 188.0
58.643009 44.0
58.793015 136.0
58.806057 176.0
58.833691 156.0
58.855064 148.0
58.903938 108.0
58.948246 204.0
58.978813 76.0
59.02774 172.0
59.039974 72.0
59.106892 156.0
59.131771 268.0
59.274197 152.0
59.298023 140.0
59.359726 136.0
59.421398 268.0
59.442574 140.0
59.508884 236.0
59.545742 112.0
59.587959 216.0
59.670071 128.0
59.724041 132.0
59.745575 220.0
59.770329 184.0
59.784252 176.0
59.807632 172.0
59.82486 124.0
59.891819 252.0
59.904144 184.0
59.954075 188.0
60.046841 188.0
60.062397 212.0
60.110752 132.0
60.155006 248.0
60.18557 172.0
60.305347 124.0
60.328533 148.0
60.340904 96.0
60.352348 348.0
60.39967 144.0
60.450729 144.0
60.490971 148.0
60.550426 292.0
60.578621 148.0
60.591633 160.0
60.658276 48.0
60.675327 176.0
60.687733 132.0
60.71912 116.0
60.734257 196.0
60.783905 188.0
60.847542 92.0
60.878601 192.0
60.906555 156.0
60.92675 124.0
60.970654 248.0
61.038662 180.0
61.061993 168.0
61.120235 204.0
61.146835 256.0
61.167038 172.0
61.230083 180.0
61.250702 168.0
61.270584 168.0
61.28149 140.0
61.297073 168.0
61.32045 140.0
61.33136 204.0
61.34383 84.0
61.399963 192.0
61.412441 168.0
61.454563 152.0
61.468609 180.0
61.47953 144.0
61.555195 188.0
61.588825 228.0
61.624756 88.0
61.641945 124.0
61.662262 184.0
61.674767 116.0
61.716976 96.0
61.755917 160.0
61.765476 264.0
61.829613 216.0
61.848392 124.0
61.938431 192.0
61.962276 244.0
61.981518 60.0
62.000324 140.0
62.086216 188.0
62.116352 164.0
62.174408 200.0
62.191673 188.0
62.23563 216.0
62.271584 152.0
62.314167 36.0
62.402184 160.0
62.422626 116.0
62.449364 228.0
62.460373 216.0
62.501278 116.0
62.512295 200.0
62.529285 376.0
62.605175 136.0
62.649281 140.0
62.661884 120.0
62.691822 144.0
62.724922 188.0
62.798244 176.0
62.829006 156.0
62.871841 164.0
62.888973 100.0
62.923702 136.0
62.958443 172.0
62.988453 132.0
63.013729 164.0
63.066807 184.0
63.094299 200.0
63.121216 160.0
63.137032 152.0
63.162338 152.0
63.244621 176.0
63.268364 80.0
63.300034 116.0
63.33646 60.0
63.363945 92.0
63.387531 120.0
63.433125 28.0
63.539379 172.0
63.572571 144.0
63.577847 132.0
63.581032 176.0
63.621906 184.0
63.672871 128.0
63.706078 204.0
63.76646 152.0
63.799065 196.0
63.836414 156.0
63.905357 176.0
63.922684 156.0
64.001907 196.0
64.021324 168.0
64.067215 156.0
64.09111 180.0
64.108643 180.0
64.19976 192.0
64.217056 160.0
64.240982 184.0
64.260902 164.0
64.293976 208.0
64.305412 164.0
64.327156 56.0
64.338333 188.0
64.351105 200.0
64.472511 80.0
64.490479 196.0
64.523613 128.0
64.542847 180.0
64.56044 144.0
64.595627 172.0
64.621223 116.0
64.664436 168.0
64.675636 208.0
64.696449 156.0
64.733276 168.0
64.756256 276.0
64.802155 44.0
64.827789 308.0
64.860588 252.0
64.883896 172.0
64.935211 208.0
64.968811 220.0
64.994568 136.0
65.038948 172.0
65.08815 148.0
65.123001 140.0
65.163017 172.0
65.190483 228.0
65.216042 164.0
65.235489 156.0
65.270859 148.0
65.349678 96.0
65.409225 124.0
65.436913 220.0
65.463966 32.0
65.504234 188.0
65.530006 136.0
65.56385 96.0
65.588028 200.0
65.631554 108.0
65.708977 96.0
65.734795 240.0
65.775185 156.0
65.797745 128.0
65.815506 72.0
65.829704 96.0
65.861626 288.0
65.887695 144.0
65.918892 152.0
66.034538 232.0
66.092094 184.0
66.122772 116.0
66.133995 196.0
66.159897 104.0
66.172844 184.0
66.189041 196.0
66.23925 124.0
66.315407 168.0
66.329224 168.0
66.357552 152.0
66.372147 140.0
66.407829 156.0
66.422424 172.0
66.446106 228.0
66.477592 180.0
66.488953 184.0
66.511673 168.0
66.529121 164.0
66.555511 152.0
66.59124 228.0
66.610733 44.0
66.644844 60.0
66.678139 124.0
66.696854 216.0
66.745628 196.0
66.771645 116.0
66.821381 140.0
66.87252 116.0
66.887177 72.0
66.994934 188.0
67.046799 180.0
67.071243 196.0
67.103439 128.0
67.107468 128.0
67.11393 156.0
67.134834 108.0
67.149513 212.0
67.164192 64.0
67.200081 108.0
67.211502 76.0
67.231087 88.0
67.289284 160.0
67.325775 128.0
67.338791 136.0
67.34201 132.0
67.349922 128.0
67.352638 232.0
67.373146 128.0
67.386215 68.0
67.399292 128.0
67.4189 128.0
67.453224 120.0
67.541527 228.0
67.639709 136.0
67.695374 132.0
67.721581 132.0
67.760895 148.0
67.775642 220.0
67.793968 152.0
67.834648 156.0
67.865799 196.0
67.890396 164.0
67.905151 192.0
67.929756 296.0
67.97242 176.0
67.995392 204.0
68.042999 140.0
68.059418 156.0
68.079124 96.0
68.136673 112.0
68.149071 124.0
68.195778 160.0
68.264824 228.0
68.327332 160.0
68.345428 140.0
68.388535 188.0
68.403038 224.0
68.4291 212.0
68.452431 172.0
68.465607 176.0
68.485367 136.0
68.524773 192.0
68.579292 144.0
68.592476 112.0
68.610611 152.0
68.658432 208.0
68.757423 164.0
68.795387 100.0
68.823456 116.0
68.868042 224.0
68.892822 112.0
68.949005 160.0
68.96312 136.0
68.975449 52.0
68.991982 128.0
69.016785 140.0
69.054817 160.0
69.069702 184.0
69.092453 176.0
69.15078 104.0
69.225288 112.0
69.240189 120.0
69.270004 104.0
69.344574 68.0
69.359489 84.0
69.400932 176.0
69.431686 236.0
69.527008 136.0
69.553566 156.0
69.633308 156.0
69.688087 160.0
69.739609 184.0
69.781166 176.0
69.79496 312.0
69.829391 44.0
69.847687 124.0
69.865311 228.0
69.897606 156.0
69.942543 204.0
70.00914 180.0
70.084099 152.0
70.099098 132.0
70.228447 172.0
70.267509 116.0
70.305893 112.0
70.32061 176.0
70.35096 44.0
70.391029 296.0
70.447823 184.0
70.460205 184.0
70.497948 160.0
70.580078 152.0
70.60498 176.0
70.643417 252.0
70.708672 204.0
70.727089 120.0
70.792381 196.0
70.861061 96.0
70.877815 140.0
70.906303 144.0
70.963303 128.0
70.978394 116.0
71.023674 184.0
71.072327 116.0
71.143875 192.0
71.174103 216.0
71.239937 212.0
71.265427 172.0
71.332657 164.0
71.346107 176.0
71.359558 156.0
71.378052 200.0
71.416733 176.0
71.445328 144.0
71.457108 56.0
71.478683 180.0
71.517693 152.0
71.54126 200.0
71.585037 284.0
71.682739 108.0
71.728249 200.0
71.761971 140.0
71.795525 196.0
71.842926 108.0
71.859818 176.0
71.873291 112.0
71.901421 212.0
71.919777 192.0
71.938843 220.0
71.969505 176.0
71.989769 208.0
72.073456 188.0
72.113655 160.0
72.157059 148.0
72.168892 144.0
72.19426 108.0
72.214554 184.0
72.239929 104.0
72.305077 136.0
72.309715 180.0
72.331306 136.0
72.395653 108.0
72.410889 232.0
72.427834 188.0
72.455971 152.0
72.527802 244.0
72.552933 184.0
72.593925 100.0
72.610886 148.0
72.671959 52.0
72.752762 216.0
72.785278 216.0
72.82135 56.0
72.841042 128.0
72.84729 176.0
72.86042 124.0
72.906487 144.0
72.941994 140.0
72.962395 168.0
72.989601 256.0
73.100288 172.0
73.147827 112.0
73.176765 124.0
73.256409 236.0
73.294296 276.0
73.35054 156.0
73.377815 112.0
73.402016 168.0
73.414932 220.0
73.427269 136.0
73.449081 168.0
73.478447 144.0
73.515984 156.0
73.558655 188.0
73.613297 140.0
73.771507 168.0
73.813232 224.0
73.832047 160.0
73.846428 176.0
73.874069 200.0
73.911743 116.0
73.932983 200.0
73.965996 208.0
74.003166 168.0
74.042557 176.0
74.068245 160.0
74.099083 168.0
74.145355 228.0
74.172775 212.0
74.220779 140.0
74.239647 156.0
74.279091 132.0
74.351158 184.0
74.364891 152.0
74.382057 188.0
74.423256 128.0
74.570999 144.0
74.653526 100.0
74.672447 152.0
74.727493 228.0
74.758469 172.0
74.770515 72.0
74.796005 148.0
74.823914 176.0
74.899651 156.0
74.953064 112.0
75.039246 128.0
75.061661 176.0
75.089256 84.0
75.10305 108.0
75.123756 104.0
75.158257 256.0
75.2342 164.0
75.265282 188.0
75.280823 108.0
75.303276 100.0
75.320549 192.0
75.384476 224.0
75.441673 312.0
75.488197 100.0
75.514145 148.0
75.591995 200.0
75.605843 164.0
75.647377 148.0
75.671616 136.0
75.702789 112.0
75.730499 204.0
75.746086 172.0
75.758217 228.0
75.808464 164.0
75.915489 168.0
75.986015 232.0
76.034821 200.0
76.063423 192.0
76.167618 148.0
76.179779 168.0
76.237114 180.0
76.273613 140.0
76.350121 136.0
76.368675 180.0
76.393608 204.0
76.407524 152.0
76.454506 56.0
76.474548 120.0
76.506577 188.0
76.510986 340.0
76.592781 152.0
76.605995 116.0
76.628639 144.0
76.651291 160.0
76.707062 136.0
76.722755 152.0
76.761116 176.0
76.79425 76.0
76.820419 192.0
76.959099 192.0
77.059601 160.0
77.073578 144.0
77.08931 200.0
77.123512 288.0
77.202942 40.0
77.259918 196.0
77.26635 112.0
77.322456 140.0
77.363922 172.0
77.398941 188.0
77.427147 196.0
77.44622 148.0
77.46199 284.0
77.47435 348.0
77.489944 196.0
77.503036 140.0
77.567131 156.0
77.639023 180.0
77.669662 224.0
77.700417 144.0
77.792488 320.0
77.881233 180.0
77.958534 132.0
77.988419 176.0
78.035286 132.0
78.097435 100.0
78.12072 152.0
78.188927 180.0
78.222626 164.0
78.320122 148.0
78.345177 152.0
78.368866 176.0
78.407318 132.0
78.446098 100.0
78.481354 56.0
78.544846 108.0
78.583656 136.0
78.607727 184.0
78.637131 160.0
78.652489 180.0
78.6772 172.0
78.702583 160.0
78.723114 116.0
78.741486 176.0
78.79023 156.0
78.806358 160.0
78.869759 188.0
78.887268 84.0
78.963333 156.0
79.002388 188.0
79.039543 152.0
79.075409 304.0
79.101486 48.0
79.223679 172.0
79.253799 160.0
79.276833 164.0
79.291016 196.0
79.360153 60.0
79.376106 196.0
79.394279 180.0
79.496742 196.0
79.596153 56.0
79.65654 208.0
79.677856 192.0
79.743607 136.0
79.821831 32.0
79.848511 192.0
79.860954 240.0
79.905434 132.0
79.946358 140.0
79.964157 432.0
80.024681 216.0
80.053177 160.0
80.083267 192.0
80.135117 168.0
80.161743 160.0
80.175133 148.0
80.180901 212.0
80.234924 124.0
80.286285 144.0
80.31517 120.0
80.332352 172.0
80.356201 156.0
80.418663 92.0
80.470436 144.0
80.493004 188.0
80.51329 136.0
80.529366 164.0
80.559731 188.0
80.60083 212.0
80.620483 112.0
80.796829 84.0
80.813614 200.0
80.833832 172.0
80.890572 160.0
80.911324 148.0
80.931747 120.0
80.951447 124.0
80.994431 164.0
81.015923 216.0
81.037422 164.0
81.049965 184.0
81.076851 124.0
81.09034 152.0
81.114487 160.0
81.12883 116.0
81.152138 180.0
81.172249 148.0
81.350189 196.0
81.387192 160.0
81.423111 124.0
81.477081 188.0
81.539894 148.0
81.556068 220.0
81.604614 180.0
81.719727 200.0
81.753914 188.0
81.768311 204.0
81.815117 216.0
81.827721 140.0
81.852928 140.0
82.034904 72.0
82.076218 188.0
82.094406 40.0
82.166557 188.0
82.196953 156.0
82.229713 148.0
82.280258 140.0
82.309151 192.0
82.333443 468.0
82.359718 192.0
82.386368 48.0
82.411751 200.0
82.44825 136.0
82.460907 136.0
82.488014 44.0
82.506096 176.0
82.556725 128.0
82.576622 124.0
82.594711 156.0
82.625465 108.0
82.66346 152.0
82.739975 156.0
82.753967 164.0
82.81916 132.0
82.839088 112.0
82.852386 236.0
82.907944 144.0
82.935127 112.0
82.958481 168.0
82.978638 168.0
83.051178 156.0
83.104561 412.0
83.13446 164.0
83.176384 256.0
83.192719 180.0
83.234818 196.0
83.276253 84.0
83.321083 84.0
83.353821 128.0
83.437553 336.0
83.467079 96.0
83.492538 136.0
83.53437 136.0
83.553696 212.0
83.574394 40.0
83.593506 304.0
83.618805 200.0
83.632637 156.0
83.659943 56.0
83.678146 156.0
83.716385 128.0
83.730217 204.0
83.769203 128.0
83.792892 192.0
83.84391 232.0
83.860313 156.0
83.904068 128.0
83.998901 228.0
84.026268 120.0
84.062759 136.0
84.084656 204.0
84.102913 224.0
84.190552 184.0
84.205162 344.0
84.243523 164.0
84.356827 196.0
84.375656 264.0
84.413269 124.0
84.448616 40.0
84.462883 120.0
84.483009 136.0
84.50679 240.0
84.618446 136.0
84.659706 404.0
84.682541 164.0
84.840126 140.0
84.86396 112.0
84.905983 184.0
84.922592 132.0
85.002785 212.0
85.062103 100.0
85.210312 132.0
85.254967 84.0
85.275429 148.0
85.302002 144.0
85.316742 144.0
85.346878 116.0
85.374466 156.0
85.394691 164.0
85.435165 88.0
85.50325 224.0
85.527176 100.0
85.585205 100.0
85.66713 96.0
85.681862 128.0
85.831161 188.0
85.860672 120.0
85.904938 100.0
86.044243 180.0
86.096451 180.0
86.135689 128.0
86.170792 120.0
86.254967 220.0
86.296478 196.0
86.361206 164.0
86.376869 264.0
86.425957 168.0
86.462921 168.0
86.535019 152.0
86.635178 216.0
86.649994 220.0
86.733391 180.0
86.745338 144.0
86.799232 140.0
86.855774 92.0
86.882523 220.0
86.895515 152.0
86.948547 192.0
87.009666 160.0
87.033325 240.0
87.069481 116.0
87.098946 128.0
87.116158 196.0
87.149109 128.0
87.214149 316.0
87.232887 152.0
87.239677 148.0
87.255165 180.0
87.290382 112.0
87.400635 132.0
87.437347 152.0
87.461548 212.0
87.621704 168.0
87.645927 176.0
87.685059 216.0
87.732658 164.0
87.847282 136.0
87.893929 128.0
87.922836 196.0
88.015266 160.0
88.032066 96.0
88.078766 152.0
88.160973 72.0
88.185272 156.0
88.212166 212.0
88.341393 224.0
88.381638 104.0
88.416069 140.0
88.460243 108.0
88.527649 56.0
88.557617 116.0
88.570724 272.0
88.623184 140.0
88.643799 152.0
88.722519 136.0
88.785988 156.0
88.800278 160.0
88.842369 144.0
88.866203 224.0
88.938255 152.0
88.985184 116.0
89.011475 156.0
89.028999 156.0
89.06218 156.0
89.122299 288.0
89.142967 216.0
89.159882 172.0
89.18808 32.0
89.204994 220.0
89.218155 80.0
89.287727 172.0
89.334755 160.0
89.368622 188.0
89.52578 164.0
89.609627 328.0
89.668045 164.0
89.685013 116.0
89.72271 128.0
89.800026 168.0
89.869827 300.0
89.892471 116.0
89.993423 212.0
90.02462 156.0
90.049171 200.0
90.109055 212.0
90.185211 168.0
90.198448 148.0
90.219238 148.0
90.236252 136.0
90.270294 212.0
90.302444 104.0
90.359856 148.0
90.402718 180.0
90.486 152.0
90.501152 104.0
90.567436 128.0
90.612129 180.0
90.643219 156.0
90.665962 140.0
90.813843 180.0
90.847992 64.0
90.927689 188.0
90.948563 124.0
90.997925 148.0
91.022614 120.0
91.049706 340.0
91.09288 224.0
91.14608 236.0
91.199295 148.0
91.216408 56.0
91.231613 144.0
91.254425 148.0
91.311478 168.0
91.325523 140.0
91.343811 120.0
91.370445 172.0
91.472382 156.0
91.518906 192.0
91.583527 116.0
91.621758 88.0
91.654152 184.0
91.719238 156.0
91.747543 228.0
91.778053 136.0
91.909668 192.0
91.99884 188.0
92.022285 124.0
92.047104 280.0
92.062386 160.0
92.079887 144.0
92.117775 228.0
92.199936 164.0
92.23243 208.0
92.324203 160.0
92.345245 216.0
92.362183 248.0
92.416824 172.0
92.515549 220.0
92.538528 144.0
92.57682 208.0
92.611298 180.0
92.682182 104.0
92.707092 156.0
92.726257 172.0
92.76268 104.0
92.781853 132.0
92.841293 172.0
92.854721 180.0
92.906509 152.0
92.944885 104.0
93.004379 120.0
93.073494 192.0
93.09462 76.0
93.165688 164.0
93.206917 152.0
93.2733 84.0
93.290604 152.0
93.329056 156.0
93.360611 236.0
93.465355 168.0
93.540024 184.0
93.573051 168.0
93.652374 164.0
93.671638 176.0
93.690369 172.0
93.706871 196.0
93.746376 132.0
93.785332 120.0
93.847023 140.0
93.874016 344.0
93.920189 176.0
93.939598 104.0
93.962746 156.0
93.997482 220.0
94.065033 168.0
94.086266 68.0
94.121025 216.0
94.182823 180.0
94.2118 164.0
94.231117 72.0
94.333549 204.0
94.368347 80.0
94.40316 72.0
94.426781 176.0
94.468918 356.0
94.488266 204.0
94.501808 192.0
94.652794 140.0
94.687653 188.0
94.70121 152.0
94.726395 168.0
94.745766 224.0
94.790329 124.0
94.946289 64.0
94.964813 228.0
94.983521 56.0
95.014488 112.0
95.030495 168.0
95.03656 212.0
95.071526 136.0
95.107201 200.0
95.191887 44.0
95.217133 128.0
95.282425 236.0
95.322044 188.0
95.370628 176.0
95.392014 100.0
95.458122 120.0
95.494148 160.0
95.6157 172.0
95.732513 184.0
95.748093 60.0
95.795746 164.0
95.818871 156.0
95.857193 128.0
95.902016 144.0
95.966347 148.0
95.985847 88.0
96.030701 172.0
96.090652 280.0
96.11264 220.0
96.138008 108.0
96.159477 140.0
96.180664 220.0
96.233658 204.0
96.303963 152.0
96.319595 64.0
96.407516 144.0
96.464195 128.0
96.51503 156.0
96.540451 168.0
96.587395 160.0
96.620651 196.0
96.753738 104.0
96.771355 152.0
96.855568 172.0
96.898666 60.0
96.928062 224.0
96.96138 168.0
97.022141 152.0
97.035866 200.0
97.141769 120.0
97.155502 216.0
97.184937 56.0
97.204559 148.0
97.222221 92.0
97.259155 180.0
97.359642 144.0
97.383217 236.0
97.396965 44.0
97.410713 188.0
97.499138 196.0
97.552208 160.0
97.665443 184.0
97.711548 176.0
97.764633 152.0
97.802032 148.0
97.843681 152.0
97.859123 120.0
97.878815 144.0
97.945778 180.0
98.012764 148.0
98.048233 156.0
98.075829 188.0
98.093567 112.0
98.176384 200.0
98.211365 152.0
98.224411 172.0
98.276703 516.0
98.350006 76.0
98.385139 216.0
98.440826 236.0
98.456627 136.0
98.543541 104.0
98.596901 48.0
98.612709 96.0
98.640106 244.0
98.677948 140.0
98.693764 164.0
98.788704 164.0
98.821609 208.0
98.836182 160.0
98.857956 116.0
98.877747 96.0
98.90332 152.0
98.943069 192.0
98.960884 176.0
99.022278 84.0
99.05854 104.0
99.136452 368.0
99.186119 192.0
99.206558 136.0
99.262077 152.0
99.289841 180.0
99.325546 144.0
99.367592 164.0
99.391014 48.0
99.476357 124.0
99.527977 136.0
99.56118 128.0
99.732613 120.0
99.774353 72.0
99.798218 132.0
99.869812 108.0
99.905617 172.0
100.046913 124.0
100.060852 76.0
100.074791 296.0
100.238419 164.0
100.277992 180.0
100.309502 252.0
100.340515 120.0
100.401604 196.0
100.421547 44.0
100.481186 152.0
100.505333 160.0
100.559219 212.0
100.647057 192.0
100.673019 184.0
100.78289 76.0
100.819992 168.0
100.878822 104.0
100.9114 204.0
100.926804 148.0
100.954445 156.0
101.027863 236.0
101.060822 160.0
101.122864 152.0
101.188133 152.0
101.247414 192.0
101.275032 104.0
101.301079 124.0
101.353165 128.0
101.367195 116.0
101.423309 156.0
101.43631 116.0
101.467415 180.0
101.533592 160.0
101.589752 44.0
101.61985 156.0
101.655968 260.0
101.676033 152.0
101.714302 184.0
101.736366 148.0
101.764511 220.0
101.773514 144.0
101.810547 188.0
101.828629 168.0
101.842682 216.0
101.95118 88.0
101.976891 192.0
102.005951 176.0
102.032089 380.0
102.059731 216.0
102.075821 112.0
102.206573 56.0
102.224686 172.0
102.287079 212.0
102.327339 180.0
102.387756 208.0
102.40789 184.0
102.436096 120.0
102.473984 124.0
102.52475 184.0
102.567078 120.0
102.615463 152.0
102.688057 164.0
102.827278 136.0
102.853516 332.0
102.962547 160.0
102.980225 160.0
103.034225 264.0
103.054787 448.0
103.227295 44.0
103.243469 180.0
103.325821 180.0
103.331291 212.0
103.374969 224.0
103.415443 180.0
103.441765 156.0
103.457115 212.0
103.494102 216.0
103.521179 128.0
103.580742 152.0
103.610786 168.0
103.642265 176.0
103.666588 156.0
103.721306 176.0
103.747665 100.0
103.786186 180.0
103.842972 184.0
103.8592 192.0
103.885567 176.0
103.905853 160.0
103.938316 108.0
103.952522 208.0
103.99585 172.0
104.048698 16784.0
104.123062 132.0
104.139305 112.0
104.158241 124.0
104.199097 156.0
104.244957 56.0
104.259178 140.0
104.315224 84.0
104.343964 192.0
104.350517 60.0
104.373024 36.0
104.3946 180.0
104.421829 196.0
104.472687 144.0
104.490997 124.0
104.511337 208.0
104.547974 208.0
104.578499 56.0
104.613106 92.0
104.644585 104.0
104.758469 260.0
104.855499 184.0
104.882225 144.0
104.931946 144.0
105.05172 1652.0
105.090019 224.0
105.104301 200.0
105.134911 176.0
105.194107 40.0
105.218773 196.0
105.22435 152.0
105.340981 308.0
105.398346 200.0
105.447395 148.0
105.47805 216.0
105.496452 168.0
105.520988 64.0
105.544342 180.0
105.572105 72.0
105.587311 152.0
105.632584 176.0
105.756241 188.0
105.793091 184.0
105.825851 112.0
105.874756 376.0
105.889328 124.0
105.905106 168.0
105.93235 176.0
105.945908 168.0
105.977417 168.0
106.018402 164.0
106.066551 1032.0
106.094246 136.0
106.114746 244.0
106.338348 152.0
106.385567 200.0
106.433601 172.0
106.451271 120.0
106.480019 236.0
106.521103 92.0
106.751305 168.0
106.841805 188.0
106.922058 132.0
107.000793 208.0
107.043518 116.0
107.07206 176.0
107.132088 156.0
107.149391 260.0
107.214508 48.0
107.257797 216.0
107.371201 208.0
107.408325 172.0
107.45739 156.0
107.47847 196.0
107.508957 140.0
107.563087 172.0
107.602318 164.0
107.705574 168.0
107.764793 156.0
107.837814 160.0
107.883293 176.0
107.920563 156.0
108.009438 76.0
108.090126 176.0
108.106682 180.0
108.125305 276.0
108.146004 136.0
108.218063 168.0
108.317871 140.0
108.332375 104.0
108.34687 164.0
108.440125 40.0
108.481583 136.0
108.524109 180.0
108.539635 208.0
108.57074 136.0
108.610153 184.0
108.664085 88.0
108.790688 316.0
108.830139 152.0
108.888535 232.0
108.915283 152.0
108.966003 212.0
108.994232 80.0
109.056229 164.0
109.075287 144.0
109.116867 152.0
109.143898 128.0
109.158066 192.0
109.225006 328.0
109.254135 204.0
109.281181 396.0
109.312393 164.0
109.354019 148.0
109.418549 204.0
109.437286 124.0
109.522675 128.0
109.566422 148.0
109.581009 192.0
109.666451 196.0
109.818657 156.0
109.862465 104.0
109.885414 96.0
109.934776 128.0
109.940475 208.0
109.975151 152.0
109.994797 136.0
110.033607 92.0
110.056572 236.0
110.088203 216.0
110.121307 180.0
110.139633 176.0
110.200691 164.0
110.235138 172.0
110.290558 156.0
110.305191 168.0
110.338638 168.0
110.403954 240.0
110.432877 124.0
110.464119 140.0
110.505966 172.0
110.522491 240.0
110.568741 52.0
110.589668 380.0
110.608513 168.0
110.685974 156.0
110.721581 152.0
110.74881 120.0
110.868629 148.0
110.920631 168.0
110.941597 156.0
110.994011 152.0
111.025467 104.0
111.071609 128.0
111.134552 124.0
111.195412 132.0
111.252083 164.0
111.270981 180.0
111.315079 212.0
111.369865 356.0
111.389648 316.0
111.423843 184.0
111.451614 92.0
111.465919 152.0
111.482597 156.0
111.516762 204.0
111.537781 168.0
111.560471 172.0
111.615578 180.0
111.630295 144.0
111.645012 164.0
111.680771 132.0
111.695496 56.0
111.731255 52.0
111.77755 140.0
111.845169 216.0
111.964912 104.0
111.985977 56.0
112.024979 124.0
112.095528 180.0
112.1166 108.0
112.175621 228.0
112.211464 128.0
112.327454 144.0
112.414299 224.0
112.43084 224.0
112.445618 172.0
112.487991 212.0
112.527946 168.0
112.584961 280.0
112.641991 84.0
112.671562 144.0
112.720161 196.0
112.746361 188.0
112.7724 256.0
112.827477 140.0
112.885048 156.0
112.910347 104.0
112.940041 148.0
112.97123 188.0
113.00351 184.0
113.033127 140.0
113.054291 156.0
113.097855 144.0
113.119904 160.0
113.145309 136.0
113.166481 136.0
113.19825 136.0
113.272377 196.0
113.321106 148.0
113.365601 164.0
113.399368 176.0
113.431313 48.0
113.501274 208.0
113.539444 168.0
113.567017 140.0
113.700691 120.0
113.725998 156.0
113.731697 144.0
113.762245 112.0
113.831123 148.0
113.847176 104.0
113.868416 148.0
113.891777 188.0
113.913025 60.0
113.938515 200.0
113.976761 72.0
114.019264 156.0
114.055397 200.0
114.100044 96.0
114.182976 76.0
114.231895 140.0
114.287216 156.0
114.304237 136.0
114.353188 132.0
114.42556 184.0
114.493706 148.0
114.557602 192.0
114.60022 128.0
114.659393 156.0
114.708908 48.0
114.723831 80.0
114.768608 224.0
114.894447 220.0
114.911514 156.0
114.933426 148.0
114.953522 128.0
114.973396 64.0
115.011818 216.0
115.048477 92.0
115.054367 116.0
115.09935 196.0
115.146332 108.0
115.205345 168.0
115.298889 248.0
115.344994 148.0
115.415016 204.0
115.441261 156.0
115.513947 252.0
115.550354 116.0
115.60788 240.0
115.631668 164.0
115.674477 116.0
115.725548 164.0
115.745132 152.0
115.764679 156.0
115.781075 92.0
115.808365 168.0
115.884361 124.0
115.945129 112.0
116.053062 276.0
116.107307 152.0
116.201691 76.0
116.229584 156.0
116.246132 180.0
116.268211 104.0
116.311142 100.0
116.33905 164.0
116.377693 128.0
116.4142 120.0
116.439323 172.0
116.487228 160.0
116.521599 176.0
116.624748 108.0
116.723648 180.0
116.798927 176.0
116.837646 100.0
116.897896 204.0
116.925873 152.0
116.95816 208.0
117.026146 220.0
117.053482 468.0
117.123962 136.0
117.1455 164.0
117.169205 156.0
117.197212 164.0
117.244621 168.0
117.268097 148.0
117.371811 188.0
117.400673 260.0
117.454086 160.0
117.491402 184.0
117.527115 96.0
117.562363 252.0
117.606972 76.0
117.682526 252.0
117.855331 148.0
117.871567 136.0
117.900711 144.0
117.940094 180.0
117.967712 140.0
118.008797 172.0
118.063889 8404.0
118.091141 152.0
118.17318 132.0
118.199371 172.0
118.216454 204.0
118.246758 76.0
118.356934 152.0
118.422661 228.0
118.456787 312.0
118.491455 144.0
118.53479 224.0
118.554291 116.0
118.602829 204.0
118.758095 28.0
118.78196 100.0
118.80365 164.0
118.827515 156.0
118.860062 124.0
118.896957 104.0
118.925171 188.0
118.951218 144.0
118.972931 132.0
118.990295 124.0
119.013824 196.0
119.071465 11952.0
119.108078 184.0
119.139473 128.0
119.157913 112.0
119.198654 88.0
119.242287 124.0
119.275612 168.0
119.309669 192.0
119.361855 136.0
119.428673 136.0
119.453827 112.0
119.490189 80.0
119.53476 140.0
119.566353 60.0
119.594643 112.0
119.618996 172.0
119.655403 260.0
119.69915 120.0
119.720924 176.0
119.73835 128.0
119.764488 144.0
119.784088 228.0
119.801514 56.0
119.830788 132.0
119.839561 164.0
119.872894 132.0
119.897392 76.0
119.923637 212.0
119.95182 136.0
119.958031 132.0
119.9645 244.0
119.979691 328.0
119.998734 196.0
120.049561 240.0
120.079781 38912.0
120.131622 76.0
120.159775 172.0
120.173576 160.0
120.196159 100.0
120.241989 60.0
120.267799 184.0
120.314026 268.0
120.357826 64.0
120.407585 176.0
120.43985 288.0
120.488739 140.0
120.519333 92.0
120.573967 52.0
120.633461 220.0
120.68924 208.0
120.770744 76.0
120.788246 152.0
120.843918 196.0
120.862633 180.0
120.891075 188.0
120.915154 148.0
120.937897 164.0
120.958931 52.0
120.974251 132.0
121.056519 56.0
121.083138 3532.0
121.160408 156.0
121.176727 116.0
121.228905 148.0
121.250252 48.0
121.271416 152.0
121.331352 176.0
121.363144 160.0
121.408104 152.0
121.471954 108.0
121.506371 120.0
121.535332 112.0
121.560287 204.0
121.585228 196.0
121.625313 308.0
121.667976 324.0
121.707619 180.0
121.733826 136.0
121.765732 168.0
121.81636 40.0
121.84053 172.0
121.86747 152.0
121.892426 124.0
121.930618 128.0
121.963593 80.0
121.978981 64.0
122.03614 128.0
122.056221 400.0
122.077316 184.0
122.106506 112.0
122.135101 40.0
122.165352 48.0
122.196701 164.0
122.295731 120.0
122.348167 164.0
122.362297 168.0
122.467789 144.0
122.550629 140.0
122.576874 212.0
122.662415 112.0
122.698868 76.0
122.716507 240.0
122.7584 140.0
122.791191 152.0
122.822365 192.0
122.851044 152.0
122.867638 216.0
122.90419 224.0
122.946274 204.0
123.009933 144.0
123.069542 224.0
123.120331 112.0
123.171135 156.0
123.199852 144.0
123.405396 148.0
123.442986 208.0
123.573494 96.0
123.667503 192.0
123.76487 104.0
123.85244 240.0
123.867943 88.0
123.890556 96.0
123.905602 136.0
123.921112 60.0
123.943268 156.0
124.007538 136.0
124.120605 144.0
124.136131 184.0
124.199585 236.0
124.315819 100.0
124.35392 96.0
124.386848 188.0
124.404602 168.0
124.420143 164.0
124.483307 188.0
124.51371 204.0
124.542282 112.0
124.571159 152.0
124.642601 180.0
124.67115 132.0
124.713379 152.0
124.768951 136.0
124.802299 108.0
124.851227 72.0
124.955772 88.0
125.000275 160.0
125.064819 168.0
125.098213 120.0
125.158722 180.0
125.269684 192.0
125.298645 168.0
125.354355 196.0
125.505936 84.0
125.534225 188.0
125.559456 244.0
125.579529 160.0
125.59626 136.0
125.637527 148.0
125.793747 120.0
125.829468 244.0
125.856262 56.0
125.916557 156.0
125.98304 68.0
126.022621 104.0
126.080162 208.0
126.21154 176.0
126.285347 188.0
126.347656 164.0
126.519218 160.0
126.543701 152.0
126.583008 144.0
126.712921 64.0
126.728607 140.0
126.915329 196.0
126.979683 68.0
127.017815 192.0
127.073898 148.0
127.190598 56.0
127.222023 184.0
127.356758 72.0
127.403496 132.0
127.469093 116.0
127.489319 152.0
127.514046 120.0
127.550011 116.0
127.608459 208.0
127.66243 44.0
127.721794 132.0
127.792892 164.0
127.833122 196.0
127.871658 108.0
127.900917 140.0
128.022507 112.0
128.090073 116.0
128.128372 100.0
128.171188 180.0
128.225266 148.0
128.265839 164.0
128.288376 144.0
128.31543 80.0
128.335098 144.0
128.415329 188.0
128.443985 156.0
128.466537 176.0
128.498123 368.0
128.531967 156.0
128.572586 144.0
128.590378 200.0
128.61467 156.0
128.648132 180.0
128.722733 136.0
128.778046 108.0
128.814194 204.0
128.875198 148.0
128.900055 156.0
128.942993 164.0
128.97464 188.0
129.044724 364.0
129.069595 160.0
129.094467 108.0
129.119339 200.0
129.148743 80.0
129.24942 172.0
129.2845 140.0
129.313919 300.0
129.370514 156.0
129.402206 344.0
129.42485 108.0
129.447495 184.0
129.486435 204.0
129.511093 148.0
129.556213 112.0
129.581131 52.0
129.651382 204.0
129.744324 68.0
129.773788 132.0
129.791504 164.0
129.925278 244.0
129.984741 224.0
130.023331 160.0
130.040771 492.0
130.060623 604.0
130.113174 220.0
130.195572 184.0
130.221771 248.0
130.247818 124.0
130.28009 160.0
130.320816 144.0
130.376297 260.0
130.41626 200.0
130.446503 160.0
130.486115 132.0
130.494308 96.0
130.503601 164.0
130.523117 228.0
130.612854 228.0
130.630859 184.0
130.650482 188.0
130.67926 280.0
130.696457 296.0
130.713486 192.0
130.732513 244.0
130.79541 280.0
130.829269 456.0
130.855392 128.0
130.886292 392.0
130.911118 144.0
130.941864 372.0
130.969666 412.0
130.985565 420.0
131.01062 508.0
131.034042 680.0
131.060333 223468.0
131.107986 252.0
131.110962 272.0
131.135223 184.0
131.184677 120.0
131.224121 120.0
131.249283 164.0
131.257797 140.0
131.274933 420.0
131.297623 340.0
131.318832 316.0
131.33989 408.0
131.358612 156.0
131.363373 116.0
131.371231 180.0
131.409836 924.0
131.436432 3620.0
131.463776 220.0
131.480438 152.0
131.52475 44.0
131.550674 48.0
131.574188 56.0
131.604599 168.0
131.617355 100.0
131.6371 124.0
131.657425 80.0
131.684769 236.0
131.713654 108.0
131.739944 64.0
131.753326 212.0
131.777054 136.0
131.791733 240.0
131.818588 68.0
131.835144 200.0
131.853592 72.0
131.8582 108.0
131.899979 84.0
131.908813 140.0
131.913574 192.0
131.946304 168.0
131.968094 228.0
131.995667 84.0
132.021744 184.0
132.063232 33580.0
132.102814 48.0
132.130188 168.0
132.134766 56.0
132.168335 152.0
132.178711 36.0
132.18486 136.0
132.217758 112.0
132.238144 96.0
132.246613 72.0
132.254425 56.0
132.278152 160.0
132.300278 36.0
132.329849 84.0
132.355209 104.0
132.391769 52.0
132.412399 56.0
132.443039 52.0
132.459488 136.0
132.473541 124.0
132.498016 140.0
132.528915 84.0
132.564194 116.0
132.585815 80.0
132.601395 132.0
132.62822 128.0
132.662491 100.0
132.707565 176.0
132.73735 136.0
132.763382 124.0
132.78183 104.0
132.819199 72.0
132.837708 80.0
132.859726 260.0
132.896851 52.0
132.928467 144.0
132.955414 236.0
132.9767 216.0
133.000488 100.0
133.034866 216.0
133.074539 9624.0
133.101318 368.0
133.118088 260.0
133.158142 156.0
133.165497 112.0
133.174286 112.0
133.204559 96.0
133.241913 68.0
133.268036 100.0
133.321732 116.0
133.369522 76.0
133.481384 92.0
133.530472 36.0
133.553482 32.0
133.644196 112.0
133.69516 76.0
133.730652 56.0
133.767487 48.0
133.802017 80.0
133.825043 40.0
133.856277 92.0
133.898727 92.0
133.949142 124.0
133.977051 124.0
134.043869 80.0
134.075943 684.0
134.117615 68.0
134.147583 164.0
134.175247 108.0
134.202927 136.0
134.27211 56.0
134.312424 116.0
134.37915 136.0
134.405899 40.0
134.435898 196.0
134.549011 76.0
134.625214 196.0
134.801193 68.0
134.819275 76.0
134.835449 108.0
134.927917 60.0
135.001434 100.0
135.02272 120.0
135.05278 144.0
135.081787 164.0
135.20549 60.0
135.311981 220.0
135.368698 152.0
135.501892 96.0
135.536652 172.0
135.55983 72.0
135.60997 176.0
135.629349 64.0
135.754547 92.0
135.8311 96.0
135.858932 56.0
135.954071 68.0
135.981918 176.0
136.002808 148.0
136.128174 36.0
136.320999 76.0
136.744278 48.0
136.767548 104.0
136.930542 128.0
137.043411 124.0
137.070312 164.0
137.280121 168.0
137.359421 32.0
137.478424 40.0
137.564789 176.0
137.735245 224.0
137.753937 108.0
137.929199 96.0
138.013367 156.0
138.036743 124.0
138.081268 120.0
138.151367 140.0
138.422867 68.0
138.443939 36.0
138.47908 48.0
138.661835 132.0
138.757935 148.0
138.891617 60.0
139.210815 60.0
139.323563 200.0
139.356445 60.0
139.396393 48.0
139.419907 48.0
139.450455 124.0
139.53978 80.0
139.607971 68.0
139.655014 104.0
139.835709 156.0
139.918579 248.0
140.302597 116.0
140.418152 64.0
140.462967 80.0
140.554443 196.0
140.767441 52.0
140.890259 192.0
141.124252 104.0
141.327667 156.0
141.353699 68.0
141.552536 68.0
141.60228 84.0
141.668594 156.0
142.045532 112.0
142.07637 144.0
142.270981 36.0
142.320831 68.0
142.365952 100.0
142.494232 60.0
142.548874 64.0
142.717651 168.0
142.822296 156.0
142.877274 36.0
142.922211 124.0
143.056229 104.0
143.124542 160.0
143.501022 124.0
143.70137 68.0
144.047546 84.0
144.076981 536.0
144.100113 88.0
144.257843 172.0
144.291306 148.0
144.312836 96.0
144.441971 60.0
144.578354 84.0
144.666916 152.0
144.954346 108.0
145.014252 96.0
145.085587 796.0
145.350006 156.0
145.38121 64.0
145.437424 72.0
145.635712 168.0
145.863983 120.0
145.945724 80.0
146.099655 184.0
146.219971 84.0
146.342743 184.0
146.590851 120.0
146.653519 104.0
146.677628 160.0
146.945312 160.0
147.061157 180.0
147.089935 300.0
147.239822 136.0
147.329193 112.0
147.682129 248.0
148.056259 160.0
148.083923 196.0
148.110565 184.0
148.234131 132.0
148.292297 176.0
148.326233 64.0
148.398956 104.0
148.71434 168.0
148.738602 104.0
148.833298 84.0
148.954727 136.0
149.003311 64.0
149.105377 108.0
149.509094 108.0
149.923111 92.0
150.154724 192.0
150.230347 152.0
150.374313 120.0
150.523239 108.0
150.699112 80.0
151.063507 796.0
151.087051 72.0
151.124557 148.0
151.501602 208.0
151.738174 84.0
151.798187 160.0
152.058304 152.0
152.124512 184.0
152.291489 180.0
152.330139 180.0
152.431534 48.0
152.832352 148.0
153.046494 104.0
153.105606 152.0
153.130234 112.0
153.147476 72.0
153.172104 132.0
153.640503 100.0
153.855209 144.0
153.887299 124.0
154.05278 120.0
154.309814 76.0
154.589325 208.0
154.901291 248.0
155.146637 96.0
155.858978 144.0
155.893768 40.0
156.665115 64.0
156.901871 120.0
157.076447 264.0
157.256104 120.0
157.385925 116.0
157.604691 136.0
157.750687 148.0
158.072296 288.0
159.078125 576.0
159.316986 128.0
159.359711 152.0
159.389862 52.0
159.646271 128.0
160.09906 644.0
160.51004 76.0
160.580643 48.0
160.767349 160.0
160.906174 56.0
160.923859 172.0
161.057709 120.0
161.106522 584.0
161.148651 160.0
161.393829 140.0
161.791061 156.0
162.013931 208.0
162.11351 3828.0
162.193848 44.0
162.274979 40.0
162.564148 140.0
162.724075 40.0
162.878983 60.0
162.996094 172.0
163.059387 156.0
163.091812 180.0
163.11705 208.0
163.168701 168.0
163.709427 208.0
164.052124 112.0
164.090363 104.0
164.128616 88.0
164.488358 32.0
164.600693 120.0
164.631332 152.0
164.753937 184.0
164.922607 164.0
164.999298 136.0
165.106689 172.0
165.359985 120.0
166.819534 36.0
167.486023 128.0
167.676682 160.0
168.078995 156.0
168.102219 168.0
168.890228 148.0
169.079102 104.0
169.257721 112.0
169.599716 40.0
169.89534 200.0
170.578339 164.0
171.187164 64.0
171.361694 212.0
171.491989 100.0
172.07373 136.0
172.225204 104.0
173.110245 188.0
173.274231 144.0
173.780258 88.0
173.992859 136.0
174.024368 80.0
174.105835 156.0
174.126785 184.0
174.776123 48.0
174.805069 160.0
174.902451 180.0
175.115723 148.0
175.144699 160.0
175.52002 164.0
175.722046 172.0
176.152374 72.0
176.601746 144.0
177.079376 396.0
177.247726 92.0
177.759521 144.0
178.074203 140.0
178.108475 92.0
178.710815 56.0
178.865173 164.0
179.238037 212.0
179.74469 120.0
180.262283 224.0
180.920746 100.0
181.057312 140.0
181.26358 116.0
181.68187 44.0
181.907288 164.0
182.154343 120.0
182.178528 192.0
182.439209 160.0
182.615814 136.0
182.775421 52.0
182.821167 256.0
183.262787 140.0
183.680664 172.0
183.942429 84.0
184.490814 96.0
184.582748 164.0
184.617905 112.0
184.96965 56.0
185.45993 208.0
186.100174 124.0
186.233246 88.0
186.746964 112.0
186.779617 156.0
186.874832 156.0
187.089844 112.0
187.315872 208.0
187.405777 144.0
187.544769 156.0
187.596558 92.0
187.855637 76.0
188.426224 48.0
188.699539 112.0
188.98674 88.0
189.139999 104.0
189.254974 108.0
189.81398 148.0
190.074173 192.0
190.118484 180.0
190.447952 128.0
190.978455 112.0
191.107758 124.0
191.567535 144.0
191.818298 128.0
191.884476 80.0
192.088547 176.0
192.789871 108.0
192.831329 168.0
192.92807 176.0
193.168671 60.0
193.273804 168.0
194.099213 400.0
194.224075 56.0
195.018219 100.0
195.105545 280.0
195.207275 188.0
195.652466 140.0
196.201309 140.0
196.310059 104.0
196.371414 88.0
196.971542 156.0
197.3125 124.0
197.788071 188.0
198.230591 124.0
198.337097 152.0
198.491302 56.0
199.207016 84.0
199.423386 124.0
199.687683 236.0
200.498535 188.0
200.698685 120.0
200.929977 104.0
201.327972 40.0
201.980881 40.0
202.006348 156.0
202.119522 76.0
202.195923 68.0
202.935287 128.0
203.502762 88.0
203.570923 156.0
203.596481 152.0
203.995697 160.0
204.068192 144.0
204.170563 96.0
204.489212 172.0
204.654327 144.0
204.890732 160.0
205.483765 160.0
205.91481 148.0
206.34346 156.0
206.686691 104.0
207.093445 156.0
207.262253 96.0
207.368286 100.0
208.093735 140.0
208.269257 80.0
208.645706 92.0
209.057037 268.0
209.120361 44.0
209.229752 68.0
209.350677 52.0
209.402527 88.0
209.563843 140.0
209.751175 64.0
209.788651 104.0
209.878036 148.0
210.114548 224.0
210.192444 92.0
210.250168 172.0
211.296219 116.0
211.409058 36.0
212.13028 156.0
212.214355 52.0
212.658218 148.0
212.759811 56.0
212.957275 60.0
213.253647 80.0
213.943069 152.0
214.385818 52.0
214.569458 104.0
214.709427 192.0
215.009918 160.0
215.17923 196.0
215.260986 84.0
215.447922 192.0
215.760635 112.0
216.363327 232.0
216.936478 188.0
217.342285 168.0
217.447937 160.0
217.533066 144.0
217.900162 104.0
217.944275 168.0
218.102936 200.0
218.176437 188.0
218.488174 64.0
218.511719 232.0
218.579391 84.0
218.617645 132.0
218.797211 152.0
218.952393 252.0
219.023956 184.0
219.197784 36.0
219.772797 188.0
219.820007 132.0
220.29538 200.0
220.419464 72.0
220.599762 104.0
221.149963 44.0
221.191406 148.0
221.24765 104.0
221.392746 176.0
221.769012 164.0
222.092224 144.0
222.291 76.0
222.682892 64.0
222.991882 92.0
223.015671 88.0
223.042419 92.0
223.164307 84.0
223.604584 128.0
224.021454 100.0
224.081039 124.0
224.286682 132.0
224.364182 152.0
224.793701 172.0
226.066772 152.0
226.68367 116.0
226.842529 168.0
226.91748 136.0
227.304413 176.0
227.454483 116.0
227.62262 168.0
227.769775 176.0
227.838882 212.0
228.51535 156.0
228.723007 72.0
228.861496 148.0
229.225983 188.0
229.364624 168.0
229.524414 168.0
229.892441 160.0
229.942352 572.0
230.735199 132.0
230.834976 168.0
230.898483 156.0
230.96524 120.0
231.137482 136.0
231.773376 112.0
231.95961 1388.0
231.997665 156.0
232.043152 108.0
232.134109 196.0
232.331268 152.0
232.367676 184.0
232.42836 68.0
232.495117 124.0
232.698502 96.0
232.832123 56.0
232.856415 60.0
232.968063 148.0
232.978226 156.0
233.217987 92.0
233.871964 192.0
234.1064 212.0
234.145981 80.0
234.347046 104.0
234.42627 220.0
235.045319 196.0
235.29866 68.0
235.335297 112.0
235.585739 152.0
235.903564 104.0
236.114548 152.0
236.255249 144.0
236.451096 84.0
237.008453 104.0
237.127975 136.0
237.216858 72.0
237.302704 224.0
237.336441 204.0
237.529648 224.0
237.568069 180.0
237.738297 124.0
237.805817 76.0
237.994873 192.0
238.075989 176.0
238.420013 176.0
238.469254 96.0
238.503067 48.0
238.773636 132.0
239.518509 168.0
240.326263 84.0
240.634918 76.0
240.727554 80.0
241.141541 72.0
241.357941 160.0
242.286499 100.0
242.872391 92.0
242.953049 128.0
243.039917 116.0
243.309952 116.0
243.657898 132.0
243.698196 112.0
243.956161 64.0
244.183151 80.0
244.388474 132.0
244.453812 128.0
244.768219 120.0
244.964447 168.0
245.135803 92.0
245.223068 112.0
245.444427 124.0
245.528625 92.0
245.589874 128.0
245.659622 152.0
245.887405 84.0
245.934235 128.0
245.976074 22488.0
246.020294 184.0
246.237091 80.0
246.324554 128.0
246.368286 92.0
246.412033 128.0
246.480225 68.0
246.546402 96.0
246.680801 92.0
246.758957 208.0
246.815247 120.0
246.852768 84.0
246.92157 44.0
246.977936 2128.0
247.056076 40.0
247.077972 44.0
247.128036 68.0
247.165588 100.0
247.25322 92.0
247.353378 60.0
247.381546 64.0
247.412857 44.0
247.4655 152.0
247.672775 72.0
247.848221 92.0
247.973312 148.0
248.111389 112.0
248.140396 148.0
248.243195 116.0
248.362381 176.0
248.412567 108.0
248.447083 76.0
248.51152 96.0
248.544342 92.0
248.660461 80.0
248.729507 116.0
248.779739 44.0
249.263443 120.0
249.299576 80.0
249.857712 48.0
249.882874 56.0
249.955246 76.0
250.040222 60.0
250.132019 2852.0
250.622818 168.0
250.73941 96.0
251.13443 1036.0
251.25972 52.0
251.758453 164.0
251.799515 32.0
251.979568 148.0
252.14389 184.0
252.561249 172.0
252.646667 32.0
252.74791 116.0
253.032776 120.0
253.55545 52.0
253.901031 52.0
254.56749 44.0
254.631012 120.0
254.805725 116.0
255.568817 104.0
255.960815 132.0
256.288422 124.0
256.333038 136.0
256.731537 140.0
256.958832 128.0
257.312286 240.0
257.662262 200.0
257.724304 140.0
257.973694 1060.0
258.043945 180.0
258.277405 140.0
258.972046 352.0
259.058472 132.0
259.978668 408.0
260.03009 204.0
260.229095 116.0
260.765594 172.0
261.627686 140.0
262.007721 56.0
262.988129 172.0
263.246338 88.0
263.3992 96.0
263.918457 52.0
264.078827 280.0
264.245148 76.0
264.416656 44.0
264.627075 112.0
265.184265 152.0
265.66095 88.0
266.043884 72.0
267.754272 212.0
268.160889 120.0
268.702881 56.0
269.287201 180.0
269.832306 244.0
269.979034 324.0
270.058594 40.0
270.330139 64.0
270.549438 104.0
271.499695 108.0
271.990479 492.0
272.36618 132.0
272.405609 100.0
272.445038 88.0
272.507446 48.0
272.983978 156.0
273.2966 80.0
273.474304 116.0
273.678406 84.0
273.843079 184.0
273.991302 232.0
274.18573 148.0
274.653931 104.0
274.733093 64.0
275.409821 168.0
276.090698 140.0
276.30899 124.0
276.368561 136.0
277.975708 108.0
278.300995 196.0
278.64975 136.0
278.812592 144.0
279.271393 120.0
279.507629 164.0
280.510132 40.0
280.623474 132.0
280.696838 264.0
281.033752 132.0
281.624634 112.0
281.711487 164.0
282.089111 184.0
282.384369 68.0
282.701202 128.0
282.905396 176.0
283.977692 88.0
284.857147 100.0
284.990356 356.0
285.193176 92.0
285.397339 160.0
285.489044 168.0
285.522675 92.0
285.674042 156.0
285.997833 140.0
286.188568 156.0
286.306854 96.0
286.421356 160.0
286.444946 60.0
286.925812 152.0
287.001465 4220.0
287.054993 52.0
287.113922 68.0
287.134338 68.0
287.159546 84.0
287.200012 88.0
287.280975 44.0
287.405823 56.0
287.53067 64.0
287.574554 144.0
287.753479 92.0
287.949341 132.0
288.003296 704.0
288.179718 164.0
288.25 72.0
288.405212 148.0
288.463989 104.0
288.510284 96.0
288.564972 152.0
288.645508 84.0
288.675964 276.0
288.699463 132.0
288.750732 140.0
288.777405 144.0
288.834778 180.0
288.865356 204.0
288.896759 72.0
288.928558 380.0
288.952515 240.0
289.018555 65692.0
289.09491 52.0
289.129272 60.0
289.156738 36.0
289.178162 136.0
289.226257 92.0
289.255249 140.0
289.308685 48.0
289.340637 92.0
289.386566 48.0
289.421967 140.0
289.44928 76.0
289.496704 136.0
289.543854 80.0
289.570343 264.0
289.628143 188.0
289.693909 80.0
289.733948 80.0
289.771149 188.0
289.811523 144.0
289.898041 84.0
289.95874 132.0
290.020782 7160.0
290.118378 96.0
290.157227 120.0
290.230255 120.0
290.253998 48.0
290.281128 64.0
290.311646 68.0
290.393036 64.0
290.499634 120.0
290.586395 68.0
290.667847 44.0
290.728912 40.0
290.783447 60.0
290.813782 80.0
290.854523 76.0
290.91037 44.0
291.021729 144.0
291.071808 40.0
291.207642 52.0
291.243042 88.0
291.278961 36.0
291.42691 72.0
291.459045 72.0
291.537201 92.0
291.611969 52.0
291.635773 80.0
291.702393 132.0
291.807953 120.0
291.874847 84.0
291.951965 84.0
292.002991 48.0
292.040375 28.0
292.07782 72.0
292.101624 88.0
292.166107 240.0
292.247925 48.0
292.271729 100.0
292.59848 52.0
292.663177 160.0
293.044678 112.0
293.191193 108.0
293.276398 56.0
294.173553 152.0
294.648254 36.0
294.80545 52.0
294.918213 84.0
295.10968 96.0
295.201996 108.0
296.780609 48.0
296.856049 52.0
299.292419 44.0
300.08493 32.0
300.302185 112.0
300.460846 120.0
300.554016 48.0
301.015137 112.0
301.151276 56.0
301.742188 48.0
302.312958 144.0
302.832275 140.0
302.953522 44.0
303.050537 64.0
303.105957 188.0
303.362457 76.0
303.560089 68.0
303.837585 100.0
304.34433 116.0
304.816742 64.0
306.023743 92.0
306.608978 44.0
308.196808 60.0
308.717651 92.0
309.333466 72.0
310.033997 92.0
310.791473 84.0
311.908295 92.0
312.13681 172.0
314.447876 56.0
315.224854 92.0
315.786987 80.0
317.997925 48.0
322.035614 124.0
322.353577 72.0
323.233276 56.0
323.308411 80.0
326.612946 88.0
328.248077 112.0
329.323578 80.0
330.212708 104.0
332.114319 76.0
333.145233 136.0
337.317902 36.0
339.639496 64.0
341.277466 100.0
344.59845 76.0
347.197083 124.0
348.592957 48.0
354.657898 80.0
360.95282 140.0
363.904602 36.0
364.470551 84.0
367.242096 56.0
367.421387 128.0
368.8573 68.0
371.24649 188.0
378.007446 36.0
378.785675 36.0
379.115021 84.0
380.829895 68.0
383.990417 120.0
394.103241 100.0
395.602203 64.0
398.656372 108.0
399.753967 60.0
400.849091 40.0
406.969299 56.0
410.022614 88.0
412.824432 52.0
419.064575 112.0
420.099121 144.0
426.41333 92.0
426.845001 72.0
429.352966 36.0
431.68219 56.0
439.708771 52.0
444.987518 100.0
445.075684 64.0
449.656006 116.0
449.964172 76.0
456.17923 68.0
458.162415 76.0
461.68396 68.0
467.591736 44.0
469.504639 56.0
487.841339 72.0
489.130249 40.0
500.802704 144.0
501.212585 96.0
507.322449 96.0
512.977844 68.0
515.225342 48.0
531.328979 40.0
542.842163 92.0
545.260925 64.0
551.26825 120.0
571.822327 100.0
574.948853 88.0
578.998291 108.0
579.779236 40.0
585.010071 256.0
589.814758 136.0
591.420715 100.0
591.725708 124.0
614.986633 64.0
616.196533 152.0
619.427124 112.0
620.641357 64.0
630.773071 56.0
632.103455 208.0
633.951355 68.0
635.455688 72.0
640.412476 76.0
649.414673 212.0
652.842896 72.0
660.248047 92.0
664.073975 188.0
668.163086 56.0
669.166687 148.0
674.03595 208.0
675.338806 140.0
676.684326 136.0
677.891235 32.0
692.353394 144.0
699.078552 76.0
699.852356 60.0
711.341064 68.0
711.622437 112.0
719.924133 92.0
719.98822 204.0
720.939209 180.0
721.815918 188.0
723.710144 48.0
728.698425 64.0
731.161316 136.0
735.765381 104.0
737.304199 104.0
737.423157 36.0
738.672241 120.0
739.28363 36.0
744.352295 92.0
746.145386 136.0
747.897095 156.0
748.430603 164.0
751.341187 60.0
751.439392 152.0
754.558044 160.0
755.121338 84.0
756.888977 132.0
758.417542 148.0
758.461365 188.0
766.033752 124.0
766.661865 212.0
770.176453 164.0
772.315613 180.0
772.9021 120.0
773.101318 224.0
773.145569 116.0
774.446716 208.0
775.970642 216.0
777.11322 192.0
777.224243 136.0
778.34552 136.0
780.395874 148.0
780.774048 156.0
782.805359 200.0
788.529358 148.0
791.365601 76.0
792.233704 180.0
793.192017 84.0
793.999451 172.0
796.682556 176.0
800.00061 172.0
801.825623 104.0
804.640503 192.0
804.759094 88.0
805.391602 140.0
809.2995 180.0
810.449341 180.0
815.369507 120.0
816.466736 116.0
816.978699 180.0
817.883484 124.0
819.062256 208.0
819.643372 200.0
821.313843 224.0
823.214417 224.0
826.79895 168.0
829.98407 276.0
833.755737 68.0
836.263367 152.0
838.720337 164.0
839.547424 208.0
839.616638 148.0
839.79541 116.0
842.271729 196.0
845.075623 76.0
848.736389 160.0
849.090149 104.0
850.569702 192.0
851.278076 180.0
852.405029 184.0
854.440186 168.0
858.313538 228.0
860.314819 272.0
860.554199 188.0
860.764404 148.0
862.52887 140.0
863.119324 76.0
863.353271 128.0
864.142944 152.0
866.977173 88.0
868.319763 160.0
868.636475 144.0
870.138916 92.0
873.418152 200.0
874.424316 220.0
875.189636 176.0
877.139709 228.0
877.375549 40.0
877.446289 164.0
877.611389 180.0
877.805969 160.0
880.060059 40.0
880.201782 180.0
883.641907 196.0
884.156738 184.0
885.85614 132.0
886.087158 140.0
886.863525 172.0
887.076904 36.0
887.527527 144.0
888.642639 128.0
888.980835 140.0
891.213623 180.0
893.746704 176.0
894.79425 236.0
895.639893 248.0
899.145874 156.0
900.793884 172.0
900.859558 148.0
900.937256 56.0
901.612427 148.0
902.078674 48.0
902.688538 104.0
906.807495 140.0
906.849487 44.0
907.57489 52.0
908.108582 184.0
908.348572 68.0
909.824829 200.0
910.83374 160.0
911.019958 192.0
912.534485 84.0
916.760254 204.0
918.309692 100.0
918.611267 152.0
918.900879 112.0
919.944946 96.0
920.754089 108.0
923.939697 140.0
924.684021 168.0
925.234863 128.0
929.204712 160.0
929.944885 156.0
931.495178 84.0
933.140442 200.0
933.414062 152.0
934.588074 220.0
935.123596 124.0
937.297791 152.0
940.182251 192.0
940.920898 152.0
941.415466 172.0
942.527283 176.0
945.046509 124.0
945.4198 236.0
946.166565 192.0
946.331909 152.0
947.354675 120.0
947.673279 128.0
948.071594 116.0
948.384216 188.0
948.702942 80.0
949.359009 216.0
949.727051 112.0
949.98468 68.0
950.704895 84.0
951.469849 200.0
953.871948 128.0
954.14856 244.0
956.277039 204.0
957.490723 152.0
957.576172 216.0
957.625427 76.0
958.278442 204.0
961.42334 144.0
961.639404 124.0
963.133667 164.0
963.325134 68.0
963.986267 208.0
964.323792 216.0
965.340088 140.0
968.703918 144.0
968.82489 180.0
968.874451 84.0
969.909363 136.0
971.044067 196.0
971.84436 132.0
972.409058 192.0
974.632324 168.0
975.856812 220.0
976.696411 164.0
976.951477 180.0
977.554993 136.0
980.245239 160.0
981.018127 152.0
982.171753 132.0
982.858032 132.0
985.630554 188.0
986.042603 132.0
986.755615 80.0
986.974487 208.0
987.280884 160.0
988.519592 152.0
989.02655 76.0
991.005554 68.0
992.158752 196.0
992.38446 164.0
993.488342 208.0
994.548889 224.0
995.076172 172.0
996.420288 88.0
997.626953 236.0
998.167664 160.0
998.331177 184.0
998.519836 192.0
999.161499 80.0
999.583069 212.0
1002.196289 72.0
1002.624817 196.0
1004.087524 176.0
1004.920227 184.0
1004.964355 204.0
1005.488159 52.0
1006.125732 144.0
1007.647827 176.0
1008.519897 188.0
1009.107849 200.0
1009.955261 120.0
1010.935913 136.0
1011.344727 184.0
1012.259033 128.0
1013.582947 192.0
1014.394226 116.0
1015.009216 152.0
1015.402405 136.0
1016.030457 144.0
1017.312378 172.0
1017.623474 204.0
1017.845764 144.0
1018.849304 28.0
1019.446594 160.0
1020.807007 136.0
1021.328552 192.0
1022.963928 196.0
1023.104004 200.0
1023.587891 184.0
1024.772705 136.0
1025.900757 180.0
1027.029541 108.0
1028.114136 144.0
1028.5354 172.0
1028.937622 180.0
1029.88269 172.0
1031.78064 132.0
1032.931885 108.0
1034.25 84.0
1036.248047 152.0
1036.568481 228.0
1036.613403 88.0
1036.901733 184.0
1036.946655 236.0
1037.068359 132.0
1037.433716 164.0
1038.235229 152.0
1038.632935 112.0
1039.807129 236.0
1040.506836 176.0
1041.984009 136.0
1042.761597 160.0
1043.250122 132.0
1043.507324 188.0
1043.80957 168.0
1044.928711 72.0
1045.096069 128.0
1045.475708 172.0
1045.636597 120.0
1045.700928 116.0
1045.906982 132.0
1047.156128 168.0
1048.36731 156.0
1048.567139 184.0
1049.076294 160.0
1049.669556 172.0
1049.714722 140.0
1049.985596 104.0
1050.55896 192.0
1050.617676 168.0
1050.772583 116.0
1050.830566 112.0
1051.759888 152.0
1052.024536 144.0
1052.566895 200.0
1052.728394 180.0
1053.122314 120.0
1053.464722 60.0
1054.498657 144.0
1054.782959 132.0
1056.270264 148.0
1057.40271 188.0
1057.460938 168.0
1057.959351 152.0
1058.088867 80.0
1059.157349 184.0
1059.902466 244.0
1060.732056 220.0
1061.3479 124.0
1061.717651 196.0
1061.874878 196.0
1062.684204 156.0
1063.755005 132.0
1064.06665 268.0
1064.449707 208.0
1065.274658 132.0
1066.099854 208.0
1066.601562 140.0
1067.230835 244.0
1068.17395 224.0
1068.791992 144.0
1069.039307 184.0
1069.084839 188.0
1069.182495 124.0
1069.481934 200.0
1069.839966 152.0
1069.950562 172.0
1070.536621 196.0
1071.285645 172.0
1071.98938 124.0
1072.111938 200.0
1072.478149 228.0
1072.732422 156.0
1073.312622 176.0
1073.469238 88.0
1074.702026 192.0
1074.747681 176.0
1074.806396 184.0
1075.400391 132.0
1075.661499 232.0
1076.380981 192.0
1076.725708 124.0
1077.333252 56.0
1078.195801 220.0
1078.463745 116.0
1078.712158 172.0
1078.940918 120.0
1080.353638 132.0
1080.530273 176.0
1081.400635 192.0
1081.446411 172.0
1081.577271 184.0
1081.904663 180.0
1082.304077 100.0
1082.703491 196.0
1082.841064 60.0
1083.627197 172.0
1083.672974 204.0
1084.885498 224.0
1085.049438 76.0
1085.121582 128.0
1087.030273 136.0
1087.739136 212.0
1087.942627 156.0
1088.586182 232.0
1088.927612 216.0
1089.170654 132.0
1089.433472 108.0
1089.485962 148.0
1089.768555 172.0
1090.162842 60.0
1090.235107 164.0
1091.589355 108.0
1091.681396 136.0
1091.86145 148.0
1092.056274 152.0
1092.740479 184.0
1093.237183 204.0
1094.478149 144.0
1095.143311 184.0
1095.78894 212.0
1096.118408 176.0
1096.217163 132.0
1096.8302 172.0
1097.054321 216.0
1097.502686 104.0
1097.568604 148.0
1098.214844 168.0
1098.539185 156.0
1099.395874 152.0
1099.758911 128.0
1100.234253 108.0
1100.755859 196.0
1100.940796 140.0
1101.082397 212.0
1101.171875 180.0
1101.270996 152.0
1102.658447 160.0
1102.909668 196.0
1103.94104 140.0
1104.113037 188.0
1104.218872 120.0
1105.70752 176.0
1105.793579 184.0
1106.210571 64.0
1106.667358 188.0
1106.945557 168.0
1108.323364 112.0
1108.621582 176.0
1108.853516 164.0
1109.032471 140.0
1109.171631 120.0
1109.403687 284.0
1110.385132 176.0
1112.462036 188.0
1112.528442 144.0
1112.661133 160.0
1113.43811 152.0
1113.517822 132.0
1113.803467 200.0
1114.89978 136.0
1114.986084 124.0
1115.418213 188.0
1115.597656 104.0
1115.803711 224.0
1116.734741 152.0
1117.147217 148.0
1117.919067 196.0
1118.112671 80.0
1118.238525 84.0
1118.511353 68.0
1118.591309 44.0
1118.677856 144.0
1118.770996 228.0
1119.317017 144.0
1119.510132 188.0
1119.889771 100.0
1121.502197 128.0
1121.768799 116.0
1122.002197 156.0
1122.262207 176.0
1122.922485 212.0
1123.0625 144.0
1123.276001 160.0
1123.602905 224.0
1123.649536 168.0
1123.956543 200.0
1124.085327 160.0
1124.523804 128.0
1124.760254 144.0
1124.824097 48.0
1125.418335 144.0
1125.714966 156.0
1126.126221 232.0
1126.213013 132.0
1126.356567 196.0
1127.11499 208.0
1127.63623 172.0
1127.703125 108.0
1127.843506 184.0
1128.017212 192.0
1128.104126 156.0
1128.525391 188.0
1129.194092 112.0
1129.354614 144.0
1129.535278 84.0
1129.702515 180.0
1130.706177 140.0
1131.060913 140.0
1131.335449 204.0
1131.703613 208.0
1131.797363 164.0
1131.991577 172.0
1132.23938 168.0
1133.029785 108.0
1133.217407 120.0
1134.262939 244.0
1134.343384 164.0
1134.598022 128.0
1134.712036 200.0
1135.054077 180.0
1135.798462 108.0
1136.207642 48.0
1136.650513 112.0
1136.831787 144.0
1137.79834 120.0
1137.845337 132.0
1137.939331 172.0
1138.019897 104.0
1138.416016 172.0
1138.52356 232.0
1139.510986 168.0
1139.94104 172.0
1140.196411 152.0
1140.626587 168.0
1141.144287 112.0
1141.393066 136.0
1142.126099 128.0
1143.391113 160.0
1143.767944 188.0
1143.875732 32.0
1144.124756 156.0
1144.239258 84.0
1144.609619 92.0
1144.912598 144.0
1145.271606 160.0
1146.313843 140.0
1146.376953 148.0
1146.489136 112.0
1146.859863 64.0
1146.913696 200.0
1148.039673 216.0
1148.269043 196.0
1148.390381 48.0
1148.889648 164.0
1149.494873 188.0
1149.948975 232.0
1150.522827 224.0
1150.702515 228.0
1150.900879 152.0
1151.157471 152.0
1151.245361 196.0
1151.306152 144.0
1151.380371 244.0
1151.873413 156.0
1152.103149 136.0
1152.365967 208.0
1152.751831 256.0
1154.252563 180.0
1154.548462 172.0
1154.874756 132.0
1155.470093 120.0
1155.571533 188.0
1156.079102 256.0
1156.471558 124.0
1156.762695 160.0
1157.013184 176.0
1157.846069 188.0
1157.920532 124.0
1158.191528 136.0
1158.767334 196.0
1159.261963 224.0
1159.438232 164.0
1160.427856 152.0
1160.475342 148.0
1160.570312 180.0
1160.631348 164.0
1161.275635 136.0
1162.320312 112.0
1162.958252 28.0
1163.596436 144.0
1163.643921 148.0
1163.766235 140.0
1163.908813 216.0
1164.139648 388.0
1164.452026 156.0
1164.513184 196.0
1165.776855 124.0
1166.341064 72.0
1166.592529 140.0
1167.530884 48.0
1168.19812 168.0
1168.47644 132.0
1168.823364 144.0
1168.986694 220.0
1169.374634 228.0
1169.524414 48.0
1169.715698 192.0
1170.177979 152.0
1170.933838 136.0
1171.47876 176.0
1171.89624 164.0
1172.016968 140.0
1172.332642 168.0
1172.466797 188.0
1172.512329 148.0
1172.862061 172.0
1173.12793 152.0
1173.237061 128.0
1173.33252 240.0
1173.680298 128.0
1174.06897 168.0
1174.171265 180.0
1174.362183 112.0
1174.437256 248.0
1174.553223 120.0
1174.942017 104.0
1175.228638 128.0
1175.39917 92.0
1175.481079 152.0
1175.601685 120.0
1176.395752 184.0
1176.866821 128.0
1177.1604 152.0
1178.451416 176.0
1178.567627 116.0
1178.847778 144.0
1179.052856 128.0
1179.155396 148.0
1179.428711 176.0
1180.550049 132.0
1180.659424 128.0
1181.097168 140.0
1181.329834 40.0
1181.535034 144.0
1181.685547 148.0
1181.856079 156.0
1181.952393 156.0
1182.657349 152.0
1183.239258 164.0
1183.650024 96.0
1183.807495 172.0
1184.074707 112.0
1184.204834 72.0
1185.178467 160.0
1185.928711 260.0
1186.973511 136.0
1187.439941 188.0
1187.920044 128.0
1188.084717 128.0
1188.359131 104.0
1188.717773 252.0
1188.908325 124.0
1189.278687 128.0
1189.766113 152.0
1190.123169 192.0
1190.281128 136.0
1190.50769 148.0
1190.638184 172.0
1190.761841 236.0
1190.933594 248.0
1191.091553 164.0
1191.145264 208.0
1191.21521 152.0
1191.476074 152.0
1191.723633 136.0
1192.362671 200.0
1192.44519 116.0
1192.616943 120.0
1192.706299 144.0
1192.795776 220.0
1193.022583 164.0
1193.304443 220.0
1193.607056 132.0
1193.717041 252.0
1193.799561 132.0
1194.109009 260.0
1194.549316 128.0
1194.982666 172.0
1195.216675 184.0
1195.409302 212.0
1195.471313 144.0
1195.588257 80.0
1195.670898 176.0
1195.83606 104.0
1196.276611 80.0
1196.435791 156.0
1196.729614 156.0
1197.089111 108.0
1197.37146 188.0
1198.294556 124.0
1198.772705 160.0
1199.359497 208.0
1200.362427 120.0
1200.633423 192.0
1201.000977 224.0
1201.410767 136.0
1201.604004 124.0
1201.811035 124.0
1202.383789 216.0
1202.632202 76.0
1202.770264 168.0
1202.818604 228.0
1203.018799 240.0
1203.288086 136.0
1203.35022 152.0
1203.495239 136.0
1203.571167 140.0
1204.026978 156.0
1204.452026 252.0
1204.62793 156.0
1204.67627 88.0
1204.731445 204.0
1205.014771 196.0
1205.180542 188.0
1205.325684 184.0
1205.671265 36.0
1206.127441 156.0
1206.18042 184.0
1206.486938 140.0
1206.75647 196.0
1207.821533 208.0
1208.291992 92.0
1208.471924 112.0
1208.679443 172.0
1208.859375 168.0
1208.941772 184.0
1209.025513 60.0
1209.253906 84.0
1209.302368 80.0
1209.45459 168.0
1209.627686 108.0
1210.423828 52.0
1210.756348 136.0
1210.901001 172.0
1210.984863 212.0
1211.552856 128.0
1211.663696 140.0
1211.746826 200.0
1211.843872 172.0
1211.913208 200.0
1212.349731 100.0
1212.987427 76.0
1213.098267 180.0
1213.333984 164.0
1213.525757 136.0
1213.597534 72.0
1214.39502 176.0
1214.945679 176.0
1215.012451 204.0
1215.269165 244.0
1215.602173 128.0
1215.650757 160.0
1215.949219 152.0
1216.386475 156.0
1217.011353 124.0
1217.087769 196.0
1217.289062 160.0
1217.427979 208.0
1218.593506 164.0
1219.936401 232.0
1219.998901 152.0
1220.283936 112.0
1220.569092 124.0
1220.756836 144.0
1221.431519 116.0
1221.584595 120.0
1221.737793 160.0
1222.071533 152.0
1222.127197 116.0
1222.746582 180.0
1223.080688 220.0
1223.776855 152.0
1224.083252 140.0
1224.222534 152.0
1224.508423 180.0
1224.674438 164.0
1225.350952 168.0
1225.950195 128.0
1226.05481 184.0
1226.549683 132.0
1226.751831 236.0
1227.170166 112.0
1227.246826 120.0
1228.697632 180.0
1229.54895 180.0
1230.142212 172.0
1230.484253 120.0
1231.049927 164.0
1231.189575 184.0
1231.238525 180.0
1231.545776 216.0
1231.713379 124.0
1231.804199 164.0
1232.032959 184.0
1232.195435 220.0
1232.426025 120.0
1232.635742 68.0
1233.055054 124.0
1233.131836 176.0
1233.207642 228.0
1233.719116 160.0
1233.928833 100.0
1234.13855 180.0
1234.201538 172.0
1234.445312 152.0
1234.579102 136.0
1234.64209 148.0
1235.012817 120.0
1235.089722 60.0
1235.138672 160.0
1235.411499 160.0
1235.798218 132.0
1235.908936 200.0
1236.454102 104.0
1236.580078 240.0
1237.78418 96.0
1237.889282 192.0
1237.994263 160.0
1238.057373 76.0
1238.120361 140.0
1238.197388 216.0
1238.610718 160.0
1239.500488 112.0
1240.019043 404.0
1240.111572 168.0
1240.173218 144.0
1240.579834 88.0
1240.734131 176.0
1240.909424 184.0
1241.210938 172.0
1241.393188 140.0
1241.568481 280.0
1241.659668 100.0
1241.778931 248.0
1242.164795 192.0
1242.361206 156.0
1242.733032 128.0
1242.828125 200.0
1243.294434 164.0
1243.533081 180.0
1243.771729 180.0
1243.912109 140.0
1244.076538 176.0
1244.256104 96.0
1244.438599 236.0
1244.536987 108.0
1244.677368 128.0
1245.05896 152.0
1245.133789 180.0
1245.765991 92.0
1245.990845 116.0
1246.229736 128.0
1246.433472 120.0
1246.482666 152.0
1246.644287 156.0
1246.700562 204.0
1247.037964 224.0
1247.185547 236.0
1247.403442 208.0
1247.649536 52.0
1248.190918 140.0
1248.408936 96.0
1248.722168 48.0
1249.189575 112.0
1249.379761 176.0
1249.541382 220.0
1249.625854 144.0
1249.696167 216.0
1249.865112 152.0
1250.10437 144.0
1250.406982 160.0
1250.519531 84.0
1251.336182 172.0
1251.397461 96.0
1251.695312 128.0
1251.962891 152.0
1252.3573 168.0
1252.927856 152.0
1253.146362 188.0
1253.470459 172.0
1254.259766 88.0
1254.316162 64.0
1254.436035 232.0
1254.746216 144.0
1254.809692 236.0
1255.056519 188.0
1255.270264 156.0
1255.359741 68.0
1255.507812 132.0
1255.952148 188.0
1256.207397 156.0
1256.382446 180.0
1256.685913 156.0
1256.791748 180.0
1257.603271 160.0
1257.822144 160.0
1257.949219 64.0
1258.514038 208.0
1258.958862 120.0
1259.08606 140.0
1259.312012 120.0
1259.457886 172.0
1260.258667 164.0
1260.449463 132.0
1260.922974 112.0
1261.043091 136.0
1261.12085 164.0
1261.292969 204.0
1261.553223 72.0
1261.622803 140.0
1261.77124 108.0
1262.167236 124.0
1262.428833 252.0
1263.426147 160.0
1264.12207 176.0
1264.218628 224.0
1264.317749 56.0
1264.36731 52.0
1264.961914 144.0
1265.145508 136.0
1265.317749 204.0
1265.52124 168.0
1266.217896 200.0
1266.519775 172.0
1266.895142 132.0
1266.987305 156.0
1267.072266 184.0
1267.185669 232.0
1268.177856 204.0
1268.246948 212.0
1268.794556 180.0
1268.978882 164.0
1269.383057 172.0
1269.439819 44.0
1269.95459 200.0
1269.985229 116.0
1270.009888 188.0
1270.347656 196.0
1270.404419 36.0
1270.943604 168.0
1271.516602 136.0
1271.852051 104.0
1271.951416 156.0
1272.334839 148.0
1272.590454 120.0
1273.256104 220.0
1273.456787 132.0
1273.513672 216.0
1273.740967 188.0
1274.053467 136.0
1274.309326 176.0
1274.806641 180.0
1275.247314 96.0
1275.354004 236.0
1275.965332 156.0
1276.035156 160.0
1276.107544 180.0
1276.697754 192.0
1276.896851 204.0
1277.297241 220.0
1277.487305 228.0
1277.558472 156.0
1278.106323 140.0
1278.326904 160.0
1278.454956 180.0
1278.547485 156.0
1278.651123 204.0
1278.746826 148.0
1279.116943 48.0
1279.608154 88.0
1280.056763 180.0
1280.177856 136.0
1280.256104 184.0
1280.57666 212.0
1280.726196 120.0
1280.854492 116.0
1281.075317 160.0
1281.859009 200.0
1282.229614 144.0
1282.443481 80.0
1282.543213 84.0
1282.760986 196.0
1282.835449 184.0
1283.606445 168.0
1283.748169 56.0
1284.019165 120.0
1284.939453 136.0
1286.153442 176.0
1286.473877 120.0
1287.252075 88.0
1287.410889 228.0
1287.959106 164.0
1288.2771 220.0
1288.392334 188.0
1288.587891 116.0
1288.945068 160.0
1289.095215 200.0
1289.453003 168.0
1289.809937 196.0
1290.095825 148.0
1290.188843 108.0
1290.360352 132.0
1290.47937 252.0
1290.996826 212.0
1291.165161 168.0
1291.490234 172.0
1291.719238 64.0
1292.850464 388.0
1293.028564 160.0
1293.157471 248.0
1293.637085 96.0
1293.773071 188.0
1293.837524 128.0
1294.150269 176.0
1294.5177 156.0
1295.219604 204.0
1295.860596 180.0
1296.265747 120.0
1296.351685 196.0
1296.516479 136.0
1296.796021 68.0
1297.032593 136.0
1297.247681 132.0
1297.333618 124.0
1297.484253 164.0
1298.291138 148.0
1298.359009 128.0
1298.610107 168.0
1298.724854 160.0
1298.846802 172.0
1299.090698 120.0
1299.198242 120.0
1299.311035 172.0
1299.427856 196.0
1299.621582 232.0
1299.831909 128.0
1299.908691 180.0
1300.037842 136.0
1300.123901 164.0
1300.299072 172.0
1300.497192 124.0
1300.676636 112.0
1300.985229 144.0
1301.042725 148.0
1301.1073 148.0
1301.416016 184.0
1301.588379 116.0
1301.660156 212.0
1302.026489 140.0
1302.12561 180.0
1302.694458 108.0
1303.111206 136.0
1303.585449 152.0
1303.992676 164.0
1304.034058 184.0
1304.138794 152.0
1304.559937 184.0
1304.627686 172.0
1304.764282 136.0
1304.864868 140.0
1305.05188 164.0
1305.440186 152.0
1305.504883 92.0
1305.605591 240.0
1305.734985 204.0
1305.929199 180.0
1306.188232 148.0
1306.457397 164.0
1306.504761 232.0
1306.569458 180.0
1306.835693 152.0
1307.058716 180.0
1307.188232 116.0
1308.267944 124.0
1308.318359 172.0
1308.411987 152.0
1308.699951 184.0
1308.771973 156.0
1308.980713 172.0
1309.384033 224.0
1309.989136 44.0
1310.277344 120.0
1310.39978 212.0
1310.673584 172.0
1310.810547 124.0
1311.372681 252.0
1311.581665 192.0
1311.697021 212.0
1312.021484 112.0
1312.288208 184.0
1312.403564 132.0
1312.850708 144.0
1312.937256 208.0
1313.167969 236.0
1314.03479 148.0
1314.134644 148.0
1314.82019 148.0
1315.650391 300.0
1315.744141 144.0
1316.011353 172.0
1316.170166 164.0
1316.430176 208.0
1316.762329 160.0
1317.163818 168.0
1317.318604 228.0
1317.860474 180.0
1318.055542 228.0
1318.171143 92.0
1318.867676 164.0
1319.139648 108.0
1319.323486 160.0
1319.891602 140.0
1320.043457 68.0
1320.477417 196.0
1320.578613 132.0
1320.737793 176.0
1321.490112 204.0
1321.794067 36.0
1322.134155 140.0
1322.640869 148.0
1323.538574 44.0
1323.849976 148.0
1323.997681 160.0
1324.127808 220.0
1324.233887 68.0
1324.37146 164.0
1324.769897 92.0
1324.826294 184.0
1325.066895 144.0
1325.248047 60.0
1325.356812 156.0
1326.320679 164.0
1327.263184 148.0
1327.589478 180.0
1327.792603 120.0
1327.937622 216.0
1328.285767 180.0
1328.721069 92.0
1328.822632 136.0
1328.967773 220.0
1329.577393 232.0
1329.722534 128.0
1329.954712 152.0
1330.114502 224.0
1330.73877 180.0
1330.927612 156.0
1331.19458 240.0
1331.443237 216.0
1331.958862 56.0
1332.104126 228.0
1332.234985 212.0
1332.525513 88.0
1332.87439 148.0
1333.041504 152.0
1333.398926 200.0
1333.840942 68.0
1334.073608 172.0
1334.175415 148.0
1334.240845 172.0
1334.633423 68.0
1335.321045 104.0
1335.375244 36.0
1336.102661 32.0
1336.197266 36.0
1336.430054 232.0
1336.633789 184.0
1336.924927 160.0
1337.112793 148.0
1337.18689 272.0
1337.413208 44.0
1337.616333 64.0
1337.670288 136.0
1337.747437 52.0
1337.809448 156.0
1337.973145 68.0
1338.424561 236.0
1339.167358 184.0
1339.238525 160.0
1339.263794 212.0
1339.859375 160.0
1339.954102 44.0
1340.158081 228.0
1340.762939 220.0
1340.872314 132.0
1341.470825 180.0
1341.58667 148.0
1341.735596 116.0
1341.845947 156.0
1341.914795 292.0
1342.038696 176.0
1342.123047 164.0
1342.250122 192.0
1342.505371 108.0
1342.695068 128.0
1343.052368 156.0
1343.200439 200.0
1343.402588 92.0
1343.818481 168.0
1344.387573 136.0
1344.70874 164.0
1345.008057 156.0
1345.482544 232.0
1345.555542 108.0
1345.657715 152.0
1345.825684 36.0
1346.059326 152.0
1346.241943 216.0
1346.534058 172.0
1347.58606 180.0
1347.711182 144.0
1347.757935 204.0
1347.847046 156.0
1347.876709 112.0
1348.565308 120.0
1348.652954 208.0
1349.319824 148.0
1349.544922 124.0
1349.800781 40.0
1349.96167 116.0
1350.054565 156.0
1350.290771 124.0
1350.57605 188.0
1350.685791 204.0
1350.78833 164.0
1350.84668 56.0
1351.088135 68.0
1351.227173 160.0
1351.505249 184.0
1351.658813 184.0
1352.127197 136.0
1352.229736 100.0
1352.41272 144.0
1352.463867 172.0
1352.88147 224.0
1353.064209 136.0
1353.218018 160.0
1353.466919 84.0
1353.759888 100.0
1353.825806 124.0
1353.972168 116.0
1354.023438 180.0
1354.257812 140.0
1354.309082 128.0
1354.387085 208.0
1354.690063 180.0
1355.063721 116.0
1355.116821 140.0
1355.276245 124.0
1356.057373 120.0
1356.287598 136.0
1356.419556 168.0
1356.947388 192.0
1357.08667 148.0
1357.192139 188.0
1357.984741 144.0
1358.377441 60.0
1359.015747 180.0
1359.206543 188.0
1359.294556 136.0
1359.676147 200.0
1359.822998 124.0
1359.905884 204.0
1360.075684 76.0
1360.579102 160.0
1360.722534 256.0
1360.784668 208.0
1360.946167 136.0
1361.107788 116.0
1361.401001 120.0
1361.519043 156.0
1361.677734 228.0
1362.084595 132.0
1362.199829 196.0
1362.327026 112.0
1362.389893 156.0
1362.547363 148.0
1362.914795 148.0
1363.108032 196.0
1363.252808 116.0
1363.862793 128.0
1364.15686 92.0
1364.473022 148.0
1364.914185 148.0
1365.164185 140.0
1365.370117 184.0
1365.495117 156.0
1365.614136 176.0
1365.767334 136.0
1366.731079 148.0
1366.937134 144.0
1367.334473 128.0
1367.925781 184.0
1367.994019 176.0
1368.269409 132.0
1368.836426 124.0
1368.954224 136.0
1369.094116 156.0
1370.240967 116.0
1370.464233 160.0
1370.560059 48.0
1371.134888 172.0
1371.706421 148.0
1371.79834 316.0
1371.864624 100.0
1372.130005 104.0
1372.727295 188.0
1372.845337 224.0
1373.191895 192.0
1373.280396 156.0
1374.143555 260.0
1374.357544 152.0
1374.78894 148.0
1374.962646 248.0
1375.30957 116.0
1375.796753 268.0
1376.048462 188.0
1376.195435 112.0
1376.306274 140.0
1376.431763 72.0
1376.557373 124.0
1377.052124 160.0
1377.207275 220.0
1377.689941 192.0
1377.776123 136.0
1377.886841 224.0
1377.960815 240.0
1378.019897 124.0
1378.130737 176.0
1378.518921 204.0
1378.625854 136.0
1378.84021 124.0
1378.943604 120.0
1379.194946 136.0
1379.35022 124.0
1379.690186 156.0
1380.438354 176.0
1380.55542 184.0
1380.66626 148.0
1380.880737 96.0
1381.097778 116.0
1381.310791 208.0
1381.472534 152.0
1381.820312 232.0
1382.308594 108.0
1382.404785 148.0
1382.523193 116.0
1382.604614 92.0
1382.767456 196.0
1383.004395 36.0
1383.263428 80.0
1383.398926 156.0
1383.50769 232.0
1383.688354 164.0
1384.692505 216.0
1384.751709 200.0
1384.803589 164.0
1384.881104 200.0
1385.05542 172.0
1385.269775 124.0
1385.455444 180.0
1385.536987 156.0
1385.588867 200.0
1385.714844 164.0
1386.448364 128.0
1386.641113 116.0
1386.967285 236.0
1387.801514 196.0
1387.893921 152.0
1388.196899 196.0
1388.30188 188.0
1388.546631 68.0
1388.647339 120.0
1388.812256 148.0
1388.947144 104.0
1389.384766 76.0
1389.50354 176.0
1389.570312 136.0
1389.659302 88.0
1389.785522 44.0
1390.171387 176.0
1390.401367 172.0
1390.59436 144.0
1390.765137 204.0
1390.907837 196.0
1391.422852 188.0
1391.453613 112.0
1391.46521 160.0
1391.552002 116.0
1391.65979 220.0
1392.138672 56.0
1392.279785 184.0
1392.480225 208.0
1392.807129 124.0
1393.364258 200.0
1393.505981 152.0
1393.772949 120.0
1393.876953 36.0
1393.95874 136.0
1394.233643 164.0
1394.404663 136.0
1394.539062 132.0
1395.140503 144.0
1395.281738 48.0
1395.378418 84.0
1396.382324 212.0
1396.58313 132.0
1396.73938 124.0
1396.999756 168.0
1397.103882 204.0
1397.342041 160.0
1398.257324 152.0
1398.465698 136.0
1398.532715 36.0
1398.666626 164.0
1398.954224 172.0
1399.07605 128.0
1399.187744 160.0
1399.359009 208.0
1399.440918 112.0
1399.582397 180.0
1399.65686 176.0
1399.783447 128.0
1399.934204 152.0
1399.991943 172.0
1400.066406 160.0
1400.240356 220.0
1400.319702 188.0
1400.535645 232.0
1400.707031 172.0
1400.78894 164.0
1400.923096 160.0
1400.997559 168.0
1401.120483 212.0
1401.452026 136.0
1401.735229 216.0
1401.802246 160.0
1401.906616 144.0
1402.070557 128.0
1402.35376 164.0
1402.443237 136.0
1402.793579 188.0
1403.062012 168.0
1403.114136 172.0
1403.382568 116.0
1403.546631 136.0
1403.598755 148.0
1404.472168 164.0
1404.762329 128.0
1404.99353 124.0
1405.165161 140.0
1405.523315 188.0
1405.791992 64.0
1406.060669 132.0
1406.180054 220.0
1406.291992 152.0
1406.523438 144.0
1406.635376 104.0
1406.874268 152.0
1407.016113 180.0
1407.337158 156.0
1407.635864 120.0
1408.001831 136.0
1408.158691 140.0
1408.255737 140.0
1408.390259 136.0
1408.509766 152.0
1408.748779 136.0
1408.998779 120.0
1409.241943 128.0
1409.309082 176.0
1409.383911 188.0
1409.510864 172.0
1409.630493 248.0
1409.92688 220.0
1410.041504 92.0
1410.23584 124.0
1410.407715 224.0
1410.519897 176.0
1410.587158 172.0
1410.766602 160.0
1411.103027 200.0
1411.297363 116.0
1411.454468 80.0
1411.75354 172.0
1411.947998 132.0
1412.553833 120.0
1412.621216 148.0
1412.696045 112.0
1413.015625 164.0
1413.578857 56.0
1414.042969 116.0
1414.255127 140.0
1414.417236 188.0
1414.477051 272.0
1414.903809 116.0
1415.128418 180.0
1415.218262 188.0
1415.368042 104.0
1415.802368 76.0
1416.491455 144.0
1416.940918 340.0
1417.085815 208.0
1417.195679 36.0
1417.465454 76.0
1417.690308 180.0
1417.78772 220.0
1417.922607 156.0
1418.012573 144.0
1418.394775 152.0
1418.447266 64.0
1418.604736 128.0
1418.702148 164.0
1418.949585 216.0
1419.009521 172.0
1419.151978 40.0
1419.204468 188.0
1419.309448 236.0
1419.849487 188.0
1420.269531 108.0
1420.614502 224.0
1420.899658 80.0
1420.952148 144.0
1421.034668 204.0
1421.259766 180.0
1421.409912 184.0
1421.639893 172.0
1421.785034 72.0
1422.711914 92.0
1422.911133 144.0
1423.121338 140.0
1423.25647 116.0
1423.332031 120.0
1423.549316 220.0
1423.752075 168.0
1423.887329 56.0
1424.03064 224.0
1424.240356 164.0
1424.300415 120.0
1424.353027 208.0
1424.488159 172.0
1424.631714 144.0
1424.751099 132.0
1424.811279 176.0
1425.284546 232.0
1425.47998 120.0
1425.682861 156.0
1425.788086 188.0
1425.902222 176.0
1426.43457 104.0
1426.863037 128.0
1426.938232 188.0
1427.00415 124.0
1427.073608 164.0
1427.156494 164.0
1427.52478 176.0
1427.622559 192.0
1428.01355 168.0
1428.141479 92.0
1428.374634 168.0
1428.60791 120.0
1428.675537 124.0
1429.088257 180.0
1429.157104 168.0
1429.691406 184.0
1429.804321 360.0
1430.195679 176.0
1430.286011 104.0
1430.368774 136.0
1430.624756 180.0
1430.730103 52.0
1430.993652 204.0
1431.196899 92.0
1431.324951 204.0
1431.5 208.0
1431.919922 92.0
1432.28894 156.0
1432.401978 112.0
1433.102661 120.0
1433.162964 152.0
1433.539673 188.0
1433.65271 56.0
1434.218018 140.0
1434.361206 220.0
1434.459229 168.0
1434.700439 188.0
1434.809448 168.0
1435.092529 64.0
1435.190552 160.0
1435.328125 184.0
1435.469604 108.0
1435.55249 204.0
1435.786377 160.0
1435.859253 180.0
1436.088013 128.0
1436.849976 136.0
1436.917847 152.0
1437.076294 128.0
1437.12915 232.0
1437.197021 140.0
1437.325317 224.0
1437.392822 168.0
1437.642212 40.0
1437.846069 176.0
1438.694946 164.0
1438.838379 172.0
1439.008545 128.0
1439.91687 196.0
1440.601318 144.0
1440.692749 232.0
1440.836304 176.0
1441.062988 144.0
1441.183838 52.0
1441.259277 144.0
1441.508789 144.0
1442.057007 392.0
1442.544312 200.0
1442.753784 168.0
1442.952515 76.0
1443.194458 56.0
1443.36084 124.0
1443.428955 128.0
1443.757202 164.0
1444.381836 108.0
1444.480225 92.0
1444.59668 172.0
1444.792236 132.0
1444.973145 156.0
1445.17627 212.0
1445.672852 120.0
1446.213013 192.0
1446.448486 196.0
1446.909546 136.0
1446.962524 132.0
1447.098755 152.0
1447.41687 140.0
1448.530151 112.0
1448.628662 264.0
1448.790894 172.0
1448.931641 152.0
1449.048218 212.0
1449.549805 172.0
1449.75769 136.0
1449.856201 152.0
1449.954712 100.0
1450.060791 120.0
1450.208618 136.0
1450.310913 136.0
1450.621704 252.0
1450.743042 216.0
1450.924927 56.0
1451.101074 104.0
1451.374756 228.0
1451.906738 140.0
1452.236816 196.0
1452.995483 140.0
1453.154785 160.0
1453.382446 156.0
1453.602539 40.0
1453.693604 160.0
1454.012329 168.0
1454.490479 128.0
1454.55127 116.0
1454.756226 140.0
1455.376953 84.0
1455.576172 132.0
1455.880005 200.0
1455.933105 88.0
1456.186646 148.0
1457.019409 204.0
1457.102905 180.0
1457.224487 156.0
1457.434204 212.0
1457.794434 144.0
1457.916016 188.0
1458.144043 76.0
1458.227661 168.0
1458.37207 164.0
1458.481567 204.0
1458.848267 120.0
1459.071411 152.0
1459.246338 180.0
1459.307129 160.0
1459.421143 116.0
1459.489624 192.0
1459.565674 152.0
1459.626465 128.0
1460.0448 224.0
1460.143555 124.0
1460.219727 84.0
1460.341309 36.0
1460.736938 216.0
1460.828247 104.0
1461.048828 60.0
1461.353149 128.0
1461.670898 152.0
1461.817383 136.0
1462.921021 168.0
1463.431152 120.0
1463.758545 148.0
1464.154541 176.0
1464.223022 168.0
1464.322144 120.0
1464.38916 180.0
1464.786743 172.0
1464.91626 148.0
1465.030518 124.0
1465.160034 132.0
1465.350464 176.0
1465.876221 164.0
1465.952515 188.0
1466.025391 112.0
1466.139526 164.0
1466.524048 176.0
1466.707031 108.0
1466.81311 136.0
1466.86084 152.0
1466.958618 200.0
1467.69812 164.0
1467.766724 172.0
1468.206909 168.0
1468.284668 164.0
1468.314941 160.0
1468.743042 120.0
1469.101562 160.0
1469.391479 160.0
1469.490601 188.0
1469.765381 176.0
1469.849243 176.0
1470.131592 144.0
1470.261353 224.0
1470.398682 144.0
1470.528442 160.0
1470.879639 112.0
1470.955933 128.0
1471.055176 196.0
1471.13916 96.0
1471.490356 140.0
1471.643066 116.0
1472.124146 152.0
1472.399048 200.0
1472.628174 124.0
1472.689331 96.0
1472.764771 188.0
1473.063599 168.0
1473.353882 216.0
1473.651855 160.0
1473.789429 180.0
1474.044312 360.0
1474.438965 152.0
1474.53833 224.0
1474.966431 216.0
1475.134521 160.0
1475.256836 44.0
1475.394531 120.0
1475.730957 160.0
1475.86084 180.0
1475.937378 96.0
1476.289185 172.0
1476.350342 156.0
1476.694458 72.0
1476.786255 180.0
1477.008057 172.0
1477.19165 176.0
1477.581909 152.0
1477.872559 164.0
1478.017944 112.0
1478.078003 176.0
1478.251221 152.0
1478.497192 208.0
1478.706787 192.0
1478.813965 132.0
1479.120117 200.0
1479.341919 172.0
1479.985229 156.0
1480.306885 176.0
1480.531738 208.0
1480.666748 252.0
1480.803345 192.0
1480.911865 172.0
1480.973145 164.0
1481.169434 184.0
1481.569214 164.0
1481.662598 208.0
1481.754517 168.0
1481.869507 132.0
1482.097046 216.0
1482.206665 136.0
1482.467163 176.0
1482.797607 168.0
1483.045288 216.0
1483.092285 208.0
1483.325562 176.0
1483.379272 208.0
1483.521118 184.0
1483.789307 192.0
1483.869873 152.0
1484.083374 152.0
1484.153687 152.0
1484.445068 132.0
1484.560059 96.0
1484.634644 216.0
1484.790161 52.0
1484.992065 136.0
1485.096924 28.0
1485.242676 188.0
1485.564819 152.0
1485.990356 156.0
1486.324463 188.0
1486.846313 164.0
1486.900024 168.0
1486.961426 124.0
1487.122559 100.0
1487.260742 124.0
1487.506348 152.0
1487.612061 224.0
1487.775146 100.0
1487.828857 208.0
1488.155884 108.0
1488.239624 236.0
1488.381714 228.0
1489.046631 108.0
1489.111206 124.0
1489.848633 168.0
1489.910156 132.0
1490.048462 132.0
1490.186768 36.0
1490.348145 148.0
1490.463013 172.0
1490.647583 124.0
1491.02417 164.0
1491.178101 76.0
1492.008301 172.0
1492.246582 196.0
1492.446533 164.0
1492.577271 104.0
1492.748291 144.0
1493.069458 180.0
1493.138672 160.0
1493.338623 148.0
1493.692505 180.0
1493.830933 160.0
1493.96167 196.0
1494.145996 168.0
1494.492554 164.0
1494.931152 204.0
1494.992798 148.0
1495.054321 296.0
1495.115967 132.0
1495.439209 100.0
1495.962646 184.0
1496.038452 168.0
1496.116577 180.0
1496.185913 116.0
1497.115356 224.0
1497.283325 52.0
1497.402588 228.0
1497.995605 168.0
1498.135742 128.0
1498.350098 136.0
1498.534912 200.0
1498.658203 140.0
1498.827759 208.0
1498.943359 184.0
1499.351807 112.0
1499.421143 156.0
1499.768066 88.0
1500.084106 176.0
1500.168823 164.0
1500.562012 144.0
1500.677734 188.0
1500.762573 260.0
1500.84729 108.0
1501.070923 192.0
1501.495117 116.0
1501.572266 152.0
1501.819092 132.0
1501.88855 88.0
1501.98877 76.0
1502.453247 160.0
1502.567383 140.0
1502.90686 168.0
1503.122925 184.0
1503.34668 288.0
1504.1427 148.0
1504.470703 208.0
1504.76709 164.0
1504.828857 148.0
1505.00647 124.0
1505.407959 188.0
