>compound MLS002473007-01!
>formula C15H10O5
>ionization [M+H]+
>parentmass 271.060333
#inchi InChI=1S/C15H10O5/c16-9-6-11(8-4-2-1-3-5-8)20-12-7-10(17)14(18)15(19)13(9)12/h1-7,17-19H
#inchikey FXNFHKRTJBSTCS
#Ion_Source LC-ESI
#Instrument qTof
#Compound_Source NIH Natural Product Library
#PI Dorrestein
#Data_Collector VVP/LMS
#Scan -1
#Precursor_MZ 271.061
#ExactMass 270.053
#Charge 1
#CAS_Number N/A
#Pubmed_ID N/A
#Smiles Oc1cc2oc(cc(=O)c2c(O)c1O)c3ccccc3
#INCHI_AUX N/A
#Library_Class 1
#SpectrumID CCMSLIB00000080559
#IonMode Positive
#UpdateWorkflowName UPDATE-SINGLE-ANNOTATED-GOLD
#LibraryQualityString Gold
#TaskID b1d8e8f6646f4e71acdff9ca3d919d08
##Scan# 1916
#SpectrumFile p2-F10_GF10_01_18046.mzXML
#LibraryName NIH_Natural_Products_Library.mgf
#MQScore -1
#Organism NIH_Natural_Products_Library
#TIC_Query 0
#RT_Query -1
#MZErrorPPM -1
#SharedPeaks 0
#MassDiff 0
#LibMZ -1
#SpecMZ 271.061
#SpecCharge 0
#internalFilename spec-00000.mgf

>collision 10
95.012733 904.0
96.014999 200.0
96.631065 124.0
96.754364 104.0
97.625572 196.0
97.782959 152.0
97.989723 172.0
98.961479 152.0
99.248779 172.0
99.59211 116.0
99.663628 224.0
100.398178 136.0
101.335686 112.0
101.885414 128.0
102.448715 100.0
103.054459 912.0
103.148956 36.0
103.646828 60.0
103.695465 96.0
103.863762 120.0
104.054176 192.0
104.158089 60.0
104.874191 112.0
105.031303 488.0
105.067932 180.0
105.217041 196.0
105.23542 216.0
106.006577 148.0
106.338814 156.0
106.718857 156.0
107.353081 208.0
107.794846 216.0
108.57946 128.0
109.173424 124.0
109.992241 152.0
110.278404 264.0
110.980263 212.0
111.009064 176.0
111.063599 128.0
111.657997 188.0
113.023865 220.0
113.041931 140.0
113.143532 168.0
114.002579 140.0
114.89048 204.0
115.007843 72.0
115.05481 776.0
115.589157 152.0
115.940361 144.0
116.526169 164.0
116.659416 112.0
116.971336 156.0
118.331413 52.0
118.968811 152.0
119.081726 176.0
121.068588 168.0
121.724281 236.0
122.775749 140.0
122.935028 172.0
122.976967 184.0
123.007797 7816.0
123.052017 56.0
123.467445 52.0
123.609032 40.0
124.012787 392.0
124.105202 224.0
124.12738 80.0
124.160645 96.0
124.480209 128.0
124.811302 136.0
124.944756 96.0
125.009285 120.0
125.062286 88.0
125.604156 80.0
126.444275 76.0
126.742119 116.0
127.05291 300.0
128.054077 172.0
128.96788 96.0
129.035599 460.0
129.066116 184.0
129.624191 64.0
129.762466 160.0
129.875854 112.0
130.036942 152.0
130.937286 136.0
131.003342 88.0
131.049896 304.0
131.340714 124.0
132.956039 176.0
133.024902 116.0
133.332687 260.0
133.367157 108.0
133.544205 188.0
134.410431 220.0
135.886658 64.0
136.056076 180.0
137.023575 140.0
137.058517 140.0
137.592636 152.0
139.005096 148.0
139.053879 368.0
139.095581 32.0
141.018768 468.0
141.069183 776.0
141.710999 160.0
141.886383 220.0
142.021561 64.0
143.04808 132.0
143.484039 212.0
144.054413 108.0
147.048721 160.0
147.076309 112.0
148.083527 176.0
148.968903 160.0
149.216782 116.0
149.747269 184.0
149.991623 184.0
150.046997 116.0
150.608276 160.0
150.877075 84.0
150.972443 184.0
151.002579 688.0
151.053162 148.0
151.937515 84.0
152.006226 180.0
152.038132 220.0
152.057404 360.0
152.163315 68.0
152.396652 160.0
152.890915 148.0
153.03212 308.0
153.117416 188.0
153.452545 132.0
153.746078 172.0
155.048492 344.0
155.542999 76.0
156.826492 140.0
156.996033 140.0
157.05838 164.0
158.0681 160.0
159.082794 164.0
159.454544 116.0
160.191803 144.0
161.054489 156.0
162.061356 152.0
163.086609 132.0
164.362534 212.0
164.965271 232.0
165.254272 144.0
165.2901 164.0
166.954971 44.0
168.004868 124.0
168.050095 184.0
168.912628 172.0
169.012161 1296.0
169.062347 248.0
169.839966 156.0
170.0168 324.0
170.073486 140.0
170.216278 32.0
171.019989 204.0
173.063721 164.0
173.089905 188.0
174.062744 172.0
175.083099 128.0
175.117325 220.0
176.04303 296.0
176.775299 80.0
177.053833 168.0
177.771698 128.0
178.047791 92.0
178.146072 136.0
178.212494 92.0
179.048141 940.0
179.83696 52.0
181.018646 196.0
181.053452 100.0
183.035294 180.0
184.043762 152.0
184.505783 204.0
185.054703 176.0
186.069366 156.0
186.672226 76.0
187.078201 376.0
188.099884 184.0
188.271896 152.0
189.056503 92.0
190.056702 168.0
191.166855 200.0
191.844421 192.0
191.985046 184.0
197.059799 200.0
197.106857 52.0
198.055267 196.0
199.286835 140.0
201.049606 112.0
203.069092 156.0
204.072388 308.0
204.968719 116.0
205.008606 140.0
205.085602 268.0
205.162521 52.0
205.573257 204.0
206.08725 144.0
207.045639 272.0
209.617203 108.0
210.124146 108.0
210.733337 148.0
211.04155 288.0
212.032639 188.0
212.052917 204.0
212.194962 148.0
213.00174 164.0
213.051117 60.0
213.504562 180.0
214.453705 220.0
215.066223 56.0
216.970596 136.0
217.049759 52.0
218.247772 136.0
220.036224 180.0
220.432022 128.0
220.993835 112.0
221.434921 108.0
222.939072 56.0
223.029556 128.0
224.982376 132.0
225.009247 64.0
225.056366 296.0
226.069839 136.0
227.032013 160.0
228.30835 52.0
229.052032 192.0
230.877823 100.0
230.96553 176.0
231.05629 176.0
232.092133 144.0
232.960144 160.0
234.606522 108.0
234.978592 116.0
235.033508 124.0
237.579086 148.0
238.064041 28.0
238.488022 184.0
239.235519 128.0
241.058151 172.0
242.060394 272.0
242.181412 200.0
242.503647 28.0
242.612137 148.0
243.052551 164.0
244.983307 184.0
245.715942 120.0
247.028046 140.0
249.03418 140.0
252.978943 188.0
253.048981 2148.0
253.599792 92.0
254.054779 216.0
254.764359 68.0
254.799316 60.0
255.06395 348.0
255.330719 200.0
257.095123 128.0
257.970276 132.0
261.659637 132.0
262.107361 320.0
264.115448 160.0
264.992767 144.0
265.083984 132.0
265.602234 116.0
266.569733 176.0
267.972137 140.0
268.363281 228.0
268.493713 192.0
270.002533 52.0
270.0513 168.0
270.280609 72.0
270.404968 180.0
270.69632 212.0
270.899384 68.0
271.014069 160.0
271.060333 11224.0
271.141876 56.0
271.312317 148.0
271.405609 88.0
271.469696 84.0
271.659943 60.0
271.818695 124.0
272.063843 1636.0
272.368988 44.0
273.066498 732.0
273.253296 92.0
273.427704 60.0
273.608734 76.0
274.040192 48.0
274.722656 56.0
274.805115 68.0
275.296967 44.0
275.964447 232.0
276.086792 96.0
276.430847 48.0
276.728729 92.0
277.046692 156.0
279.483643 136.0
280.052917 132.0
281.019684 40.0
284.517151 56.0
288.932098 84.0
290.470093 84.0
306.022369 152.0
308.8526 112.0
314.044037 168.0
320.157776 120.0
324.083588 208.0
362.051025 48.0
369.163727 88.0
401.083923 188.0
403.591034 72.0
409.5466 20.0
485.384003 156.0
547.507629 52.0
831.923279 188.0
992.108154 144.0
1021.988464 132.0
1044.893921 160.0
1049.215332 168.0
1069.790527 52.0
1073.79126 132.0
1120.58313 184.0
1139.658569 144.0
1152.190186 164.0
1157.330322 128.0
1176.018433 244.0
1181.765503 104.0
1192.305054 292.0
1204.790527 248.0
1205.446899 188.0
1214.169434 116.0
1248.045044 124.0
1250.479004 188.0
1255.057983 68.0
1264.233887 92.0
1265.090332 136.0
1282.892822 136.0
1289.273804 180.0
1304.526245 284.0
1314.27771 136.0
1320.577148 160.0
1330.424561 212.0
1331.550049 60.0
1337.788696 156.0
1353.801758 168.0
1390.099609 116.0
1400.619629 172.0
1402.311035 76.0
1403.376953 176.0
1424.744507 80.0
1439.11438 220.0
1440.088623 208.0
1440.315186 164.0
1442.703003 184.0
1460.196045 196.0
1461.877319 140.0
1475.874512 240.0
1482.089722 88.0
1495.613525 180.0
1502.317505 124.0
