>compound MLS001140886-01!2-[[2-(6-chloro-2-oxo-4-propylchromen-7-yl)oxyacetyl]amino]-3-(5-hydroxy-1H-indol-3-yl)propanoic acid
>formula C25H23ClN2O7
>ionization [M+H]+
>parentmass 499.127
#inchi InChI=1S/C25H23ClN2O7/c1-2-3-13-7-24(31)35-21-10-22(18(26)9-17(13)21)34-12-23(30)28-20(25(32)33)6-14-11-27-19-5-4-15(29)8-16(14)19/h4-5,7-11,20,27,29H,2-3,6,12H2,1H3,(H,28,30)(H,32,33)
#inchikey WHWMBRCCLUDFRJ
#Ion_Source LC-ESI
#Instrument qTof
#Compound_Source NIH Natural Product Library
#PI Dorrestein
#Data_Collector VVP/LMS
#Scan -1
#Precursor_MZ 499.127
#ExactMass 498.119
#Charge 1
#CAS_Number N/A
#Pubmed_ID N/A
#Smiles CCCc1cc(=O)oc2cc(OCC(=O)NC(Cc3c[nH]c4ccc(O)cc34)C(=O)O)c(Cl)cc12
#INCHI_AUX N/A
#Library_Class 1
#SpectrumID CCMSLIB00000080044
#IonMode Positive
#UpdateWorkflowName UPDATE-SINGLE-ANNOTATED-GOLD
#LibraryQualityString Gold
#TaskID b1d8e8f6646f4e71acdff9ca3d919d08
##Scan# 1998
#SpectrumFile p2-D03_GD3_01_18015.mzXML
#LibraryName NIH_Natural_Products_Library.mgf
#MQScore -1
#Organism NIH_Natural_Products_Library
#TIC_Query 0
#RT_Query -1
#MZErrorPPM -1
#SharedPeaks 0
#MassDiff 0
#LibMZ -1
#SpecMZ 499.127
#SpecCharge 0
#internalFilename spec-00000.mgf

>collision 10
95.271881 108.0
95.405975 124.0
95.690437 188.0
95.740639 112.0
96.235924 208.0
96.521194 100.0
96.583778 160.0
96.81472 164.0
96.873482 116.0
97.244072 88.0
97.271545 148.0
97.295105 148.0
97.54702 184.0
97.894798 172.0
97.944283 188.0
97.975548 64.0
98.028748 100.0
98.147018 120.0
98.267334 116.0
98.520035 196.0
98.640572 136.0
98.664291 240.0
98.721634 136.0
98.790863 104.0
98.897713 184.0
99.107628 176.0
99.280083 68.0
99.30983 88.0
99.430855 80.0
99.472534 116.0
99.486427 128.0
99.555923 52.0
99.659218 120.0
99.730759 100.0
99.892548 212.0
100.355835 172.0
100.38176 152.0
100.395714 56.0
100.467522 96.0
100.571281 216.0
100.625183 172.0
100.778969 100.0
100.866905 188.0
100.92688 244.0
101.10891 188.0
101.499542 128.0
102.158295 148.0
102.365593 96.0
102.708206 116.0
103.054115 416.0
103.081703 152.0
103.14196 132.0
103.255554 192.0
103.336197 148.0
103.502434 128.0
103.782051 128.0
103.830719 228.0
104.045502 136.0
104.118904 180.0
104.458328 168.0
104.60891 144.0
104.720901 152.0
104.800346 160.0
104.84314 152.0
104.951172 184.0
105.055191 100.0
105.069466 172.0
105.520813 92.0
105.592384 128.0
106.018204 216.0
106.042801 192.0
106.066185 556.0
106.215027 80.0
106.373032 180.0
106.416145 172.0
106.508553 168.0
106.529091 188.0
106.598953 180.0
106.860085 112.0
106.954742 72.0
107.053566 64.0
107.070038 44.0
107.156288 184.0
107.238983 152.0
107.294632 148.0
107.350304 172.0
107.579323 204.0
107.637131 108.0
107.860535 148.0
107.891266 176.0
108.126732 200.0
108.323761 184.0
108.408707 168.0
108.655449 216.0
108.769585 180.0
108.827095 188.0
108.883781 236.0
109.004265 216.0
109.104027 76.0
109.160172 204.0
110.012314 100.0
110.072861 108.0
110.139687 92.0
110.25042 140.0
110.647842 216.0
110.677155 168.0
110.748352 96.0
111.052269 68.0
111.098412 188.0
111.207527 148.0
111.2789 152.0
111.316689 256.0
111.392303 176.0
111.46373 92.0
111.840172 156.0
112.191956 144.0
112.244659 124.0
112.343788 72.0
112.438736 176.0
112.460281 116.0
112.789345 124.0
112.880249 164.0
113.030434 184.0
113.127792 124.0
113.14473 180.0
113.210365 148.0
113.244247 88.0
113.341698 156.0
113.487953 140.0
113.502792 224.0
113.88266 228.0
113.9039 228.0
114.001633 184.0
114.175049 160.0
114.463234 220.0
114.772194 116.0
114.831909 132.0
115.055382 348.0
115.079735 204.0
115.141365 132.0
115.177673 44.0
115.201172 148.0
115.226807 192.0
115.280228 216.0
115.402061 40.0
115.56675 256.0
115.68721 168.0
115.817223 40.0
115.965057 192.0
116.051857 212.0
116.106186 116.0
116.125862 68.0
116.256729 220.0
116.36834 200.0
116.396255 44.0
116.456383 60.0
116.972427 152.0
117.006874 56.0
117.034859 132.0
117.058014 1736.0
117.084389 36.0
117.157623 212.0
117.537079 136.0
117.670898 88.0
117.813431 220.0
117.940926 160.0
118.067139 1172.0
118.137695 184.0
118.170151 104.0
118.315155 260.0
118.627098 156.0
118.659615 132.0
118.815765 304.0
118.830956 200.0
118.937286 220.0
119.050186 152.0
119.07457 192.0
119.090836 156.0
119.169655 176.0
119.187035 140.0
119.201202 140.0
119.460968 160.0
119.524063 140.0
119.955276 180.0
120.075256 156.0
120.238823 156.0
120.295578 64.0
120.393829 204.0
120.516151 184.0
120.686638 160.0
121.021393 192.0
121.049858 152.0
121.130898 180.0
121.16156 116.0
121.201004 120.0
121.251404 156.0
121.50576 228.0
121.628647 132.0
121.734024 152.0
121.793327 228.0
121.993286 168.0
122.072662 192.0
122.142815 104.0
122.406914 224.0
122.453156 176.0
122.488396 172.0
122.530251 212.0
122.565506 204.0
122.702156 112.0
122.82785 140.0
122.920509 148.0
123.474998 120.0
123.590027 156.0
123.61879 36.0
123.655319 144.0
123.809174 172.0
124.258873 168.0
124.461113 160.0
124.514404 80.0
124.538834 136.0
124.8144 176.0
124.982742 240.0
125.014603 124.0
125.039078 104.0
125.121437 172.0
125.255051 36.0
125.590546 176.0
125.725487 204.0
125.77459 104.0
125.980026 172.0
125.995659 176.0
126.127502 200.0
126.454056 128.0
126.478676 176.0
126.664528 164.0
126.769821 60.0
126.810165 172.0
127.051163 260.0
127.138542 152.0
127.180237 164.0
127.34639 88.0
127.532875 152.0
127.982521 164.0
128.052063 296.0
128.235092 148.0
128.338791 128.0
128.440277 176.0
128.460571 172.0
128.659164 160.0
128.796906 144.0
128.830795 124.0
128.98671 128.0
129.031921 188.0
129.068695 168.0
129.541107 188.0
129.722382 204.0
129.853897 48.0
129.903793 164.0
130.066071 1336.0
130.137558 212.0
130.244278 120.0
130.321884 180.0
130.362427 60.0
130.387421 200.0
130.408981 156.0
130.576126 56.0
130.947098 104.0
130.972137 328.0
131.049988 2080.0
131.084015 544.0
131.106567 192.0
131.152145 152.0
131.677811 172.0
131.763702 184.0
131.925964 172.0
131.973984 264.0
132.039307 172.0
132.056351 264.0
132.082016 888.0
132.156952 196.0
132.208984 76.0
132.296555 212.0
132.398727 220.0
132.543915 196.0
132.598907 156.0
132.761673 160.0
132.869476 108.0
132.933731 116.0
132.9888 132.0
133.05365 1364.0
133.133438 52.0
133.200043 52.0
133.337906 160.0
133.795639 192.0
133.834778 72.0
133.871628 132.0
134.060562 2264.0
134.090744 172.0
134.208038 128.0
134.23111 44.0
134.325668 124.0
134.468719 52.0
134.526413 168.0
134.6996 52.0
134.780472 120.0
135.063095 388.0
135.238358 172.0
135.363373 128.0
135.393478 204.0
135.439789 52.0
135.557953 84.0
135.919678 140.0
135.947525 144.0
136.010193 140.0
136.059341 164.0
136.219177 152.0
136.281906 52.0
136.567352 136.0
136.6539 164.0
136.828461 160.0
136.915634 164.0
137.012436 64.0
137.089325 152.0
137.254822 212.0
137.36911 160.0
137.558121 64.0
137.751938 120.0
137.920166 160.0
137.938873 168.0
138.139969 192.0
138.266327 164.0
138.753525 156.0
138.812149 224.0
138.90831 184.0
139.363754 164.0
139.455399 148.0
139.476547 188.0
139.791702 176.0
139.916443 92.0
140.052231 172.0
140.29306 184.0
140.418335 116.0
140.479675 152.0
140.692047 144.0
141.016464 248.0
141.053482 124.0
141.171692 208.0
141.408264 192.0
141.673462 152.0
141.761124 100.0
141.908096 164.0
141.993454 216.0
142.06514 1476.0
142.100204 176.0
142.135788 160.0
142.280563 220.0
142.522827 72.0
142.560837 176.0
142.58223 160.0
142.6987 160.0
142.82579 172.0
142.927032 144.0
143.05304 368.0
143.070923 724.0
143.534424 276.0
143.59166 60.0
143.782516 88.0
144.007446 268.0
144.047348 512.0
144.05278 468.0
144.079285 172.0
144.123993 104.0
144.188522 172.0
144.255447 140.0
144.324768 40.0
144.427612 156.0
144.449127 148.0
144.89679 96.0
144.99382 140.0
145.065689 628.0
145.234787 132.0
145.383545 216.0
145.409943 192.0
145.437622 60.0
145.498749 128.0
145.55397 92.0
145.606796 96.0
145.649216 128.0
145.707687 240.0
145.724503 196.0
145.750931 136.0
145.908279 68.0
145.935089 200.0
146.000931 148.0
146.061325 36612.0
146.126007 40.0
146.157288 60.0
146.196487 120.0
146.227081 56.0
146.278732 52.0
146.316147 84.0
146.337814 60.0
146.39801 144.0
146.4245 100.0
146.45282 148.0
146.474777 64.0
146.558304 80.0
146.585907 48.0
146.680405 76.0
146.708817 52.0
146.799316 236.0
146.834198 56.0
146.889679 40.0
147.019958 52.0
147.06485 5060.0
147.101776 232.0
147.136414 92.0
147.193268 96.0
147.289108 176.0
147.343521 188.0
147.379761 52.0
147.490921 64.0
147.556198 76.0
147.735291 144.0
147.788376 72.0
147.865814 32.0
147.948105 156.0
147.972321 136.0
148.013474 136.0
148.042282 196.0
148.074844 1084.0
148.100662 44.0
148.129242 20.0
148.140732 116.0
148.20726 52.0
148.236328 64.0
148.269653 64.0
148.279144 48.0
148.293045 128.0
148.369629 172.0
148.478745 76.0
148.529678 120.0
148.711655 208.0
148.845184 128.0
149.017624 136.0
149.078049 420.0
149.270416 120.0
149.319046 188.0
149.469879 56.0
149.518539 100.0
149.793671 212.0
149.85701 156.0
149.876511 172.0
149.913055 68.0
150.086121 68.0
150.364212 104.0
150.383743 60.0
150.630356 36.0
150.786728 52.0
150.82338 44.0
151.009201 148.0
151.08992 120.0
151.114395 140.0
151.408127 148.0
151.731567 152.0
151.790405 144.0
151.814941 96.0
152.001358 160.0
152.047989 160.0
152.06517 172.0
152.490067 160.0
153.00415 164.0
153.041595 212.0
153.142059 28.0
153.580582 236.0
153.598038 216.0
153.650223 180.0
153.780624 216.0
153.911469 144.0
153.943558 60.0
154.063568 404.0
154.141174 200.0
154.717468 152.0
154.823929 176.0
155.007248 156.0
155.066101 464.0
155.098938 152.0
155.195618 104.0
155.423813 160.0
155.485855 116.0
155.749023 172.0
156.042267 164.0
156.075912 160.0
156.258636 144.0
156.300934 80.0
156.383057 68.0
156.706772 136.0
156.936081 44.0
157.00621 156.0
157.056946 668.0
157.085709 292.0
157.407669 140.0
157.612488 228.0
157.699951 196.0
157.742859 100.0
157.861008 200.0
157.907471 188.0
158.00502 176.0
158.061356 7268.0
158.155167 64.0
158.207733 56.0
158.2603 32.0
158.428101 96.0
158.445648 96.0
158.462372 92.0
158.49324 172.0
158.517365 96.0
158.585968 36.0
158.623566 68.0
158.757278 156.0
158.79657 232.0
158.960419 168.0
159.02739 56.0
159.068695 2292.0
159.11525 36.0
159.137848 188.0
159.215683 164.0
159.250732 84.0
159.308624 52.0
159.499603 156.0
159.572495 152.0
159.668045 56.0
159.728409 132.0
159.852554 140.0
159.893768 156.0
159.975021 116.0
160.000198 188.0
160.044769 152.0
160.07634 6904.0
160.156021 112.0
160.204178 148.0
160.241959 100.0
160.302429 36.0
160.491486 76.0
160.784103 176.0
160.847198 76.0
160.874969 68.0
160.975952 76.0
161.044144 132.0
161.082336 1556.0
161.175507 196.0
161.344849 180.0
161.48645 184.0
161.653412 208.0
161.924286 48.0
162.056152 5588.0
162.091995 180.0
162.180191 60.0
162.246094 92.0
162.314545 72.0
162.350052 44.0
162.531036 188.0
162.883331 208.0
163.06044 704.0
163.269363 48.0
163.386368 124.0
163.595032 52.0
163.635773 184.0
163.679047 116.0
163.84903 92.0
164.057465 228.0
164.181061 120.0
164.364731 92.0
164.903564 124.0
165.04715 544.0
165.141327 184.0
165.412552 84.0
165.707062 148.0
166.055679 120.0
166.16597 60.0
166.373856 52.0
166.412369 112.0
167.045959 444.0
167.066147 168.0
167.245255 120.0
167.361099 196.0
168.064392 168.0
168.570862 144.0
168.862976 244.0
168.891434 172.0
168.930237 80.0
169.003525 156.0
169.012619 188.0
169.051834 204.0
169.082245 440.0
169.385818 184.0
169.84462 192.0
170.021042 156.0
170.061508 1792.0
170.106689 184.0
170.124863 36.0
170.168991 204.0
170.330002 184.0
170.449509 52.0
170.904541 68.0
170.953979 52.0
170.990402 204.0
171.067169 1160.0
171.295044 56.0
171.542587 56.0
171.73555 64.0
171.777283 172.0
171.80336 176.0
171.824234 140.0
172.075729 3228.0
172.129608 160.0
172.194901 68.0
172.239304 52.0
172.333344 160.0
172.416962 132.0
172.691483 52.0
172.914917 176.0
172.979294 152.0
173.072266 3208.0
173.125916 140.0
173.175674 56.0
173.246399 48.0
173.298798 76.0
173.456039 92.0
173.508469 64.0
173.541107 164.0
173.98671 204.0
174.050583 592.0
174.080139 19840.0
174.159241 60.0
174.192505 72.0
174.255127 40.0
174.362976 132.0
174.37381 72.0
174.383438 108.0
174.435135 76.0
174.49823 56.0
174.546539 172.0
174.582367 92.0
174.616562 44.0
174.853333 44.0
175.034821 140.0
175.084534 3584.0
175.235153 96.0
175.453903 124.0
175.472351 48.0
175.678055 68.0
175.77832 68.0
175.955154 48.0
176.001984 136.0
176.037003 128.0
176.07489 476.0
176.213974 48.0
176.260437 144.0
176.322311 112.0
176.494141 48.0
176.544373 76.0
176.605209 48.0
176.814224 172.0
176.961411 192.0
177.041885 200.0
177.084259 136.0
177.123993 196.0
177.328003 112.0
177.471161 148.0
177.497665 176.0
177.717819 140.0
177.768234 44.0
178.015106 136.0
178.272781 140.0
178.472137 132.0
178.655655 164.0
178.807312 216.0
179.029037 168.0
179.060242 160.0
179.889465 124.0
179.956207 152.0
180.020294 84.0
180.621628 184.0
181.00531 320.0
181.215927 100.0
181.269516 172.0
181.733383 228.0
181.848785 108.0
182.007172 64.0
182.055496 192.0
182.085678 204.0
182.106522 176.0
182.224716 184.0
182.380585 44.0
182.412842 48.0
182.743622 52.0
182.818954 48.0
183.007385 168.0
183.073212 232.0
183.540878 196.0
184.256104 148.0
184.296631 136.0
184.664276 116.0
184.845535 144.0
184.921295 140.0
184.964615 160.0
184.991684 160.0
185.050491 144.0
185.073822 612.0
185.3004 76.0
185.557877 56.0
185.679901 172.0
185.736847 72.0
186.055939 12708.0
186.127655 88.0
186.165665 68.0
186.266434 80.0
186.399277 64.0
186.418304 44.0
186.529724 120.0
186.641296 100.0
186.725494 48.0
186.747253 128.0
186.861496 32.0
187.059402 2040.0
187.086487 5660.0
187.115891 152.0
187.125702 192.0
187.444168 128.0
187.490494 148.0
187.95134 156.0
187.984085 72.0
188.094193 1884.0
188.180618 84.0
188.243408 200.0
188.314423 140.0
188.37178 68.0
188.467392 128.0
188.552109 48.0
189.07869 416.0
189.312622 68.0
189.403 136.0
189.466003 52.0
189.48793 112.0
189.526291 68.0
190.128998 176.0
190.453522 168.0
190.566162 112.0
190.945496 44.0
191.033524 80.0
191.06102 140.0
191.589005 112.0
191.851395 144.0
192.168549 44.0
193.045395 240.0
193.096695 36.0
193.511765 108.0
194.054794 104.0
194.074203 204.0
194.121338 172.0
194.87355 148.0
195.027786 152.0
195.032974 164.0
195.055481 308.0
195.969757 60.0
196.036636 120.0
196.064804 164.0
196.301453 208.0
197.000641 304.0
197.069046 1352.0
197.105377 132.0
197.24231 68.0
197.580673 36.0
197.860535 156.0
197.969727 100.0
198.058823 940.0
198.077835 1088.0
198.381592 200.0
198.513367 84.0
198.726547 172.0
198.95668 132.0
199.007401 124.0
199.065033 3144.0
199.086945 4552.0
199.133575 200.0
199.186951 152.0
199.333038 196.0
199.40892 60.0
199.434204 60.0
199.493683 76.0
199.701309 140.0
199.870102 124.0
199.954529 28.0
200.06752 988.0
200.151581 216.0
200.188187 88.0
200.275497 64.0
200.467072 84.0
200.734863 64.0
201.068161 3520.0
201.156494 40.0
201.355698 144.0
201.50824 112.0
201.663651 128.0
201.728668 28.0
201.836105 228.0
201.949219 64.0
202.063568 588.0
202.430328 212.0
202.971542 64.0
203.011246 52.0
203.054794 460.0
203.095062 260.0
203.164398 72.0
203.439667 120.0
203.575958 116.0
203.629913 116.0
203.735016 68.0
203.771942 112.0
203.842972 104.0
203.896973 204.0
204.007812 188.0
204.067154 6756.0
204.108505 244.0
204.175568 104.0
204.260895 148.0
204.340561 36.0
204.403152 192.0
204.534058 112.0
204.593842 108.0
204.770386 52.0
204.92421 56.0
204.961243 84.0
205.069519 828.0
205.137939 48.0
205.220612 124.0
205.93689 36.0
206.076096 180.0
206.231171 68.0
206.660126 100.0
207.556625 172.0
207.65126 164.0
207.754532 72.0
208.025223 144.0
208.055847 100.0
208.127625 48.0
208.871948 176.0
209.001404 148.0
209.946228 68.0
210.002991 124.0
211.000137 196.0
211.026169 212.0
211.419556 128.0
211.894409 196.0
211.963959 100.0
212.009521 160.0
212.625122 96.0
213.03743 152.0
213.062668 412.0
214.076797 384.0
214.22139 64.0
214.247604 80.0
214.553604 100.0
214.92984 92.0
215.082443 3348.0
215.525482 60.0
215.662842 92.0
215.703766 116.0
215.931824 148.0
216.010788 388.0
216.089615 3572.0
216.300476 144.0
216.418182 192.0
216.555206 188.0
217.091263 696.0
217.340851 68.0
217.737152 116.0
218.092651 116.0
218.124985 136.0
218.204346 96.0
218.45726 88.0
218.616135 100.0
218.686768 80.0
218.842789 56.0
219.137314 116.0
220.202209 136.0
220.541977 76.0
221.03685 760.0
221.512497 52.0
221.598419 76.0
222.037506 156.0
222.387207 84.0
223.018982 164.0
223.026611 116.0
223.050949 676.0
224.046371 152.0
224.057556 148.0
225.047897 176.0
225.412933 64.0
226.074707 280.0
226.112701 172.0
226.912476 148.0
227.641602 80.0
228.107285 140.0
228.131332 96.0
228.880463 156.0
229.166595 96.0
230.068344 108.0
230.09552 172.0
230.122681 160.0
233.012009 60.0
233.048477 40.0
233.093216 176.0
233.878677 120.0
234.91774 148.0
235.305313 168.0
237.064056 124.0
237.576096 88.0
238.027252 124.0
238.048752 440.0
238.30983 172.0
238.746323 64.0
238.946259 244.0
239.004715 168.0
239.049362 4852.0
239.137039 56.0
239.183212 48.0
239.297104 88.0
239.392563 52.0
239.598923 40.0
239.780716 76.0
240.00267 72.0
240.047928 632.0
240.906937 40.0
241.045074 664.0
241.104675 208.0
241.32724 204.0
241.548172 168.0
241.775757 60.0
241.970764 76.0
242.038879 160.0
242.066757 156.0
242.159653 28.0
242.9935 136.0
243.074142 456.0
243.078568 376.0
244.083191 440.0
245.072235 444.0
245.176331 36.0
246.052811 68.0
246.074661 120.0
246.608826 72.0
247.156097 116.0
248.078186 164.0
248.30574 72.0
249.046448 276.0
250.106049 80.0
250.176544 172.0
250.424042 88.0
250.86203 48.0
250.984985 216.0
251.047501 1704.0
251.178085 140.0
251.202591 52.0
251.477097 192.0
251.521286 48.0
252.053314 416.0
253.013336 72.0
253.047333 472.0
253.136826 68.0
253.918762 156.0
254.047699 332.0
254.506622 60.0
255.148407 100.0
257.110504 140.0
257.381836 96.0
259.541626 40.0
260.783997 100.0
260.851471 244.0
261.037964 108.0
261.095825 152.0
262.603088 68.0
263.064484 152.0
264.075836 164.0
266.060913 124.0
267.092285 120.0
267.310242 116.0
268.056519 180.0
268.179779 156.0
269.070312 180.0
269.13559 124.0
269.194366 296.0
271.117889 168.0
271.180145 44.0
272.072357 120.0
272.279236 116.0
273.597748 84.0
275.051483 168.0
276.525604 100.0
277.055389 144.0
278.063843 212.0
278.857147 128.0
279.049957 228.0
280.031586 64.0
280.768127 128.0
281.085022 88.0
281.368744 164.0
283.06723 128.0
284.109589 92.0
284.693604 104.0
291.041931 164.0
292.064819 120.0
293.062286 124.0
293.348541 64.0
293.682709 40.0
294.672668 88.0
295.854126 128.0
296.061829 124.0
296.273743 144.0
297.050598 116.0
297.062195 72.0
297.073792 116.0
298.054382 84.0
299.051666 96.0
301.044342 120.0
301.597107 152.0
303.04361 156.0
304.059601 76.0
308.137115 20.0
310.805054 72.0
311.559906 176.0
312.568573 172.0
319.702911 64.0
320.078888 232.0
322.059509 128.0
322.091644 116.0
323.117615 120.0
324.069946 184.0
332.116211 132.0
334.827515 48.0
335.279266 120.0
335.490662 160.0
338.058289 180.0
338.091675 100.0
338.138824 132.0
341.117096 152.0
344.056763 200.0
346.045746 148.0
348.631104 80.0
350.072327 180.0
350.20108 168.0
350.402252 140.0
351.054504 148.0
352.054596 128.0
353.763275 72.0
354.065979 128.0
354.647278 100.0
357.264496 140.0
359.721436 196.0
360.159454 124.0
366.075195 244.0
366.266235 36.0
367.089447 148.0
368.064178 188.0
371.671936 180.0
373.139099 104.0
374.108551 80.0
374.967499 216.0
380.099152 116.0
383.120056 156.0
383.989288 160.0
384.293549 172.0
387.954102 140.0
387.981537 112.0
388.883728 60.0
389.032898 108.0
389.131042 172.0
390.14856 156.0
392.077209 96.0
392.357056 80.0
394.844635 176.0
395.097809 164.0
396.093597 260.0
397.094147 132.0
398.094238 84.0
398.12204 128.0
398.705994 68.0
399.087616 92.0
399.119415 156.0
399.250641 112.0
400.149902 96.0
404.293121 84.0
406.087921 104.0
406.176147 52.0
406.842285 44.0
408.135956 156.0
408.574341 140.0
409.09668 100.0
410.104492 176.0
410.814148 84.0
411.108704 48.0
411.730377 44.0
415.571808 40.0
415.851807 168.0
416.164368 160.0
416.842682 120.0
417.15564 184.0
418.087708 116.0
419.147491 160.0
422.002899 56.0
422.056061 80.0
424.984589 92.0
427.137268 124.0
431.281158 192.0
432.530304 128.0
433.375092 108.0
435.117065 284.0
436.111694 280.0
437.109314 164.0
437.715607 152.0
438.086273 144.0
438.121521 136.0
439.088379 152.0
442.626099 96.0
442.95697 56.0
447.084137 104.0
447.27774 116.0
448.07782 100.0
449.072632 76.0
450.410614 52.0
451.276947 144.0
452.211792 60.0
452.351471 128.0
453.121735 4440.0
453.194244 32.0
453.380676 96.0
453.664642 56.0
453.808807 72.0
453.914795 48.0
453.94873 40.0
454.123962 1492.0
454.449219 56.0
454.708069 64.0
455.123444 1680.0
455.196259 96.0
455.252625 160.0
455.302429 64.0
455.4086 48.0
455.442596 48.0
455.73996 60.0
455.778198 68.0
456.071411 48.0
456.124298 392.0
456.222748 120.0
456.390259 56.0
456.709198 128.0
457.021637 128.0
457.130371 116.0
457.364441 152.0
457.419769 52.0
457.777405 88.0
457.832764 92.0
458.561279 144.0
458.646515 52.0
460.455536 36.0
460.657928 52.0
462.302338 64.0
468.631531 112.0
470.74939 128.0
471.133789 88.0
473.746643 36.0
477.936188 56.0
478.719696 64.0
481.095917 180.0
481.1745 40.0
483.136719 124.0
483.86319 32.0
487.139038 28.0
496.261139 180.0
496.297455 84.0
500.12146 136.0
501.658203 44.0
503.318451 268.0
507.003784 116.0
517.109924 124.0
523.702332 108.0
532.322937 108.0
533.729004 100.0
535.763245 44.0
598.56073 100.0
611.346802 100.0
634.704163 152.0
649.764526 80.0
684.085266 204.0
721.698547 188.0
724.974426 208.0
772.943054 52.0
820.999023 96.0
825.435974 40.0
838.242249 112.0
843.679016 44.0
844.164734 52.0
846.86731 176.0
869.559021 92.0
876.627747 120.0
882.299744 144.0
899.956848 92.0
902.771179 36.0
908.893005 204.0
917.60199 120.0
934.450806 56.0
944.792725 80.0
973.787292 152.0
977.791077 204.0
981.335388 88.0
983.362671 100.0
987.167175 216.0
994.616211 68.0
997.36731 36.0
1006.167358 208.0
1011.205139 208.0
1020.288391 200.0
1021.86554 48.0
1030.696045 68.0
1036.518799 192.0
1037.377563 224.0
1039.012817 108.0
1044.370117 152.0
1045.05188 192.0
1050.927856 180.0
1057.376831 132.0
1061.133667 188.0
1063.11853 144.0
1073.865845 40.0
1078.377197 160.0
1095.384155 196.0
1107.716675 140.0
1110.275024 208.0
1112.902588 48.0
1115.20105 132.0
1116.178345 216.0
1123.190918 68.0
1128.105469 128.0
1132.608765 140.0
1136.168091 180.0
1138.362915 92.0
1138.873291 152.0
1140.88916 128.0
1143.485474 100.0
1145.303345 232.0
1145.619873 176.0
1154.59668 200.0
1157.526855 168.0
1161.59314 64.0
1162.807617 172.0
1180.431152 148.0
1187.724731 132.0
1190.868286 240.0
1199.069092 204.0
1207.097534 156.0
1208.07959 76.0
1208.300903 188.0
1213.252563 68.0
1215.666138 60.0
1219.548218 204.0
1219.944458 148.0
1221.300415 208.0
1222.00293 200.0
1223.805542 108.0
1225.477173 120.0
1230.987305 156.0
1241.308594 124.0
1246.193726 76.0
1250.919556 164.0
1254.004517 44.0
1255.858765 160.0
1259.66333 148.0
1263.459351 160.0
1263.77771 60.0
1263.841309 252.0
1264.31543 156.0
1265.363037 40.0
1267.976807 44.0
1269.64978 84.0
1273.262085 56.0
1280.416382 40.0
1282.910156 148.0
1283.858398 116.0
1290.155884 100.0
1294.491577 108.0
1299.286499 156.0
1301.079712 180.0
1301.841675 172.0
1302.883057 68.0
1306.103394 112.0
1308.348511 196.0
1308.730103 216.0
1310.234375 168.0
1313.9552 156.0
1314.034546 160.0
1315.52124 148.0
1317.13147 176.0
1318.178955 200.0
1319.870361 160.0
1320.000488 48.0
1320.065552 56.0
1325.472778 128.0
1326.719238 172.0
1329.018311 164.0
1329.315796 128.0
1331.444336 72.0
1332.772095 192.0
1333.280762 260.0
1335.367188 180.0
1335.767212 116.0
1338.343384 160.0
1338.838623 176.0
1341.337524 220.0
1341.760376 128.0
1342.248901 68.0
1342.394653 108.0
1345.378784 140.0
1348.227295 140.0
1348.446533 164.0
1352.586182 80.0
1353.537964 84.0
1353.874756 268.0
1357.018188 112.0
1357.370117 156.0
1362.500366 164.0
1362.80896 152.0
1364.808105 152.0
1368.09668 160.0
1369.208496 188.0
1372.907959 100.0
1373.83728 160.0
1376.627075 20.0
1379.212769 160.0
1383.510498 148.0
1386.991943 160.0
1387.147583 172.0
1388.511841 140.0
1389.476074 32.0
1389.557739 64.0
1391.2052 192.0
1391.717529 196.0
1394.62207 168.0
1400.745605 212.0
1406.554199 64.0
1409.563843 128.0
1410.109375 140.0
1410.161743 96.0
1412.599243 108.0
1413.152832 132.0
1421.754761 124.0
1422.347656 168.0
1423.271118 192.0
1426.020508 156.0
1426.07312 68.0
1427.659302 172.0
1429.389404 204.0
1430.187134 68.0
1431.331421 192.0
1433.508301 156.0
1441.756226 148.0
1442.897583 72.0
1444.28894 68.0
1445.234619 156.0
1446.210815 140.0
1446.331909 88.0
1446.907227 60.0
1447.785522 72.0
1448.247437 172.0
1448.755005 152.0
1448.950562 116.0
1450.35376 152.0
1451.544067 144.0
1451.923218 108.0
1453.872803 192.0
1455.246704 140.0
1456.613647 128.0
1461.014893 236.0
1462.125732 124.0
1464.836304 180.0
1465.133301 140.0
1467.579712 100.0
1472.234253 112.0
1473.953003 116.0
1474.044678 124.0
1474.724854 84.0
1474.77832 244.0
1477.979004 172.0
1478.05896 136.0
1479.023193 200.0
1480.76123 144.0
1481.734009 120.0
1482.301025 140.0
1483.879883 156.0
1488.468018 228.0
1489.2052 152.0
1490.741699 172.0
1491.164429 168.0
1491.556396 172.0
1493.086304 124.0
1493.163208 168.0
1497.18811 172.0
1497.550049 180.0
1498.98291 208.0
1499.417725 164.0
1499.792114 120.0
1500.97168 164.0
1501.796753 224.0
1502.136108 172.0
1503.656128 136.0
