>compound MLS001157907-01!(2R)-3-(1H-indol-3-yl)-2-[[(2S)-3-methyl-2-[(3-oxo-2,4-dihydroquinoxaline-1-carbonyl)amino]butanoyl]amino]propanoic acid
>formula C25H27N5O5
>ionization [M+H]+
>parentmass 478.209
#inchi InChI=1S/C25H27N5O5/c1-14(2)22(29-25(35)30-13-21(31)27-18-9-5-6-10-20(18)30)23(32)28-19(24(33)34)11-15-12-26-17-8-4-3-7-16(15)17/h3-10,12,14,19,22,26H,11,13H2,1-2H3,(H,27,31)(H,28,32)(H,29,35)(H,33,34)/t19-,22+/m1/s1
#inchikey VTHSSPXBDLVFRZ
#Ion_Source LC-ESI
#Instrument qTof
#Compound_Source NIH Natural Product Library
#PI Dorrestein
#Data_Collector VVP/LMS
#Scan -1
#Precursor_MZ 478.209
#ExactMass 477.201
#Charge 1
#CAS_Number N/A
#Pubmed_ID N/A
#Smiles CC(C)[C@H](NC(=O)N1CC(=O)Nc2ccccc12)C(=O)N[C@H](Cc3c[nH]c4ccccc34)C(=O)O
#INCHI_AUX N/A
#Library_Class 1
#SpectrumID CCMSLIB00000080135
#IonMode Positive
#UpdateWorkflowName UPDATE-SINGLE-ANNOTATED-GOLD
#LibraryQualityString Gold
#TaskID b1d8e8f6646f4e71acdff9ca3d919d08
##Scan# 1837
#SpectrumFile p2-F04_GF4_01_18040.mzXML
#LibraryName NIH_Natural_Products_Library.mgf
#MQScore -1
#Organism NIH_Natural_Products_Library
#TIC_Query 0
#RT_Query -1
#MZErrorPPM -1
#SharedPeaks 0
#MassDiff 0
#LibMZ -1
#SpecMZ 478.209
#SpecCharge 0
#internalFilename spec-00000.mgf

>collision 10
95.069443 192.0
95.123787 172.0
95.187859 92.0
95.220871 172.0
95.512421 172.0
95.578568 160.0
95.607758 120.0
96.020782 208.0
96.596992 208.0
96.63221 44.0
97.02195 160.0
97.07489 136.0
97.628677 176.0
97.681786 164.0
97.762451 216.0
98.014511 140.0
98.036186 212.0
98.059319 452.0
98.176155 168.0
98.191933 136.0
98.343857 144.0
98.679688 132.0
98.777702 164.0
98.879478 148.0
98.980446 188.0
99.1409 216.0
99.184502 160.0
99.343147 192.0
99.44236 156.0
99.547577 196.0
99.652855 180.0
100.066551 176.0
100.116333 256.0
100.265755 40.0
100.417274 116.0
100.48909 88.0
100.858543 156.0
101.042519 116.0
101.095665 136.0
101.2547 196.0
101.429016 168.0
101.505203 116.0
101.605492 132.0
101.703819 136.0
102.378815 220.0
102.835007 216.0
102.960182 148.0
102.994514 180.0
103.049065 152.0
103.160217 140.0
103.352348 116.0
103.964325 104.0
104.049583 188.0
104.419411 156.0
104.433647 196.0
104.559792 172.0
104.61882 208.0
104.912178 104.0
105.067169 188.0
105.321976 132.0
105.653503 144.0
105.790619 160.0
106.042572 256.0
106.069214 200.0
106.12867 188.0
106.198395 204.0
106.2743 188.0
106.362549 140.0
106.602844 200.0
106.766304 184.0
106.921608 196.0
107.35836 212.0
107.374855 212.0
107.597717 160.0
108.292526 40.0
108.398186 296.0
108.52877 236.0
108.553658 184.0
108.684341 176.0
109.037369 152.0
109.116356 156.0
109.56382 128.0
109.73658 188.0
110.336006 52.0
110.735687 160.0
110.985062 104.0
111.058464 132.0
111.075241 200.0
111.138184 120.0
111.724365 168.0
111.796303 168.0
111.964325 164.0
112.253036 168.0
112.609695 168.0
112.728004 160.0
112.793526 208.0
112.9077 60.0
113.507004 180.0
113.574875 156.0
113.621544 124.0
113.812561 156.0
114.237625 52.0
114.301453 144.0
114.614471 204.0
114.697586 68.0
114.797798 128.0
114.827652 236.0
114.962059 44.0
115.100815 168.0
115.220421 188.0
115.361465 160.0
115.446991 176.0
115.528275 176.0
116.068001 156.0
116.106606 144.0
116.299698 140.0
116.334045 172.0
116.41993 132.0
116.574608 236.0
116.877808 172.0
116.987572 152.0
117.026321 96.0
117.057762 280.0
117.088768 136.0
118.06485 828.0
118.375885 88.0
118.577362 104.0
118.930901 136.0
119.06076 2072.0
119.152405 28.0
119.261055 64.0
119.395859 36.0
119.643913 140.0
119.765862 148.0
119.815964 140.0
120.060997 488.0
120.29792 172.0
120.330673 184.0
120.573135 180.0
120.818039 252.0
121.008446 176.0
121.023773 216.0
121.075943 8720.0
121.13279 36.0
121.229683 60.0
121.30201 44.0
121.328316 144.0
121.55423 36.0
121.604706 48.0
121.931953 68.0
122.07869 1092.0
122.158432 164.0
122.545906 112.0
122.737671 228.0
122.993584 84.0
123.070854 184.0
123.095146 92.0
123.269653 180.0
123.291756 164.0
124.044296 72.0
124.707985 92.0
124.730217 184.0
125.043839 220.0
125.086128 200.0
125.24868 196.0
125.516113 172.0
125.815094 160.0
126.156898 212.0
126.698479 192.0
127.1604 72.0
127.185097 192.0
127.427628 184.0
127.74012 44.0
127.969673 112.0
128.051865 144.0
128.262985 120.0
128.557999 148.0
128.673111 60.0
128.946442 184.0
129.088867 180.0
129.661621 204.0
129.734161 44.0
129.917801 188.0
130.064621 1968.0
130.224304 56.0
130.256104 108.0
130.444702 172.0
130.531097 160.0
130.854202 156.0
131.027298 32.0
131.069412 368.0
131.207336 120.0
131.981339 196.0
132.017929 136.0
132.081741 660.0
132.319977 88.0
132.526108 96.0
133.045181 172.0
133.076584 148.0
133.251129 116.0
133.526978 148.0
133.561478 100.0
133.612091 180.0
134.074921 36.0
134.22937 40.0
134.665543 140.0
134.972916 96.0
135.028412 204.0
135.744019 148.0
136.131546 164.0
136.305771 128.0
136.324356 172.0
137.064346 184.0
137.521454 100.0
138.079849 168.0
138.637039 192.0
139.096756 180.0
139.30809 96.0
140.074966 176.0
140.105591 204.0
140.362503 56.0
140.492233 136.0
140.879395 80.0
141.077896 192.0
141.413788 140.0
142.064697 276.0
142.362122 92.0
142.438126 128.0
142.51889 84.0
142.550919 208.0
142.825577 144.0
142.954056 220.0
143.046875 100.0
143.074768 180.0
143.585373 124.0
143.955276 104.0
143.988708 140.0
144.044388 180.0
144.080185 476.0
144.203735 188.0
144.230026 56.0
144.285004 56.0
144.387833 192.0
144.435669 88.0
144.694122 156.0
144.727631 180.0
144.9552 132.0
144.993546 68.0
145.075836 144.0
145.175735 140.0
145.463654 168.0
145.790314 236.0
145.924927 196.0
146.023514 164.0
146.05809 2104.0
146.124542 36.0
146.278564 160.0
146.317078 204.0
146.398956 160.0
146.692902 136.0
146.753662 160.0
146.80864 108.0
146.847229 112.0
146.999146 164.0
147.029739 196.0
147.055786 27876.0
147.116104 56.0
147.175415 76.0
147.228546 120.0
147.281677 48.0
147.308258 84.0
147.411224 136.0
147.450821 48.0
147.482239 80.0
147.658737 228.0
147.682922 92.0
147.774841 48.0
147.886169 44.0
147.920059 164.0
147.936996 88.0
148.024155 88.0
148.057968 3560.0
148.114349 100.0
148.150116 56.0
148.353668 88.0
148.477341 64.0
148.545258 56.0
148.618027 52.0
148.67627 28.0
148.700668 76.0
148.775787 104.0
148.882629 52.0
149.009232 52.0
149.029678 112.0
149.071762 844.0
149.152634 152.0
149.22525 180.0
149.320084 96.0
149.349274 112.0
149.42955 128.0
149.784988 140.0
149.906799 108.0
150.058807 144.0
150.077438 128.0
150.165222 40.0
150.245712 148.0
150.641205 76.0
152.144852 152.0
152.235687 44.0
152.7789 156.0
152.810883 152.0
152.926544 124.0
153.431519 224.0
154.068253 156.0
154.654083 204.0
154.993591 124.0
155.033249 136.0
155.062988 120.0
156.359421 128.0
156.401733 176.0
156.468948 160.0
156.491364 100.0
157.073303 180.0
157.09198 136.0
157.576309 128.0
157.696259 208.0
157.796249 136.0
158.059204 376.0
158.082657 656.0
158.143967 80.0
158.359299 52.0
159.051331 132.0
159.092178 3212.0
159.410477 44.0
160.086838 400.0
160.505478 36.0
160.523132 52.0
160.843552 184.0
161.078384 156.0
161.106171 160.0
161.670029 32.0
162.326141 188.0
163.281006 128.0
164.014297 180.0
164.440247 200.0
164.66748 144.0
165.188919 192.0
165.260559 224.0
166.293289 200.0
166.532074 204.0
167.058716 156.0
167.45285 40.0
168.04364 156.0
168.071564 216.0
169.080246 376.0
169.387497 164.0
170.027939 192.0
170.058487 1048.0
170.601974 92.0
171.067139 316.0
171.093582 128.0
171.097626 100.0
171.401001 140.0
171.458328 112.0
171.622559 192.0
172.063492 68.0
172.19928 124.0
173.105286 176.0
173.161774 128.0
173.392319 48.0
174.584229 52.0
174.613159 128.0
174.792038 168.0
174.828888 116.0
175.050354 12584.0
175.119995 364.0
175.164062 80.0
175.197189 100.0
175.205292 88.0
175.216614 96.0
175.293961 112.0
175.339798 160.0
175.545425 68.0
175.643021 68.0
175.661484 96.0
175.806595 92.0
176.053299 1416.0
176.221161 52.0
176.255508 96.0
176.289871 72.0
176.406158 124.0
176.461685 40.0
176.63887 88.0
176.691772 80.0
176.75528 88.0
176.98822 36.0
177.055954 152.0
177.088852 124.0
177.266357 52.0
177.367065 200.0
177.608353 40.0
178.463486 172.0
178.604446 148.0
179.027618 152.0
179.059586 108.0
179.243393 156.0
181.078705 128.0
181.939453 132.0
182.0952 192.0
182.931442 204.0
183.389359 236.0
185.071579 1296.0
185.443527 36.0
186.070023 88.0
186.078918 196.0
186.284698 180.0
187.089661 136.0
187.144104 84.0
187.2742 88.0
187.983673 176.0
188.010956 84.0
188.069885 3812.0
188.349518 76.0
188.385025 80.0
189.072601 404.0
189.20546 40.0
190.056595 192.0
190.075592 196.0
190.142914 84.0
190.346069 28.0
190.521851 112.0
191.060623 160.0
192.844803 76.0
193.030029 188.0
193.057114 384.0
193.124069 108.0
194.040405 184.0
194.065628 176.0
194.29306 132.0
194.692764 164.0
195.980698 124.0
196.120041 196.0
196.627655 56.0
197.092606 236.0
199.087387 128.0
199.462204 84.0
201.050735 112.0
201.10376 316.0
202.597412 132.0
202.934662 132.0
203.064713 172.0
203.117004 452.0
203.769104 148.0
203.894135 168.0
204.080948 184.0
204.110184 128.0
204.132935 148.0
205.106628 160.0
205.329025 128.0
206.917801 180.0
207.232849 248.0
208.093307 112.0
208.397751 124.0
209.496765 40.0
209.902771 148.0
210.88472 128.0
211.121796 116.0
211.144928 44.0
211.480545 108.0
211.755615 164.0
212.129395 120.0
212.55574 68.0
213.137665 196.0
214.073151 152.0
214.137222 204.0
215.073166 152.0
215.481995 144.0
217.996078 112.0
218.025467 140.0
218.128998 572.0
218.39592 76.0
219.133163 236.0
219.591736 184.0
219.936951 220.0
220.382874 116.0
220.554291 64.0
220.684357 112.0
220.989014 208.0
223.121368 108.0
224.082779 168.0
224.124619 104.0
224.184097 172.0
225.141724 144.0
225.32692 108.0
225.948776 208.0
226.805237 76.0
228.697556 128.0
229.098618 672.0
229.239655 152.0
230.100174 316.0
233.873459 160.0
234.589294 196.0
238.473724 140.0
239.018051 172.0
239.1073 272.0
239.131912 124.0
240.923477 172.0
241.093414 192.0
243.808212 204.0
244.112869 216.0
244.184402 68.0
244.461273 184.0
245.03421 76.0
245.06369 200.0
245.377045 84.0
245.454987 76.0
245.514236 48.0
245.542313 84.0
245.567261 132.0
245.838684 232.0
245.869888 124.0
245.929184 88.0
245.960403 192.0
245.989487 176.0
246.041565 140.0
246.082031 200.0
246.124802 20308.0
246.236816 68.0
246.290771 148.0
246.45697 68.0
246.515091 80.0
246.738251 56.0
246.788284 76.0
246.820587 72.0
247.124741 3308.0
247.201172 40.0
247.316971 56.0
247.401489 60.0
247.489166 60.0
247.664536 72.0
247.752243 64.0
247.780441 84.0
248.128769 764.0
248.510956 108.0
248.62706 48.0
248.805984 60.0
248.944138 108.0
248.972397 108.0
249.028931 88.0
249.094894 80.0
249.132599 200.0
249.836792 44.0
250.286865 56.0
251.058899 104.0
256.152374 152.0
257.124847 176.0
257.252533 104.0
258.230316 44.0
258.687866 188.0
259.168274 36.0
260.525391 116.0
261.065399 100.0
265.097443 252.0
265.175232 76.0
266.125732 156.0
272.058014 72.0
272.087555 152.0
273.797424 100.0
274.034576 124.0
274.120819 568.0
274.426819 60.0
274.525726 84.0
275.119843 168.0
283.722992 80.0
284.06842 164.0
284.138824 1736.0
284.638977 136.0
284.682648 64.0
285.035339 60.0
285.146301 276.0
285.391663 60.0
285.573242 92.0
285.960175 32.0
286.15451 132.0
287.416016 56.0
287.466614 132.0
291.244965 48.0
295.588379 212.0
303.154083 156.0
303.816345 104.0
306.939667 168.0
312.13266 220.0
313.112823 172.0
313.140106 128.0
315.153412 48.0
317.152893 56.0
323.744141 92.0
329.546326 76.0
330.146362 120.0
331.152496 72.0
333.289215 88.0
340.941345 60.0
343.858185 144.0
344.89975 192.0
356.126648 172.0
356.603821 212.0
361.116943 148.0
366.545746 144.0
366.911652 116.0
374.117889 84.0
387.43103 44.0
391.267975 152.0
399.432007 88.0
410.107239 156.0
423.073822 88.0
423.253967 112.0
435.65213 88.0
439.077759 120.0
441.094452 144.0
444.235107 88.0
462.893219 152.0
479.090515 192.0
493.503815 196.0
495.065826 192.0
496.444031 84.0
503.024475 140.0
513.709167 84.0
517.917603 68.0
522.611694 60.0
523.977539 92.0
530.586121 40.0
533.156616 40.0
538.930542 96.0
549.773315 48.0
550.156067 108.0
554.140686 204.0
554.178162 36.0
555.453308 40.0
559.358215 88.0
575.219482 108.0
576.528137 84.0
603.458923 84.0
640.000488 124.0
655.205139 96.0
673.348572 120.0
680.873718 80.0
738.928955 84.0
799.370239 84.0
847.204224 84.0
866.031006 256.0
902.540527 192.0
906.227539 124.0
914.310059 164.0
924.145996 136.0
933.547974 72.0
944.544495 188.0
951.59198 64.0
959.608704 192.0
960.342529 176.0
967.306274 52.0
977.733582 184.0
1002.892822 92.0
1003.371887 240.0
1015.214905 252.0
1038.294678 172.0
1067.172729 228.0
1068.772705 152.0
1083.148438 140.0
1085.783325 188.0
1113.841431 204.0
1122.493286 96.0
1136.52002 56.0
1137.614014 220.0
1142.856201 208.0
1151.261841 108.0
1155.330811 180.0
1156.684204 140.0
1161.094971 172.0
1174.889404 216.0
1176.793579 36.0
1193.140503 84.0
1196.33252 128.0
1201.818481 228.0
1205.664795 132.0
1206.452759 144.0
1210.797974 188.0
1239.716431 156.0
1259.069702 164.0
1259.634644 232.0
1261.012451 224.0
1261.733521 136.0
1266.623413 208.0
1282.09082 184.0
1283.152832 168.0
1286.213257 176.0
1286.934204 148.0
1288.191162 152.0
1289.820435 188.0
1294.470703 172.0
1297.523071 100.0
1301.289551 88.0
1307.960815 188.0
1311.38208 84.0
1317.277222 148.0
1318.281494 172.0
1319.625854 144.0
1321.325562 160.0
1331.67688 168.0
1333.609497 184.0
1333.914795 144.0
1334.154663 132.0
1334.89624 180.0
1338.061401 88.0
1346.132935 252.0
1346.344604 196.0
1349.720703 200.0
1350.020508 36.0
1353.657471 92.0
1357.277222 156.0
1368.578003 184.0
1373.877075 200.0
1378.336426 96.0
1378.668945 128.0
1380.3396 156.0
1383.994873 144.0
1384.905762 92.0
1386.743286 132.0
1396.833984 128.0
1397.927612 212.0
1402.485474 172.0
1410.472168 144.0
1410.614136 160.0
1412.348877 68.0
1417.17749 248.0
1417.477173 140.0
1419.043701 144.0
1419.516113 244.0
1421.068726 156.0
1424.319336 200.0
1424.77002 172.0
1425.476318 76.0
1425.964722 124.0
1426.340576 108.0
1427.829224 200.0
1428.92749 104.0
1429.905762 176.0
1433.550659 180.0
1434.749023 180.0
1435.389893 248.0
1437.094604 144.0
1437.464355 264.0
1437.773682 160.0
1440.015991 200.0
1440.234985 204.0
1443.106689 168.0
1443.779663 132.0
1445.300171 60.0
1449.593506 216.0
1451.018433 172.0
1451.458252 260.0
1452.73999 120.0
1465.847534 180.0
1465.900879 204.0
1470.339233 68.0
1471.339111 68.0
1471.827759 184.0
1478.394043 212.0
1483.640747 208.0
1484.093018 120.0
1486.739502 180.0
1488.558838 240.0
1492.139282 160.0
1494.577393 128.0
1498.265259 164.0
1499.297852 152.0
