>compound Azathioprine
>formula C9H7N7O2S 
>ionization [M+H]+
>parentmass 278.046417
#inchi InChI=1S/C9H7N7O2S/c1-15-4-14-7(16(17)18)9(15)19-8-5-6(11-2-10-5)12-3-13-8/h2-4H,1H3,(H,10,11,12,13)
#inchikey LMEKQMALGUDUQG
#Ion_Source LC-ESI
#Instrument qTof
#Compound_Source Commercial
#PI Dorrestein
#Data_Collector Garg_Neha
#Scan -1
#Precursor_MZ 278.047
#ExactMass 277.038
#Charge 1
#CAS_Number N/A
#Pubmed_ID N/A
#Smiles N/A
#INCHI_AUX N/A
#Library_Class 1
#SpectrumID CCMSLIB00000077117
#IonMode Positive
#UpdateWorkflowName UPDATE-SINGLE-ANNOTATED-GOLD
#LibraryQualityString Gold
#TaskID 48f7f52fc6d249b5abbcc6e7b3df5969
##Scan# 1039
#SpectrumFile NCP003106_G2_H11_BB5_01_15708.mzXML
#LibraryName NIH_Clinical_Collection_2.mgf
#MQScore -1
#Organism NIHcollection2_04212014_2_mgf
#TIC_Query 0
#RT_Query -1
#MZErrorPPM -1
#SharedPeaks 0
#MassDiff 0
#LibMZ -1
#SpecMZ 278.047
#SpecCharge 0
#internalFilename spec-00000.mgf

>collision 10
45.37326 192.0
48.213005 144.0
53.193062 160.0
53.738808 280.0
53.816166 164.0
54.692841 160.0
55.876724 168.0
56.02858 156.0
59.127342 156.0
59.481403 200.0
59.54282 152.0
60.353394 168.0
63.001118 184.0
67.252174 140.0
71.945557 168.0
72.817604 156.0
73.505379 148.0
75.247574 148.0
76.971756 140.0
79.324081 152.0
84.447426 240.0
84.980507 152.0
85.797089 212.0
87.29129 148.0
88.858414 140.0
88.956001 144.0
91.158264 188.0
92.916824 140.0
94.835556 148.0
99.403412 168.0
99.830505 244.0
100.449921 240.0
100.976898 188.0
102.666245 176.0
104.527916 140.0
104.739655 144.0
104.839485 192.0
105.43335 176.0
106.57885 140.0
107.082855 164.0
108.041756 144.0
109.025536 288.0
112.011261 176.0
112.103966 156.0
113.016106 652.0
115.011078 144.0
115.813522 204.0
116.238007 212.0
116.58374 192.0
116.626724 192.0
117.436302 264.0
117.593803 176.0
117.998001 156.0
119.034836 980.0
120.043114 628.0
121.030823 172.0
121.050529 512.0
121.070244 172.0
125.004295 416.0
125.331535 200.0
125.989708 152.0
126.954407 144.0
129.007858 140.0
130.199677 156.0
130.42688 144.0
132.730438 200.0
133.416931 152.0
134.057709 364.0
134.915405 164.0
135.026398 144.0
135.066895 180.0
135.239258 156.0
135.869553 188.0
135.999496 160.0
136.038956 948.0
137.008026 192.0
137.046585 760.0
137.570724 160.0
140.461777 140.0
141.756622 184.0
141.8759 172.0
141.976944 196.0
142.007874 30948.0
142.902512 136.0
143.009979 860.0
143.313782 180.0
144.002777 1652.0
144.143829 120.0
145.047241 436.0
146.047043 140.0
147.067352 188.0
148.068695 276.0
148.688507 168.0
149.05336 164.0
151.012802 184.0
152.015533 1988.0
152.99057 144.0
153.017487 452.0
153.401962 204.0
157.050232 116.0
158.060837 656.0
158.186218 200.0
159.008606 160.0
159.054199 168.0
159.946106 168.0
160.064713 312.0
161.121246 180.0
163.008804 148.0
164.015182 3156.0
164.090637 180.0
164.943283 148.0
165.022476 2400.0
166.016434 156.0
166.049393 148.0
166.75029 212.0
167.022644 232.0
168.027496 184.0
168.991196 168.0
170.193832 140.0
171.053238 176.0
172.063293 1356.0
173.064301 488.0
174.079239 1168.0
176.010666 596.0
176.059708 172.0
177.022552 1876.0
177.059372 156.0
177.128235 168.0
178.028229 280.0
179.022064 164.0
185.055679 484.0
186.066956 180.0
186.104965 144.0
187.074539 292.0
187.669464 224.0
188.017563 296.0
190.030884 476.0
190.859344 192.0
191.026779 388.0
191.07663 164.0
191.450974 196.0
192.011658 372.0
193.118271 164.0
194.015106 144.0
195.036636 144.0
196.005127 192.0
198.072815 192.0
198.703278 212.0
199.072693 4072.0
199.200165 140.0
200.012817 172.0
200.075989 688.0
201.07428 168.0
201.528625 128.0
202.404053 164.0
204.034088 3836.0
204.126465 248.0
205.042786 3676.0
206.046234 488.0
207.035736 352.0
208.129776 152.0
212.067612 172.0
215.024399 360.0
216.009216 196.0
216.232529 164.0
217.027527 236.0
217.428284 156.0
221.032333 160.0
222.253113 188.0
224.439331 148.0
231.007721 180.0
231.045486 3184.0
231.610092 140.0
231.670685 144.0
232.053345 21904.0
232.103638 212.0
232.301224 208.0
232.811127 148.0
233.055038 2680.0
234.05101 1184.0
237.103531 224.0
248.048782 516.0
249.043091 296.0
249.674515 164.0
250.037933 172.0
264.041687 176.0
276.171753 156.0
277.151398 192.0
278.046417 4612.0
279.048187 564.0
280.047485 248.0
1230.263428 164.0
1249.430542 152.0
1274.018555 148.0
1366.491943 172.0
1377.705322 148.0
1391.836792 152.0
1426.533203 236.0
1427.826538 188.0
1433.442383 176.0
1439.046753 208.0
1450.022827 168.0
1475.355103 144.0
1530.545044 192.0
1530.708496 196.0
1584.236206 172.0
1604.118652 264.0
1611.396851 160.0
1711.766968 152.0
1721.406738 176.0
1748.357178 160.0
1755.396484 180.0
1772.934937 156.0
1790.80481 168.0
1792.41394 220.0
1797.439575 172.0
1808.637451 148.0
1808.857544 272.0
1814.974243 152.0
1821.670532 200.0
1891.933228 140.0
1939.943115 212.0
1941.424927 148.0
1973.185547 252.0
1976.59082 156.0
1980.946777 160.0
