>compound MLS001147804-01!(2S)-3-(1H-indol-3-yl)-2-[[2-(3,4,7-trimethyl-2-oxochromen-5-yl)oxyacetyl]amino]propanoic acid
>formula C25H24N2O6
>ionization [M+H]+
>parentmass 449.171
#inchi InChI=1S/C25H24N2O6/c1-13-8-20(23-14(2)15(3)25(31)33-21(23)9-13)32-12-22(28)27-19(24(29)30)10-16-11-26-18-7-5-4-6-17(16)18/h4-9,11,19,26H,10,12H2,1-3H3,(H,27,28)(H,29,30)/t19-/m0/s1
#inchikey VKTUYBSQXRKYRL
#Ion_Source LC-ESI
#Instrument qTof
#Compound_Source NIH Natural Product Library
#PI Dorrestein
#Data_Collector VVP/LMS
#Scan -1
#Precursor_MZ 449.171
#ExactMass 448.163
#Charge 1
#CAS_Number N/A
#Pubmed_ID N/A
#Smiles Cc1cc(OCC(=O)N[C@@H](Cc2c[nH]c3ccccc23)C(=O)O)c4c(C)c(C)c(=O)oc4c1
#INCHI_AUX N/A
#Library_Class 1
#SpectrumID CCMSLIB00000079638
#IonMode Positive
#UpdateWorkflowName UPDATE-SINGLE-ANNOTATED-GOLD
#LibraryQualityString Gold
#TaskID b1d8e8f6646f4e71acdff9ca3d919d08
##Scan# 2095
#SpectrumFile p1-B09_GB9_01_17893.mzXML
#LibraryName NIH_Natural_Products_Library.mgf
#MQScore -1
#Organism NIH_Natural_Products_Library
#TIC_Query 0
#RT_Query -1
#MZErrorPPM -1
#SharedPeaks 0
#MassDiff 0
#LibMZ -1
#SpecMZ 449.171
#SpecCharge 0
#internalFilename spec-00000.mgf

>collision 10
95.008621 156.0
95.270699 176.0
95.327042 104.0
95.487587 192.0
95.521461 140.0
95.939163 40.0
96.10006 176.0
96.203491 228.0
96.254257 176.0
96.414436 108.0
96.473076 104.0
96.658203 164.0
96.754776 156.0
96.891869 188.0
97.107483 100.0
97.221275 104.0
97.441185 168.0
97.688889 132.0
97.74791 164.0
97.978271 168.0
97.994034 136.0
98.159599 136.0
98.459633 192.0
98.637375 168.0
98.657143 96.0
98.748093 152.0
98.932114 268.0
99.378281 188.0
99.463364 192.0
99.509018 296.0
99.545822 164.0
99.553398 252.0
99.701698 140.0
99.846817 184.0
99.94429 148.0
99.96817 220.0
100.000015 184.0
100.47226 156.0
100.645897 140.0
100.757744 200.0
100.811691 156.0
101.616623 184.0
101.78923 180.0
102.138924 148.0
102.165077 184.0
102.229462 72.0
102.338158 196.0
102.356277 168.0
102.41468 216.0
102.42878 124.0
102.832031 100.0
102.989517 224.0
103.054985 796.0
103.165314 100.0
103.195641 184.0
103.341263 164.0
103.418159 192.0
103.432327 112.0
103.478889 76.0
103.515335 152.0
103.754417 192.0
103.985657 88.0
104.115585 140.0
104.223244 184.0
104.298439 176.0
104.436699 136.0
104.585228 248.0
104.627975 144.0
104.85611 164.0
104.894836 180.0
104.93969 172.0
105.0131 160.0
105.069702 784.0
105.149788 168.0
105.253899 152.0
105.380539 144.0
105.55632 124.0
105.736336 168.0
105.902176 180.0
105.998459 180.0
106.03125 212.0
106.07019 48.0
106.109138 180.0
106.347092 96.0
106.548325 188.0
106.595581 172.0
106.729187 212.0
106.788826 112.0
106.839294 204.0
107.025482 120.0
107.089317 168.0
107.122276 196.0
107.190262 188.0
107.363419 184.0
107.404671 184.0
107.458549 136.0
107.578003 148.0
107.683304 172.0
107.854797 48.0
107.995392 204.0
108.024353 128.0
108.088486 144.0
108.183693 68.0
108.235451 156.0
108.608482 152.0
108.838837 56.0
108.871613 280.0
108.957222 56.0
109.08606 148.0
109.338974 184.0
109.391846 92.0
109.579277 156.0
109.61261 216.0
109.678093 304.0
110.075684 188.0
110.184296 192.0
110.552292 140.0
110.56694 188.0
110.606712 200.0
110.776321 68.0
110.845459 208.0
111.021545 160.0
111.063492 164.0
111.409843 232.0
111.512802 148.0
111.548538 128.0
111.60157 228.0
112.418373 108.0
112.583031 120.0
112.648506 156.0
112.675964 204.0
112.71611 172.0
112.764717 184.0
112.792191 176.0
112.859756 204.0
113.01001 44.0
113.156052 148.0
113.185692 148.0
113.325485 152.0
113.452644 228.0
113.96624 144.0
114.000565 132.0
114.044868 120.0
114.091637 160.0
114.155418 192.0
114.289429 160.0
114.400093 224.0
114.534248 132.0
114.574722 184.0
114.681259 136.0
114.700447 92.0
114.785721 164.0
114.898766 68.0
115.053864 1260.0
115.088715 192.0
115.112206 180.0
115.142204 160.0
115.193359 68.0
115.240356 64.0
115.255318 160.0
115.579636 188.0
115.663788 132.0
115.80938 132.0
115.944359 160.0
116.058365 604.0
116.128731 100.0
116.253166 108.0
116.480743 168.0
116.601067 172.0
116.760155 140.0
116.811775 240.0
116.856949 296.0
117.035591 160.0
117.060104 580.0
117.093735 144.0
117.177742 48.0
117.199165 140.0
117.262115 180.0
117.53997 48.0
117.751526 164.0
117.963272 168.0
117.989212 196.0
118.066063 3196.0
118.105034 284.0
118.182404 172.0
118.220642 164.0
118.40033 124.0
118.469635 68.0
118.51297 144.0
118.590981 208.0
118.665535 152.0
118.855545 112.0
118.955383 212.0
119.06739 312.0
119.088966 448.0
119.252953 212.0
119.352951 220.0
119.374695 128.0
119.42907 160.0
119.81218 144.0
119.842682 104.0
119.873184 88.0
119.897156 192.0
119.953827 92.0
120.008331 124.0
120.069382 304.0
120.089012 168.0
120.200157 152.0
120.224274 128.0
120.252647 136.0
120.29599 140.0
120.342148 80.0
120.466629 40.0
120.623962 140.0
120.917046 140.0
121.065727 792.0
121.092194 116.0
121.155792 116.0
121.236786 204.0
121.324463 180.0
121.348572 196.0
121.407776 140.0
121.457474 140.0
121.695229 124.0
121.78746 128.0
121.859955 104.0
121.919281 40.0
122.064362 156.0
122.152336 160.0
122.235939 160.0
122.689651 124.0
122.870491 144.0
123.038216 176.0
123.164085 124.0
123.223724 132.0
123.265709 244.0
123.320953 144.0
123.360954 208.0
123.812103 152.0
124.033669 164.0
124.199966 116.0
124.324203 216.0
124.386353 180.0
124.49292 164.0
124.70842 184.0
124.815125 144.0
124.84848 160.0
124.94857 192.0
125.113258 52.0
125.275818 108.0
125.320381 176.0
125.463013 148.0
125.688271 140.0
125.739601 220.0
125.837814 88.0
125.994148 192.0
126.10347 52.0
126.155045 272.0
126.1707 144.0
126.300392 152.0
126.365265 160.0
126.434631 204.0
126.538017 128.0
126.678688 132.0
126.757103 164.0
126.965576 144.0
127.007973 164.0
127.055946 184.0
127.286476 64.0
127.369568 196.0
127.490891 156.0
127.807953 128.0
127.839455 124.0
127.994774 128.0
128.060959 948.0
128.107376 76.0
128.190735 44.0
128.240326 216.0
128.331726 224.0
128.443253 76.0
128.481598 48.0
128.679291 188.0
128.842804 72.0
128.937698 168.0
129.021332 132.0
129.068909 1412.0
129.096786 200.0
129.136658 108.0
129.224884 112.0
129.378769 76.0
129.519165 148.0
129.539551 160.0
129.625549 188.0
129.680038 120.0
129.804108 220.0
129.81601 176.0
129.823288 216.0
129.850082 108.0
129.987701 144.0
130.036118 64.0
130.065536 24708.0
130.121918 160.0
130.16124 132.0
130.18071 104.0
130.262634 156.0
130.349503 196.0
130.388138 84.0
130.435867 52.0
130.536621 140.0
130.563187 100.0
130.607544 160.0
130.62915 40.0
130.822571 200.0
130.872665 180.0
131.025253 456.0
131.068817 3852.0
131.136902 56.0
131.159698 112.0
131.186539 160.0
131.233124 96.0
131.255447 56.0
131.336639 140.0
131.369492 72.0
131.410553 44.0
131.613678 236.0
131.79184 128.0
131.823837 92.0
131.85582 76.0
131.942688 216.0
131.994034 200.0
132.045013 176.0
132.080475 3656.0
132.125641 112.0
132.219452 148.0
132.237762 28.0
132.503387 124.0
132.528076 216.0
132.585876 168.0
132.723404 180.0
132.746338 60.0
132.986191 116.0
133.098206 920.0
133.294952 236.0
133.396088 192.0
133.536331 88.0
133.568542 160.0
133.646759 168.0
133.663467 196.0
133.819382 152.0
133.851608 168.0
133.941437 128.0
134.079666 176.0
134.1138 232.0
134.194916 64.0
134.284851 132.0
134.416351 232.0
134.492508 188.0
134.557144 196.0
134.737274 136.0
134.952545 144.0
135.02916 160.0
135.048279 296.0
135.091446 220.0
135.165009 204.0
135.389557 128.0
135.472931 116.0
135.581833 180.0
135.660065 224.0
135.99234 72.0
136.132812 172.0
136.21524 36.0
136.240784 172.0
136.380478 140.0
136.463898 92.0
136.640656 196.0
137.017807 140.0
137.059738 76.0
137.451477 124.0
137.554153 124.0
137.75264 228.0
137.862457 212.0
138.250641 92.0
138.358322 128.0
138.488464 48.0
138.576126 156.0
138.836304 240.0
139.026321 136.0
139.054489 128.0
139.138992 132.0
139.195343 64.0
139.23761 112.0
139.279892 76.0
139.298676 168.0
139.641846 148.0
139.750046 124.0
139.846527 184.0
139.978363 140.0
140.023117 204.0
140.051544 356.0
140.114975 44.0
140.272858 232.0
140.320007 172.0
140.476669 184.0
140.595993 148.0
140.636108 160.0
140.784851 52.0
141.057922 808.0
141.200775 132.0
141.520233 156.0
141.565216 216.0
141.844788 164.0
141.861374 132.0
142.065903 4148.0
142.129379 52.0
142.300262 84.0
142.33757 168.0
142.471252 176.0
142.727936 168.0
142.899185 128.0
143.027695 176.0
143.07251 5728.0
143.175308 48.0
143.227707 56.0
143.302261 256.0
143.382568 248.0
143.480301 60.0
143.504135 112.0
143.687775 160.0
143.82164 164.0
143.883469 88.0
144.080872 12300.0
144.119919 208.0
144.143814 32.0
144.280045 64.0
144.330261 96.0
144.354172 32.0
144.406784 116.0
144.466583 224.0
144.514435 156.0
144.558472 168.0
144.578278 216.0
144.643661 72.0
144.69632 32.0
144.859161 112.0
144.885895 224.0
144.996811 132.0
145.083984 1180.0
145.134766 236.0
145.317047 64.0
145.356308 212.0
145.415436 132.0
145.588287 156.0
145.617111 52.0
145.755493 80.0
145.970978 60.0
146.024765 240.0
146.032898 148.0
146.059952 8564.0
146.133926 112.0
146.184464 140.0
146.293884 112.0
146.377029 52.0
146.46373 176.0
146.615524 216.0
146.781845 36.0
146.931381 48.0
147.011719 124.0
147.063126 736.0
147.141357 64.0
147.411865 52.0
147.49646 184.0
147.525467 228.0
147.627014 76.0
147.728592 168.0
147.953644 112.0
148.049896 608.0
148.068771 280.0
148.093124 280.0
148.217651 120.0
148.375183 76.0
148.549896 84.0
148.581329 112.0
148.680801 160.0
148.729355 216.0
148.828888 124.0
148.952728 116.0
148.979462 112.0
149.057053 204.0
149.095978 592.0
149.176285 56.0
149.234634 76.0
149.363525 100.0
149.565491 124.0
149.633652 72.0
149.813858 152.0
150.099808 184.0
150.130707 80.0
151.073502 180.0
151.165176 144.0
151.276611 96.0
151.310883 192.0
151.423523 176.0
151.484756 236.0
151.50676 228.0
151.889206 60.0
151.960358 156.0
152.00206 124.0
152.547287 156.0
152.606293 176.0
152.702194 192.0
152.805511 160.0
153.062698 152.0
153.440918 104.0
153.472961 56.0
153.512421 104.0
153.749237 176.0
154.013412 36.0
154.064117 2384.0
154.277008 208.0
154.374237 152.0
154.448425 108.0
154.787476 88.0
155.07019 664.0
155.213669 48.0
155.46669 128.0
155.588318 100.0
155.759659 216.0
155.779526 104.0
155.923645 168.0
156.079544 2232.0
156.214554 96.0
156.276749 52.0
156.45842 124.0
156.505722 208.0
156.69252 172.0
156.709961 48.0
156.742355 112.0
156.894394 64.0
157.075806 2656.0
157.154037 180.0
157.19368 72.0
157.370911 104.0
157.838135 152.0
157.868149 164.0
157.905655 132.0
158.083618 7184.0
158.158356 36.0
158.201447 76.0
158.311081 300.0
158.463867 252.0
158.604446 160.0
158.792252 116.0
158.912659 148.0
159.087234 5260.0
159.286713 76.0
159.41304 112.0
159.439972 76.0
159.467621 84.0
159.646118 60.0
159.703949 52.0
159.885101 132.0
159.93544 156.0
160.043686 144.0
160.084473 692.0
160.27037 120.0
160.345963 72.0
160.569565 64.0
160.595566 52.0
160.638443 100.0
160.661148 208.0
160.854416 164.0
160.914673 248.0
161.059875 1860.0
161.096146 2380.0
161.181244 60.0
161.254532 44.0
161.337952 56.0
161.434036 56.0
161.451736 64.0
161.79332 52.0
161.864212 52.0
161.917389 140.0
161.945236 196.0
162.067413 228.0
162.098862 804.0
162.416687 176.0
162.571442 208.0
162.9142 44.0
163.072906 496.0
163.09462 188.0
163.353973 120.0
164.110352 52.0
164.268463 124.0
164.286316 184.0
164.58493 64.0
164.666641 132.0
165.056641 208.0
165.851257 184.0
166.392517 244.0
166.415619 84.0
166.745453 80.0
167.076691 248.0
167.28714 44.0
167.51889 180.0
167.92099 136.0
168.08609 136.0
168.450119 176.0
168.66716 104.0
169.051025 388.0
169.075531 408.0
169.713043 224.0
169.812897 164.0
169.917938 148.0
169.948547 100.0
170.024323 144.0
170.060059 12952.0
170.133331 36.0
170.216415 48.0
170.239792 64.0
170.296921 112.0
170.320724 72.0
170.359268 44.0
170.481384 52.0
170.65033 48.0
170.668533 156.0
170.880249 172.0
171.063248 1632.0
171.091461 8248.0
171.139481 160.0
171.178528 116.0
171.285309 56.0
171.332199 60.0
171.399933 52.0
171.45575 172.0
171.511993 36.0
171.540878 52.0
171.616272 64.0
171.693787 132.0
171.757095 44.0
171.806656 100.0
171.874496 80.0
172.094116 812.0
172.159027 64.0
172.22171 148.0
172.281784 92.0
172.302689 64.0
172.401138 176.0
172.456848 48.0
172.877914 160.0
172.901459 52.0
173.06868 164.0
173.104614 728.0
173.367676 292.0
173.430511 144.0
173.506531 104.0
173.881622 144.0
173.955109 64.0
174.066025 924.0
174.112656 144.0
174.275513 72.0
174.682999 116.0
175.073898 504.0
175.575882 92.0
175.641815 132.0
175.678741 76.0
175.707764 168.0
175.764603 192.0
175.80275 108.0
175.929443 48.0
176.083908 4696.0
176.262222 72.0
176.309784 128.0
176.695831 76.0
176.867844 36.0
177.016098 68.0
177.087128 1016.0
177.151169 32.0
177.235138 120.0
177.257141 52.0
177.289398 188.0
177.365799 36.0
177.760956 116.0
177.784851 188.0
178.072586 136.0
178.091644 132.0
178.454224 104.0
179.0849 156.0
179.484634 144.0
179.556625 140.0
179.719345 48.0
180.258713 40.0
181.075714 704.0
181.645538 144.0
181.873627 164.0
182.082657 852.0
182.115265 56.0
182.18779 104.0
182.476196 64.0
182.526443 72.0
182.81427 148.0
183.069183 528.0
183.089111 1488.0
183.12117 48.0
183.19928 128.0
183.576614 60.0
183.625153 144.0
183.714172 228.0
184.07605 876.0
184.683899 188.0
184.816452 232.0
185.022141 56.0
185.071838 1368.0
185.482651 64.0
185.846054 304.0
186.071167 420.0
186.579346 140.0
186.709854 160.0
186.995529 72.0
187.075974 740.0
187.167023 52.0
187.499359 136.0
187.570221 48.0
187.692902 116.0
187.774719 76.0
188.070648 10928.0
188.148544 32.0
188.189484 132.0
188.286514 72.0
188.347885 36.0
188.427032 132.0
188.489944 100.0
188.528198 80.0
188.569199 96.0
188.621124 52.0
188.645721 136.0
188.686737 48.0
188.83165 136.0
188.88089 100.0
188.997559 148.0
189.090683 10632.0
189.131348 112.0
189.15451 84.0
189.173676 136.0
189.231171 104.0
189.299622 56.0
189.397156 156.0
189.419495 108.0
189.491348 60.0
189.576294 68.0
189.743484 60.0
189.781876 68.0
189.875107 108.0
189.950806 72.0
189.994705 92.0
190.053406 152.0
190.09375 1780.0
190.171417 208.0
190.249695 112.0
190.27298 128.0
190.451462 88.0
190.583328 60.0
190.679504 84.0
190.717987 88.0
191.034195 160.0
191.072708 212.0
191.094467 448.0
191.375458 108.0
191.416763 100.0
191.686707 64.0
192.072678 176.0
193.869766 64.0
194.618713 88.0
195.085449 152.0
195.152176 172.0
195.494308 100.0
195.538834 68.0
195.767105 144.0
195.931442 168.0
196.112564 172.0
196.366287 132.0
197.06694 140.0
197.164734 116.0
198.012421 152.0
198.048843 216.0
198.079559 260.0
198.211319 180.0
198.486023 136.0
198.859116 96.0
198.881577 116.0
199.086395 1720.0
199.153931 168.0
199.224152 44.0
199.814514 228.0
199.837021 176.0
199.893295 264.0
199.915817 188.0
200.093903 3348.0
200.256454 76.0
200.476883 84.0
200.78067 48.0
201.096909 480.0
201.172852 56.0
201.635101 92.0
202.057632 468.0
202.099838 184.0
202.433838 124.0
202.943878 136.0
203.069717 588.0
203.193466 80.0
203.695923 228.0
203.758423 136.0
203.911865 188.0
204.077835 2084.0
204.150665 92.0
204.531906 32.0
204.585983 128.0
204.829376 228.0
205.084885 5052.0
205.135788 48.0
205.546463 116.0
205.572144 92.0
205.835587 180.0
206.084839 740.0
206.186127 116.0
206.209 60.0
206.434845 84.0
206.723755 148.0
207.095932 120.0
207.286438 20.0
207.514313 84.0
207.651947 100.0
207.730499 52.0
207.786774 120.0
208.07663 112.0
209.603897 40.0
209.684586 92.0
210.050751 116.0
210.082489 96.0
211.052872 108.0
211.567856 200.0
213.078796 156.0
213.177582 44.0
213.872665 144.0
214.370667 108.0
215.070969 176.0
215.126068 156.0
215.643066 152.0
216.07048 300.0
216.983734 200.0
217.086563 6816.0
217.153809 56.0
217.268204 36.0
217.356216 36.0
217.409851 72.0
217.544052 88.0
217.652679 48.0
217.980743 64.0
218.090439 952.0
218.416779 172.0
218.507965 136.0
218.528564 88.0
218.578583 76.0
218.66098 136.0
219.005447 64.0
219.089462 184.0
219.123276 68.0
219.403259 156.0
219.561554 64.0
219.650955 48.0
220.070023 148.0
220.536758 48.0
220.702316 116.0
220.995117 132.0
221.101654 104.0
223.133499 112.0
223.163239 36.0
224.100769 56.0
225.108948 140.0
226.367859 72.0
226.781281 128.0
227.061981 388.0
227.312103 80.0
228.062897 168.0
228.082474 140.0
228.107986 204.0
228.829987 128.0
229.083344 492.0
229.263733 172.0
229.99057 72.0
230.087158 104.0
231.078445 252.0
231.244873 96.0
232.096115 120.0
232.11734 104.0
233.675491 104.0
235.092361 156.0
236.09436 100.0
238.255249 172.0
238.347427 80.0
239.214706 68.0
241.089951 116.0
243.096619 148.0
244.093643 212.0
244.121735 48.0
244.180817 36.0
244.30835 64.0
244.874847 200.0
245.077805 1748.0
245.407715 96.0
245.981735 84.0
246.081894 308.0
247.081223 196.0
247.96788 96.0
248.08699 136.0
248.764572 80.0
250.179169 156.0
250.440521 176.0
252.387634 88.0
254.083694 168.0
254.132843 92.0
255.050598 96.0
256.74118 60.0
257.130402 144.0
258.117188 172.0
258.824646 100.0
259.180176 112.0
259.93692 36.0
262.108063 1024.0
262.658661 96.0
263.092468 648.0
263.187927 56.0
264.099243 148.0
264.801575 148.0
267.086517 176.0
267.389099 40.0
268.460907 132.0
269.100433 188.0
269.44989 132.0
270.869659 48.0
271.003967 104.0
271.715424 120.0
272.083862 284.0
274.112305 140.0
274.821228 20.0
275.702881 108.0
284.096954 84.0
284.395599 56.0
285.581635 108.0
289.110596 84.0
290.459015 136.0
292.133667 156.0
292.828033 128.0
294.646149 104.0
296.816101 216.0
297.543457 36.0
297.715149 76.0
299.582764 80.0
301.100433 148.0
302.08548 64.0
303.040985 68.0
303.446472 136.0
306.010529 164.0
307.101227 68.0
307.645569 60.0
311.47998 108.0
312.125702 140.0
312.703552 52.0
313.104889 104.0
314.102325 136.0
314.134094 160.0
315.0625 116.0
316.124939 216.0
317.111267 172.0
319.141785 144.0
320.094177 156.0
320.11673 304.0
321.120239 156.0
325.103943 180.0
326.590912 212.0
328.142944 136.0
329.138763 84.0
330.139008 248.0
330.284393 52.0
330.505066 144.0
332.110931 232.0
333.118988 120.0
334.125946 96.0
334.886719 56.0
339.135956 104.0
340.133636 192.0
340.291504 144.0
342.107605 176.0
343.117981 308.0
343.478394 40.0
344.124939 140.0
345.121765 132.0
346.14859 284.0
348.160309 152.0
353.10553 192.0
353.184296 128.0
354.108765 160.0
354.14621 188.0
356.117554 160.0
356.389526 172.0
357.156433 148.0
358.123749 212.0
358.152191 160.0
360.088745 124.0
361.147003 116.0
363.473053 68.0
367.136261 180.0
367.918457 112.0
368.123291 68.0
369.135773 152.0
369.538879 176.0
375.166779 248.0
376.156555 116.0
377.211121 76.0
377.926575 56.0
378.127777 112.0
383.811035 36.0
385.153259 380.0
386.133545 308.0
387.161407 176.0
387.390961 60.0
387.908234 80.0
390.33844 56.0
391.1922 44.0
391.806519 152.0
395.126678 136.0
396.120331 176.0
397.095367 100.0
397.269897 96.0
400.262604 32.0
401.174957 72.0
401.717285 140.0
402.595367 60.0
402.795074 88.0
403.165192 2388.0
403.574341 92.0
403.670319 116.0
403.83429 56.0
404.164001 1092.0
405.165405 132.0
405.287445 128.0
406.169403 80.0
413.153442 244.0
414.960693 88.0
417.299225 72.0
420.733673 88.0
425.716583 40.0
429.057617 52.0
429.787598 112.0
431.774536 52.0
438.116882 48.0
443.029633 160.0
446.172882 64.0
447.258179 36.0
447.304474 216.0
449.175964 288.0
449.30191 120.0
450.159515 152.0
451.151611 128.0
451.599823 52.0
458.925171 104.0
482.089081 56.0
483.580383 52.0
485.740509 100.0
498.428955 112.0
503.440277 64.0
509.338745 20.0
515.737 20.0
517.736694 48.0
521.511353 52.0
535.816101 44.0
541.085571 64.0
548.038269 84.0
556.513367 80.0
560.648071 68.0
584.006226 60.0
603.53064 52.0
612.83667 84.0
613.334412 100.0
637.618774 48.0
651.123047 84.0
679.92041 208.0
693.899841 48.0
705.682739 148.0
719.618835 60.0
746.425659 196.0
764.449951 164.0
765.716125 76.0
782.088013 208.0
787.9599 104.0
793.063293 136.0
805.227295 252.0
814.533203 120.0
833.558167 132.0
845.761414 204.0
862.694458 64.0
871.532349 88.0
880.031433 116.0
884.151489 112.0
887.361938 156.0
894.056213 56.0
904.075928 56.0
908.359741 168.0
925.142273 196.0
937.849792 124.0
939.703613 148.0
946.561462 100.0
947.498596 40.0
947.706848 36.0
956.150208 112.0
958.613525 40.0
972.255432 164.0
974.41626 192.0
975.199219 204.0
977.388184 128.0
985.724976 196.0
991.099915 236.0
992.654419 192.0
992.735962 148.0
1002.019653 120.0
1003.570068 68.0
1021.015503 200.0
1026.689697 164.0
1027.678467 184.0
1028.010254 36.0
1033.422241 216.0
1034.894409 36.0
1036.450806 200.0
1040.35022 144.0
1045.041748 244.0
1046.818237 64.0
1056.661377 232.0
1058.674316 196.0
1060.138428 44.0
1064.296265 88.0
1070.532227 184.0
1073.594971 100.0
1074.847412 188.0
1075.323853 152.0
1076.440063 212.0
1082.698242 184.0
1085.319458 192.0
1086.631104 160.0
1087.234863 188.0
1090.84729 152.0
1091.833496 168.0
1091.938721 168.0
1094.39978 176.0
1096.39563 176.0
1099.587646 176.0
1101.324097 220.0
1105.217773 212.0
1110.311768 164.0
1110.510742 108.0
1116.454712 116.0
1116.966797 220.0
1117.778442 52.0
1119.230103 152.0
1119.322754 172.0
1120.641602 92.0
1130.59082 164.0
1131.481079 128.0
1133.410034 208.0
1134.670044 176.0
1135.394165 148.0
1135.74292 124.0
1141.807739 148.0
1142.305542 160.0
1148.02356 148.0
1149.150024 208.0
1149.325439 124.0
1149.554932 148.0
1150.12854 48.0
1152.60022 96.0
1153.47876 204.0
1155.697021 160.0
1155.818848 136.0
1156.678223 212.0
1158.005371 204.0
1158.750488 152.0
1160.682129 124.0
1162.547607 92.0
1163.38916 52.0
1164.421265 136.0
1169.071289 224.0
1171.733521 144.0
1173.723755 172.0
1176.275269 244.0
1177.374512 60.0
1184.309448 220.0
1184.549194 96.0
1187.832642 136.0
1190.213989 200.0
1197.145386 156.0
1197.372559 184.0
1197.441528 100.0
1197.912964 216.0
1203.848145 124.0
1206.501343 80.0
1209.406616 56.0
1209.593506 172.0
1209.773438 176.0
1210.583496 192.0
1210.964478 176.0
1211.192993 224.0
1211.802612 132.0
1215.609253 148.0
1216.219971 168.0
1225.461914 92.0
1225.796387 200.0
1229.771484 80.0
1230.853516 172.0
1232.872314 20.0
1233.361694 172.0
1233.76001 180.0
1234.997681 132.0
1237.194824 172.0
1237.36499 240.0
1237.50293 204.0
1240.122803 40.0
1241.690063 164.0
1243.468262 180.0
1243.826172 272.0
1243.987671 56.0
1244.710815 220.0
1245.441162 220.0
1245.820435 196.0
1246.066284 120.0
1246.832275 108.0
1247.865479 168.0
1248.646118 192.0
1249.370605 172.0
1250.116333 156.0
1250.26416 128.0
1250.362671 176.0
1251.643799 200.0
1253.04541 180.0
1253.658447 164.0
1256.253052 156.0
1256.436523 152.0
1257.163208 188.0
1259.980469 128.0
1262.977661 56.0
1264.484741 176.0
1264.760742 148.0
1266.1875 172.0
1266.736328 136.0
1267.040894 180.0
1269.585449 216.0
1272.814209 104.0
1274.710693 140.0
1275.265015 132.0
1275.819458 200.0
1277.483521 180.0
1281.92627 152.0
1284.771118 184.0
1286.18396 188.0
1288.233398 144.0
1291.263916 164.0
1291.371216 228.0
1292.565918 236.0
1293.86853 168.0
1295.429688 128.0
1296.57605 180.0
1299.221924 152.0
1300.9729 164.0
1302.531128 96.0
1302.92627 196.0
1306.873291 208.0
1307.276245 152.0
1308.269409 176.0
1309.817627 60.0
1310.689331 176.0
1310.869507 80.0
1312.303833 172.0
1314.590454 176.0
1315.680298 204.0
1317.716919 132.0
1319.54541 212.0
1320.07312 116.0
1322.171021 124.0
1322.692139 204.0
1325.828247 144.0
1326.263062 180.0
1327.705811 236.0
1330.521118 152.0
1331.363403 156.0
1333.244995 208.0
1334.684204 112.0
1335.91333 200.0
1336.589966 204.0
1337.274048 168.0
1341.38208 64.0
1341.622559 192.0
1343.088257 96.0
1347.139526 144.0
1353.092285 224.0
1354.960449 188.0
1357.202515 152.0
1360.804932 208.0
1361.105957 212.0
1361.884399 172.0
1363.993286 132.0
1364.302002 64.0
1365.529907 204.0
1366.177246 40.0
1368.893066 196.0
1369.732666 136.0
1370.712524 204.0
1371.633667 160.0
1371.964233 228.0
1374.509888 132.0
1375.085571 148.0
1375.705566 264.0
1375.771973 212.0
1378.549072 172.0
1378.970337 156.0
1379.72644 164.0
1379.90918 156.0
1381.839478 88.0
1382.818726 140.0
1387.645874 148.0
1389.077148 200.0
1392.02356 60.0
1394.824463 220.0
1398.469116 220.0
1401.447754 136.0
1403.907593 176.0
1404.48938 188.0
1404.921997 68.0
1406.339722 160.0
1406.80249 128.0
1407.616333 176.0
1407.885132 128.0
1408.460205 124.0
1410.4552 204.0
1411.285034 152.0
1412.45166 124.0
1415.273071 168.0
1416.388916 196.0
1417.595093 192.0
1420.609009 136.0
1421.201416 160.0
1421.899658 168.0
1422.027222 132.0
1422.830322 108.0
1422.958008 48.0
1423.273315 152.0
1424.076904 36.0
1428.331055 152.0
1429.248901 64.0
1429.44458 168.0
1429.895996 100.0
1431.913696 172.0
1432.230103 220.0
1435.048462 172.0
1435.998535 192.0
1437.326294 144.0
1437.431885 160.0
1439.039673 36.0
1440.905029 168.0
1441.811768 144.0
1441.963013 40.0
1443.028809 180.0
1443.081665 76.0
1443.317261 128.0
1443.724487 104.0
1444.488281 204.0
1445.555054 124.0
1447.472168 176.0
1448.310791 236.0
1453.041016 160.0
1455.416626 168.0
1460.759277 144.0
1461.968994 144.0
1464.268066 164.0
1464.831787 144.0
1465.403076 192.0
1465.525024 136.0
1465.685059 36.0
1467.415161 148.0
1467.499023 172.0
1468.886963 116.0
1469.011108 188.0
1470.527466 196.0
1470.695312 200.0
1471.005249 236.0
1471.267822 144.0
1472.135864 176.0
1473.115845 156.0
1474.231323 64.0
1475.431396 164.0
1477.174927 212.0
1477.488525 180.0
1478.812378 172.0
1479.363403 56.0
1480.435303 200.0
1480.871826 136.0
1481.331421 124.0
1482.204834 188.0
1485.608887 216.0
1486.299316 160.0
1487.296997 100.0
1490.161377 168.0
1490.453369 140.0
1493.159302 68.0
1493.605347 212.0
1493.736084 124.0
1494.613159 164.0
1496.645142 56.0
1497.330444 232.0
1497.623169 88.0
1501.769775 152.0
1502.148926 128.0
1503.97644 212.0
