>compound NCGC00160327-01!5,9-Dimethyl-3-(3-methoxyphenyl)-psolen-6-yl propionic acid
>formula C23H20O6
>ionization [M+H]+
>parentmass 393.134
#inchi InChI=1S/C23H20O6/c1-12-16(7-8-20(24)25)23(26)29-22-13(2)21-18(10-17(12)22)19(11-28-21)14-5-4-6-15(9-14)27-3/h4-6,9-11H,7-8H2,1-3H3,(H,24,25)
#inchikey LOUFPKWYPZGJBT
#Ion_Source LC-ESI
#Instrument qTOF
#Compound_Source Prestwick Phytochem Lib
#PI Dorrestein
#Data_Collector VVP/LMS
#Scan -1
#Precursor_MZ 393.134
#ExactMass 392.126
#Charge 1
#CAS_Number N/A
#Pubmed_ID N/A
#Smiles COC1=CC=CC(=C1)C2=COC3=C(C)C4=C(C=C23)C(C)=C(CCC(O)=O)C(=O)O4
#INCHI_AUX N/A
#Library_Class 1
#SpectrumID CCMSLIB00000078811
#IonMode Positive
#UpdateWorkflowName UPDATE-SINGLE-ANNOTATED-GOLD
#LibraryQualityString Gold
#TaskID 67c915c6594c435cadc1fe2b5358144d
##Scan# 2458
#SpectrumFile p1-F04_GF4_01_17936.mzXML
#LibraryName phytochem_lib.mgf
#MQScore -1
#Organism phytochem_lib
#TIC_Query 0
#RT_Query -1
#MZErrorPPM -1
#SharedPeaks 0
#MassDiff 0
#LibMZ -1
#SpecMZ 393.134
#SpecCharge 0
#internalFilename spec-00000.mgf

>collision 10
95.298225 100.0
95.537354 164.0
96.266312 148.0
96.475372 232.0
96.680748 40.0
96.737503 208.0
96.919647 120.0
97.092148 152.0
97.333519 120.0
97.404221 184.0
97.608612 120.0
97.75811 148.0
97.785667 136.0
97.91954 124.0
97.95697 184.0
98.230965 128.0
98.39476 128.0
98.483627 240.0
98.617981 76.0
99.426033 136.0
100.072067 216.0
100.321098 136.0
100.458694 112.0
100.472664 220.0
100.528526 184.0
100.640312 132.0
100.712204 220.0
100.772133 216.0
100.892044 148.0
100.936028 128.0
100.984024 112.0
101.110069 140.0
101.1521 156.0
101.182129 204.0
101.230186 144.0
101.462608 192.0
101.530777 148.0
101.576912 48.0
102.252022 128.0
102.394958 136.0
102.790085 152.0
103.058632 160.0
103.143517 168.0
103.398361 208.0
103.43074 36.0
103.600838 44.0
103.673782 148.0
104.730247 56.0
104.887146 160.0
105.084953 176.0
105.39122 156.0
105.785934 144.0
106.142418 200.0
106.181381 164.0
106.2183 144.0
107.049034 160.0
107.584694 120.0
107.851166 152.0
107.926979 232.0
107.993828 156.0
108.060028 172.0
108.633881 104.0
108.978516 108.0
109.032539 124.0
110.260056 220.0
110.324852 140.0
110.439857 80.0
110.858574 172.0
110.957092 112.0
111.026283 128.0
111.194122 104.0
111.284386 148.0
111.454514 100.0
111.591133 44.0
111.84568 184.0
111.980431 148.0
112.134232 156.0
112.167961 112.0
112.231201 176.0
112.258614 164.0
112.323997 108.0
112.423157 108.0
112.4907 168.0
112.913284 160.0
113.169327 120.0
113.294281 80.0
113.966637 220.0
114.005081 168.0
114.087975 168.0
114.169113 124.0
114.370888 132.0
114.596626 76.0
115.049637 148.0
115.264473 148.0
115.317902 108.0
115.341408 40.0
115.908546 52.0
116.056442 168.0
116.457741 112.0
116.575905 208.0
116.836067 108.0
117.074989 160.0
117.098679 64.0
117.130981 60.0
117.232246 144.0
117.286125 120.0
117.514717 216.0
117.598877 164.0
117.654999 180.0
118.154221 148.0
118.819328 136.0
118.951706 120.0
119.610336 212.0
119.947968 152.0
120.035172 108.0
120.379951 180.0
120.419258 136.0
120.539413 212.0
120.93087 184.0
121.066383 196.0
121.090698 144.0
121.116982 112.0
121.344887 80.0
121.704712 36.0
122.069473 140.0
122.106857 128.0
122.135452 164.0
123.047768 196.0
123.094139 120.0
123.18911 244.0
123.346001 172.0
124.451477 164.0
124.553627 116.0
124.726944 56.0
124.84256 40.0
125.225349 160.0
125.338959 124.0
125.575264 120.0
126.095467 176.0
126.144638 52.0
126.229599 160.0
126.699623 188.0
126.760117 144.0
127.053833 124.0
127.406296 124.0
127.559105 180.0
127.74575 188.0
127.858253 124.0
127.934776 184.0
128.065384 208.0
128.331299 160.0
128.598312 228.0
128.631348 120.0
128.647141 64.0
128.683258 88.0
128.857162 100.0
129.068893 492.0
129.279999 264.0
129.344574 136.0
129.547165 84.0
129.832764 160.0
130.329895 124.0
130.468521 164.0
130.575394 100.0
130.79155 112.0
131.08078 168.0
131.117233 160.0
131.151428 196.0
131.35437 120.0
131.415955 112.0
131.495834 184.0
131.701309 104.0
131.774414 120.0
131.922958 204.0
131.998413 144.0
132.179123 252.0
132.236328 196.0
132.42865 120.0
132.812958 72.0
132.838943 256.0
132.884827 120.0
133.038605 196.0
133.064133 288.0
133.167191 140.0
133.755692 156.0
134.391861 84.0
134.567276 152.0
134.965225 84.0
135.04129 496.0
135.096512 144.0
135.302475 196.0
135.506287 84.0
135.582748 112.0
136.230103 72.0
136.288177 116.0
136.84639 180.0
136.895294 168.0
137.688187 192.0
137.725555 120.0
137.772278 180.0
137.865738 112.0
138.101868 244.0
138.214157 128.0
138.249268 176.0
138.560684 152.0
138.609879 48.0
138.68956 164.0
138.970978 176.0
139.034332 132.0
139.074234 220.0
139.292603 212.0
139.356033 132.0
139.6828 108.0
140.200775 140.0
140.542709 172.0
140.981918 204.0
141.074295 140.0
141.152115 268.0
141.187592 104.0
141.204147 116.0
141.473877 120.0
142.246674 132.0
142.30603 120.0
142.386765 32.0
142.441391 176.0
142.479401 136.0
142.572067 164.0
142.652878 64.0
142.824081 100.0
142.997772 132.0
143.082809 304.0
143.102524 192.0
143.245407 280.0
143.335938 120.0
143.40744 120.0
143.562393 148.0
143.734146 172.0
143.80336 236.0
143.863037 56.0
143.946594 116.0
144.051682 148.0
144.080353 164.0
144.111404 224.0
144.22612 32.0
144.290665 128.0
144.33847 136.0
144.436539 136.0
144.455673 216.0
144.672775 144.0
144.898544 220.0
145.018372 224.0
145.062073 392.0
145.21257 48.0
145.773926 168.0
145.935287 104.0
145.952698 172.0
145.978668 200.0
146.190353 244.0
146.267365 140.0
146.780624 104.0
146.876999 192.0
146.925232 168.0
147.02417 192.0
147.369476 116.0
147.872452 156.0
147.974121 84.0
148.240555 136.0
148.354477 196.0
148.390839 168.0
148.452835 120.0
148.558182 180.0
148.839706 148.0
149.019455 148.0
149.082626 156.0
149.126373 136.0
149.211456 180.0
149.250351 80.0
149.279526 64.0
149.381683 176.0
149.720001 148.0
149.934387 148.0
150.002625 232.0
150.031876 48.0
150.2099 100.0
150.861893 136.0
151.152939 164.0
151.290009 104.0
151.441818 56.0
152.064575 168.0
152.157852 140.0
152.219238 164.0
152.300293 120.0
152.951874 204.0
153.072067 424.0
153.592529 140.0
153.609802 144.0
153.678879 32.0
154.081314 200.0
154.335876 96.0
154.402649 44.0
154.627777 196.0
154.798599 140.0
154.942261 152.0
155.059906 168.0
155.086533 420.0
155.187622 120.0
155.333939 108.0
155.41452 232.0
155.641678 64.0
155.793182 176.0
155.845352 172.0
155.894806 120.0
155.932327 196.0
155.972092 116.0
156.113815 144.0
156.641449 84.0
156.995361 60.0
157.055222 184.0
157.097626 116.0
157.384644 184.0
157.432083 108.0
157.701904 92.0
157.799393 168.0
157.95195 68.0
158.072037 164.0
158.249741 200.0
158.374954 108.0
158.467651 80.0
158.961609 88.0
159.325668 72.0
159.461365 104.0
159.511627 156.0
159.541794 112.0
159.682602 124.0
159.700211 168.0
159.798325 156.0
159.886398 144.0
160.717957 48.0
160.743195 128.0
160.81134 100.0
160.897156 172.0
161.005737 180.0
161.032776 192.0
161.109299 64.0
161.526398 92.0
161.825012 112.0
162.352066 144.0
162.390106 212.0
162.59256 176.0
162.661606 20.0
163.146805 196.0
163.670914 156.0
164.285141 188.0
164.328506 216.0
164.371887 192.0
164.611832 104.0
164.662903 172.0
164.772736 36.0
164.908173 148.0
165.071793 72.0
165.097366 36.0
165.327606 192.0
165.463257 96.0
165.685104 168.0
165.703278 196.0
165.909027 164.0
166.157791 152.0
166.301498 224.0
166.565964 68.0
167.023499 168.0
167.634384 160.0
167.674911 164.0
167.721298 224.0
168.059296 184.0
168.23204 188.0
168.456711 188.0
168.518356 176.0
168.56781 80.0
168.831482 40.0
169.059143 308.0
169.108307 192.0
169.126434 164.0
169.227386 164.0
169.55896 168.0
170.09845 152.0
170.485443 216.0
170.560806 208.0
170.687744 116.0
170.768814 204.0
171.078629 424.0
171.130539 212.0
171.341492 124.0
171.936005 184.0
171.982986 44.0
172.078674 192.0
172.108292 184.0
172.244095 144.0
172.283279 136.0
172.312012 96.0
172.445282 100.0
172.845398 224.0
173.151672 196.0
173.305054 168.0
173.332428 192.0
173.728333 112.0
173.817535 124.0
174.119431 120.0
174.371643 72.0
174.610886 180.0
175.279541 160.0
175.51413 116.0
175.954742 148.0
176.066971 128.0
176.074371 184.0
176.166016 112.0
176.832352 192.0
177.385925 100.0
177.537064 136.0
177.720093 160.0
178.075302 188.0
178.097061 140.0
178.572815 208.0
178.639313 108.0
178.70787 172.0
179.081161 128.0
179.310303 148.0
179.392929 156.0
179.427582 168.0
179.600922 140.0
179.696945 88.0
179.723633 108.0
180.084015 152.0
180.108063 172.0
180.519638 40.0
180.937042 100.0
181.062881 260.0
181.17807 180.0
181.770599 164.0
181.979965 120.0
182.108856 172.0
182.520035 116.0
182.560089 200.0
182.700226 200.0
182.942429 36.0
183.082443 136.0
183.195557 48.0
183.370712 104.0
183.521667 220.0
184.053207 160.0
184.083298 260.0
184.155823 228.0
184.639603 96.0
185.094238 340.0
185.126724 204.0
185.440994 160.0
185.478943 224.0
185.842331 204.0
185.885757 168.0
185.983459 96.0
186.026886 192.0
186.132767 76.0
186.325607 108.0
186.4207 136.0
186.450607 160.0
186.567474 172.0
186.719742 132.0
186.833984 120.0
187.019028 152.0
187.204163 176.0
187.348511 96.0
187.700104 68.0
187.7901 160.0
187.989258 144.0
188.054749 188.0
188.325058 128.0
188.409729 148.0
189.194611 76.0
189.41095 212.0
189.517792 176.0
189.660294 52.0
189.679474 96.0
190.079895 216.0
190.348892 112.0
190.40657 64.0
190.719772 256.0
191.082977 264.0
192.030365 176.0
192.086044 172.0
192.113113 176.0
192.361481 108.0
192.667999 164.0
192.806152 200.0
193.101974 120.0
193.234756 176.0
193.373108 132.0
193.508759 204.0
194.073608 156.0
194.398514 144.0
194.755951 60.0
195.0802 412.0
195.115112 100.0
195.201309 156.0
195.298645 108.0
195.950043 128.0
196.083435 148.0
196.298447 140.0
196.490906 220.0
196.864929 148.0
197.06604 408.0
197.110748 144.0
197.166641 148.0
197.306396 152.0
197.426636 116.0
197.55809 208.0
197.639221 116.0
197.840744 112.0
198.101181 200.0
198.224457 140.0
198.681473 180.0
198.731964 44.0
198.807724 228.0
198.98912 144.0
199.03511 120.0
199.071609 156.0
199.09407 148.0
199.169907 164.0
199.268234 136.0
199.571777 148.0
199.633636 188.0
200.185196 120.0
200.292221 128.0
200.314743 180.0
200.35701 164.0
200.399261 124.0
200.588089 80.0
200.743149 116.0
200.847504 160.0
200.920837 200.0
201.172012 60.0
201.499603 140.0
201.847321 152.0
201.953659 180.0
202.078049 848.0
202.107483 192.0
202.127289 68.0
202.430176 72.0
202.486816 132.0
202.823975 84.0
203.085983 1596.0
203.135895 120.0
203.169937 88.0
203.198303 36.0
203.255051 140.0
203.306122 140.0
203.428177 80.0
203.536057 44.0
203.66954 80.0
204.053162 120.0
204.091095 428.0
204.178284 172.0
204.377411 124.0
204.408707 68.0
204.548157 124.0
204.75032 52.0
204.79303 108.0
204.872787 64.0
204.969666 52.0
205.020966 140.0
205.066559 116.0
205.100449 328.0
205.157776 124.0
205.177734 120.0
205.209091 100.0
205.328857 136.0
205.354523 144.0
205.471481 148.0
205.582748 116.0
205.651245 132.0
205.702621 144.0
205.936768 160.0
206.070511 176.0
206.107162 464.0
206.131027 248.0
206.559875 132.0
206.667419 224.0
206.728683 104.0
206.828857 96.0
206.946228 124.0
207.07666 332.0
207.181076 224.0
207.527863 40.0
207.900757 204.0
208.077606 208.0
208.097595 424.0
208.300934 232.0
208.48085 136.0
208.785583 160.0
208.946655 52.0
208.975433 192.0
209.094559 100.0
209.350754 216.0
210.32988 80.0
210.422256 172.0
210.451126 108.0
210.586853 152.0
210.670624 124.0
210.967529 184.0
211.075256 112.0
211.09549 172.0
211.135971 136.0
211.170685 112.0
211.341354 132.0
211.419495 168.0
211.613434 84.0
212.010269 188.0
213.261139 124.0
213.409393 116.0
213.621689 180.0
213.807907 148.0
214.074387 196.0
214.131058 228.0
214.340805 132.0
214.696457 160.0
214.992447 120.0
215.084961 1680.0
215.180832 44.0
215.233383 32.0
215.332672 64.0
215.417374 140.0
215.753433 244.0
215.9552 152.0
216.092514 980.0
216.282593 184.0
216.607925 140.0
217.056335 132.0
217.100845 1212.0
217.144318 192.0
217.22644 176.0
217.296844 144.0
217.329117 156.0
217.3526 152.0
217.381943 28.0
217.710724 176.0
217.795898 104.0
217.84877 104.0
218.030945 56.0
218.10643 1084.0
218.201431 144.0
218.45433 184.0
218.492584 176.0
218.643982 44.0
218.745667 128.0
218.878143 40.0
218.969025 172.0
219.080795 1396.0
219.111542 676.0
219.218597 76.0
219.370163 132.0
219.482193 160.0
219.558868 44.0
219.912903 84.0
219.983734 84.0
220.08075 456.0
220.103607 160.0
220.344025 156.0
220.524277 236.0
220.675049 132.0
220.787415 52.0
221.05957 208.0
221.091858 312.0
221.140503 304.0
221.216431 192.0
222.103149 132.0
222.194382 104.0
222.69902 180.0
222.804901 168.0
222.901031 152.0
222.954529 100.0
223.076385 92.0
223.100174 284.0
223.188293 144.0
223.272629 108.0
223.686203 100.0
223.96907 104.0
223.992905 124.0
224.037582 164.0
224.08757 196.0
224.267029 200.0
224.293854 120.0
224.347519 84.0
224.386276 120.0
224.95607 176.0
225.030701 144.0
225.090424 112.0
225.708954 152.0
226.070908 152.0
226.729752 32.0
226.798676 112.0
226.864624 216.0
227.085251 356.0
227.243561 228.0
227.61911 136.0
227.722794 176.0
227.791885 164.0
228.093796 704.0
228.161514 136.0
228.375015 68.0
228.447205 60.0
228.531448 236.0
228.916733 144.0
228.951187 236.0
228.998047 124.0
229.037201 116.0
229.098022 1008.0
229.248093 144.0
229.477173 228.0
229.993027 104.0
230.077988 152.0
230.108154 644.0
230.433929 72.0
230.53363 100.0
230.560837 136.0
230.766388 180.0
230.872208 248.0
231.079269 4676.0
231.115646 320.0
231.262497 172.0
231.419907 164.0
231.562241 132.0
231.807617 128.0
232.081497 1196.0
232.111618 200.0
232.121063 140.0
232.238113 68.0
232.587051 180.0
232.608307 92.0
232.757065 112.0
232.869431 88.0
232.948395 112.0
232.981812 104.0
233.003082 148.0
233.092941 1348.0
233.13678 392.0
233.297867 180.0
233.544174 100.0
233.629639 164.0
233.656723 64.0
233.717575 124.0
233.872772 76.0
233.994446 132.0
234.064575 180.0
234.102905 3564.0
234.265579 40.0
234.332611 136.0
234.445343 148.0
234.506302 200.0
235.012512 120.0
235.063171 160.0
235.106369 812.0
235.14679 44.0
235.317734 96.0
235.363525 80.0
235.98378 152.0
236.023529 56.0
236.081924 164.0
236.110931 488.0
236.216202 76.0
236.249847 192.0
236.271271 40.0
236.295746 124.0
236.353882 188.0
236.626282 164.0
236.748764 224.0
237.07962 28.0
237.132538 104.0
237.702118 176.0
238.095062 224.0
238.316223 164.0
238.746567 172.0
238.989578 172.0
239.096924 104.0
239.2789 48.0
239.469818 104.0
239.771744 152.0
240.061523 208.0
240.089279 152.0
240.382339 32.0
240.635437 164.0
240.669403 164.0
240.805283 136.0
240.864578 180.0
241.095688 136.0
241.411011 296.0
241.537811 148.0
241.96875 236.0
242.008209 176.0
242.104446 172.0
242.262161 144.0
242.293152 180.0
243.083008 280.0
243.111557 312.0
243.481155 64.0
243.524628 60.0
243.613678 96.0
243.776276 160.0
244.034271 56.0
244.089203 488.0
244.132095 156.0
244.924286 176.0
245.039551 140.0
245.093857 2076.0
245.177948 156.0
245.27951 244.0
245.344971 40.0
245.513351 72.0
245.669296 80.0
245.875229 76.0
246.037537 124.0
246.103241 4276.0
246.218643 116.0
246.240509 88.0
246.284241 132.0
246.399811 152.0
246.431061 60.0
246.512299 192.0
246.546677 228.0
246.62793 68.0
246.731094 236.0
246.752975 32.0
246.871796 172.0
246.96875 48.0
247.076111 1288.0
247.10524 1580.0
247.322311 124.0
247.848434 236.0
248.074478 848.0
248.117279 556.0
248.211212 212.0
248.334335 76.0
248.356293 124.0
248.805023 136.0
248.877243 152.0
249.018555 124.0
249.086334 256.0
249.126175 1572.0
249.208267 160.0
249.323303 56.0
249.379868 84.0
249.427017 64.0
249.636719 120.0
249.942795 168.0
249.999435 104.0
250.098343 168.0
250.128311 164.0
250.222916 144.0
251.064224 200.0
251.09935 172.0
251.136765 168.0
251.193542 92.0
251.736389 128.0
251.850082 44.0
252.096512 116.0
252.174438 152.0
252.330414 116.0
252.561264 188.0
253.042267 84.0
253.086594 80.0
253.587112 136.0
253.615631 160.0
253.878784 40.0
253.911392 156.0
254.037369 128.0
254.083084 160.0
254.24678 156.0
254.697617 172.0
254.75798 164.0
255.110718 120.0
255.310349 204.0
255.431885 96.0
255.944275 228.0
256.082489 228.0
256.106689 132.0
256.756866 100.0
256.833405 172.0
257.098907 244.0
257.187592 104.0
257.404694 104.0
257.462708 164.0
257.669769 48.0
258.107056 280.0
258.427521 128.0
258.56192 136.0
258.645142 208.0
258.667542 96.0
259.077637 1304.0
259.111511 736.0
259.161377 176.0
259.449158 60.0
259.699371 184.0
259.868866 168.0
260.114777 508.0
260.196655 36.0
260.296204 100.0
260.3508 112.0
260.427979 140.0
260.855225 80.0
260.942017 100.0
261.091919 1088.0
261.128632 868.0
261.353729 92.0
261.440613 88.0
261.47406 180.0
261.611176 132.0
261.698242 184.0
261.817261 212.0
261.843018 192.0
261.894562 284.0
261.94931 172.0
261.99234 196.0
262.023407 128.0
262.055634 228.0
262.098511 12764.0
262.181763 156.0
262.258484 76.0
262.299072 48.0
262.358582 120.0
262.458527 48.0
262.481079 68.0
262.52301 144.0
262.564331 232.0
262.645569 40.0
262.67981 156.0
262.752014 192.0
262.784271 108.0
262.811096 136.0
262.910126 60.0
263.011322 176.0
263.037903 68.0
263.102448 2792.0
263.431824 72.0
263.603302 140.0
263.636749 80.0
263.740173 188.0
263.850067 116.0
263.89856 32.0
263.927673 96.0
263.964386 64.0
264.055389 96.0
264.107147 380.0
264.364349 164.0
264.422607 168.0
264.513245 92.0
264.542358 128.0
264.620056 224.0
264.901825 120.0
264.934204 92.0
265.015198 68.0
265.110718 176.0
265.173981 208.0
265.242065 204.0
265.397675 84.0
265.478729 68.0
265.524994 212.0
265.563049 80.0
265.683075 60.0
265.919952 60.0
266.163422 64.0
266.338806 32.0
266.635864 128.0
266.699463 144.0
266.789246 80.0
266.923767 172.0
266.953033 40.0
266.998566 140.0
267.113373 188.0
267.188263 164.0
267.470337 192.0
267.968597 144.0
268.037018 88.0
268.154327 104.0
268.522736 32.0
269.185211 228.0
269.224396 84.0
269.567413 52.0
269.776581 256.0
269.861603 112.0
270.038177 228.0
270.103943 156.0
270.15921 96.0
270.329346 148.0
270.352234 168.0
270.571564 56.0
270.704315 128.0
271.075958 140.0
271.154602 36.0
272.081055 344.0
272.132141 144.0
272.595276 152.0
272.733307 72.0
272.782623 164.0
273.090424 336.0
273.132446 196.0
273.157501 132.0
273.180511 132.0
273.612579 108.0
273.710388 144.0
274.100342 1168.0
274.263855 192.0
274.290222 136.0
274.553497 132.0
274.715607 84.0
274.976288 112.0
275.063385 268.0
275.09787 768.0
275.289917 68.0
275.372467 84.0
275.577271 64.0
275.636749 164.0
276.113037 1940.0
276.16571 180.0
276.192169 60.0
276.261627 244.0
276.410522 40.0
276.611328 100.0
276.708405 212.0
276.73819 120.0
276.791168 152.0
276.814362 60.0
277.003143 60.0
277.072693 196.0
277.121155 3324.0
277.162506 192.0
277.264893 156.0
277.30069 312.0
277.367645 160.0
277.66272 80.0
277.745636 92.0
278.057526 64.0
278.121704 1172.0
278.180328 172.0
278.552246 40.0
279.103943 132.0
279.134888 140.0
279.403259 112.0
279.446503 44.0
279.519714 76.0
279.662811 160.0
279.812622 44.0
280.218933 132.0
280.312225 80.0
280.335571 216.0
280.515533 168.0
280.555542 112.0
280.578888 156.0
280.675568 140.0
280.899017 112.0
281.012451 236.0
281.075836 188.0
281.129211 128.0
281.169281 248.0
281.236023 168.0
281.519806 236.0
281.603302 172.0
282.254944 156.0
282.532562 172.0
282.733307 128.0
283.372894 156.0
283.600739 88.0
283.795197 120.0
283.848846 148.0
284.701202 112.0
284.935608 232.0
285.124481 160.0
285.199097 140.0
285.353271 192.0
286.103882 116.0
286.258179 200.0
286.638824 164.0
287.102783 180.0
287.251526 164.0
287.441345 60.0
288.065948 184.0
288.111725 676.0
288.238251 108.0
288.30246 56.0
288.47821 156.0
288.512024 60.0
288.576263 116.0
288.824768 180.0
288.847687 120.0
288.911072 220.0
289.02948 132.0
289.082123 392.0
289.122742 2736.0
289.300232 208.0
289.787933 72.0
289.89975 136.0
290.029083 200.0
290.092163 11084.0
290.183014 64.0
290.303131 40.0
290.459167 40.0
290.516815 112.0
290.609436 48.0
290.645752 132.0
290.693268 120.0
290.974976 140.0
291.032684 80.0
291.095642 3208.0
291.137939 692.0
291.232422 88.0
291.525238 52.0
291.571381 76.0
291.623779 88.0
291.705353 124.0
291.834564 52.0
291.861755 196.0
291.950165 44.0
292.097198 356.0
292.141602 168.0
292.317566 76.0
292.458557 96.0
292.643341 96.0
292.818787 188.0
292.954254 156.0
293.112152 196.0
293.14505 104.0
293.243866 132.0
293.294983 88.0
293.884979 180.0
293.960022 48.0
294.018036 152.0
294.253571 132.0
294.502869 64.0
295.692657 108.0
295.839844 72.0
296.072693 112.0
296.254211 128.0
296.291901 56.0
296.799164 136.0
296.960327 60.0
297.179871 92.0
297.31369 120.0
297.396088 156.0
297.481873 40.0
297.608917 112.0
298.007324 60.0
298.227264 180.0
298.901306 204.0
298.932281 92.0
299.080261 208.0
299.906921 108.0
300.103424 112.0
300.838257 116.0
301.119293 176.0
301.373566 164.0
302.075378 176.0
302.103058 84.0
302.224152 136.0
302.282959 76.0
302.532166 168.0
302.826508 180.0
303.058594 196.0
303.102417 220.0
303.460632 192.0
303.520538 160.0
303.637482 92.0
303.772766 72.0
303.991333 176.0
304.015106 128.0
304.027191 108.0
304.109192 2516.0
304.15448 144.0
304.242615 112.0
304.586517 232.0
304.619751 148.0
304.68924 192.0
304.737091 88.0
304.800415 252.0
304.879578 164.0
304.939423 164.0
305.007324 208.0
305.117737 33964.0
305.240234 144.0
305.276642 88.0
305.320404 76.0
305.375458 88.0
305.414368 120.0
305.452454 88.0
305.495789 132.0
305.554291 44.0
305.585236 72.0
305.614716 84.0
305.699615 104.0
305.727051 68.0
305.756744 152.0
305.783203 68.0
305.820068 100.0
305.854187 32.0
305.894745 172.0
305.920319 68.0
305.99295 208.0
306.049133 32.0
306.119324 6364.0
306.175262 332.0
306.238708 64.0
306.28595 64.0
306.348663 60.0
306.428772 52.0
306.451508 48.0
306.540283 40.0
306.580688 108.0
306.700592 60.0
306.766815 44.0
307.045776 36.0
307.118408 932.0
307.201569 80.0
307.31546 64.0
307.427277 156.0
307.464935 52.0
307.509766 140.0
307.541199 116.0
307.736694 56.0
307.821655 108.0
307.984619 136.0
308.012573 164.0
308.062531 196.0
308.113037 152.0
308.183746 104.0
308.302551 80.0
308.395172 112.0
308.456329 36.0
308.529755 72.0
308.65213 60.0
308.694092 180.0
308.889954 72.0
308.966888 64.0
308.991394 76.0
309.179016 224.0
309.33783 140.0
309.56192 192.0
309.954254 40.0
310.104919 76.0
310.308258 76.0
310.574768 128.0
311.231018 148.0
311.29071 60.0
311.807129 184.0
312.053192 108.0
312.285278 168.0
312.693878 204.0
313.78537 132.0
314.007538 100.0
314.364563 160.0
314.589722 92.0
314.903992 80.0
315.119476 220.0
315.515289 64.0
315.876007 192.0
316.013977 88.0
316.201508 124.0
317.111725 144.0
317.973572 36.0
318.012604 172.0
318.091278 760.0
318.325012 44.0
318.428009 92.0
318.708649 132.0
318.953857 52.0
318.99295 108.0
319.0867 996.0
319.130432 1480.0
319.266724 56.0
319.295197 220.0
319.597565 52.0
320.092896 224.0
320.133636 484.0
320.412872 208.0
321.10083 196.0
321.136963 264.0
321.163818 176.0
321.482544 40.0
321.671722 28.0
321.85379 100.0
321.968079 80.0
322.235962 140.0
322.997406 116.0
323.054657 156.0
323.1763 100.0
323.587891 76.0
323.874359 120.0
325.186646 168.0
325.506165 156.0
325.599518 64.0
325.72522 96.0
328.302216 140.0
328.414001 144.0
329.197174 144.0
329.233276 104.0
329.554779 140.0
329.594513 88.0
329.833038 108.0
329.988495 172.0
330.071655 60.0
330.310333 124.0
330.654053 88.0
330.769897 76.0
330.916565 116.0
331.092133 96.0
331.265503 156.0
331.31308 32.0
331.398804 84.0
331.592072 224.0
331.740692 84.0
331.776947 192.0
331.802307 116.0
331.88208 92.0
331.936462 64.0
332.101379 752.0
332.181488 180.0
332.223785 184.0
332.268494 164.0
332.306458 124.0
332.359009 236.0
332.524628 92.0
332.589508 84.0
332.63269 192.0
332.678955 100.0
332.792786 104.0
332.85376 228.0
332.88739 220.0
332.918518 216.0
332.96048 408.0
332.982452 172.0
333.020203 276.0
333.112518 77864.0
333.205139 144.0
333.244537 48.0
333.326202 216.0
333.373962 44.0
333.45105 204.0
333.484802 156.0
333.541046 136.0
333.58139 60.0
333.623352 112.0
333.635376 152.0
333.679291 84.0
333.737488 256.0
333.797943 196.0
333.863586 188.0
333.923615 96.0
333.960876 248.0
334.023468 212.0
334.113586 16828.0
334.16748 160.0
334.195496 132.0
334.223602 80.0
334.252869 156.0
334.334045 72.0
334.37854 80.0
334.407593 116.0
334.446503 40.0
334.486908 80.0
334.533173 96.0
334.547485 68.0
334.632507 36.0
334.711395 48.0
334.747864 100.0
334.829437 112.0
334.892487 112.0
334.956635 112.0
335.040924 64.0
335.117706 1692.0
335.193451 80.0
335.226227 48.0
335.285248 84.0
335.324646 52.0
335.384033 84.0
335.443359 64.0
335.481384 40.0
335.528748 56.0
335.605896 100.0
335.65274 40.0
335.727478 96.0
335.798584 60.0
335.827789 80.0
335.930328 104.0
335.970764 40.0
336.066772 140.0
336.113159 224.0
336.253571 108.0
336.349548 100.0
336.437164 132.0
336.46637 156.0
336.491913 140.0
336.546692 108.0
336.608765 72.0
336.661224 88.0
336.692749 84.0
336.775696 116.0
336.868073 72.0
336.911896 48.0
336.995087 52.0
337.116516 124.0
337.171326 152.0
337.281311 128.0
337.338623 172.0
337.370117 64.0
337.474731 92.0
337.624664 108.0
337.705109 76.0
337.785583 52.0
337.906311 112.0
338.217377 64.0
338.268616 100.0
338.57251 56.0
339.771118 76.0
340.118011 104.0
340.328339 152.0
340.876282 88.0
340.948761 236.0
342.174652 80.0
342.303528 104.0
343.383301 212.0
343.822327 164.0
344.38443 160.0
344.778809 132.0
344.830566 180.0
345.126312 164.0
345.747742 244.0
345.936523 108.0
345.962433 160.0
346.006866 288.0
346.110535 68.0
346.23642 160.0
346.762512 140.0
347.059082 52.0
347.127045 11796.0
347.263031 56.0
347.36319 72.0
347.403992 60.0
347.489319 52.0
347.700836 88.0
347.838165 152.0
347.945801 32.0
347.971802 180.0
348.064636 172.0
348.131653 3116.0
348.198303 40.0
348.251587 128.0
348.274933 120.0
348.365448 40.0
348.402618 68.0
348.625549 92.0
348.658997 48.0
348.696136 36.0
349.129486 224.0
349.160889 156.0
349.329895 72.0
349.97583 100.0
350.051697 96.0
350.135925 248.0
350.560638 80.0
351.138458 112.0
351.407043 52.0
351.440613 56.0
351.481659 104.0
351.630951 56.0
352.075195 52.0
352.176056 72.0
352.29184 48.0
352.687927 40.0
353.559357 64.0
353.768982 100.0
353.956177 100.0
354.229584 36.0
354.293243 64.0
354.390656 152.0
354.776703 48.0
355.207947 160.0
357.113739 52.0
357.178864 40.0
357.951508 88.0
359.829224 120.0
363.29538 108.0
364.104279 132.0
368.309082 44.0
369.494141 80.0
374.969818 132.0
375.122253 648.0
376.126862 276.0
376.543915 44.0
376.590271 152.0
377.127319 88.0
377.610626 72.0
378.117432 108.0
379.333649 56.0
382.437195 104.0
384.647278 84.0
386.863708 72.0
391.248749 144.0
393.203827 128.0
394.155548 76.0
395.262726 104.0
395.357697 72.0
396.066376 96.0
396.68454 112.0
402.197723 76.0
404.436066 100.0
406.937531 136.0
407.134308 52.0
410.708252 60.0
414.411255 92.0
424.708923 48.0
425.771912 68.0
429.133789 44.0
430.404602 124.0
437.877411 116.0
441.558441 80.0
445.301086 136.0
449.992126 48.0
452.66861 104.0
453.270111 128.0
453.910187 104.0
459.068298 64.0
460.275909 28.0
462.957062 112.0
463.638214 60.0
464.765991 40.0
468.502136 116.0
470.097443 76.0
474.327271 64.0
475.737091 68.0
478.380127 76.0
481.886475 112.0
485.440674 96.0
486.234711 88.0
486.796631 68.0
488.391968 100.0
492.672211 28.0
505.088074 108.0
505.468353 88.0
509.535065 60.0
511.095184 60.0
515.360596 64.0
521.655579 68.0
523.088501 64.0
526.973999 92.0
535.340637 112.0
541.246643 64.0
541.283691 104.0
552.215393 72.0
554.556396 68.0
556.385803 76.0
560.119568 52.0
574.420959 84.0
576.937561 68.0
580.926697 88.0
582.904785 84.0
587.24231 92.0
593.446655 52.0
595.426453 76.0
610.365601 56.0
615.159302 96.0
618.421631 36.0
634.296204 56.0
636.548828 88.0
637.528442 76.0
642.558594 76.0
644.08313 112.0
645.796631 60.0
651.814209 28.0
653.812683 68.0
654.494812 80.0
655.747986 128.0
658.237549 80.0
662.953979 40.0
674.25531 44.0
676.065308 100.0
678.852356 88.0
679.225769 108.0
698.311584 100.0
719.251648 72.0
721.308105 120.0
743.200623 76.0
745.579102 128.0
748.843384 64.0
749.186523 84.0
752.611572 108.0
761.746582 32.0
780.521118 32.0
786.705383 40.0
797.81189 48.0
801.044373 76.0
801.991028 56.0
803.197632 92.0
814.808228 72.0
819.074768 96.0
823.54657 84.0
826.290466 60.0
826.862671 48.0
833.618225 104.0
835.205017 60.0
842.653015 88.0
858.7677 48.0
863.007324 68.0
879.083496 120.0
880.318115 64.0
936.342834 120.0
1007.52594 152.0
1017.690979 136.0
1022.108521 96.0
1026.880005 56.0
1045.993286 88.0
1070.114868 56.0
1083.523193 60.0
1105.383057 104.0
1115.709961 36.0
1205.624634 56.0
1250.519165 168.0
1255.133423 64.0
1281.771484 68.0
1303.029053 140.0
1307.235352 128.0
1313.51062 68.0
1318.015625 100.0
1356.53833 176.0
1366.555542 64.0
1388.694824 88.0
1415.523926 52.0
1416.227905 72.0
1432.889404 88.0
1464.424805 172.0
1493.610107 132.0
