>compound MLS002154153-01!Perindopril82834-16-0
>formula C19H32N2O5
>ionization [M+H]+
>parentmass 369.239807
#inchi InChI=1S/C19H32N2O5/c1-4-8-14(19(25)26-5-2)20-12(3)17(22)21-15-10-7-6-9-13(15)11-16(21)18(23)24/h12-16,20H,4-11H2,1-3H3,(H,23,24)/t12-,13-,14-,15-,16-/m0/s1
#inchikey IPVQLZZIHOAWMC
#Ion_Source LC-ESI
#Instrument qTof
#Compound_Source NIH Pharmacologically Active Library
#PI Dorrestein
#Data_Collector VP/LMS
#Scan -1
#Precursor_MZ 369.241
#ExactMass 368.231
#Charge 1
#CAS_Number N/A
#Pubmed_ID N/A
#Smiles CCC[C@H](N[C@@H](C)C(=O)N1[C@@H](C[C@@H]2CCCC[C@@H]21)C(=O)O)C(=O)OCC
#INCHI_AUX N/A
#Library_Class 1
#SpectrumID CCMSLIB00000085419
#IonMode Positive
#UpdateWorkflowName UPDATE-SINGLE-ANNOTATED-GOLD
#LibraryQualityString Gold
#TaskID d252d724072548979f1f6f1ced849daf
##Scan# 1564
#SpectrumFile p4-A07_GA7_01_18324.mzXML
#LibraryName Pharm_Active_Library.mgf
#MQScore -1
#Organism Pharm_Active_Library
#TIC_Query 0
#RT_Query -1
#MZErrorPPM -1
#SharedPeaks 0
#MassDiff 0
#LibMZ -1
#SpecMZ 369.241
#SpecCharge 0
#internalFilename spec-00000.mgf

>collision 10
45.139545 196.0
45.172981 276.0
45.227844 164.0
45.243908 156.0
45.446289 204.0
45.52515 176.0
45.588455 188.0
45.704269 128.0
45.795815 176.0
45.894463 160.0
45.99329 140.0
46.088562 180.0
46.226486 156.0
46.331326 208.0
46.36462 120.0
46.740784 184.0
46.788418 144.0
46.800674 116.0
46.85379 44.0
46.871502 136.0
46.90694 192.0
46.930115 148.0
46.945114 264.0
47.050179 248.0
47.081585 76.0
47.129395 176.0
47.179585 172.0
47.351009 68.0
47.40855 116.0
47.464752 140.0
47.482578 164.0
47.501534 220.0
47.53471 196.0
47.628071 136.0
47.651424 212.0
47.661041 188.0
47.674782 180.0
47.799923 176.0
48.151463 100.0
48.191525 212.0
48.30212 52.0
48.320488 260.0
48.331173 224.0
48.441933 52.0
48.477959 76.0
48.575417 192.0
48.602757 172.0
48.652725 200.0
48.681881 124.0
48.76524 120.0
48.815289 104.0
48.863972 40.0
48.890411 188.0
48.958698 236.0
48.987778 224.0
49.008774 152.0
49.106358 176.0
49.120304 164.0
49.202641 156.0
49.286442 48.0
49.359131 156.0
49.451462 172.0
49.480858 156.0
49.501862 184.0
49.653214 172.0
49.797775 212.0
49.813126 220.0
49.884895 136.0
49.98053 208.0
50.019939 244.0
50.077667 120.0
50.100208 172.0
50.129795 120.0
50.163624 180.0
50.198872 176.0
50.214382 156.0
50.228489 180.0
50.272224 148.0
50.362583 184.0
50.375298 104.0
50.441711 228.0
50.467915 220.0
50.515244 168.0
50.583168 84.0
50.622814 116.0
50.653973 200.0
50.687973 160.0
50.719154 184.0
50.756016 164.0
50.885132 192.0
50.907322 216.0
50.931995 184.0
50.977459 144.0
50.987408 168.0
51.040005 108.0
51.075562 140.0
51.256371 172.0
51.3237 152.0
51.370426 144.0
51.591778 48.0
51.849426 92.0
51.875229 192.0
51.901035 216.0
51.939754 128.0
52.083298 160.0
52.232788 204.0
52.28027 216.0
52.290344 144.0
52.340305 204.0
52.481937 120.0
52.51799 108.0
52.642109 136.0
52.682552 108.0
52.769264 212.0
52.858944 332.0
53.122635 148.0
53.166164 52.0
53.196644 132.0
53.211163 160.0
53.273609 172.0
53.402981 132.0
53.434982 192.0
53.45681 204.0
53.483006 156.0
53.5966 84.0
53.684063 180.0
53.724903 212.0
53.765759 224.0
53.790573 184.0
53.845924 176.0
53.884037 408.0
53.992207 104.0
54.052185 164.0
54.062428 120.0
54.078526 136.0
54.132694 164.0
54.216198 268.0
54.308563 104.0
54.371651 160.0
54.387798 208.0
54.402477 120.0
54.481777 132.0
54.517044 196.0
54.561138 96.0
54.5979 176.0
54.692062 124.0
54.780415 216.0
55.034081 164.0
55.146355 136.0
55.16853 164.0
55.283897 224.0
55.317333 184.0
55.356434 220.0
55.444561 312.0
55.537247 236.0
55.648544 160.0
55.67379 148.0
55.822395 72.0
55.923561 168.0
55.996517 112.0
56.105293 144.0
56.121696 204.0
56.26194 116.0
56.279858 192.0
56.302254 172.0
56.396381 200.0
56.504051 124.0
56.548943 112.0
56.560917 160.0
56.799168 116.0
56.818672 152.0
56.865189 164.0
56.998844 260.0
57.022892 36.0
57.063477 176.0
57.146198 164.0
57.210915 228.0
57.369095 244.0
57.396236 168.0
57.447514 188.0
57.535042 128.0
57.596958 176.0
57.631706 164.0
57.646816 220.0
57.67141 248.0
57.785927 168.0
57.946415 148.0
57.961567 108.0
58.093472 124.0
58.148094 156.0
58.380539 44.0
58.491608 160.0
58.531189 144.0
58.554035 156.0
58.833076 216.0
58.881939 144.0
58.908001 188.0
58.995705 256.0
59.046997 144.0
59.121964 156.0
59.210758 164.0
59.250584 212.0
59.275539 168.0
59.334877 188.0
59.408489 192.0
59.509781 128.0
59.546638 172.0
59.591187 340.0
59.603477 108.0
59.772625 124.0
59.848049 124.0
59.92506 180.0
60.057636 220.0
60.210434 188.0
60.321682 76.0
60.34951 168.0
60.45779 112.0
60.519711 64.0
60.55378 164.0
60.659145 164.0
60.705658 180.0
60.719616 176.0
60.840645 164.0
60.915447 120.0
61.025528 192.0
61.062851 156.0
61.223015 92.0
61.315067 196.0
61.419533 200.0
61.464775 112.0
61.624039 160.0
61.833584 120.0
61.882111 160.0
61.894634 188.0
61.979221 56.0
62.179947 96.0
62.272579 220.0
62.451393 184.0
62.560337 184.0
62.59655 272.0
62.695797 120.0
62.727009 184.0
62.837711 48.0
62.853489 268.0
63.060368 276.0
63.148911 32.0
63.234348 52.0
63.264423 192.0
63.397015 180.0
63.464046 160.0
63.487835 204.0
63.605244 148.0
63.738647 168.0
63.787918 128.0
63.853107 160.0
63.964489 108.0
64.193916 236.0
64.318359 176.0
64.369446 188.0
64.387016 108.0
64.44548 160.0
64.468491 216.0
64.482872 76.0
64.526031 196.0
64.618797 156.0
64.681213 120.0
64.801315 120.0
64.862213 148.0
64.950409 160.0
65.004959 116.0
65.122154 176.0
65.257141 168.0
65.330818 168.0
65.395485 164.0
65.426071 152.0
65.466324 180.0
65.509811 156.0
65.574265 232.0
65.61618 136.0
65.651649 224.0
65.671005 104.0
65.737152 172.0
65.927711 132.0
66.047356 204.0
66.338066 140.0
66.379364 72.0
66.406929 52.0
66.530251 104.0
66.551361 88.0
66.764236 152.0
66.785378 176.0
66.889519 256.0
67.007706 328.0
67.107819 80.0
67.192627 172.0
67.288925 60.0
67.450653 132.0
67.484985 116.0
67.519325 228.0
67.563492 260.0
67.586395 288.0
67.697708 128.0
67.807472 148.0
67.994438 40.0
68.069954 156.0
68.25071 132.0
68.331299 156.0
68.402061 168.0
68.449806 160.0
68.527222 208.0
68.678886 116.0
68.880264 160.0
68.903397 200.0
68.999252 160.0
69.050514 220.0
69.070358 176.0
69.111725 192.0
69.177925 128.0
69.255745 76.0
69.456314 216.0
69.469017 152.0
69.565834 204.0
69.805084 148.0
70.0131 176.0
70.074738 116.0
70.138062 168.0
70.20475 168.0
70.268135 240.0
70.401672 148.0
70.438416 120.0
70.61058 260.0
70.652397 40.0
70.726028 180.0
70.818115 220.0
70.86335 108.0
70.98571 204.0
71.044411 168.0
71.081322 88.0
71.259308 56.0
71.733894 164.0
71.764236 224.0
71.803024 136.0
71.850258 168.0
71.932945 256.0
71.944763 120.0
71.971779 36.0
71.986977 176.0
72.008926 160.0
72.047783 212.0
72.065895 216.0
72.123825 132.0
72.159325 124.0
72.177925 168.0
72.265877 152.0
72.342033 208.0
72.391136 228.0
72.45211 68.0
72.477524 196.0
72.61145 144.0
72.675911 116.0
72.764168 208.0
72.879662 188.0
72.947647 136.0
73.000351 128.0
73.138161 168.0
73.252251 188.0
73.265877 156.0
73.506287 204.0
73.526764 108.0
73.680443 156.0
74.200722 168.0
74.296768 228.0
74.341377 204.0
74.391151 224.0
74.519577 200.0
74.591698 252.0
74.783066 64.0
74.843315 244.0
74.960449 80.0
75.03112 176.0
75.058708 176.0
75.082848 148.0
75.169106 144.0
75.23642 172.0
75.33831 188.0
75.383232 244.0
75.395332 56.0
75.592476 220.0
75.687675 48.0
75.727509 160.0
75.796806 204.0
75.826263 140.0
76.117714 136.0
76.136818 128.0
76.27755 172.0
76.432335 168.0
76.463661 148.0
76.533295 180.0
76.625603 136.0
76.656967 228.0
76.679626 172.0
76.704025 104.0
76.728432 132.0
76.744125 216.0
76.77726 212.0
76.79644 176.0
76.822609 196.0
76.922073 164.0
76.936043 56.0
77.094986 180.0
77.131691 172.0
77.217369 44.0
77.394112 96.0
77.460663 204.0
77.483475 180.0
77.660492 152.0
77.748215 196.0
77.769272 152.0
77.850037 156.0
77.869354 120.0
77.929077 168.0
77.953636 180.0
78.087288 196.0
78.20517 136.0
78.432388 108.0
78.474701 180.0
78.585815 156.0
78.723503 160.0
78.795921 180.0
78.878983 188.0
79.073547 56.0
79.135506 128.0
79.22937 120.0
79.307343 88.0
79.448357 276.0
79.509789 256.0
79.765297 156.0
79.836418 204.0
79.848869 140.0
79.886223 208.0
79.96273 108.0
79.978363 164.0
80.00901 224.0
80.096268 76.0
80.274498 104.0
80.292328 148.0
80.429718 176.0
80.468987 88.0
80.626183 52.0
80.690529 224.0
80.728081 44.0
80.808571 160.0
80.860466 172.0
80.903427 132.0
80.960724 144.0
81.075378 136.0
81.121635 164.0
81.22599 152.0
81.259682 92.0
81.342628 152.0
81.398285 152.0
81.504265 172.0
81.550987 116.0
81.585144 196.0
81.658867 148.0
81.671455 216.0
81.73262 172.0
81.782776 120.0
81.999146 144.0
82.125359 148.0
82.15963 160.0
82.248611 104.0
82.3582 112.0
82.435883 116.0
82.497337 180.0
82.613075 120.0
82.799515 140.0
82.908211 444.0
83.005165 324.0
83.320869 160.0
83.38916 164.0
83.404457 124.0
83.516434 220.0
83.538261 124.0
83.552811 184.0
83.656548 188.0
83.811356 40.0
83.897018 164.0
83.993477 192.0
84.008255 204.0
84.026497 144.0
84.329628 184.0
84.349739 152.0
84.4814 32.0
84.591202 256.0
84.693741 92.0
84.723053 176.0
84.735878 168.0
84.858673 236.0
84.926529 136.0
84.97422 176.0
84.992569 168.0
85.076996 204.0
85.104538 156.0
85.119225 204.0
85.181671 148.0
85.253326 100.0
85.287994 204.0
85.422478 192.0
85.589958 120.0
85.667313 216.0
85.892204 96.0
85.969292 172.0
86.058296 172.0
86.111855 104.0
86.161728 160.0
86.265221 176.0
86.292946 68.0
86.396515 220.0
86.442772 80.0
86.766914 124.0
86.800285 48.0
86.829956 140.0
87.149246 120.0
87.212433 180.0
87.303535 180.0
87.335152 160.0
87.402122 212.0
87.497047 96.0
87.711586 172.0
87.75602 188.0
87.770935 68.0
87.843674 232.0
87.873528 240.0
87.979904 176.0
88.097557 104.0
88.200333 192.0
88.245201 200.0
88.297562 128.0
88.377998 84.0
88.413551 136.0
88.48468 136.0
88.688873 112.0
88.720741 208.0
88.776993 152.0
88.947723 116.0
88.97213 184.0
88.994659 140.0
89.135536 136.0
89.158089 156.0
89.203194 144.0
89.302849 188.0
89.316017 168.0
89.564484 52.0
89.577667 148.0
89.639847 172.0
89.669998 168.0
89.690727 144.0
89.743515 216.0
89.888756 128.0
90.011452 64.0
90.036003 252.0
90.062447 48.0
90.200134 184.0
90.459541 168.0
90.632751 192.0
90.654625 152.0
90.829544 108.0
90.925812 172.0
91.117599 140.0
91.225929 248.0
91.530647 148.0
91.564621 152.0
91.697983 56.0
91.718948 116.0
91.753761 168.0
91.766609 196.0
91.814659 160.0
91.865784 112.0
92.178902 160.0
92.199921 136.0
92.318451 136.0
92.416008 224.0
92.561478 244.0
92.582542 232.0
92.629608 56.0
92.680237 148.0
92.781822 216.0
92.97171 76.0
93.010101 164.0
93.075371 168.0
93.088814 144.0
93.119545 48.0
93.352081 224.0
93.471352 112.0
93.582993 156.0
93.621498 216.0
93.698547 188.0
93.885521 128.0
93.912521 160.0
93.926025 188.0
94.144119 68.0
94.401138 256.0
94.445625 124.0
94.612045 168.0
94.677879 140.0
94.776672 228.0
94.92205 140.0
94.974411 160.0
95.005447 192.0
95.149063 160.0
95.176247 152.0
95.222855 200.0
95.413284 212.0
95.475502 116.0
95.539696 180.0
95.722649 192.0
95.812248 28.0
95.91748 200.0
95.961342 216.0
96.050072 76.0
96.08519 164.0
96.14373 188.0
96.219856 244.0
96.241333 168.0
96.415184 204.0
96.489464 244.0
96.56768 224.0
96.606804 164.0
96.775116 148.0
96.841698 116.0
97.008255 184.0
97.100815 296.0
97.145523 148.0
97.227936 180.0
97.261299 180.0
97.367325 120.0
97.396782 196.0
97.430183 32.0
97.459457 244.0
97.48716 108.0
97.707611 140.0
97.734932 188.0
97.790085 284.0
97.860184 276.0
97.912094 176.0
97.933716 172.0
97.953339 260.0
97.987991 176.0
98.02636 192.0
98.041893 208.0
98.064934 132.0
98.097336 54792.0
98.154144 116.0
98.168289 44.0
98.182098 68.0
98.225067 68.0
98.247185 152.0
98.284576 168.0
98.32019 64.0
98.363983 64.0
98.421219 336.0
98.446739 80.0
98.478142 168.0
98.533447 40.0
98.555107 176.0
98.562004 168.0
98.594704 116.0
98.668877 44.0
98.684525 196.0
98.717278 36.0
98.913147 144.0
98.979141 180.0
99.014122 192.0
99.043831 144.0
99.100945 5260.0
99.165703 140.0
99.234077 152.0
99.26899 172.0
99.349106 156.0
99.404663 216.0
99.45031 52.0
99.478966 128.0
99.553551 136.0
99.571419 76.0
99.612206 120.0
99.634987 72.0
99.663445 124.0
99.678276 76.0
99.708504 52.0
99.726395 76.0
99.746269 52.0
99.778664 136.0
99.806229 176.0
99.832832 144.0
99.898125 264.0
99.945152 128.0
99.974998 108.0
100.071167 180.0
100.109596 740.0
100.17012 64.0
100.188049 140.0
100.271736 112.0
100.381187 160.0
100.471138 76.0
100.497078 180.0
100.592873 80.0
100.620819 76.0
100.690712 120.0
100.884529 232.0
100.938515 76.0
101.080536 44.0
101.127144 152.0
101.230667 160.0
101.318802 168.0
101.433029 48.0
101.457085 188.0
101.513222 124.0
101.629562 136.0
101.844368 192.0
102.055954 584.0
102.073479 120.0
102.212273 200.0
102.407555 244.0
102.433739 52.0
102.784546 136.0
103.235016 260.0
103.249168 180.0
103.568954 164.0
103.767555 160.0
103.802025 124.0
104.163727 72.0
104.205948 48.0
104.358383 120.0
104.37262 104.0
104.423454 172.0
104.618797 44.0
104.655487 180.0
104.704315 108.0
104.757278 92.0
104.791908 136.0
104.859154 108.0
105.020226 172.0
105.105911 68.0
105.946228 240.0
106.154404 184.0
106.251694 140.0
106.278366 140.0
106.367729 140.0
106.39946 160.0
106.578148 152.0
106.600754 204.0
106.767273 156.0
106.833092 76.0
107.02861 180.0
107.061562 72.0
107.085739 280.0
107.291618 276.0
107.356255 140.0
107.500664 80.0
107.67614 160.0
107.744308 220.0
107.955132 192.0
108.089592 156.0
108.228279 84.0
108.277275 176.0
108.541161 332.0
108.58886 260.0
108.900192 96.0
108.94381 212.0
108.991592 148.0
109.01783 160.0
109.101753 160.0
109.232765 224.0
109.357605 136.0
109.417976 96.0
109.920296 80.0
109.964119 152.0
109.989166 140.0
110.217339 220.0
110.543015 184.0
110.557663 160.0
110.660233 220.0
110.684921 96.0
110.710487 192.0
110.798462 116.0
110.941261 228.0
110.964027 116.0
111.045815 136.0
111.131821 104.0
111.193459 176.0
111.299736 48.0
111.333336 184.0
111.350449 216.0
111.568672 164.0
111.612823 188.0
111.823196 180.0
111.9095 84.0
112.046028 180.0
112.094864 92.0
112.257179 216.0
112.299362 84.0
112.499817 152.0
112.742722 72.0
112.848412 228.0
113.100159 160.0
113.267433 148.0
113.649094 152.0
113.903801 40.0
113.967529 140.0
113.997284 168.0
114.086548 156.0
114.235413 52.0
114.471664 44.0
114.757187 116.0
114.787041 120.0
114.853157 180.0
115.102852 152.0
115.154106 140.0
115.241692 204.0
115.669411 164.0
115.913567 52.0
115.939278 204.0
116.040024 164.0
116.109947 360.0
116.57235 152.0
116.731422 120.0
116.970238 36.0
117.161896 164.0
117.265327 52.0
117.329994 152.0
117.476646 160.0
117.534897 208.0
117.675194 120.0
117.932259 92.0
117.964684 144.0
118.025223 120.0
118.172302 120.0
118.546906 160.0
118.640106 216.0
118.705154 68.0
119.002419 336.0
119.11969 224.0
119.280495 160.0
120.059967 144.0
120.094856 56.0
120.197395 152.0
120.271599 212.0
120.32399 84.0
120.533546 212.0
120.686676 184.0
120.995171 128.0
121.144089 180.0
121.179146 180.0
121.203247 108.0
121.398338 108.0
121.461945 160.0
122.024132 184.0
122.091629 392.0
122.222092 160.0
122.506104 148.0
122.528755 184.0
122.783829 164.0
122.856621 168.0
122.911781 188.0
123.070702 32.0
123.088364 156.0
123.152412 204.0
123.313705 164.0
123.375595 184.0
123.725136 144.0
123.927635 204.0
123.945869 188.0
124.024193 172.0
124.053009 32.0
124.112518 9668.0
124.182808 52.0
124.282372 48.0
124.38353 136.0
124.574501 152.0
124.634491 200.0
124.674805 140.0
124.785629 200.0
125.034767 184.0
125.057022 180.0
125.115952 1480.0
125.172791 48.0
125.382195 44.0
125.582855 176.0
125.727875 92.0
126.006989 136.0
126.071793 44.0
126.118729 112.0
126.53257 220.0
126.864136 132.0
126.981873 148.0
127.05925 224.0
127.182671 124.0
127.236549 228.0
127.339836 156.0
127.421982 188.0
127.456657 164.0
127.530815 40.0
127.701698 168.0
127.926712 108.0
128.046051 160.0
128.140656 192.0
128.505905 184.0
128.654861 200.0
128.806168 156.0
128.851349 220.0
128.96434 144.0
129.165573 140.0
129.631973 60.0
130.086044 1864.0
130.275253 192.0
130.292236 60.0
130.635513 148.0
130.881317 52.0
130.974686 112.0
131.089737 380.0
131.11824 164.0
131.29834 156.0
131.528778 212.0
131.572159 228.0
131.86911 192.0
132.006287 180.0
132.034363 72.0
132.441132 92.0
132.587753 164.0
132.661102 84.0
132.697784 216.0
132.853745 64.0
133.06488 160.0
133.15213 152.0
133.669388 116.0
133.814392 140.0
133.936447 172.0
134.00325 44.0
134.102341 176.0
134.139221 140.0
134.157669 28.0
134.286789 180.0
134.445984 100.0
134.464447 68.0
134.48291 156.0
134.545242 172.0
134.729996 164.0
134.794693 148.0
135.048996 160.0
135.080429 344.0
135.569 212.0
135.662628 216.0
135.827271 168.0
135.978088 140.0
136.036118 136.0
136.083862 188.0
136.53334 240.0
136.675247 196.0
136.698517 192.0
136.894058 100.0
137.050903 192.0
137.108383 196.0
137.532867 208.0
137.806091 176.0
137.84816 96.0
138.531342 48.0
138.847778 156.0
138.871231 180.0
138.93457 48.0
139.075363 60.0
139.660416 208.0
139.928696 176.0
140.098267 48.0
140.430618 216.0
140.510834 192.0
140.550934 228.0
140.746857 248.0
140.782272 112.0
140.943222 228.0
140.971268 184.0
141.001984 148.0
141.158005 152.0
141.373276 208.0
141.451385 164.0
141.527145 184.0
141.695312 68.0
141.913361 276.0
141.976852 196.0
141.981995 152.0
141.9897 188.0
142.119705 140.0
142.264481 128.0
142.342834 128.0
142.525742 264.0
142.815765 200.0
143.01326 168.0
143.060867 168.0
143.094193 184.0
143.122772 140.0
143.184677 212.0
143.218033 160.0
143.368118 204.0
143.446777 164.0
143.523071 132.0
143.87262 244.0
143.964523 44.0
144.101517 5716.0
144.139069 1012.0
144.164185 76.0
144.181931 36.0
144.253632 108.0
144.3134 68.0
144.413834 140.0
144.679459 96.0
144.698608 148.0
144.844681 156.0
144.892593 200.0
144.928528 104.0
145.108292 328.0
145.140152 332.0
145.187424 212.0
145.248611 128.0
145.564194 196.0
145.681885 188.0
145.854889 168.0
145.902969 72.0
146.037628 156.0
146.090546 140.0
146.114609 176.0
146.13385 152.0
146.350479 40.0
146.439575 236.0
146.646927 132.0
146.750443 192.0
147.037506 208.0
147.078537 124.0
147.320892 132.0
147.477081 172.0
147.585159 220.0
147.74791 156.0
147.893097 144.0
148.040787 112.0
148.079529 184.0
148.14978 212.0
148.19339 132.0
148.726913 108.0
148.7771 124.0
149.049911 136.0
149.297867 132.0
149.604446 208.0
149.984451 40.0
150.055145 104.0
150.125854 140.0
150.267334 180.0
150.338104 184.0
150.394226 104.0
150.601776 136.0
150.635971 276.0
150.655518 52.0
150.907242 168.0
151.078445 144.0
151.124924 156.0
151.15184 192.0
151.188553 196.0
151.20813 124.0
151.284943 136.0
151.629379 28.0
151.737228 104.0
151.805893 216.0
151.889282 176.0
151.97023 100.0
151.997223 136.0
152.106812 1536.0
152.134674 132.0
152.284454 168.0
152.721954 168.0
152.857269 168.0
152.918793 132.0
152.987717 180.0
153.036957 48.0
153.091614 196.0
153.109299 328.0
153.152695 116.0
153.192108 76.0
153.455811 144.0
153.811066 152.0
153.936981 104.0
153.96167 72.0
153.986374 112.0
154.043182 180.0
154.151886 160.0
154.184021 120.0
154.287827 116.0
154.307602 116.0
154.493088 164.0
154.594543 136.0
154.725449 140.0
154.809906 260.0
154.933762 224.0
154.963486 96.0
155.077484 152.0
155.094833 152.0
155.149368 160.0
155.191513 176.0
155.251022 64.0
155.648071 132.0
155.911392 124.0
155.988434 180.0
156.824783 204.0
157.01178 244.0
157.036713 228.0
157.613403 180.0
157.640884 140.0
157.678375 120.0
157.705872 140.0
157.783356 160.0
157.823364 140.0
158.081009 140.0
158.228683 128.0
158.368912 76.0
158.74736 168.0
158.973129 108.0
159.181488 160.0
159.302032 164.0
159.437714 100.0
159.4729 72.0
159.583511 176.0
159.658951 164.0
160.31601 164.0
160.598389 84.0
160.679108 188.0
160.80275 140.0
160.981018 176.0
161.270004 160.0
161.467224 156.0
161.965836 172.0
162.089981 152.0
162.247116 100.0
162.323181 120.0
162.472824 164.0
162.51088 184.0
162.58194 168.0
162.741852 168.0
163.130569 104.0
163.356888 56.0
163.384872 124.0
163.405228 132.0
163.812561 108.0
163.888992 132.0
163.919556 188.0
164.075043 56.0
164.700241 168.0
165.257553 200.0
165.326187 136.0
165.377823 188.0
165.669739 128.0
165.764542 156.0
165.810669 184.0
165.990128 140.0
166.033722 96.0
166.575287 156.0
166.911972 180.0
167.148621 156.0
167.233551 140.0
167.625 152.0
168.099106 732.0
168.187225 36.0
168.365372 64.0
168.432526 140.0
168.517776 156.0
168.587555 120.0
168.613388 176.0
168.763321 236.0
168.965057 140.0
169.027161 144.0
169.055618 244.0
169.106049 168.0
169.14621 184.0
169.16951 124.0
169.319687 104.0
169.358536 224.0
169.388519 216.0
169.418121 256.0
169.490662 140.0
169.661713 76.0
169.682465 128.0
169.768021 136.0
169.817307 72.0
169.848434 176.0
170.011887 276.0
170.048218 204.0
170.117828 31304.0
170.190994 56.0
170.213776 184.0
170.25499 56.0
170.284485 116.0
170.307861 92.0
170.348465 120.0
170.365952 144.0
170.410477 40.0
170.430862 116.0
170.480896 80.0
170.505325 124.0
170.550369 96.0
170.682098 100.0
170.726303 28.0
170.760101 60.0
170.785507 136.0
170.83345 116.0
170.92131 112.0
171.007278 204.0
171.092224 208.0
171.120407 2380.0
171.205139 144.0
171.237228 176.0
171.28067 100.0
171.301819 168.0
171.32756 48.0
171.421356 156.0
171.465668 64.0
171.525009 120.0
171.59317 96.0
171.598755 108.0
171.655304 124.0
171.68988 132.0
171.730011 256.0
171.772308 204.0
171.814896 368.0
171.843781 128.0
171.886765 92.0
171.960007 152.0
171.977982 252.0
172.009384 256.0
172.032364 176.0
172.065964 468.0
172.097534 512.0
172.134048 119932.0
172.189804 380.0
172.241974 68.0
172.273178 268.0
172.296341 116.0
172.318604 236.0
172.344849 108.0
172.34964 56.0
172.359451 168.0
172.383987 144.0
172.423111 168.0
172.464325 136.0
172.510742 136.0
172.539627 92.0
172.563629 544.0
172.596573 168.0
172.615265 168.0
172.644745 164.0
172.687546 60.0
172.736588 80.0
172.758698 132.0
172.788666 124.0
172.82489 88.0
172.886383 60.0
172.907318 32.0
172.930878 108.0
172.960663 176.0
172.993698 28.0
173.015991 52.0
173.03656 120.0
173.070694 136.0
173.136246 12472.0
173.203186 152.0
173.234085 48.0
173.250427 148.0
173.302826 120.0
173.321075 172.0
173.350189 72.0
173.394684 92.0
173.433762 84.0
173.460831 148.0
173.500275 80.0
173.567459 60.0
173.628525 84.0
173.656631 52.0
173.674988 72.0
173.725784 140.0
173.748444 64.0
173.785172 88.0
173.818985 72.0
173.87439 60.0
173.89801 108.0
173.932129 112.0
173.96167 160.0
174.005646 104.0
174.068665 100.0
174.097549 104.0
174.140335 1092.0
174.189682 152.0
174.230896 104.0
174.260712 136.0
174.293411 128.0
174.327667 160.0
174.367905 136.0
174.377213 68.0
174.415451 108.0
174.47197 104.0
174.49852 140.0
174.529587 48.0
174.628433 112.0
174.802063 128.0
174.831009 72.0
174.902069 60.0
175.042358 112.0
175.136414 96.0
175.16539 68.0
175.349838 104.0
175.529099 76.0
175.555466 64.0
175.613495 52.0
175.856232 84.0
175.914291 84.0
175.956543 32.0
176.071075 64.0
176.091217 96.0
176.204803 56.0
176.270859 44.0
176.609253 68.0
176.794449 72.0
176.963867 76.0
177.18898 84.0
177.467285 56.0
177.549484 32.0
177.599869 44.0
177.652924 64.0
177.690063 88.0
178.364594 48.0
179.075027 188.0
179.130966 128.0
179.154938 64.0
179.749496 96.0
179.965714 84.0
180.085876 88.0
180.350403 60.0
180.775635 60.0
181.059418 164.0
181.547165 104.0
181.724197 96.0
182.247772 40.0
182.290756 96.0
182.411713 116.0
182.516556 72.0
182.691376 52.0
182.790924 28.0
183.609879 120.0
184.244202 36.0
184.441483 60.0
185.442947 52.0
185.990845 40.0
186.026138 48.0
186.115738 60.0
186.447144 60.0
186.493347 36.0
186.653748 60.0
186.879501 44.0
186.920319 100.0
186.963867 112.0
187.445877 104.0
187.765564 104.0
187.78569 80.0
188.45546 40.0
188.901093 152.0
189.221283 104.0
190.514236 68.0
192.797195 92.0
193.081955 48.0
194.300751 76.0
194.700455 184.0
194.939362 252.0
196.13266 156.0
197.073807 56.0
197.138077 100.0
197.398056 100.0
198.113464 184.0
201.651627 104.0
202.107986 180.0
204.240311 56.0
204.504929 76.0
204.795349 184.0
208.75058 68.0
210.058167 84.0
211.086365 176.0
212.763977 172.0
213.368256 80.0
217.983551 64.0
218.142258 164.0
219.101624 44.0
222.633362 116.0
223.055267 136.0
224.123688 260.0
224.164062 1128.0
224.630524 28.0
227.155243 124.0
230.007889 36.0
230.472977 52.0
230.533417 88.0
231.138199 168.0
234.040039 136.0
235.125259 56.0
237.15303 128.0
237.987457 100.0
241.067795 124.0
242.01123 224.0
243.934738 184.0
244.531937 96.0
246.071869 152.0
246.702942 184.0
246.731079 152.0
249.001038 48.0
249.192841 404.0
255.104462 128.0
255.311127 172.0
255.985779 124.0
257.791321 108.0
259.164093 136.0
259.430084 60.0
262.665131 52.0
263.068024 140.0
265.245514 96.0
266.881744 88.0
267.096405 104.0
267.330658 100.0
267.897186 84.0
271.709076 72.0
272.00116 56.0
275.069061 68.0
276.099945 104.0
280.796051 64.0
281.139679 152.0
282.683594 104.0
282.994873 64.0
285.323303 72.0
289.287262 188.0
289.59201 176.0
291.121582 136.0
291.481659 136.0
293.101349 208.0
294.185944 144.0
294.226898 120.0
294.520569 180.0
294.56839 92.0
294.875916 176.0
295.101532 40.0
295.200317 5684.0
295.25882 176.0
295.334076 40.0
295.36145 36.0
295.481171 88.0
295.799438 52.0
295.840515 180.0
296.015137 56.0
296.202362 772.0
296.285706 36.0
296.460449 48.0
296.528992 56.0
297.20578 404.0
297.396759 136.0
297.795044 36.0
297.966797 80.0
298.097351 92.0
298.214203 212.0
300.407623 76.0
301.080688 76.0
301.336304 80.0
310.652802 48.0
311.165192 140.0
318.990387 132.0
322.519318 36.0
327.247559 128.0
328.25647 44.0
329.111633 72.0
330.372986 60.0
336.854706 72.0
340.76001 92.0
341.440063 104.0
344.155914 128.0
346.226715 64.0
350.051758 52.0
350.196991 136.0
352.016937 88.0
367.142944 144.0
368.329926 240.0
368.421631 116.0
369.239807 720.0
369.319916 124.0
370.229706 164.0
371.169678 152.0
371.24704 164.0
371.280884 204.0
373.104797 172.0
375.010223 60.0
375.796906 48.0
405.195251 52.0
411.768158 112.0
421.8125 40.0
424.313812 40.0
427.381897 120.0
427.986969 52.0
438.126038 72.0
438.801208 48.0
445.467926 60.0
448.109924 132.0
461.672272 52.0
462.142822 48.0
462.279755 96.0
516.630798 52.0
518.505371 44.0
529.870056 116.0
531.213257 100.0
534.953918 72.0
549.147095 92.0
559.92688 96.0
564.911316 40.0
572.553162 56.0
598.529968 76.0
601.235474 120.0
617.967651 76.0
630.968689 76.0
632.019043 72.0
655.393188 128.0
713.028259 44.0
736.237244 64.0
739.145569 180.0
747.823242 52.0
752.303955 100.0
758.288025 176.0
762.20636 176.0
771.554138 112.0
779.530151 100.0
795.391907 80.0
805.34137 92.0
822.586426 140.0
826.879028 184.0
832.106873 184.0
846.261536 104.0
847.605347 96.0
849.164795 188.0
849.918945 176.0
850.145264 152.0
850.696655 188.0
856.232117 112.0
857.006836 68.0
857.152527 160.0
867.743774 220.0
871.71167 148.0
871.876221 156.0
874.858337 168.0
877.008423 152.0
878.836548 156.0
879.509338 104.0
882.350769 200.0
884.427185 168.0
884.598816 232.0
891.158081 152.0
894.39917 204.0
898.135193 156.0
901.723572 148.0
903.086792 192.0
904.552795 196.0
911.26355 72.0
915.522339 168.0
919.350464 104.0
923.549438 184.0
928.497742 136.0
932.340698 196.0
938.03772 164.0
940.080933 156.0
940.953796 164.0
941.40564 36.0
942.969604 172.0
943.391418 120.0
948.858398 172.0
950.05426 52.0
951.214111 136.0
951.416687 184.0
952.958252 80.0
955.952759 52.0
956.389771 184.0
956.611328 144.0
959.16156 144.0
961.486877 168.0
963.314514 132.0
964.055969 200.0
967.19165 192.0
967.984131 200.0
968.151306 192.0
971.219238 172.0
971.665894 116.0
974.149109 216.0
977.120728 156.0
977.705688 188.0
978.110229 136.0
981.561707 168.0
982.135498 212.0
983.07135 148.0
983.726685 220.0
985.088074 160.0
985.68158 160.0
986.200317 64.0
986.744141 168.0
987.619629 52.0
990.085571 48.0
990.599182 232.0
995.62323 200.0
997.369934 172.0
998.004883 228.0
1000.194153 228.0
1000.301208 52.0
1002.392151 76.0
1002.908997 136.0
1005.741028 236.0
1008.25708 168.0
1011.645081 104.0
1012.309937 148.0
1015.364502 192.0
1015.948059 72.0
1018.950989 56.0
1019.275024 148.0
1023.925293 224.0
1024.116333 152.0
1024.28833 172.0
1026.350464 208.0
1026.621094 84.0
1027.909668 140.0
1030.470093 224.0
1031.531006 192.0
1032.336548 168.0
1032.861084 220.0
1033.654419 80.0
1034.121582 164.0
1035.517334 144.0
1035.709473 64.0
1038.13855 44.0
1038.959473 208.0
1039.449219 124.0
1040.172363 144.0
1040.236572 72.0
1040.371338 216.0
1041.071289 192.0
1043.043701 192.0
1043.127319 228.0
1043.673706 224.0
1044.77356 52.0
1045.313965 160.0
1048.836914 208.0
1050.971558 248.0
1052.669189 204.0
1052.753174 164.0
1053.198853 184.0
1054.064575 48.0
1055.066284 148.0
1058.391968 100.0
1059.013672 192.0
1059.635498 164.0
1060.12146 156.0
1063.253784 184.0
1063.312256 228.0
1064.454834 176.0
1065.234131 140.0
1066.943359 160.0
1068.640869 148.0
1068.731934 156.0
1069.245972 180.0
1071.140747 168.0
1071.231934 148.0
1071.635864 200.0
1071.727051 168.0
1071.85083 104.0
1072.733643 168.0
1072.828491 188.0
1073.304443 36.0
1073.408813 104.0
1074.843872 124.0
1079.488281 144.0
1079.579834 156.0
1080.155396 184.0
1083.526855 40.0
1083.723389 232.0
1084.070679 136.0
1084.273804 208.0
1084.365601 152.0
1085.125977 196.0
1086.417969 176.0
1086.73291 100.0
1087.08728 176.0
1087.33667 88.0
1088.170288 112.0
1090.245972 212.0
1091.028198 216.0
1092.119751 152.0
1093.481689 72.0
1093.830566 152.0
1093.981934 152.0
1098.205811 112.0
1098.34436 148.0
1100.726807 32.0
1101.2948 192.0
1101.611816 84.0
1103.501953 160.0
1106.386597 144.0
1107.611694 180.0
1108.724731 184.0
1109.526733 128.0
1109.745605 240.0
1109.798584 132.0
1110.408691 164.0
1111.3573 156.0
1111.503296 184.0
1115.907104 176.0
1116.226196 120.0
1119.460327 128.0
1120.259521 192.0
1121.658936 48.0
1121.765625 92.0
1121.845581 192.0
1122.085571 208.0
1122.432373 172.0
1122.539062 72.0
1123.139282 184.0
1123.656616 184.0
1124.013184 240.0
1124.233398 252.0
1124.540405 204.0
1124.67395 180.0
1125.448364 128.0
1125.661987 144.0
1125.995972 264.0
1127.659546 208.0
1128.682373 164.0
1129.852783 236.0
1130.200684 216.0
1130.508545 192.0
1130.72937 260.0
1134.131836 208.0
1134.688232 164.0
1135.057007 196.0
1135.425903 84.0
1136.418701 124.0
1137.640137 144.0
1138.016113 224.0
1138.163818 204.0
1138.654053 216.0
1140.831055 68.0
1142.001099 256.0
1145.979614 188.0
1146.323364 108.0
1146.424438 120.0
1146.498535 128.0
1147.772583 160.0
1148.534668 236.0
1149.607422 168.0
1154.478149 172.0
1154.965088 216.0
1155.141724 180.0
1155.228882 248.0
1156.27771 168.0
1156.622925 236.0
1157.272827 112.0
1158.135498 204.0
1158.430908 196.0
1158.566406 184.0
1159.243896 148.0
1159.616699 204.0
1161.162476 212.0
1161.223511 180.0
1161.806885 196.0
1166.825684 204.0
1168.328735 168.0
1169.049927 188.0
1170.023315 196.0
1170.234375 68.0
1170.888062 176.0
1170.969849 188.0
1172.734497 144.0
1173.232056 284.0
1173.682129 144.0
1174.302612 164.0
1175.032593 208.0
1175.121216 80.0
1175.373779 156.0
1175.878662 132.0
1176.820801 236.0
1177.845215 208.0
1179.785889 76.0
1179.977295 192.0
1180.756836 152.0
1182.302979 124.0
1183.771729 156.0
1184.685791 188.0
1185.137939 140.0
1185.576538 208.0
1185.86438 136.0
1185.980957 148.0
1186.906372 180.0
1187.818604 168.0
1188.106689 168.0
1188.230225 172.0
1188.463501 164.0
1188.758545 156.0
1189.994019 88.0
1190.625854 68.0
1191.477539 128.0
1191.848511 84.0
1193.285034 52.0
1193.491333 100.0
1194.124023 92.0
1194.550537 172.0
1198.226685 176.0
1199.756714 168.0
1200.938965 188.0
1201.770508 152.0
1201.887817 208.0
1202.053467 140.0
1204.338623 216.0
1205.319702 156.0
1205.713623 168.0
1207.061646 240.0
1207.234497 132.0
1207.773926 52.0
1208.258179 132.0
1208.451904 32.0
1209.967651 68.0
1210.265381 216.0
1211.477417 144.0
1212.128662 112.0
1212.908081 144.0
1214.270752 164.0
1214.42334 176.0
1216.359253 236.0
1216.595337 140.0
1217.671631 68.0
1218.234253 180.0
1218.317627 200.0
1218.741455 140.0
1219.311279 84.0
1220.458252 184.0
1221.160645 128.0
1221.696167 156.0
1222.273682 160.0
1222.572876 232.0
1223.798096 140.0
1223.877319 160.0
1224.466553 192.0
1226.187378 76.0
1226.955933 192.0
1228.125732 180.0
1228.55127 84.0
1229.186157 120.0
1230.714844 96.0
1231.769409 144.0
1232.489014 64.0
1232.740479 164.0
1233.285645 92.0
1233.949829 132.0
1234.313354 192.0
1234.795898 184.0
1234.844727 180.0
1235.047729 120.0
1235.810181 240.0
1236.146118 44.0
1236.524048 172.0
1236.656982 80.0
1237.307983 148.0
1238.589478 80.0
1238.820679 120.0
1239.192017 180.0
1241.792725 180.0
1241.968018 200.0
1242.255615 104.0
1242.732788 80.0
1243.188843 128.0
1244.08728 132.0
1245.098389 180.0
1245.259888 160.0
1245.632202 148.0
1245.864014 184.0
1246.707153 88.0
1247.897705 96.0
1248.506836 164.0
1248.886719 184.0
1249.315796 148.0
1249.491699 212.0
1249.948975 264.0
1250.469727 180.0
1251.356689 156.0
1252.842773 140.0
1253.343018 176.0
1253.899658 176.0
1254.618652 212.0
1255.951416 172.0
1259.148804 204.0
1260.342651 192.0
1260.667725 176.0
1261.600708 228.0
1262.456177 204.0
1262.823975 116.0
1264.033691 184.0
1264.677734 60.0
1265.38562 196.0
1265.477661 188.0
1266.022949 216.0
1266.972046 156.0
1268.190918 228.0
1268.680054 240.0
1268.999023 36.0
1270.914062 268.0
1270.992188 132.0
1271.36377 140.0
1273.143066 172.0
1273.899902 196.0
1274.393311 192.0
1275.08252 200.0
1275.167847 144.0
1276.035156 224.0
1277.02356 148.0
1277.37915 176.0
1280.34729 180.0
1280.468384 132.0
1281.551147 156.0
1282.078491 44.0
1282.541748 208.0
1282.990845 64.0
1283.047852 156.0
1283.154785 40.0
1284.310059 112.0
1284.54541 180.0
1284.880737 160.0
1285.244629 152.0
1285.894043 92.0
1286.315063 152.0
1286.636353 188.0
1286.714844 188.0
1286.871948 64.0
1287.640259 204.0
1287.928833 172.0
1288.621826 184.0
1289.093384 196.0
1290.773315 176.0
1292.01062 68.0
1292.85498 124.0
1293.599365 68.0
1293.77832 52.0
1293.849976 208.0
1294.236572 240.0
1295.095947 56.0
1297.03064 128.0
1297.546753 152.0
1297.783325 164.0
1299.045532 160.0
1299.691284 208.0
1299.780029 184.0
1300.954468 168.0
1301.205688 212.0
1302.347534 220.0
1302.677979 212.0
1303.57605 176.0
1304.230103 176.0
1304.805176 184.0
1305.157471 244.0
1306.03479 216.0
1306.394531 228.0
1307.279541 196.0
1307.437866 76.0
1307.94165 136.0
1307.999268 176.0
1308.11438 212.0
1308.315918 228.0
1308.726318 180.0
1309.050415 176.0
1309.273682 36.0
1309.727417 200.0
1309.857056 168.0
1311.98291 204.0
1312.538086 92.0
1312.64624 156.0
1312.855347 168.0
1312.992432 220.0
1313.843506 168.0
1314.601196 188.0
1315.471558 128.0
1315.60437 136.0
1316.499756 176.0
1317.337646 212.0
1318.276855 176.0
1318.811646 84.0
1319.180298 392.0
1319.324951 148.0
1319.458984 196.0
1320.532471 148.0
1321.44397 172.0
1321.839233 148.0
1321.90564 188.0
1322.391968 164.0
1323.434448 116.0
1324.151245 184.0
1324.433838 36.0
1324.564209 64.0
1325.535034 88.0
1326.549683 148.0
1326.651123 180.0
1328.311768 20.0
1330.365479 88.0
1331.011597 196.0
1331.104492 76.0
1331.912231 120.0
1332.518188 208.0
1332.754883 136.0
1332.980225 192.0
1333.089233 180.0
1334.986572 56.0
1335.52478 168.0
1335.74292 144.0
1336.310425 204.0
1336.754272 216.0
1336.870728 156.0
1337.11084 204.0
1337.198242 180.0
1337.547607 204.0
1340.009033 168.0
1341.415527 136.0
1341.488403 228.0
1342.224854 152.0
1345.902466 152.0
1345.990112 164.0
1346.829956 176.0
1347.260864 140.0
1347.545898 200.0
1347.816162 200.0
1349.494751 320.0
1349.884888 160.0
1353.50708 228.0
1354.546997 208.0
1356.738159 236.0
1356.906738 156.0
1357.244019 128.0
1359.099854 164.0
1359.518066 156.0
1360.156616 164.0
1360.310791 124.0
1360.920166 112.0
1361.220337 148.0
1361.412109 256.0
1362.197998 144.0
1362.337524 120.0
1363.673462 168.0
1364.417358 84.0
1364.924683 164.0
1365.917603 148.0
1367.021118 148.0
1367.116821 188.0
1367.492188 208.0
1367.683594 164.0
1368.471191 168.0
1369.723145 228.0
1369.944214 172.0
1370.356812 136.0
1370.570435 180.0
1371.115723 184.0
1372.059326 152.0
1372.280396 228.0
1375.496948 152.0
1376.589722 184.0
1378.990723 140.0
1379.064575 148.0
1379.227173 188.0
1380.070068 176.0
1380.491455 108.0
1381.127563 192.0
1381.327271 232.0
1382.052246 184.0
1382.148438 168.0
1382.303833 88.0
1382.474121 220.0
1382.83667 152.0
1384.036011 208.0
1384.495117 76.0
1384.911865 224.0
1385.406128 160.0
1386.191528 196.0
1388.163452 208.0
1388.296875 104.0
1388.667725 164.0
1389.0979 192.0
1389.157227 180.0
1389.409546 128.0
1389.557861 212.0
1389.765625 216.0
1389.891724 52.0
1390.990112 144.0
1391.480103 176.0
1391.561768 136.0
1391.687988 164.0
1392.482666 232.0
1392.757446 188.0
1393.307129 84.0
1393.760376 216.0
1394.302856 200.0
1394.458862 136.0
1394.927246 132.0
1395.326904 244.0
1395.395508 208.0
1396.994507 172.0
1397.366455 192.0
1398.036133 176.0
1398.37854 212.0
1399.182495 184.0
1399.435547 168.0
1400.503418 188.0
1402.22168 172.0
1403.481445 128.0
1403.928955 200.0
1404.697144 44.0
1405.226807 168.0
1406.659668 68.0
1408.242676 156.0
1408.944824 128.0
1409.091919 236.0
1409.408081 124.0
1409.893799 132.0
1409.946167 192.0
1410.200195 160.0
1410.880493 120.0
1411.889893 180.0
1412.450928 112.0
1412.593018 176.0
1412.907227 184.0
1413.588135 148.0
1413.847168 204.0
1413.992188 176.0
1414.35144 132.0
1415.115112 144.0
1415.39209 204.0
1415.909546 200.0
1416.493042 148.0
1416.560425 40.0
1417.414551 200.0
1417.631836 192.0
1418.831177 176.0
1420.58606 132.0
1420.908569 132.0
1421.133667 188.0
1421.193726 192.0
1421.546387 192.0
1422.950073 184.0
1423.122681 128.0
1423.220337 68.0
1423.821045 208.0
1424.083984 160.0
1424.737427 180.0
1425.87207 204.0
1426.262939 208.0
1427.052246 160.0
1427.939575 172.0
1428.037354 240.0
1429.444092 184.0
1429.467773 180.0
1429.48291 208.0
1430.911987 188.0
1433.269531 116.0
1433.442871 168.0
1433.706543 172.0
1433.849731 180.0
1434.226562 148.0
1434.754272 188.0
1434.844727 148.0
1434.965454 176.0
1435.259399 216.0
1436.043701 168.0
1436.2323 172.0
1436.466187 188.0
1438.835815 116.0
1439.560669 216.0
1439.715942 92.0
1440.368774 196.0
1441.599487 164.0
1442.333374 152.0
1443.437256 108.0
1444.163208 216.0
1444.352295 148.0
1445.290405 148.0
1445.525024 148.0
1446.524048 152.0
1446.939453 176.0
1447.144897 164.0
1447.311401 172.0
1449.455078 108.0
1449.644531 192.0
1452.480103 112.0
1452.851807 204.0
1454.314819 204.0
1454.976807 144.0
1455.364014 192.0
1456.108154 228.0
1456.655029 176.0
1456.807007 128.0
1457.566772 152.0
1457.733887 116.0
1458.326782 60.0
1459.740845 180.0
1460.942505 200.0
1461.163208 164.0
1461.27832 148.0
1461.809937 144.0
1461.902466 76.0
1462.068115 184.0
1463.271362 136.0
1463.956665 144.0
1464.573608 112.0
1465.381104 128.0
1465.51062 152.0
1466.425049 192.0
1466.768066 176.0
1466.928101 132.0
1467.103516 160.0
1468.51416 172.0
1468.895508 120.0
1469.345581 228.0
1469.585083 176.0
1469.666138 196.0
1469.767944 196.0
1470.574219 140.0
1470.82605 140.0
1471.108521 200.0
1471.772705 164.0
1472.01709 152.0
1473.338501 140.0
1474.056641 164.0
1474.522827 148.0
1474.88208 164.0
1475.600708 184.0
1475.745972 236.0
1475.944824 160.0
1476.724854 160.0
1477.114868 144.0
1478.231934 92.0
1479.029053 208.0
1479.349365 256.0
1479.487183 48.0
1479.63269 132.0
1479.770508 136.0
1479.923584 184.0
1480.735352 160.0
1480.980469 152.0
1484.59021 204.0
1484.950684 64.0
1485.640991 216.0
1486.139771 92.0
1486.247192 164.0
1487.267822 172.0
1487.728394 124.0
1487.828247 216.0
1489.894043 92.0
1491.100464 164.0
1491.461792 192.0
1491.615479 44.0
1492.138184 216.0
1492.322754 60.0
1492.43042 120.0
1492.599609 156.0
1493.122437 136.0
1493.69165 232.0
1493.876221 216.0
1494.607178 172.0
1495.646118 112.0
1495.830933 148.0
1496.315918 184.0
1496.485229 180.0
1497.87915 152.0
1498.056396 156.0
1498.456909 180.0
1500.40686 140.0
1500.884888 168.0
1501.540405 144.0
1502.813232 100.0
1503.407349 120.0
1503.67749 204.0
1503.932129 156.0
1504.43396 156.0
1504.765869 148.0
