>compound Ranitidine (Zantac)
>formula C13H22N4O3S
>ionization [M+H]+
>parentmass 315.148041
#inchi InChI=1S/C13H22N4O3S/c1-14-13(9-17(18)19)15-6-7-21-10-12-5-4-11(20-12)8-16(2)3/h4-5,9,14-15H,6-8,10H2,1-3H3/b13-9+
#inchikey VMXUWOKSQNHOCA
#origInchi InChI=1S/C13H22N4O3S.ClH/c1-14-13(9-17(18)19)15-6-7-21-10-12-5-4-11(20-12)8-16(2)3;/h4-5,9,14-15H,6-8,10H2,1-3H3;1H/b13-9+;
#Ion_Source LC-ESI
#Instrument qTof
#Compound_Source Commercial
#PI Dorrestein
#Data_Collector Garg_Neha
#Scan -1
#Precursor_MZ 315.149
#ExactMass 314.141
#Charge 1
#CAS_Number 66357-59-3
#Pubmed_ID N/A
#Smiles N(CC1=CC=C(O1)CSCCN/C(=C/[N+](=O)[O-])NC)(C)C.Cl
#INCHI_AUX N/A
#Library_Class 1
#SpectrumID CCMSLIB00000078298
#IonMode Positive
#UpdateWorkflowName UPDATE-SINGLE-ANNOTATED-GOLD
#LibraryQualityString Gold
#TaskID 77f51c88eb8b467eb4a01dd2d0cb90d2
##Scan# 978
#SpectrumFile Plate4_61_88_GH5_01_16506.mzXML
#LibraryName FDALibrary_2_04302014.mgf
#MQScore -1
#Organism FDALibrary_2_04302014
#TIC_Query 0
#RT_Query -1
#MZErrorPPM -1
#SharedPeaks 0
#MassDiff 0
#LibMZ -1
#SpecMZ 315.149
#SpecCharge 0
#internalFilename spec-00000.mgf

>collision 10
45.181278 200.0
45.893105 140.0
47.080463 188.0
47.222599 176.0
47.312912 196.0
47.680519 196.0
48.147552 188.0
48.396458 188.0
49.170753 140.0
49.775517 212.0
50.58173 176.0
50.720772 236.0
52.185509 244.0
52.658169 228.0
52.69717 200.0
53.127155 208.0
53.392963 160.0
54.204628 164.0
54.695152 180.0
55.279598 176.0
55.904346 220.0
57.969246 208.0
58.190701 168.0
59.070034 184.0
59.738857 180.0
59.974453 188.0
60.127144 144.0
60.181171 176.0
60.546108 172.0
60.628216 204.0
60.933464 244.0
61.613159 152.0
61.636597 148.0
62.787277 172.0
63.403843 140.0
63.441887 164.0
63.516415 144.0
64.524452 188.0
64.694031 188.0
64.798134 208.0
66.935089 176.0
66.949745 148.0
67.687859 168.0
67.957062 200.0
69.439682 228.0
69.673729 152.0
69.738533 236.0
70.380287 140.0
70.628914 172.0
70.662376 184.0
70.871658 264.0
71.834999 188.0
73.736732 160.0
74.216049 184.0
75.277733 196.0
75.826141 156.0
77.739281 180.0
78.871742 176.0
80.129936 184.0
80.286797 172.0
81.102066 216.0
82.567642 236.0
82.909805 220.0
83.176422 196.0
83.588974 140.0
85.52343 180.0
87.18428 152.0
87.974014 180.0
91.261719 236.0
92.329887 148.0
92.862 204.0
92.925308 188.0
94.06266 172.0
94.993431 204.0
95.050568 248.0
95.065216 208.0
95.228294 144.0
96.530121 160.0
96.602486 144.0
97.075104 920.0
97.345306 236.0
98.039726 152.0
98.081711 376.0
98.112656 160.0
99.084999 464.0
100.014351 180.0
100.275269 204.0
101.028053 208.0
101.902153 180.0
102.035881 2072.0
102.087074 196.0
103.923218 192.0
103.990189 240.0
104.030785 172.0
104.051086 172.0
104.355843 228.0
104.372108 204.0
104.53891 156.0
104.667145 192.0
105.070709 188.0
105.560905 152.0
105.575226 144.0
106.201927 164.0
106.22654 156.0
106.760559 196.0
107.00824 140.0
107.04866 188.0
107.671455 180.0
107.795403 244.0
107.977325 180.0
107.998009 172.0
108.062134 184.0
108.083145 208.0
108.364418 160.0
110.05571 180.0
110.098572 188.0
112.174332 176.0
113.06778 168.0
113.097099 164.0
113.591118 152.0
113.992386 168.0
114.06974 212.0
114.236893 176.0
114.351791 144.0
115.031738 164.0
115.050056 220.0
116.084381 172.0
116.952339 180.0
117.049217 172.0
117.275421 140.0
118.025749 168.0
118.641563 216.0
118.95829 160.0
119.042961 180.0
120.078865 244.0
120.570084 224.0
120.591942 176.0
121.075447 228.0
122.078354 336.0
122.093742 144.0
122.926453 260.0
123.067726 192.0
123.620331 180.0
123.808502 152.0
124.074638 3232.0
124.899605 184.0
125.005104 3956.0
125.071808 176.0
125.379166 168.0
126.006538 596.0
126.359421 148.0
126.50489 148.0
126.529518 224.0
127.002632 300.0
127.820091 164.0
129.043976 276.0
130.055496 3256.0
131.055435 680.0
131.571274 160.0
132.05661 192.0
133.049957 120.0
133.077744 144.0
134.057632 180.0
134.145218 188.0
135.027237 192.0
135.087265 564.0
135.828629 160.0
136.035156 208.0
136.07605 332.0
136.096237 136.0
136.932678 188.0
137.102753 216.0
138.09227 944.0
139.097839 292.0
139.984192 164.0
140.269272 184.0
141.178268 156.0
144.01123 140.0
144.07666 2436.0
144.106781 164.0
144.987366 140.0
145.041138 156.0
145.074265 156.0
145.971603 176.0
146.183289 160.0
146.949524 172.0
147.021439 456.0
147.063004 156.0
147.710495 236.0
147.814529 152.0
147.918594 152.0
148.07428 1044.0
149.072632 356.0
150.108292 164.0
150.529785 196.0
150.898743 200.0
151.020569 136.0
152.420837 144.0
152.848694 168.0
152.920059 164.0
153.035721 828.0
154.034714 124.0
155.026672 148.0
155.331635 208.0
157.534683 176.0
158.037186 180.0
158.96431 416.0
159.041992 180.0
161.086761 160.0
161.10791 96.0
162.040497 204.0
162.063293 200.0
163.086716 408.0
163.124222 176.0
164.0914 412.0
164.688644 200.0
165.102386 1060.0
165.279495 136.0
165.432755 184.0
165.788773 176.0
165.868225 240.0
166.10553 316.0
166.255508 196.0
166.332504 140.0
167.066132 196.0
167.809158 180.0
167.845261 180.0
170.061569 1696.0
171.065674 160.0
172.22081 148.0
172.984329 196.0
173.586929 232.0
175.137512 176.0
175.561829 148.0
176.010437 172.0
176.047714 14052.0
176.085434 188.0
177.049408 1668.0
177.100677 1480.0
178.042435 700.0
178.108765 252.0
178.190689 128.0
178.924301 156.0
179.036148 164.0
179.132019 236.0
180.041534 156.0
181.078705 840.0
182.028549 160.0
182.084076 320.0
182.80542 156.0
183.705322 176.0
184.356018 160.0
187.793091 216.0
188.048203 396.0
191.014282 200.0
191.058289 176.0
191.116592 1252.0
192.048096 312.0
192.114502 328.0
192.143738 168.0
192.966766 144.0
193.055878 312.0
193.143753 164.0
194.045319 200.0
194.061371 136.0
194.118622 180.0
195.070801 276.0
196.067368 148.0
201.813629 144.0
202.56076 144.0
207.091797 188.0
209.077225 168.0
210.093582 176.0
213.523132 152.0
214.250824 144.0
215.125336 300.0
216.798721 232.0
217.121201 152.0
218.337036 168.0
218.48999 192.0
218.575317 208.0
221.607712 148.0
222.705322 188.0
223.085739 160.0
223.841385 160.0
224.097855 4028.0
225.069885 140.0
225.097168 316.0
226.097 240.0
226.543274 180.0
226.631226 104.0
230.778854 164.0
231.18721 148.0
232.101364 180.0
233.64798 172.0
233.888382 144.0
234.086273 220.0
234.141098 160.0
235.644928 192.0
239.651962 164.0
241.097076 308.0
241.965271 184.0
242.770889 152.0
242.808105 180.0
248.87767 180.0
249.726151 196.0
252.055862 200.0
252.081146 220.0
253.144028 140.0
253.72702 180.0
254.130112 124.0
257.24884 156.0
258.319183 184.0
259.860138 164.0
263.549957 220.0
264.588135 192.0
266.898224 172.0
269.55481 180.0
269.803223 152.0
270.038635 180.0
270.090515 9172.0
270.168884 192.0
270.915894 144.0
271.09491 828.0
272.092072 872.0
272.66806 148.0
273.077332 116.0
274.083069 144.0
274.46875 188.0
278.167542 156.0
278.619171 140.0
284.099487 136.0
289.537781 196.0
299.115234 152.0
303.232391 244.0
304.696747 312.0
305.927826 164.0
312.80658 212.0
312.92276 144.0
314.023895 184.0
315.148041 25176.0
315.226227 156.0
315.440186 108.0
315.870789 132.0
316.15094 2080.0
316.218506 144.0
316.611725 136.0
317.007812 100.0
317.145142 980.0
318.144135 152.0
318.212555 144.0
318.275269 112.0
1014.829651 192.0
1154.506714 192.0
1252.785889 156.0
1293.304443 160.0
1372.513062 152.0
1401.695923 180.0
1419.314087 184.0
1424.672852 208.0
1430.967529 144.0
1439.306519 176.0
1477.269653 156.0
1501.248535 188.0
1504.805664 164.0
1543.007568 224.0
1545.791992 160.0
1572.732788 248.0
1578.080933 212.0
1578.262695 176.0
1588.502808 156.0
1624.704346 168.0
1624.904907 208.0
1640.2323 172.0
1646.679077 168.0
1655.882812 200.0
1661.045898 176.0
1664.876709 156.0
1679.934326 192.0
1680.480957 188.0
1681.158203 176.0
1714.939453 172.0
1717.6521 208.0
1719.247681 252.0
1722.274414 284.0
1725.522095 220.0
1738.144653 188.0
1758.683716 156.0
1766.513062 168.0
1778.126221 164.0
1783.543579 176.0
1793.9729 188.0
1819.818604 188.0
1849.981567 148.0
1851.274414 164.0
1861.693726 148.0
1872.75354 288.0
1873.528809 204.0
1885.686646 220.0
1888.24585 140.0
1889.889404 220.0
1896.843506 172.0
1903.584717 192.0
1923.27771 208.0
1923.740356 164.0
1934.238647 212.0
1938.591431 244.0
1939.073486 228.0
1955.637939 284.0
1959.442017 172.0
1966.213989 168.0
1973.439697 148.0
1996.787964 144.0
1999.439209 180.0
