>compound MLS000862213-01!CNS-1102
>formula C20H21N3
>ionization [M+H]+
>parentmass 304.180847
#inchi InChI=1S/C20H21N3/c1-3-15-8-6-11-17(14-15)23(2)20(21)22-19-13-7-10-16-9-4-5-12-18(16)19/h4-14H,3H2,1-2H3,(H2,21,22)
#inchikey BFNCJMURTMZBTE
#origInchi InChI=1S/C20H21N3.ClH/c1-3-15-8-6-11-17(14-15)23(2)20(21)22-19-13-7-10-16-9-4-5-12-18(16)19;/h4-14H,3H2,1-2H3,(H2,21,22);1H
#Ion_Source LC-ESI
#Instrument qTof
#Compound_Source NIH Pharmacologically Active Library
#PI Dorrestein
#Data_Collector VP/LMS
#Scan -1
#Precursor_MZ 304.181
#ExactMass 303.174
#Charge 1
#CAS_Number N/A
#Pubmed_ID N/A
#Smiles CCc1cccc(c1)N(C)C(=N)Nc2cccc3ccccc23.Cl
#INCHI_AUX N/A
#Library_Class 1
#SpectrumID CCMSLIB00000084762
#IonMode Positive
#UpdateWorkflowName UPDATE-SINGLE-ANNOTATED-GOLD
#LibraryQualityString Gold
#TaskID d252d724072548979f1f6f1ced849daf
##Scan# 1848
#SpectrumFile p3-A05_GA5_01_18227.mzXML
#LibraryName Pharm_Active_Library.mgf
#MQScore -1
#Organism Pharm_Active_Library
#TIC_Query 0
#RT_Query -1
#MZErrorPPM -1
#SharedPeaks 0
#MassDiff 0
#LibMZ -1
#SpecMZ 304.181
#SpecCharge 0
#internalFilename spec-00000.mgf

>collision 10
45.83601 128.0
47.794209 148.0
48.587292 40.0
50.777088 88.0
50.920437 144.0
52.294468 96.0
56.55624 248.0
58.861897 192.0
59.547981 60.0
59.995762 164.0
60.256584 120.0
61.770802 212.0
63.852905 112.0
64.698616 188.0
66.736374 160.0
68.036896 180.0
70.104492 212.0
71.161652 132.0
73.17025 160.0
73.182167 136.0
74.23304 152.0
74.507668 172.0
75.320763 104.0
75.474579 156.0
75.940422 176.0
76.341606 204.0
76.489494 224.0
76.834534 172.0
76.86071 216.0
77.902435 168.0
78.250648 188.0
78.506142 180.0
79.181236 172.0
80.177917 152.0
80.475815 216.0
80.641945 140.0
81.842094 240.0
83.205345 48.0
83.301598 220.0
84.407883 196.0
84.821648 196.0
86.096703 80.0
88.09716 144.0
89.311844 160.0
90.644714 136.0
91.056381 188.0
93.05571 208.0
93.161339 52.0
93.197838 168.0
93.613327 224.0
93.757812 160.0
94.601883 164.0
94.861458 140.0
94.98362 84.0
95.6073 184.0
96.992058 248.0
97.349129 152.0
103.058548 184.0
104.063148 156.0
104.744423 160.0
105.054268 176.0
106.065842 432.0
106.08493 184.0
107.071831 848.0
107.749825 40.0
107.822144 204.0
108.081451 400.0
109.078178 176.0
110.74955 144.0
112.562401 216.0
112.94281 168.0
113.854164 148.0
113.979492 48.0
114.068756 208.0
114.639153 152.0
115.055634 740.0
115.12767 188.0
115.170387 72.0
115.85704 64.0
115.947029 192.0
116.058502 176.0
116.170021 136.0
116.459801 148.0
116.937111 124.0
117.083511 80.0
117.542679 184.0
118.052475 140.0
118.385735 168.0
119.889023 156.0
120.937347 172.0
120.957047 108.0
121.089806 2132.0
121.186989 132.0
121.915497 188.0
122.092873 380.0
122.322388 60.0
122.683662 84.0
122.710114 60.0
123.10508 44.0
123.303909 96.0
123.489624 216.0
125.035789 168.0
125.481506 180.0
127.054184 236.0
127.606911 64.0
128.06189 216.0
129.067261 312.0
130.064072 128.0
130.841507 228.0
131.059067 376.0
132.082916 180.0
132.939774 204.0
133.073593 296.0
134.029739 232.0
134.055084 68.0
134.094833 164.0
134.12883 132.0
134.16571 140.0
135.746246 212.0
136.014008 180.0
136.111664 1692.0
137.114136 208.0
137.96376 116.0
141.064484 200.0
142.066513 720.0
142.294006 52.0
142.678879 40.0
143.076508 576.0
143.338165 132.0
143.853317 156.0
144.0811 1048.0
144.10408 172.0
145.068527 168.0
145.088318 212.0
146.098755 32.0
147.084137 152.0
147.465958 172.0
151.620468 152.0
152.046265 296.0
152.363953 196.0
154.49147 104.0
155.063354 312.0
156.083328 556.0
157.074951 176.0
157.097397 156.0
158.999008 40.0
160.72023 164.0
161.109222 468.0
164.282318 152.0
166.09082 232.0
167.690079 152.0
168.07193 708.0
168.875153 68.0
168.924301 84.0
169.07576 3608.0
169.115768 192.0
169.141663 120.0
169.442047 128.0
169.5457 132.0
169.597534 48.0
170.062683 452.0
170.078018 656.0
170.201996 96.0
170.264313 84.0
170.797119 56.0
171.081696 244.0
171.25 68.0
172.029648 144.0
172.936661 156.0
176.993484 112.0
177.942673 136.0
178.729401 120.0
180.05159 160.0
180.072968 176.0
180.473801 124.0
181.909775 188.0
185.399933 100.0
186.414856 188.0
187.171051 160.0
188.037933 172.0
188.283646 188.0
189.720154 160.0
195.916122 108.0
203.007706 132.0
216.077393 120.0
217.093781 112.0
217.67186 92.0
218.121368 152.0
219.915146 136.0
220.118851 112.0
228.082581 172.0
229.090622 168.0
233.290955 52.0
236.86734 128.0
241.08551 256.0
243.09053 112.0
245.337082 88.0
248.151489 136.0
249.092957 112.0
250.785767 156.0
251.075821 104.0
256.092896 156.0
257.105652 336.0
257.394012 40.0
257.745392 64.0
258.126282 124.0
259.106903 220.0
262.118958 244.0
263.144623 48.0
268.338959 104.0
269.592346 76.0
271.126617 580.0
272.128754 336.0
273.132751 224.0
273.96933 92.0
274.134064 152.0
274.57251 40.0
276.081757 148.0
287.154541 1128.0
287.706573 92.0
288.145935 328.0
304.180847 1600.0
304.680695 56.0
304.972595 48.0
305.179352 456.0
306.176361 116.0
346.68631 88.0
374.027618 108.0
382.901886 84.0
387.056885 112.0
483.408691 60.0
638.21637 100.0
761.783386 80.0
842.252136 184.0
937.241516 28.0
955.825317 144.0
1055.538086 64.0
1097.973755 52.0
1108.001099 164.0
1112.30481 188.0
1119.039185 56.0
1234.616821 168.0
1248.115601 228.0
1248.375732 104.0
1261.659546 52.0
1265.65686 188.0
1330.511597 156.0
1335.031006 176.0
1336.864136 216.0
1355.954224 164.0
1369.369751 192.0
1372.818848 224.0
1380.787231 80.0
1383.687866 96.0
1396.41394 104.0
1402.258423 208.0
1412.928955 204.0
1420.240112 144.0
1445.65979 120.0
1459.602295 160.0
1461.161499 120.0
1489.430908 184.0
1499.278931 180.0
1502.964966 136.0
