>compound MLS001146929-01!
>formula C21H26ClN3OS
>ionization [M+H]+
>parentmass 404.155182
#inchi InChI=1S/C21H26ClN3OS/c22-17-6-7-21-19(16-17)25(18-4-1-2-5-20(18)27-21)9-3-8-23-10-12-24(13-11-23)14-15-26/h1-2,4-7,16,26H,3,8-15H2
#inchikey RGCVKNLCSQQDEP
#Ion_Source LC-ESI
#Instrument qTof
#Compound_Source NIH Pharmacologically Active Library
#PI Dorrestein
#Data_Collector VP/LMS
#Scan -1
#Precursor_MZ 404.155
#ExactMass 403.148
#Charge 1
#CAS_Number N/A
#Pubmed_ID N/A
#Smiles OCCN1CCN(CCCN2c3ccccc3Sc4ccc(Cl)cc24)CC1
#INCHI_AUX N/A
#Library_Class 1
#SpectrumID CCMSLIB00000085232
#IonMode Positive
#UpdateWorkflowName UPDATE-SINGLE-ANNOTATED-GOLD
#LibraryQualityString Gold
#TaskID d252d724072548979f1f6f1ced849daf
##Scan# 1762
#SpectrumFile p3-G04_GG4_01_18297.mzXML
#LibraryName Pharm_Active_Library.mgf
#MQScore -1
#Organism Pharm_Active_Library
#TIC_Query 0
#RT_Query -1
#MZErrorPPM -1
#SharedPeaks 0
#MassDiff 0
#LibMZ -1
#SpecMZ 404.155
#SpecCharge 0
#internalFilename spec-00000.mgf

>collision 10
44.899498 220.0
44.921833 172.0
44.927177 128.0
45.046329 84.0
45.103249 196.0
45.122513 156.0
45.138809 128.0
45.2108 236.0
45.258995 224.0
45.276405 176.0
45.319275 132.0
45.346859 220.0
45.366188 200.0
45.406414 164.0
45.442699 168.0
45.453373 152.0
45.558105 60.0
45.656235 220.0
45.731583 172.0
45.773861 140.0
45.815079 52.0
45.842026 204.0
45.90237 184.0
46.013344 192.0
46.032249 104.0
46.043053 160.0
46.122776 212.0
46.156574 144.0
46.249962 180.0
46.31134 160.0
46.355579 124.0
46.388748 144.0
46.39473 68.0
46.398396 136.0
46.447266 148.0
46.460388 308.0
46.487656 144.0
46.572666 176.0
46.60799 176.0
46.64061 152.0
46.652847 228.0
46.720848 108.0
46.756229 152.0
46.776646 132.0
46.857002 144.0
46.978344 148.0
47.013824 156.0
47.054775 28.0
47.146301 180.0
47.155869 184.0
47.16544 96.0
47.206127 132.0
47.232445 168.0
47.309082 152.0
47.384411 44.0
47.403595 124.0
47.562702 164.0
47.642353 176.0
47.656094 156.0
47.693203 132.0
47.705574 164.0
47.72345 188.0
47.773468 228.0
47.931953 132.0
48.055412 136.0
48.117527 148.0
48.181061 180.0
48.327625 80.0
48.338696 280.0
48.396839 220.0
48.453629 116.0
48.509064 172.0
48.528477 172.0
48.564575 140.0
48.583958 124.0
48.621422 164.0
48.690845 44.0
48.824272 144.0
48.865635 120.0
48.97599 196.0
49.020576 120.0
49.052673 156.0
49.196331 140.0
49.287121 136.0
49.371002 120.0
49.419964 148.0
49.442356 140.0
49.51376 148.0
49.568401 172.0
49.611851 224.0
49.644104 256.0
49.686214 188.0
49.819565 136.0
49.830807 156.0
49.863129 164.0
49.902493 56.0
49.929211 176.0
49.953125 180.0
50.012226 40.0
50.023491 188.0
50.096352 152.0
50.175648 156.0
50.254692 196.0
50.305447 168.0
50.323803 56.0
50.346512 196.0
50.486317 140.0
50.523094 124.0
50.534412 164.0
50.54715 136.0
50.592442 144.0
50.620922 180.0
50.654758 92.0
50.701519 176.0
50.834831 212.0
50.890194 264.0
50.936321 168.0
51.032291 192.0
51.082069 128.0
51.09203 168.0
51.113373 144.0
51.153225 216.0
51.182281 196.0
51.197365 224.0
51.218731 156.0
51.248932 204.0
51.287132 64.0
51.313148 192.0
51.32848 156.0
51.371269 120.0
51.448338 140.0
51.514034 160.0
51.539753 128.0
51.585487 100.0
51.614674 180.0
51.627995 160.0
51.677025 96.0
51.694199 176.0
51.712803 68.0
51.778667 152.0
51.825943 280.0
51.861774 156.0
51.913391 44.0
51.950169 200.0
51.972206 64.0
51.989429 128.0
52.05547 136.0
52.068394 160.0
52.128735 176.0
52.173294 144.0
52.282619 140.0
52.314289 176.0
52.406467 220.0
52.488636 216.0
52.616184 256.0
52.644493 188.0
52.745636 184.0
52.787567 248.0
52.833855 80.0
52.85556 120.0
52.874374 220.0
52.896088 112.0
52.906219 132.0
52.977188 156.0
53.00491 180.0
53.025009 140.0
53.044922 180.0
53.214291 168.0
53.247002 120.0
53.277508 152.0
53.322556 172.0
53.417072 108.0
53.430168 172.0
53.514587 204.0
53.619476 116.0
53.658836 228.0
53.71426 192.0
53.74052 176.0
53.790142 148.0
53.867542 188.0
53.918686 192.0
54.040066 144.0
54.072262 40.0
54.170372 196.0
54.207005 180.0
54.23925 48.0
54.267105 136.0
54.278835 120.0
54.381535 140.0
54.468174 140.0
54.480423 224.0
54.51635 132.0
54.54018 224.0
54.551941 144.0
54.640182 148.0
54.744698 92.0
54.899445 148.0
54.961403 192.0
55.011589 176.0
55.024876 180.0
55.044071 40.0
55.092815 168.0
55.13419 132.0
55.182976 256.0
55.194805 232.0
55.270248 168.0
55.295406 196.0
55.35759 148.0
55.418324 116.0
55.495403 192.0
55.526546 140.0
55.579956 236.0
55.621513 148.0
55.631905 168.0
55.676605 116.0
55.797016 212.0
55.82061 176.0
55.871185 164.0
55.900948 128.0
55.941135 40.0
56.012619 216.0
56.221943 228.0
56.249729 340.0
56.260178 252.0
56.352783 176.0
56.372208 168.0
56.417049 60.0
56.443966 200.0
56.487343 136.0
56.508286 124.0
56.542706 136.0
56.678989 112.0
56.770435 136.0
56.860458 192.0
56.916004 48.0
57.001747 104.0
57.025677 156.0
57.096348 148.0
57.155571 120.0
57.247013 256.0
57.301079 184.0
57.346287 240.0
57.376438 188.0
57.40358 176.0
57.459393 120.0
57.471191 244.0
57.516823 148.0
57.580162 160.0
57.632282 128.0
57.722343 152.0
57.7957 196.0
57.801376 112.0
57.81905 44.0
57.85841 200.0
57.911411 180.0
57.972015 68.0
58.002331 200.0
58.046303 216.0
58.056919 76.0
58.070568 200.0
58.110374 100.0
58.127647 180.0
58.176792 208.0
58.193493 120.0
58.220829 180.0
58.240574 216.0
58.372807 188.0
58.395618 104.0
58.505184 240.0
58.520412 108.0
58.550198 148.0
58.560009 264.0
58.634666 164.0
58.646862 148.0
58.689548 180.0
58.741364 140.0
58.880314 224.0
58.914845 152.0
58.991863 152.0
59.083626 160.0
59.109638 128.0
59.140247 164.0
59.236725 40.0
59.317909 180.0
59.321533 176.0
59.326019 240.0
59.376213 172.0
59.39769 280.0
59.457531 164.0
59.495907 184.0
59.526619 176.0
59.575771 60.0
59.588062 44.0
59.614185 148.0
59.642632 136.0
59.737194 184.0
59.758022 176.0
59.9389 172.0
59.960476 192.0
59.987156 168.0
60.00518 92.0
60.034481 156.0
60.045277 168.0
60.082298 128.0
60.096184 176.0
60.154835 120.0
60.219692 208.0
60.247498 176.0
60.361881 116.0
60.378891 180.0
60.516624 128.0
60.529011 132.0
60.559986 188.0
60.674664 48.0
60.746006 136.0
60.764626 168.0
60.784798 96.0
60.968052 212.0
61.020908 152.0
61.041122 92.0
61.066006 60.0
61.087784 152.0
61.108315 204.0
61.16993 148.0
61.196732 164.0
61.220093 244.0
61.251743 236.0
61.310074 148.0
61.320351 172.0
61.361897 184.0
61.446121 216.0
61.464848 176.0
61.49762 68.0
61.57188 172.0
61.594437 204.0
61.608498 420.0
61.624569 168.0
61.636623 164.0
61.685074 112.0
61.741367 132.0
61.757008 96.0
61.77578 116.0
61.816463 160.0
61.838375 320.0
61.918224 188.0
61.951122 132.0
61.974625 116.0
62.100044 160.0
62.132988 116.0
62.165939 100.0
62.184776 164.0
62.220882 172.0
62.247574 132.0
62.278988 188.0
62.299408 164.0
62.351265 224.0
62.36124 220.0
62.415722 124.0
62.518627 160.0
62.530571 128.0
62.543163 224.0
62.607719 168.0
62.757427 112.0
62.785812 116.0
62.809475 172.0
62.877323 120.0
62.891529 140.0
62.90258 188.0
62.953106 112.0
62.983116 132.0
63.052643 40.0
63.120621 296.0
63.198135 84.0
63.215542 52.0
63.277275 156.0
63.318451 236.0
63.448395 248.0
63.498428 152.0
63.504955 84.0
63.51321 124.0
63.517151 192.0
63.603867 148.0
63.627678 208.0
63.699146 204.0
63.716621 64.0
63.889923 160.0
63.931461 192.0
63.942154 112.0
63.95676 128.0
63.97905 136.0
64.039467 204.0
64.071198 140.0
64.094452 124.0
64.165459 180.0
64.257973 156.0
64.295197 208.0
64.325005 152.0
64.377693 192.0
64.401649 196.0
64.41922 84.0
64.446388 96.0
64.61396 184.0
64.659081 144.0
64.745392 220.0
64.794678 140.0
64.848083 176.0
64.864113 140.0
64.958725 196.0
65.069977 164.0
65.085526 196.0
65.108009 128.0
65.147392 232.0
65.212448 184.0
65.260674 212.0
65.295326 196.0
65.307312 76.0
65.336273 144.0
65.366173 172.0
65.390503 160.0
65.508537 196.0
65.535927 148.0
65.561714 136.0
65.589111 176.0
65.602013 184.0
65.677849 152.0
65.7854 268.0
65.824677 64.0
65.879593 200.0
66.016991 184.0
66.044487 120.0
66.067139 252.0
66.083313 144.0
66.161003 168.0
66.209587 152.0
66.302887 156.0
66.391418 248.0
66.480339 164.0
66.504684 172.0
66.533905 80.0
66.561867 180.0
66.592186 184.0
66.61673 164.0
66.641106 200.0
66.710251 176.0
66.766273 204.0
66.795555 180.0
66.810196 164.0
66.836227 152.0
66.863899 88.0
66.901337 172.0
66.932274 144.0
66.987648 64.0
67.028931 156.0
67.098473 124.0
67.157188 156.0
67.179085 188.0
67.227341 172.0
67.2453 48.0
67.259987 220.0
67.34594 236.0
67.409286 140.0
67.477272 144.0
67.493622 128.0
67.531242 172.0
67.557755 212.0
67.570503 132.0
67.588501 160.0
67.635963 172.0
67.693275 148.0
67.735291 196.0
67.783371 180.0
67.891571 100.0
67.909615 200.0
68.080063 160.0
68.111519 180.0
68.183815 160.0
68.21505 76.0
68.321945 100.0
68.493164 160.0
68.507988 168.0
68.519516 232.0
68.557419 52.0
68.696754 192.0
68.786697 28.0
68.859352 120.0
68.877518 104.0
68.930389 280.0
68.986588 136.0
69.016006 192.0
69.065971 208.0
69.130493 184.0
69.142082 100.0
69.180153 212.0
69.296089 100.0
69.320946 144.0
69.356194 120.0
69.415443 124.0
69.508339 96.0
69.578056 228.0
69.592789 180.0
69.654449 180.0
69.694321 228.0
69.807365 136.0
69.828987 152.0
69.867249 228.0
69.940468 212.0
69.97876 68.0
69.998741 212.0
70.025047 176.0
70.118698 160.0
70.19706 44.0
70.314377 188.0
70.425713 104.0
70.553185 144.0
70.685555 192.0
70.790329 220.0
70.850632 104.0
70.914307 80.0
70.981369 232.0
71.082024 108.0
71.102165 180.0
71.120628 200.0
71.197861 184.0
71.241539 40.0
71.27346 108.0
71.317162 172.0
71.43222 108.0
71.582993 180.0
71.623413 168.0
71.640259 180.0
71.753036 384.0
71.775917 136.0
71.802086 188.0
71.837509 116.0
71.849319 200.0
71.938766 176.0
71.965782 40.0
71.98098 176.0
71.996178 160.0
72.075577 192.0
72.094925 196.0
72.134735 172.0
72.174217 228.0
72.209137 140.0
72.229431 160.0
72.281883 212.0
72.384933 188.0
72.412247 136.0
72.444435 140.0
72.456291 180.0
72.490181 88.0
72.527374 144.0
72.557983 176.0
72.644478 172.0
72.67672 156.0
72.725937 144.0
72.760582 244.0
72.777199 164.0
72.798943 168.0
72.836311 104.0
72.888977 104.0
72.945068 168.0
72.990974 112.0
73.030579 224.0
73.069221 120.0
73.111076 188.0
73.173042 144.0
73.246277 204.0
73.304207 204.0
73.403084 168.0
73.495201 164.0
73.548111 196.0
73.62999 176.0
73.688148 180.0
73.750687 196.0
73.768478 176.0
73.826614 60.0
73.857483 160.0
73.975479 204.0
74.009529 176.0
74.097076 204.0
74.112495 204.0
74.13649 136.0
74.254791 160.0
74.289101 204.0
74.313118 220.0
74.345726 156.0
74.376617 188.0
74.417824 180.0
74.436714 192.0
74.457321 176.0
74.520721 168.0
74.556969 220.0
74.569 168.0
74.598221 128.0
74.613701 168.0
74.697968 124.0
74.713455 140.0
74.764832 224.0
74.875267 136.0
74.989822 172.0
75.051048 144.0
75.142464 160.0
75.154541 188.0
75.175247 180.0
75.195961 144.0
75.342743 40.0
75.404953 120.0
75.425697 136.0
75.446442 148.0
75.48967 176.0
75.512154 144.0
75.532913 208.0
75.629814 208.0
75.685219 184.0
75.707733 252.0
75.738907 172.0
75.79435 176.0
75.827278 132.0
75.97641 116.0
76.051033 124.0
76.070435 404.0
76.18219 152.0
76.202126 176.0
76.235138 220.0
76.274185 176.0
76.296265 244.0
76.325539 52.0
76.40033 68.0
76.610992 148.0
76.645836 128.0
76.659782 132.0
76.691154 188.0
76.724274 140.0
76.743454 188.0
76.807983 140.0
76.832329 184.0
76.863815 252.0
76.931885 44.0
77.017456 148.0
77.032341 192.0
77.073364 180.0
77.097832 60.0
77.111816 184.0
77.125793 152.0
77.160515 196.0
77.200981 120.0
77.223717 140.0
77.326042 216.0
77.465851 208.0
77.509087 156.0
77.545891 112.0
77.658112 188.0
77.68618 160.0
77.733559 60.0
77.824837 80.0
77.851181 200.0
77.87928 156.0
77.930229 140.0
78.051926 172.0
78.106041 184.0
78.142982 136.0
78.183456 40.0
78.248589 212.0
78.287331 148.0
78.29966 160.0
78.312645 232.0
78.334892 196.0
78.3629 192.0
78.532326 140.0
78.608185 184.0
78.669197 220.0
78.68586 152.0
78.742363 224.0
78.772392 92.0
78.78476 108.0
78.816566 132.0
78.905632 248.0
78.927933 104.0
78.940308 168.0
78.988068 108.0
79.138504 176.0
79.184547 140.0
79.232376 120.0
79.297943 168.0
79.313896 188.0
79.372406 184.0
79.407875 208.0
79.527603 152.0
79.663498 148.0
79.690147 208.0
79.702583 196.0
79.736351 92.0
79.814575 156.0
79.860817 208.0
80.040573 184.0
80.056076 144.0
80.074409 52.0
80.118942 176.0
80.156364 124.0
80.184875 236.0
80.272232 104.0
80.336449 52.0
80.441162 172.0
80.482803 172.0
80.500664 176.0
80.634659 160.0
80.663261 140.0
80.728867 128.0
80.76519 208.0
80.821754 208.0
80.917305 168.0
80.95491 52.0
81.100037 112.0
81.125137 260.0
81.180725 136.0
81.281639 204.0
81.331436 56.0
81.351181 204.0
81.410439 184.0
81.473305 128.0
81.514633 152.0
81.546982 140.0
81.615303 132.0
81.670288 188.0
81.68306 232.0
81.782616 220.0
81.834831 140.0
81.878044 88.0
81.997833 256.0
82.139572 184.0
82.229637 156.0
82.274765 252.0
82.372284 168.0
82.413841 204.0
82.529526 68.0
82.585594 236.0
82.632629 184.0
82.761139 80.0
82.784683 168.0
82.884315 96.0
82.904251 60.0
82.951378 196.0
82.983009 196.0
83.044304 132.0
83.067444 180.0
83.098289 164.0
83.319794 108.0
83.334328 164.0
83.488846 160.0
83.511818 140.0
83.598007 124.0
83.630768 164.0
83.780098 136.0
83.847519 224.0
83.905853 208.0
84.059074 188.0
84.106529 188.0
84.132088 140.0
84.172256 112.0
84.192345 136.0
84.325722 208.0
84.38102 160.0
84.457375 112.0
84.536049 208.0
84.589127 180.0
84.693054 276.0
84.841949 176.0
84.939148 176.0
85.048187 132.0
85.109413 176.0
85.119492 184.0
85.133705 164.0
85.168602 108.0
85.26738 164.0
85.308266 132.0
85.328491 120.0
85.346504 196.0
85.372894 192.0
85.392853 172.0
85.411247 136.0
85.582413 176.0
85.62661 68.0
85.702141 164.0
85.722412 132.0
85.766647 180.0
85.781395 160.0
85.855469 116.0
85.888351 132.0
85.973221 140.0
86.043694 136.0
86.067375 228.0
86.15049 208.0
86.180054 232.0
86.211464 148.0
86.257675 180.0
86.329788 252.0
86.36895 184.0
86.394524 252.0
86.448135 140.0
86.496315 128.0
86.544449 172.0
86.579636 120.0
86.616676 172.0
86.725082 112.0
86.820572 164.0
86.850243 264.0
86.937454 144.0
87.020988 124.0
87.072983 124.0
87.225349 92.0
87.338783 64.0
87.476494 184.0
87.624496 236.0
87.742905 104.0
87.79512 148.0
87.82869 104.0
87.90519 140.0
87.94812 224.0
87.968651 212.0
88.007858 180.0
88.06015 208.0
88.170387 168.0
88.208626 148.0
88.408302 152.0
88.676353 196.0
88.703857 156.0
88.733849 232.0
88.754478 172.0
88.775108 44.0
88.839279 208.0
88.863274 48.0
88.876404 212.0
88.942093 188.0
89.082939 132.0
89.096085 60.0
89.122391 176.0
89.235176 204.0
89.427979 168.0
89.442123 164.0
89.573357 156.0
89.609734 176.0
89.636116 180.0
89.741676 160.0
89.803413 136.0
89.806473 212.0
89.876671 120.0
89.89447 168.0
89.94252 224.0
90.132843 124.0
90.200455 136.0
90.234489 192.0
90.340401 176.0
90.380135 60.0
90.406624 136.0
90.505066 116.0
90.58461 212.0
90.626297 148.0
90.641457 136.0
90.81588 188.0
90.834846 164.0
90.857613 160.0
90.938469 124.0
91.102524 144.0
91.136856 168.0
91.170929 164.0
91.288803 168.0
91.304016 156.0
91.326843 256.0
91.34967 216.0
91.376305 148.0
91.432983 168.0
91.469307 180.0
91.47493 156.0
91.527016 180.0
91.606079 192.0
91.661926 116.0
91.708412 184.0
91.732452 200.0
91.816422 212.0
91.879303 124.0
91.927002 132.0
92.078224 92.0
92.129402 208.0
92.180771 168.0
92.205841 112.0
92.293777 148.0
92.316727 140.0
92.395157 156.0
92.45639 156.0
92.479355 176.0
92.525299 48.0
92.619141 184.0
92.649796 244.0
92.70536 136.0
92.72644 212.0
92.739861 192.0
92.787788 172.0
92.810402 176.0
92.843399 232.0
92.870247 72.0
92.908615 160.0
92.968102 76.0
93.021843 164.0
93.125542 164.0
93.17186 248.0
93.208153 124.0
93.235001 132.0
93.351463 204.0
93.392723 260.0
93.435043 180.0
93.575012 216.0
93.625618 164.0
93.68148 176.0
93.70845 196.0
93.729645 72.0
93.920517 68.0
93.935951 96.0
94.028572 104.0
94.069107 176.0
94.128967 148.0
94.144417 140.0
94.175354 200.0
94.196564 116.0
94.266121 212.0
94.320244 68.0
94.380173 204.0
94.449196 140.0
94.500099 200.0
94.619553 280.0
94.649147 188.0
94.75956 156.0
94.842896 264.0
94.887947 232.0
94.94178 180.0
95.079529 80.0
95.145531 100.0
95.203781 116.0
95.227089 204.0
95.394203 148.0
95.469742 156.0
95.50116 164.0
95.535164 100.0
95.547844 136.0
95.575089 112.0
95.647102 164.0
95.857452 216.0
95.896431 220.0
95.962715 236.0
96.077789 156.0
96.091446 204.0
96.144135 136.0
96.218307 216.0
96.237839 148.0
96.2808 96.0
96.323769 148.0
96.407791 36.0
96.454697 192.0
96.47979 224.0
96.519218 136.0
96.598442 172.0
96.640495 252.0
96.666443 184.0
96.673271 48.0
96.679092 172.0
96.714867 132.0
96.785347 164.0
96.84214 204.0
96.881325 232.0
96.945984 212.0
96.967545 240.0
96.981262 136.0
97.057327 236.0
97.075165 2776.0
97.122444 140.0
97.238213 100.0
97.265694 164.0
97.334412 132.0
97.396935 192.0
97.405556 72.0
97.412659 172.0
97.491577 88.0
97.544647 148.0
97.589867 204.0
97.67807 184.0
97.721649 132.0
97.772812 192.0
97.786591 140.0
97.808243 96.0
97.827934 204.0
97.853523 176.0
97.906693 204.0
97.979073 256.0
98.011101 132.0
98.058731 308.0
98.08316 18240.0
98.142845 168.0
98.158951 128.0
98.18853 152.0
98.216728 216.0
98.259552 48.0
98.277306 92.0
98.322441 220.0
98.38784 88.0
98.41153 180.0
98.425354 120.0
98.460899 200.0
98.474724 152.0
98.518188 384.0
98.565605 196.0
98.602783 192.0
98.6763 188.0
98.707367 180.0
98.777161 44.0
98.806839 168.0
98.848389 172.0
98.95726 92.0
99.004791 60.0
99.046387 92.0
99.08744 1436.0
99.125633 36.0
99.248543 76.0
99.270355 196.0
99.339775 144.0
99.403267 72.0
99.440689 192.0
99.445679 228.0
99.502556 192.0
99.538261 216.0
99.552162 52.0
99.629631 100.0
99.667381 108.0
99.68129 392.0
99.728989 56.0
99.764771 188.0
99.780678 184.0
99.814484 128.0
99.839424 192.0
99.903984 68.0
99.941788 144.0
99.978149 208.0
100.056404 216.0
100.07531 33772.0
100.10939 644.0
100.173584 76.0
100.179718 72.0
100.199745 224.0
100.237503 72.0
100.278084 148.0
100.326202 144.0
100.404594 64.0
100.433884 232.0
100.467796 96.0
100.487755 220.0
100.515686 52.0
100.533646 96.0
100.569572 136.0
100.645897 144.0
100.671402 112.0
100.747307 184.0
100.783852 164.0
100.803253 204.0
100.879204 116.0
100.911194 240.0
100.935593 220.0
100.960861 292.0
100.977097 168.0
101.078362 1768.0
101.139267 176.0
101.229576 168.0
101.299469 212.0
101.319496 100.0
101.363579 216.0
101.40567 164.0
101.554047 100.0
101.576111 176.0
101.61824 124.0
101.651611 400.0
101.681915 192.0
101.730637 100.0
101.74469 116.0
101.795372 100.0
101.824181 140.0
101.843094 100.0
101.888336 84.0
101.953598 48.0
101.981712 184.0
102.00988 128.0
102.052917 216.0
102.084099 296.0
102.15065 92.0
102.24572 196.0
102.329773 196.0
102.36602 88.0
102.416374 180.0
102.579597 96.0
102.712692 156.0
102.73085 120.0
102.744972 44.0
102.779274 28.0
102.811447 148.0
102.888268 236.0
102.960663 164.0
103.005402 180.0
103.080154 64.0
103.10643 156.0
103.173134 48.0
103.251999 128.0
103.312683 148.0
103.335182 132.0
103.450302 192.0
103.48877 144.0
103.588013 184.0
103.614349 152.0
103.644623 136.0
103.662979 72.0
103.755341 192.0
103.770416 148.0
103.84951 148.0
103.863708 160.0
103.894135 152.0
103.934715 64.0
103.999275 188.0
104.056503 144.0
104.12149 156.0
104.178368 156.0
104.219002 148.0
104.328758 84.0
104.379593 44.0
104.410095 172.0
104.458916 200.0
104.539749 236.0
104.659744 196.0
104.704224 192.0
104.723793 164.0
104.756134 188.0
104.788734 48.0
104.898788 152.0
104.919174 36.0
105.008904 48.0
105.030273 152.0
105.072136 128.0
105.137436 68.0
105.186424 196.0
105.204796 256.0
105.241547 152.0
105.396797 32.0
105.447884 176.0
105.562378 164.0
105.752647 152.0
105.900078 216.0
106.066055 532.0
106.146011 192.0
106.211357 172.0
106.248573 140.0
106.267036 144.0
106.540962 192.0
106.626419 172.0
106.64286 164.0
106.72509 188.0
106.753883 188.0
106.811478 220.0
106.850563 176.0
106.947289 252.0
107.004929 136.0
107.068764 200.0
107.182076 212.0
107.222664 252.0
107.30162 160.0
107.324303 164.0
107.441872 208.0
107.576019 44.0
107.602859 168.0
107.666878 240.0
107.722649 160.0
107.830093 172.0
107.964485 116.0
108.09166 228.0
108.111374 60.0
108.196243 64.0
108.335007 212.0
108.507027 184.0
108.548492 188.0
108.652206 132.0
108.687485 96.0
108.807869 128.0
109.27552 84.0
109.292168 124.0
109.352173 180.0
109.390976 236.0
109.444122 188.0
109.464951 148.0
109.483688 80.0
109.585762 300.0
109.748352 92.0
109.80674 140.0
109.883926 208.0
109.913139 36.0
109.94236 220.0
110.030029 236.0
110.055832 156.0
110.071793 112.0
110.086411 152.0
110.105202 100.0
110.29744 184.0
110.351791 44.0
110.435448 68.0
110.504486 144.0
110.554703 148.0
110.581917 212.0
110.642624 240.0
110.898193 96.0
110.985909 172.0
111.028961 164.0
111.091858 396.0
111.106194 172.0
111.154984 176.0
111.172951 152.0
111.517403 232.0
111.54052 156.0
111.557343 100.0
111.599388 52.0
111.624626 144.0
111.691925 160.0
111.868698 236.0
111.965561 120.0
112.056145 112.0
112.076263 328.0
112.099472 2364.0
112.243744 152.0
112.277489 72.0
112.292252 136.0
112.311234 40.0
112.361374 172.0
112.401955 212.0
112.475822 48.0
112.494827 160.0
112.581398 128.0
112.653214 208.0
112.699699 244.0
112.90052 40.0
112.921677 92.0
113.058479 176.0
113.065941 216.0
113.106003 4536.0
113.15657 172.0
113.196808 140.0
113.215866 44.0
113.387482 120.0
113.415031 112.0
113.489235 208.0
113.546494 176.0
113.601646 56.0
113.618614 52.0
113.733215 380.0
113.756569 104.0
113.816017 128.0
113.860611 164.0
113.907341 100.0
113.949837 76.0
114.022087 132.0
114.041214 120.0
114.096436 324.0
114.10968 484.0
114.145393 256.0
114.370918 120.0
114.410385 148.0
114.50293 188.0
114.666992 148.0
114.761482 136.0
114.835434 104.0
114.86956 216.0
114.897293 144.0
115.003998 128.0
115.053429 180.0
115.087402 192.0
115.106476 96.0
115.221825 152.0
115.241051 124.0
115.275238 192.0
115.379982 180.0
115.471931 84.0
115.489044 152.0
115.54039 152.0
115.555367 184.0
115.581039 184.0
115.617424 192.0
115.692337 140.0
115.788704 88.0
115.867958 84.0
115.921532 224.0
115.949394 308.0
116.009415 280.0
116.035141 140.0
116.14296 204.0
116.159531 124.0
116.190636 40.0
116.253937 172.0
116.365562 180.0
116.464348 156.0
116.610458 176.0
116.640755 212.0
116.662056 180.0
116.696449 56.0
116.883209 200.0
116.926636 104.0
116.956772 188.0
117.040733 200.0
117.069244 940.0
117.104111 168.0
117.152733 128.0
117.209236 180.0
117.279877 164.0
117.32515 124.0
117.351021 196.0
117.41407 136.0
117.502007 136.0
117.580231 224.0
117.603432 52.0
117.668198 176.0
117.691948 144.0
117.916626 212.0
118.022552 392.0
118.057159 124.0
118.075111 448.0
118.141518 152.0
118.208595 256.0
118.308159 144.0
118.331978 72.0
118.377449 136.0
118.394363 148.0
118.524757 200.0
118.542091 156.0
118.572433 120.0
118.591942 112.0
118.613617 176.0
118.780594 228.0
118.839172 108.0
119.075798 44.0
119.197464 180.0
119.258316 140.0
119.290665 148.0
119.473602 128.0
119.649895 152.0
119.719574 168.0
119.787094 148.0
119.913483 172.0
119.967979 160.0
119.996323 232.0
120.063919 200.0
120.10318 116.0
120.386925 220.0
120.413132 80.0
120.432793 136.0
120.642578 204.0
120.727852 168.0
120.765038 176.0
120.786911 108.0
120.824104 208.0
120.907257 36.0
120.957596 184.0
120.999191 184.0
121.60424 176.0
121.665703 216.0
121.891945 124.0
121.962273 120.0
122.043617 184.0
122.070007 160.0
122.113991 200.0
122.237198 212.0
122.285614 128.0
122.362663 176.0
122.384682 148.0
122.54496 204.0
122.600571 184.0
122.644653 180.0
122.696053 176.0
122.779739 208.0
122.803413 204.0
122.827675 140.0
122.96669 52.0
122.996208 256.0
123.024078 232.0
123.043953 148.0
123.083694 168.0
123.113548 176.0
123.227272 156.0
123.567772 184.0
123.702774 48.0
123.747055 208.0
123.796593 184.0
123.910957 108.0
123.953064 128.0
123.988518 228.0
124.014481 140.0
124.061668 56.0
124.097145 152.0
124.130409 132.0
124.334511 176.0
124.376678 112.0
124.412872 132.0
124.441063 100.0
124.53656 164.0
124.567657 140.0
124.592094 204.0
124.623199 124.0
124.669868 56.0
124.780296 156.0
124.903328 196.0
125.012352 104.0
125.106438 1144.0
125.197136 104.0
125.404343 220.0
125.549263 152.0
125.721054 40.0
125.855354 200.0
125.948799 84.0
125.966667 176.0
126.114838 1076.0
126.161095 172.0
126.371338 196.0
126.431755 168.0
126.47876 80.0
126.64222 144.0
126.738556 244.0
126.769928 116.0
126.947037 144.0
127.054703 168.0
127.090729 236.0
127.125488 348.0
127.148949 172.0
127.18486 200.0
127.229759 96.0
127.440887 124.0
127.541336 196.0
127.692673 164.0
127.724167 60.0
127.850166 168.0
127.882843 120.0
127.897438 184.0
128.001007 76.0
128.030273 260.0
128.094223 5784.0
128.138397 48.0
128.174454 56.0
128.216843 168.0
128.253342 40.0
128.281525 128.0
128.311157 156.0
128.34198 152.0
128.40274 160.0
128.422455 80.0
128.492386 136.0
128.544281 188.0
128.589417 176.0
128.618774 132.0
128.666183 40.0
128.695526 128.0
128.765533 120.0
128.797165 40.0
128.884735 84.0
128.907867 128.0
129.097672 472.0
129.131699 36.0
129.190506 216.0
129.238022 164.0
129.30336 192.0
129.448547 148.0
129.518753 148.0
129.611649 128.0
129.881439 156.0
129.901855 180.0
130.03183 204.0
130.062973 104.0
130.118408 108.0
130.149246 124.0
130.328705 296.0
130.444611 60.0
130.485535 140.0
130.567398 176.0
130.583328 200.0
130.609924 196.0
130.71756 88.0
130.781281 144.0
130.836395 212.0
130.920166 196.0
130.952057 116.0
131.045456 160.0
131.069702 164.0
131.11525 580.0
131.175369 196.0
131.241486 136.0
131.289963 208.0
131.334991 88.0
131.421677 136.0
131.442215 36.0
131.496994 60.0
131.547211 148.0
131.748184 120.0
131.771027 56.0
131.787018 160.0
131.873871 232.0
132.070435 120.0
132.107117 124.0
132.166595 224.0
132.228394 276.0
132.253571 152.0
132.27417 192.0
132.301651 68.0
132.394669 192.0
132.466537 128.0
132.551315 60.0
132.771393 144.0
132.792038 80.0
132.876907 212.0
133.016907 104.0
133.087326 132.0
133.103378 152.0
133.156982 164.0
133.35228 172.0
133.443039 92.0
133.603241 208.0
133.683472 44.0
133.724121 212.0
133.75943 124.0
133.819275 164.0
133.957474 156.0
134.069122 148.0
134.108002 296.0
134.132614 168.0
134.15303 236.0
134.178711 216.0
134.36554 164.0
134.46106 152.0
134.497086 148.0
134.666748 200.0
134.716461 100.0
134.797333 140.0
134.843262 188.0
134.875916 56.0
134.910583 156.0
134.961456 128.0
135.056274 204.0
135.107834 56.0
135.178909 108.0
135.276108 104.0
135.368729 128.0
135.463699 144.0
135.512344 120.0
135.640594 156.0
135.709366 160.0
135.76503 128.0
135.846207 116.0
136.021698 308.0
136.196732 100.0
136.271088 200.0
136.287338 180.0
136.324524 208.0
136.498886 236.0
136.657059 332.0
136.799026 144.0
136.857239 176.0
136.92131 172.0
137.010727 120.0
137.037857 140.0
137.230057 136.0
137.251038 168.0
137.395645 184.0
137.471481 136.0
137.480103 168.0
137.528671 144.0
137.659409 228.0
137.766724 144.0
137.774902 136.0
137.779312 204.0
137.80191 124.0
137.874344 188.0
138.014618 188.0
138.075409 104.0
138.094131 164.0
138.157288 216.0
138.320953 188.0
138.433487 152.0
138.456909 108.0
138.517807 196.0
138.595123 172.0
138.639648 168.0
138.752945 180.0
138.77327 192.0
138.792023 200.0
138.831955 156.0
138.883499 140.0
138.902267 124.0
138.949188 156.0
139.005814 176.0
139.120758 260.0
139.135498 220.0
139.205032 88.0
139.395325 184.0
139.550461 148.0
139.658646 72.0
140.056885 176.0
140.08165 196.0
140.103577 164.0
140.13385 136.0
140.179718 228.0
140.561554 136.0
140.657776 152.0
140.728592 204.0
140.747482 128.0
140.812164 176.0
140.844315 228.0
140.875031 184.0
140.893936 132.0
141.033356 72.0
141.100311 1268.0
141.138519 3640.0
141.217789 200.0
141.253281 100.0
141.445114 176.0
141.519531 40.0
141.565704 148.0
141.603607 148.0
141.620178 104.0
141.655716 192.0
141.695984 136.0
141.794159 376.0
141.847672 172.0
141.909302 192.0
141.935394 36.0
142.011276 96.0
142.063477 124.0
142.10463 344.0
142.141098 336.0
142.307938 52.0
142.383926 188.0
142.429047 224.0
142.502701 56.0
142.533585 92.0
142.628662 68.0
142.647675 44.0
142.666687 148.0
142.688919 184.0
142.733276 148.0
142.756378 276.0
142.778458 180.0
142.806992 172.0
142.857178 184.0
142.876526 192.0
142.948013 148.0
142.969955 180.0
142.990204 228.0
143.007416 328.0
143.026215 156.0
143.033539 196.0
143.079346 176.0
143.117813 118332.0
143.208939 288.0
143.258423 56.0
143.265839 80.0
143.278107 80.0
143.282227 92.0
143.298691 52.0
143.321976 168.0
143.337784 284.0
143.375519 76.0
143.402679 148.0
143.424881 252.0
143.45903 88.0
143.509125 460.0
143.532043 248.0
143.602554 60.0
143.621628 56.0
143.648041 56.0
143.678879 84.0
143.704849 132.0
143.730896 168.0
143.776382 172.0
143.800583 56.0
143.831619 88.0
143.879364 152.0
143.937042 52.0
143.983154 176.0
144.008316 164.0
144.038635 140.0
144.069397 180.0
144.089172 212.0
144.120056 10372.0
144.199463 52.0
144.220978 64.0
144.24382 124.0
144.261612 68.0
144.31163 84.0
144.351593 88.0
144.385956 168.0
144.417053 64.0
144.443359 56.0
144.465317 132.0
144.517532 60.0
144.601288 56.0
144.665878 244.0
144.713806 44.0
144.749771 224.0
144.771271 204.0
144.80481 140.0
144.852722 68.0
144.930634 208.0
144.97049 112.0
144.991684 56.0
145.008469 120.0
145.058517 100.0
145.080978 120.0
145.094055 40.0
145.101074 108.0
145.124374 576.0
145.199539 144.0
145.230118 192.0
145.257339 152.0
145.294235 72.0
145.333527 44.0
145.383041 92.0
145.425812 32.0
145.469025 32.0
145.500244 128.0
145.560272 96.0
145.63147 116.0
145.721207 48.0
145.754852 84.0
145.786087 48.0
145.824539 100.0
145.879822 244.0
145.944748 52.0
145.962906 116.0
146.000061 80.0
146.025162 64.0
146.129181 52.0
146.23584 144.0
146.296021 56.0
146.346588 204.0
146.568192 92.0
146.64772 28.0
146.712814 64.0
146.770676 40.0
146.830963 212.0
146.912338 208.0
147.098801 164.0
147.166412 128.0
147.212296 196.0
147.236435 84.0
147.311325 168.0
147.330643 64.0
147.644882 36.0
147.744064 160.0
147.857803 164.0
148.015152 252.0
148.068436 124.0
148.151596 156.0
148.264679 120.0
148.288223 124.0
148.349518 72.0
148.371338 72.0
148.427109 248.0
148.47319 56.0
148.565964 192.0
148.723099 188.0
148.873627 192.0
149.060684 228.0
149.123886 188.0
149.556839 88.0
149.617706 84.0
149.873444 76.0
149.934372 136.0
150.041626 148.0
150.114777 152.0
150.366074 140.0
150.571167 32.0
150.617859 168.0
150.67131 108.0
150.759293 132.0
151.023346 132.0
151.047806 136.0
151.10408 80.0
151.204407 104.0
151.260696 200.0
151.478653 180.0
151.592987 192.0
151.79483 52.0
151.865952 92.0
151.983719 140.0
152.101517 36.0
152.334808 216.0
152.445389 80.0
152.742889 124.0
152.9496 72.0
153.026886 192.0
153.092407 136.0
153.135498 88.0
153.190933 216.0
153.326447 164.0
153.696365 116.0
153.725983 184.0
153.753128 136.0
153.80249 116.0
153.85434 44.0
153.891373 208.0
153.918533 176.0
153.998901 148.0
154.037079 60.0
154.074142 236.0
154.145905 196.0
154.338608 40.0
154.677567 64.0
154.751846 104.0
154.780533 172.0
154.816223 208.0
154.880615 148.0
154.940079 196.0
154.979721 192.0
154.99707 180.0
155.091415 112.0
155.155701 208.0
155.195374 160.0
155.264801 120.0
155.328873 164.0
155.433197 260.0
155.656921 72.0
155.721497 144.0
155.83577 180.0
155.912689 176.0
156.040115 208.0
156.059479 84.0
156.721588 60.0
156.803818 88.0
156.916 192.0
156.945923 104.0
156.990326 208.0
157.004532 96.0
157.134201 592.0
157.242798 212.0
157.33017 80.0
157.370117 96.0
157.390091 96.0
157.497482 132.0
157.562439 40.0
157.597412 144.0
157.722366 164.0
157.894897 124.0
157.914917 160.0
157.979584 140.0
158.017471 160.0
158.055008 184.0
158.132599 180.0
158.262772 160.0
158.388 116.0
158.435593 32.0
158.460648 124.0
158.550858 44.0
158.982239 148.0
159.014862 204.0
159.11528 180.0
159.230896 184.0
159.276001 176.0
159.326248 204.0
159.562881 156.0
159.975906 196.0
160.012863 180.0
160.219391 92.0
160.431091 128.0
160.526901 124.0
160.574829 104.0
160.75647 68.0
160.77919 96.0
160.920547 168.0
160.972351 156.0
160.992615 172.0
161.117554 212.0
161.243912 148.0
161.299515 160.0
161.562531 128.0
161.625778 200.0
161.754532 136.0
161.843475 184.0
161.878922 72.0
161.901718 220.0
162.055023 188.0
162.073975 56.0
162.109451 180.0
162.132263 140.0
162.26915 168.0
162.324936 196.0
162.34523 128.0
162.398483 200.0
162.439072 132.0
162.604004 180.0
163.00528 184.0
163.041489 64.0
163.104401 176.0
163.262039 200.0
163.307816 96.0
163.417221 80.0
163.468109 132.0
163.50119 112.0
163.618286 160.0
163.796555 148.0
163.822037 56.0
163.908661 164.0
164.028992 152.0
164.135529 136.0
164.237549 156.0
164.27327 152.0
164.303879 188.0
164.37532 212.0
164.671478 128.0
164.717453 192.0
164.957672 100.0
165.024429 192.0
165.052261 148.0
165.113647 172.0
165.336227 188.0
165.46167 180.0
165.769043 156.0
165.889511 128.0
165.953613 224.0
166.033096 168.0
166.064819 228.0
166.574707 72.0
166.708313 128.0
166.847107 216.0
167.02713 116.0
167.070557 612.0
167.145477 172.0
167.273026 152.0
167.489838 144.0
167.609512 240.0
167.802322 184.0
167.910629 172.0
167.92868 84.0
168.077972 152.0
168.124771 80.0
168.217682 244.0
168.256409 224.0
168.408783 100.0
168.522446 76.0
168.65683 200.0
168.861099 192.0
169.020447 216.0
169.055084 152.0
169.132187 120.0
169.290726 184.0
169.34671 236.0
169.373611 240.0
169.430603 260.0
169.640533 140.0
169.720901 160.0
169.739059 128.0
169.777954 156.0
169.972519 164.0
170.039993 160.0
170.11528 68.0
170.138199 220.0
170.190567 120.0
170.224335 132.0
170.279907 108.0
170.303909 188.0
170.40097 192.0
170.437347 244.0
170.476318 60.0
170.6819 152.0
170.737305 124.0
170.775909 104.0
170.897583 152.0
170.940689 184.0
170.991272 196.0
171.031586 140.0
171.04184 140.0
171.049316 200.0
171.078796 192.0
171.115799 484.0
171.148926 86944.0
171.21257 204.0
171.236023 80.0
171.257919 88.0
171.28392 92.0
171.312164 52.0
171.330002 52.0
171.363663 60.0
171.386307 116.0
171.405945 112.0
171.434769 56.0
171.476013 172.0
171.501785 116.0
171.525253 48.0
171.552002 60.0
171.577805 496.0
171.625305 96.0
171.667297 184.0
171.72081 80.0
171.74556 132.0
171.775589 40.0
171.819199 100.0
171.853867 220.0
171.902649 144.0
171.925079 116.0
171.951721 56.0
171.983231 140.0
172.035583 64.0
172.092026 160.0
172.151672 9724.0
172.232422 68.0
172.282059 56.0
172.316971 132.0
172.378723 196.0
172.436234 40.0
172.457138 68.0
172.508118 48.0
172.52597 120.0
172.586334 248.0
172.692459 56.0
172.763092 52.0
172.799728 144.0
172.985535 212.0
173.043137 152.0
173.077774 160.0
173.1362 104.0
173.157562 296.0
173.187073 104.0
173.218613 96.0
173.253387 72.0
173.272675 192.0
173.310303 88.0
173.333405 108.0
173.367966 76.0
173.419891 64.0
173.445587 136.0
173.483475 120.0
173.509354 84.0
173.53624 188.0
173.544434 164.0
173.568649 108.0
173.614395 116.0
173.634674 228.0
173.721939 132.0
173.792786 108.0
173.813782 44.0
174.008011 100.0
174.061523 180.0
174.09729 100.0
174.140335 144.0
174.159332 148.0
174.241776 144.0
174.291702 108.0
174.323227 124.0
174.36528 92.0
174.691345 88.0
174.775528 156.0
175.090454 224.0
175.196808 96.0
175.531555 116.0
175.560562 76.0
175.627991 128.0
176.101624 136.0
176.225784 148.0
176.455734 192.0
176.712296 68.0
177.05426 224.0
177.12001 80.0
177.151794 36.0
177.218033 196.0
177.687332 84.0
178.062164 344.0
178.154602 64.0
178.356567 108.0
178.883286 132.0
178.997772 196.0
179.032394 132.0
179.069275 184.0
179.084091 204.0
179.218872 108.0
179.269501 48.0
179.514755 104.0
179.538757 204.0
179.602783 84.0
179.677475 132.0
179.722839 148.0
179.944382 60.0
180.079132 432.0
180.107285 156.0
180.139343 136.0
180.708801 128.0
180.995209 212.0
181.39978 92.0
181.552628 140.0
181.751144 140.0
181.802124 168.0
181.842392 180.0
181.990036 204.0
182.087997 132.0
182.172668 104.0
182.34465 116.0
182.395721 92.0
182.465622 56.0
182.686157 76.0
182.748032 120.0
182.84491 108.0
182.909515 100.0
182.990372 116.0
183.046829 184.0
183.310822 164.0
183.386292 36.0
183.537262 120.0
183.637054 76.0
183.789658 184.0
183.925766 136.0
183.950058 164.0
184.03537 328.0
184.071564 212.0
184.30658 192.0
184.352524 60.0
184.620163 208.0
184.714828 192.0
184.763535 160.0
184.814941 152.0
184.904236 200.0
184.980026 120.0
185.037354 160.0
185.321289 124.0
185.58963 104.0
185.777588 176.0
186.034592 140.0
186.064453 60.0
186.809113 148.0
186.939728 232.0
187.005035 148.0
187.209244 76.0
187.241287 156.0
187.301849 184.0
187.416275 60.0
187.607056 268.0
187.683411 192.0
187.972565 92.0
188.008041 192.0
188.141785 188.0
188.578857 128.0
188.931625 88.0
189.00824 76.0
189.350449 188.0
189.942505 180.0
190.002869 124.0
190.725113 196.0
190.766357 72.0
190.826843 120.0
191.020416 196.0
191.068878 216.0
191.181686 52.0
191.247757 48.0
191.344101 160.0
191.448746 172.0
191.572693 64.0
191.608505 132.0
192.002701 148.0
192.074417 132.0
192.146149 232.0
192.482895 116.0
192.842056 52.0
193.082596 136.0
193.171112 180.0
193.323288 160.0
193.533676 124.0
193.863327 44.0
194.090637 188.0
194.159973 92.0
194.301453 88.0
194.356934 140.0
194.426865 220.0
194.576218 124.0
194.603973 112.0
194.737274 220.0
194.790054 32.0
194.826172 236.0
194.984558 200.0
195.991867 148.0
196.010147 248.0
196.089691 140.0
196.362762 160.0
196.54689 224.0
196.792526 216.0
196.82045 40.0
196.982452 240.0
197.027786 140.0
197.233948 128.0
197.600296 168.0
197.793411 188.0
197.966995 124.0
197.99202 120.0
198.035141 600.0
198.426544 236.0
198.664948 68.0
198.886642 52.0
199.041092 324.0
199.676193 180.0
199.850601 164.0
200.025177 160.0
200.053253 192.0
200.137955 148.0
200.348969 192.0
200.445114 140.0
200.712555 136.0
200.997467 228.0
201.033066 236.0
201.107544 76.0
201.508545 136.0
201.799683 224.0
201.952393 172.0
202.034424 184.0
202.289139 124.0
202.345749 100.0
202.725327 160.0
202.952118 112.0
203.034515 136.0
203.295364 52.0
203.533813 60.0
203.820724 140.0
204.084503 332.0
204.939011 196.0
204.993912 192.0
205.026398 192.0
205.08403 388.0
205.10675 208.0
205.637711 224.0
206.026062 120.0
206.095993 1272.0
206.640762 124.0
206.898361 100.0
207.10083 608.0
207.170883 128.0
207.316559 196.0
207.356689 100.0
207.477081 196.0
207.59465 64.0
207.941803 112.0
208.109375 268.0
208.398407 176.0
208.590973 64.0
208.648468 124.0
209.048294 168.0
209.074203 40.0
209.163422 156.0
209.284348 116.0
209.359222 44.0
209.6185 84.0
209.710724 164.0
209.926956 88.0
209.964447 56.0
210.035217 1312.0
210.079834 156.0
210.125992 200.0
210.339554 148.0
210.408844 64.0
210.726547 188.0
210.816132 152.0
210.949081 264.0
210.995346 116.0
211.044052 10056.0
211.134705 144.0
211.330856 100.0
211.466873 44.0
211.487137 88.0
211.573975 64.0
211.650055 88.0
211.712967 136.0
211.756409 132.0
211.811447 36.0
211.98819 76.0
212.045929 1276.0
212.083832 116.0
212.202698 48.0
212.333191 40.0
212.751053 196.0
212.788788 100.0
212.954315 176.0
212.992081 172.0
213.033524 1920.0
213.212906 104.0
213.268127 96.0
213.419312 120.0
213.481369 152.0
213.503647 60.0
213.570541 164.0
213.663635 128.0
213.68399 168.0
213.718918 132.0
213.858612 56.0
213.893539 52.0
213.93721 92.0
213.969223 192.0
213.999222 212.0
214.040878 24108.0
214.09436 204.0
214.178909 52.0
214.208038 68.0
214.241913 32.0
214.289612 80.0
214.422073 88.0
214.458649 136.0
214.47879 148.0
214.532349 156.0
214.665649 112.0
214.687607 72.0
214.721054 64.0
214.747604 80.0
214.834824 68.0
215.045242 5188.0
215.117905 172.0
215.147095 172.0
215.389481 248.0
215.708008 84.0
215.784012 48.0
215.842499 36.0
215.930237 68.0
215.977905 108.0
216.037323 6204.0
216.158432 60.0
216.241638 120.0
216.281357 48.0
216.424805 88.0
216.445312 64.0
216.518524 96.0
216.615189 92.0
216.708939 136.0
216.790985 72.0
216.849609 84.0
216.966858 120.0
217.042679 544.0
217.116409 100.0
217.151596 28.0
217.27774 84.0
217.753296 60.0
217.929565 168.0
218.0383 212.0
218.08107 60.0
218.108841 112.0
218.411713 88.0
218.46106 164.0
218.508804 88.0
218.585297 164.0
218.611786 276.0
218.652985 172.0
218.726578 88.0
218.941513 48.0
219.00177 188.0
219.362885 104.0
219.391602 172.0
219.619431 92.0
219.784637 144.0
220.008957 140.0
220.739517 160.0
220.948792 172.0
220.99614 128.0
221.046432 180.0
221.36911 204.0
222.311844 192.0
222.522614 132.0
222.721588 76.0
223.044128 376.0
223.295242 96.0
223.443985 36.0
223.872635 204.0
223.917313 160.0
224.052383 744.0
224.096054 84.0
224.34343 108.0
224.409012 36.0
224.498474 120.0
225.050812 176.0
225.125183 92.0
225.533524 72.0
225.612244 68.0
226.039963 148.0
226.067261 228.0
226.091934 132.0
226.764725 76.0
226.788712 172.0
226.917618 176.0
227.049561 284.0
227.319565 276.0
227.703857 104.0
228.056534 264.0
228.428268 156.0
228.635895 188.0
228.882751 172.0
229.066467 116.0
229.102615 200.0
229.141785 196.0
229.482376 144.0
229.919785 60.0
230.030319 320.0
230.273041 104.0
230.817032 148.0
230.87146 140.0
230.962204 36.0
230.986404 196.0
231.040863 316.0
231.497925 128.0
231.999939 256.0
232.082779 168.0
232.343628 52.0
232.553009 192.0
232.862595 104.0
232.890045 172.0
232.941696 136.0
233.005005 3496.0
233.093613 36.0
233.114883 56.0
233.496002 200.0
233.939163 40.0
234.004608 840.0
234.173645 44.0
234.249802 84.0
234.444809 52.0
234.59111 32.0
234.798462 72.0
234.853363 36.0
234.932678 120.0
235.002396 1600.0
235.47908 76.0
235.845749 148.0
235.974152 96.0
236.005768 336.0
236.059769 112.0
236.096466 40.0
236.454437 76.0
236.647293 168.0
236.680969 192.0
236.804291 180.0
236.892303 76.0
237.094635 128.0
237.511536 164.0
237.533005 128.0
237.654541 124.0
237.753937 152.0
238.029724 124.0
238.066849 2412.0
238.315903 88.0
238.451111 40.0
238.504761 124.0
238.684494 196.0
238.721664 168.0
238.773956 148.0
238.818878 68.0
238.87854 104.0
238.940063 156.0
239.075378 16400.0
239.210892 40.0
239.247833 116.0
239.287857 80.0
239.417191 52.0
239.463394 64.0
239.546555 64.0
239.623581 92.0
239.679047 84.0
239.761963 44.0
239.860886 116.0
240.076706 2724.0
240.190842 76.0
240.212433 144.0
240.274139 100.0
240.35025 88.0
240.379044 48.0
240.409912 84.0
240.477798 52.0
240.536453 92.0
240.724792 48.0
240.755676 132.0
240.897766 84.0
240.987366 240.0
241.029465 96.0
241.064835 1844.0
241.172791 108.0
241.236435 156.0
241.271713 84.0
241.355194 180.0
241.389206 96.0
241.444885 68.0
241.567474 44.0
241.649048 308.0
241.83783 84.0
241.88176 104.0
241.917328 88.0
242.067032 268.0
242.423187 48.0
242.485352 72.0
243.060608 316.0
243.093048 124.0
243.54715 92.0
243.574295 80.0
243.783676 104.0
243.998947 200.0
244.056183 124.0
244.379517 180.0
244.950577 204.0
245.02092 136.0
245.154907 84.0
245.196075 96.0
245.257767 112.0
245.566452 124.0
245.622604 60.0
245.731796 148.0
245.784836 132.0
245.837891 144.0
245.924255 208.0
245.9711 212.0
246.013107 38080.0
246.071289 248.0
246.126953 100.0
246.132782 60.0
246.207977 44.0
246.264587 96.0
246.312469 88.0
246.343719 48.0
246.39682 68.0
246.424301 76.0
246.493698 44.0
246.565567 100.0
246.611038 88.0
246.649963 56.0
246.759384 76.0
246.843811 140.0
246.88446 60.0
246.937637 36.0
247.015427 5772.0
247.08049 96.0
247.105621 40.0
247.171234 108.0
247.21608 56.0
247.41954 40.0
247.507217 44.0
247.557327 96.0
247.610565 68.0
247.673203 76.0
247.836121 36.0
247.883118 44.0
247.917603 204.0
247.952072 212.0
248.009476 10040.0
248.077454 196.0
248.099396 68.0
248.158966 44.0
248.188583 72.0
248.237366 56.0
248.270142 80.0
248.312637 160.0
248.337723 88.0
248.372238 44.0
248.406738 68.0
248.469482 36.0
248.529099 72.0
248.554199 76.0
248.606705 152.0
248.667175 108.0
248.689148 40.0
248.722961 52.0
248.773911 96.0
248.827286 92.0
248.891068 128.0
248.918335 148.0
249.01149 1232.0
249.19162 48.0
249.263901 96.0
249.35817 68.0
249.419998 60.0
249.488129 200.0
249.999435 152.0
250.011688 112.0
250.02356 140.0
250.056427 240.0
250.131973 104.0
250.295685 96.0
250.342926 160.0
250.390167 88.0
250.670563 184.0
250.862823 92.0
251.048859 116.0
251.0867 68.0
251.433762 68.0
251.500046 116.0
251.594742 148.0
252.365677 84.0
252.564911 96.0
252.912994 100.0
253.270798 164.0
253.365173 152.0
253.679596 64.0
253.730316 36.0
254.082367 120.0
254.77449 72.0
256.015015 32.0
256.078735 208.0
256.362274 100.0
256.996857 196.0
257.0224 136.0
258.020844 128.0
259.022705 484.0
259.209686 60.0
260.024109 404.0
260.08847 124.0
260.32605 32.0
260.396698 64.0
260.419189 44.0
260.451324 224.0
261.021973 160.0
261.078064 168.0
261.489899 64.0
261.567139 168.0
262.024872 152.0
263.0242 280.0
264.032318 104.0
264.061432 48.0
266.67804 124.0
267.996063 56.0
268.608978 148.0
269.163849 36.0
269.225891 108.0
270.006989 120.0
271.084106 112.0
272.026855 424.0
272.068115 156.0
272.426117 100.0
272.498383 164.0
273.031769 188.0
273.475098 32.0
273.774719 164.0
273.926239 96.0
274.042877 3236.0
274.127228 44.0
274.153564 88.0
274.282135 112.0
274.47995 64.0
274.582184 80.0
274.770203 52.0
274.842804 56.0
274.908783 40.0
275.047943 680.0
275.271942 140.0
275.460205 68.0
276.042725 1504.0
276.207275 72.0
276.736816 52.0
276.829529 28.0
276.918945 96.0
277.054779 128.0
278.727051 40.0
278.933105 96.0
278.969696 148.0
281.665649 128.0
281.932953 96.0
283.452271 232.0
284.461853 104.0
284.891693 92.0
284.979065 112.0
286.055298 228.0
287.886169 116.0
288.19696 144.0
289.60434 128.0
290.886108 192.0
292.970795 116.0
293.789001 152.0
294.038116 60.0
294.803131 108.0
295.069763 96.0
296.233368 96.0
296.936066 64.0
297.437042 120.0
298.017456 120.0
300.99704 100.0
301.086853 44.0
301.567108 52.0
301.677734 164.0
303.096802 60.0
303.290894 84.0
304.383759 84.0
306.268799 80.0
307.897675 136.0
307.988495 128.0
312.627167 128.0
312.739777 184.0
313.437134 120.0
314.957733 56.0
317.078278 312.0
319.079193 132.0
320.189545 36.0
321.487274 36.0
323.32785 100.0
327.294739 132.0
327.672943 44.0
328.076599 136.0
328.235229 212.0
329.390198 44.0
331.169891 68.0
334.736389 64.0
334.787384 124.0
337.304993 60.0
337.615784 216.0
338.069427 140.0
340.261475 116.0
341.334412 104.0
343.57019 116.0
344.79245 56.0
344.873749 136.0
349.212036 80.0
349.371979 172.0
349.993561 96.0
351.622681 108.0
351.738403 96.0
352.586304 60.0
354.056641 104.0
354.53244 112.0
354.603638 160.0
354.738586 40.0
355.409943 144.0
356.56662 48.0
357.099487 176.0
358.128632 112.0
359.103516 144.0
359.143372 124.0
360.134766 176.0
360.221649 40.0
361.106171 200.0
366.135132 176.0
367.335815 176.0
368.962738 64.0
369.88089 184.0
370.941986 88.0
370.976501 64.0
374.515686 120.0
375.460022 120.0
376.486603 48.0
377.677063 176.0
377.885956 104.0
381.47345 76.0
382.461517 192.0
382.512115 60.0
383.754944 108.0
384.4263 76.0
384.511749 72.0
389.225281 52.0
392.010437 148.0
392.538696 196.0
393.501495 152.0
395.461304 60.0
395.842377 68.0
397.114594 116.0
397.519257 84.0
398.198151 116.0
398.388824 84.0
399.307068 108.0
401.146729 60.0
401.545471 48.0
401.796783 48.0
402.084106 176.0
402.415436 72.0
402.463348 92.0
402.694733 132.0
402.730927 144.0
402.874725 100.0
403.02655 60.0
403.122467 116.0
403.254364 108.0
403.306305 132.0
403.57019 128.0
403.734131 108.0
403.766113 184.0
403.942139 124.0
404.05014 180.0
404.155182 17988.0
404.278229 32.0
404.306244 40.0
404.34906 80.0
404.481018 84.0
404.604797 108.0
404.638855 128.0
404.688538 68.0
404.719238 72.0
404.77063 52.0
404.818695 84.0
404.88678 136.0
404.954132 88.0
404.967987 72.0
404.983185 108.0
405.15744 3488.0
405.22525 120.0
405.319427 184.0
405.391571 64.0
405.507782 156.0
405.615997 96.0
405.704193 76.0
405.996918 40.0
406.041046 68.0
406.07312 204.0
406.152374 5692.0
406.269684 48.0
406.307312 148.0
406.390045 72.0
406.426178 80.0
406.534515 56.0
406.823517 68.0
406.855621 60.0
406.900543 108.0
406.94397 56.0
406.9841 64.0
407.156769 828.0
407.285339 84.0
407.313446 96.0
407.38327 52.0
407.417908 48.0
407.622803 104.0
407.701538 116.0
407.795044 108.0
407.855927 48.0
408.0383 132.0
408.081055 124.0
408.155396 192.0
408.274078 44.0
408.398773 48.0
408.680389 156.0
408.889648 48.0
409.199615 124.0
409.509705 108.0
411.13855 64.0
412.873108 48.0
413.02951 76.0
413.138733 72.0
415.086975 76.0
417.539917 80.0
420.000092 76.0
420.853058 80.0
421.240509 116.0
421.5802 84.0
422.369324 104.0
423.589203 164.0
424.593445 72.0
428.12793 104.0
428.869568 72.0
431.354553 56.0
432.405212 56.0
436.454224 92.0
439.46582 168.0
440.225555 44.0
447.610504 60.0
466.41687 100.0
471.95694 144.0
476.564606 68.0
484.750916 112.0
492.82135 48.0
495.214722 88.0
497.649414 60.0
499.369232 92.0
500.793579 52.0
503.639374 56.0
508.964478 112.0
509.566376 76.0
520.352234 68.0
524.514954 52.0
524.560547 68.0
527.267334 104.0
527.532471 124.0
527.94397 108.0
532.27002 60.0
532.968262 72.0
533.142883 104.0
533.271606 76.0
544.83374 72.0
553.317444 68.0
555.628052 112.0
558.517212 84.0
561.833679 44.0
579.808716 124.0
580.599792 104.0
580.882812 40.0
585.969299 116.0
598.738708 56.0
601.933044 104.0
602.924744 76.0
608.582825 40.0
616.395386 112.0
618.531982 52.0
619.145996 72.0
622.309814 72.0
622.379333 112.0
626.333191 200.0
628.207581 76.0
628.636719 64.0
628.996033 96.0
638.47113 52.0
641.820068 48.0
644.515564 60.0
663.388672 112.0
668.880249 52.0
673.789856 60.0
674.942505 56.0
680.881531 96.0
685.266846 88.0
686.570068 64.0
688.97644 28.0
695.958313 60.0
709.105042 52.0
714.783264 88.0
718.917725 256.0
720.856262 96.0
724.205505 104.0
725.797241 64.0
744.88208 176.0
747.491882 96.0
748.918335 96.0
749.359558 240.0
756.371948 64.0
757.669861 200.0
757.713684 88.0
759.638 192.0
759.692871 56.0
773.314941 64.0
778.49884 176.0
779.093201 208.0
779.332092 156.0
783.482788 112.0
786.812378 192.0
789.024841 136.0
789.723877 68.0
790.009155 216.0
793.369385 152.0
793.554443 40.0
803.566284 124.0
804.757202 124.0
807.775269 152.0
807.911011 136.0
808.188232 192.0
808.386292 184.0
811.484863 48.0
814.538147 200.0
817.580139 88.0
819.174438 60.0
821.96936 104.0
822.156616 96.0
825.6073 148.0
827.879395 100.0
831.037964 52.0
834.058838 160.0
837.315552 184.0
840.267029 40.0
841.05188 124.0
849.117798 152.0
850.452332 148.0
857.070679 156.0
860.103455 156.0
871.353577 172.0
876.796814 132.0
880.33075 184.0
885.440613 184.0
886.98114 148.0
887.467346 76.0
888.796021 128.0
892.425354 164.0
895.543823 156.0
896.15741 76.0
896.956055 180.0
902.161682 180.0
902.610107 176.0
902.986877 92.0
904.285217 276.0
905.620483 244.0
907.574219 228.0
908.167969 188.0
910.731018 156.0
911.193604 132.0
912.624146 112.0
916.133057 168.0
916.524658 132.0
919.039185 136.0
924.380981 152.0
924.635193 92.0
924.780457 76.0
925.791565 176.0
930.356934 180.0
931.019348 64.0
931.28656 192.0
934.514771 156.0
935.926941 172.0
937.55957 156.0
939.126465 188.0
940.108765 192.0
941.763367 104.0
944.621948 120.0
946.013367 172.0
947.795715 244.0
947.918274 124.0
950.315857 156.0
950.377258 40.0
954.087036 140.0
954.431335 256.0
957.416016 84.0
959.979797 144.0
960.713806 176.0
960.8927 220.0
961.836914 140.0
963.319031 108.0
963.430237 160.0
963.529053 164.0
963.850403 120.0
966.150513 112.0
968.013611 144.0
968.168457 152.0
969.283508 144.0
971.490845 128.0
971.776245 164.0
974.172791 44.0
974.992981 164.0
975.434326 128.0
976.783752 244.0
977.723267 160.0
978.862549 48.0
980.875061 32.0
983.388855 144.0
983.651001 180.0
984.069336 88.0
986.368225 168.0
987.900513 152.0
988.063171 236.0
989.020691 192.0
989.646729 148.0
990.04126 116.0
990.210388 208.0
992.541687 164.0
993.219055 252.0
993.294312 132.0
994.091187 100.0
994.718811 168.0
996.383057 140.0
997.250305 92.0
999.143188 124.0
999.602478 120.0
999.873108 228.0
1000.231873 164.0
1000.754456 32.0
1002.196899 160.0
1003.311157 148.0
1005.646545 80.0
1006.170532 176.0
1008.482666 136.0
1009.443665 148.0
1009.968567 132.0
1010.424072 180.0
1010.961975 104.0
1011.291077 176.0
1012.829773 148.0
1013.450623 280.0
1013.976624 208.0
1014.078003 152.0
1015.834534 180.0
1016.684753 132.0
1016.919617 176.0
1017.433838 156.0
1017.522705 176.0
1019.390198 148.0
1019.49823 192.0
1021.653809 188.0
1022.78656 152.0
1024.518677 148.0
1025.283325 148.0
1025.965454 228.0
1026.558472 212.0
1028.438477 200.0
1028.715088 172.0
1030.286133 164.0
1030.650391 160.0
1032.670532 128.0
1032.740967 156.0
1034.327881 228.0
1034.820801 164.0
1035.467651 204.0
1035.627686 60.0
1037.043823 172.0
1037.095093 136.0
1038.65332 180.0
1039.160034 156.0
1041.002441 148.0
1041.355591 160.0
1042.955566 48.0
1043.630615 156.0
1043.714233 188.0
1043.791382 148.0
1043.926392 268.0
1044.3573 176.0
1044.884888 196.0
1047.39563 104.0
1048.838989 92.0
1050.25769 148.0
1051.018921 136.0
1051.62561 124.0
1052.0 136.0
1052.529419 148.0
1054.105713 180.0
1054.170288 140.0
1054.848999 72.0
1055.081665 192.0
1055.780029 172.0
1055.967651 120.0
1056.957397 140.0
1058.750732 56.0
1059.450195 100.0
1060.415771 128.0
1060.616699 76.0
1061.013428 180.0
1061.336426 140.0
1066.634277 108.0
1067.206299 84.0
1068.689453 212.0
1072.955566 156.0
1073.43811 184.0
1073.633789 208.0
1074.357788 172.0
1076.910278 144.0
1077.073486 188.0
1077.374023 184.0
1077.824829 204.0
1078.302002 260.0
1078.478394 56.0
1078.602661 220.0
1080.93103 204.0
1081.657593 116.0
1081.709961 140.0
1082.043823 176.0
1083.491211 132.0
1084.251343 152.0
1084.303833 172.0
1085.621582 204.0
1086.113525 136.0
1086.257812 124.0
1086.428467 136.0
1087.839355 128.0
1088.765259 124.0
1089.15271 52.0
1089.717773 80.0
1090.118652 132.0
1090.282837 192.0
1090.499756 144.0
1091.084839 192.0
1091.203247 124.0
1091.525391 124.0
1091.624023 196.0
1093.295044 140.0
1094.954224 120.0
1097.281128 232.0
1098.210205 180.0
1099.397827 136.0
1101.081421 132.0
1101.940186 156.0
1102.131836 172.0
1102.766235 100.0
1103.493408 156.0
1104.392822 120.0
1104.776489 60.0
1105.610229 92.0
1105.72937 144.0
1106.543579 96.0
1106.795288 184.0
1107.106445 204.0
1107.212402 240.0
1107.623169 128.0
1108.723022 168.0
1108.792358 308.0
1109.849976 172.0
1110.095337 172.0
1110.506592 204.0
1113.320679 136.0
1113.686035 164.0
1113.79895 168.0
1114.416748 184.0
1114.695801 168.0
1115.453613 196.0
1116.204834 136.0
1117.229248 172.0
1117.661621 128.0
1117.748169 176.0
1119.019531 216.0
1119.166016 152.0
1120.19165 48.0
1121.437866 132.0
1121.791138 92.0
1123.078125 136.0
1124.365845 192.0
1125.400635 108.0
1125.500732 76.0
1126.075073 156.0
1126.248779 184.0
1126.776489 116.0
1127.839111 200.0
1128.654663 204.0
1128.748413 68.0
1128.915527 108.0
1129.390381 168.0
1129.50415 116.0
1131.893555 156.0
1132.516357 188.0
1132.646118 208.0
1134.3927 148.0
1134.975952 176.0
1135.169067 184.0
1135.499146 112.0
1136.438232 152.0
1136.485229 108.0
1136.861084 200.0
1136.968384 164.0
1137.646362 200.0
1139.650879 216.0
1140.420776 140.0
1141.025757 208.0
1141.294678 104.0
1141.489746 128.0
1141.758789 136.0
1142.740845 188.0
1142.821655 184.0
1143.312866 148.0
1143.797485 164.0
1143.891724 160.0
1145.003662 140.0
1147.084839 52.0
1148.150269 144.0
1149.067627 52.0
1149.411743 180.0
1150.349976 140.0
1151.754517 168.0
1152.740967 212.0
1152.828857 116.0
1153.058594 140.0
1153.928833 188.0
1154.201172 152.0
1156.047974 116.0
1156.115601 48.0
1156.677368 188.0
1156.80603 136.0
1157.950439 140.0
1158.295898 248.0
1158.519409 120.0
1160.478149 156.0
1161.03418 132.0
1161.081665 144.0
1161.73291 256.0
1161.949951 224.0
1162.621338 168.0
1163.898071 204.0
1164.550049 208.0
1165.426392 192.0
1165.725464 136.0
1166.398315 180.0
1166.599854 208.0
1166.915039 40.0
1168.520142 152.0
1168.908081 152.0
1168.955688 68.0
1169.248291 108.0
1169.438843 196.0
1169.820068 252.0
1170.05835 100.0
1170.300781 184.0
1171.372803 96.0
1171.461304 56.0
1171.549927 216.0
1172.483398 68.0
1172.612915 168.0
1172.878784 132.0
1173.042358 184.0
1173.846924 124.0
1174.003784 148.0
1174.269775 56.0
1174.638062 204.0
1175.047485 152.0
1175.620605 140.0
1175.716187 124.0
1176.835693 216.0
1177.894287 192.0
1179.575439 212.0
1179.855713 56.0
1180.156494 128.0
1180.300171 180.0
1180.744629 176.0
1182.222412 148.0
1182.585205 136.0
1183.009644 120.0
1184.290161 116.0
1184.660034 228.0
1185.420654 212.0
1186.867065 148.0
1187.395142 156.0
1188.293701 160.0
1189.185913 108.0
1191.438354 136.0
1191.637573 188.0
1192.661499 180.0
1192.963989 176.0
1193.16333 204.0
1193.410889 180.0
1193.734131 172.0
1194.442505 120.0
1194.917236 176.0
1195.213135 136.0
1195.39209 192.0
1195.619141 56.0
1195.749878 148.0
1195.866943 124.0
1196.396973 104.0
1196.782593 212.0
1197.443726 180.0
1197.505615 164.0
1197.71228 200.0
1199.076538 148.0
1199.324707 164.0
1199.58667 168.0
1200.531372 40.0
1201.924805 200.0
1202.249146 180.0
1204.044189 224.0
1204.908325 128.0
1205.876099 184.0
1206.877563 280.0
1207.562256 152.0
1207.984253 56.0
1208.115601 192.0
1208.53772 84.0
1208.593018 128.0
1209.278198 108.0
1210.912231 172.0
1211.868286 188.0
1212.256348 76.0
1212.374146 104.0
1212.512695 164.0
1213.344604 156.0
1213.490234 176.0
1213.663574 100.0
1215.022949 84.0
1215.578125 232.0
1215.959839 96.0
1216.088379 184.0
1216.161133 180.0
1216.466553 236.0
1216.660889 76.0
1216.869263 172.0
1217.074585 160.0
1217.438599 248.0
1218.397217 80.0
1218.459717 160.0
1220.517212 108.0
1220.816162 128.0
1221.630005 200.0
1221.873535 148.0
1222.089233 56.0
1222.687744 228.0
1222.973022 176.0
1224.268066 172.0
1225.159668 152.0
1225.215454 104.0
1226.630127 272.0
1226.964844 140.0
1227.180908 176.0
1229.064209 204.0
1229.740356 200.0
1230.613892 188.0
1230.846313 216.0
1231.235352 156.0
1231.591553 216.0
1232.241333 156.0
1232.450928 92.0
1233.261597 240.0
1233.49231 212.0
1233.653076 192.0
1233.925781 156.0
1235.289551 100.0
1235.856201 152.0
1236.045166 200.0
1236.311157 112.0
1237.263062 192.0
1237.403076 212.0
1237.662231 172.0
1237.78125 200.0
1237.935303 56.0
1239.756836 180.0
1240.128296 152.0
1241.061279 136.0
1241.122559 204.0
1241.523438 148.0
1241.607666 144.0
1242.905518 128.0
1243.115967 200.0
1243.424805 160.0
1243.579224 124.0
1244.007446 160.0
1244.267212 72.0
1244.379517 40.0
1244.597168 140.0
1244.934326 136.0
1245.833374 112.0
1245.966309 224.0
1246.339233 48.0
1246.648438 84.0
1246.943604 156.0
1247.463867 136.0
1247.61145 148.0
1247.688843 132.0
1248.884277 132.0
1249.017944 244.0
1249.20752 160.0
1249.369629 216.0
1249.612793 216.0
1249.939575 124.0
1250.108521 148.0
1250.277466 36.0
1250.854614 120.0
1251.833252 140.0
1252.12207 188.0
1252.678467 176.0
1253.072998 248.0
1253.277344 140.0
1254.341553 172.0
1255.131226 88.0
1255.716675 148.0
1255.956421 64.0
1257.360596 196.0
1257.784058 112.0
1259.104492 144.0
1260.213501 164.0
1261.012085 200.0
1261.528198 32.0
1262.411987 116.0
1262.518066 168.0
1263.076904 136.0
1263.324463 68.0
1263.649902 180.0
1264.272583 164.0
1265.419434 184.0
1265.943359 144.0
1266.000122 136.0
1266.297485 192.0
1267.161743 108.0
1268.253174 200.0
1269.777588 136.0
1269.976196 200.0
1271.161011 124.0
1271.941772 172.0
1272.0625 136.0
1272.495605 112.0
1273.120483 76.0
1273.681519 108.0
1273.937256 176.0
1274.569702 68.0
1274.889404 160.0
1276.0979 124.0
1276.439209 196.0
1276.979736 168.0
1277.363892 200.0
1277.413696 172.0
1277.619995 200.0
1278.459595 184.0
1278.993408 192.0
1279.050415 72.0
1280.445923 204.0
1280.517212 188.0
1280.894775 220.0
1281.015869 208.0
1281.293701 220.0
1283.76709 196.0
1284.680176 148.0
1284.744385 152.0
1285.015503 140.0
1287.90686 208.0
1288.949951 100.0
1289.728882 200.0
1289.786133 180.0
1289.88623 240.0
1290.079224 88.0
1290.558228 168.0
1291.259033 156.0
1291.502319 80.0
1291.638184 156.0
1292.203369 168.0
1292.325073 132.0
1294.544067 44.0
1295.417969 192.0
1296.327881 180.0
1296.73645 176.0
1297.532227 220.0
1298.980835 124.0
1300.731812 152.0
1300.825195 220.0
1300.975952 172.0
1301.047729 136.0
1301.177002 212.0
1301.449829 132.0
1303.252686 164.0
1303.964233 52.0
1304.064819 192.0
1304.158325 160.0
1304.345215 48.0
1305.193604 236.0
1305.94873 140.0
1306.135742 92.0
1306.596191 148.0
1307.884277 232.0
1308.237061 168.0
1309.1875 168.0
1310.116699 204.0
1311.010254 196.0
1311.197632 208.0
1311.370605 200.0
1311.687744 104.0
1312.343872 140.0
1312.516846 196.0
1313.194824 132.0
1313.46167 164.0
1313.549683 148.0
1313.945068 188.0
1314.139893 156.0
1315.12854 140.0
1317.735596 140.0
1317.964111 176.0
1318.508911 148.0
1318.73291 156.0
1319.5354 156.0
1319.846313 200.0
1321.16272 104.0
1322.165039 240.0
1322.559326 108.0
1322.899536 88.0
1323.645386 236.0
1324.130615 56.0
1324.550659 172.0
1325.086792 140.0
1325.209961 120.0
1326.471069 152.0
1327.420898 176.0
1327.899536 240.0
1329.379639 112.0
1329.815063 224.0
1329.938477 192.0
1330.03833 132.0
1330.185303 152.0
1330.802368 224.0
1331.071045 136.0
1331.325195 212.0
1331.390625 116.0
1331.717407 132.0
1332.102417 140.0
1332.845947 220.0
1333.453979 132.0
1333.621216 204.0
1333.737427 140.0
1333.890137 124.0
1335.009888 140.0
1335.264404 172.0
1335.337158 120.0
1336.18103 172.0
1337.323486 192.0
1337.614746 180.0
1338.095215 116.0
1338.604858 140.0
1338.954468 92.0
1339.464355 136.0
1340.163818 164.0
1340.857056 148.0
1341.052856 176.0
1341.271606 152.0
1341.512085 88.0
1341.738159 220.0
1342.168335 268.0
1342.637085 192.0
1342.737183 148.0
1343.379028 132.0
1344.561157 136.0
1344.918823 216.0
1345.072144 152.0
1346.342651 216.0
1346.430298 176.0
1348.11792 220.0
1348.359131 136.0
1348.994995 236.0
1349.835815 192.0
1350.033325 172.0
1350.18689 196.0
1350.318604 92.0
1350.384399 168.0
1350.896362 192.0
1351.342773 100.0
1352.177002 148.0
1352.696655 208.0
1353.092041 160.0
1353.19458 112.0
1353.854004 120.0
1354.219727 160.0
1354.908447 116.0
1354.989014 108.0
1355.721802 192.0
1356.051514 128.0
1356.334595 172.0
1357.019287 200.0
1357.136597 196.0
1357.708618 68.0
1357.855225 192.0
1358.082642 108.0
1358.265991 148.0
1358.728149 120.0
1359.043701 80.0
1359.38855 124.0
1359.748169 164.0
1360.61438 84.0
1360.783325 100.0
1361.054932 140.0
1362.729736 128.0
1362.920776 200.0
1363.876221 136.0
1364.177612 96.0
1364.640747 144.0
1364.949585 164.0
1365.229126 168.0
1365.920532 176.0
1365.994019 160.0
1366.435425 200.0
1367.252319 80.0
1367.730713 192.0
1368.621582 72.0
1368.952881 188.0
1369.019165 164.0
1369.15918 388.0
1369.350586 196.0
1370.757812 180.0
1370.831543 176.0
1371.458008 124.0
1371.679077 160.0
1372.593384 204.0
1372.652344 96.0
1373.006348 188.0
1373.057983 184.0
1373.18335 168.0
1374.024292 180.0
1374.400635 188.0
1375.24939 108.0
1375.839966 188.0
1376.489746 252.0
1376.600464 160.0
1376.733398 120.0
1376.982422 228.0
1378.949951 56.0
1380.251099 192.0
1380.369385 172.0
1380.62561 132.0
1380.983276 124.0
1381.13855 160.0
1381.538086 232.0
1382.181763 184.0
1383.950928 200.0
1384.380371 160.0
1384.506348 236.0
1384.898926 180.0
1384.995361 204.0
1385.654541 160.0
1386.258789 152.0
1387.055176 204.0
1387.247925 180.0
1387.492554 172.0
1387.685425 152.0
1387.766968 232.0
1388.315674 56.0
1388.545654 196.0
1388.820068 80.0
1389.450562 108.0
1389.51001 116.0
1389.843628 128.0
1390.341064 164.0
1390.749268 208.0
1391.603027 152.0
1391.669922 100.0
1392.041138 148.0
1392.122803 200.0
1392.702148 192.0
1393.74231 180.0
1393.920654 164.0
1394.359131 172.0
1394.418579 160.0
1395.213989 228.0
1395.912964 292.0
1396.076538 160.0
1397.192383 184.0
1397.363403 252.0
1397.676025 228.0
1399.618774 84.0
1399.693237 176.0
1399.998657 120.0
1400.303955 140.0
1400.475342 76.0
1400.735962 152.0
1401.421387 276.0
1401.697144 180.0
1402.673462 160.0
1403.43396 152.0
1403.866455 168.0
1405.134644 140.0
1405.209229 156.0
1406.09729 116.0
1406.597412 60.0
1407.090088 148.0
1407.19458 96.0
1408.419434 212.0
1408.822754 128.0
1409.308472 108.0
1409.689575 136.0
1410.182861 120.0
1410.825684 196.0
1411.027588 124.0
1411.28479 132.0
1411.401489 60.0
1411.887573 132.0
1413.226562 108.0
1413.53479 196.0
1413.900146 128.0
1414.753418 232.0
1415.404907 200.0
1415.659424 152.0
1415.741821 152.0
1415.929077 72.0
1416.19873 180.0
1416.438477 160.0
1416.685669 180.0
1417.015259 80.0
1417.082764 96.0
1417.959473 160.0
1418.057007 152.0
1418.371826 136.0
1419.106445 180.0
1419.286499 56.0
1419.481445 204.0
1420.148926 84.0
1420.583984 200.0
1420.839111 152.0
1421.844604 112.0
1422.167358 132.0
1422.377563 164.0
1423.323608 224.0
1423.518799 168.0
1424.112183 184.0
1424.2323 172.0
1424.795776 200.0
1425.171387 236.0
1425.276611 160.0
1425.877808 148.0
1426.186035 128.0
1426.494263 80.0
1426.83252 164.0
1427.366455 168.0
1427.430664 208.0
1427.509277 232.0
1427.877808 116.0
1428.261353 152.0
1428.569824 176.0
1429.02124 132.0
1429.329712 152.0
1429.547974 52.0
1430.127563 168.0
1430.293091 200.0
1430.544678 260.0
1430.707153 104.0
1431.460205 140.0
1431.693604 60.0
1432.175659 200.0
1432.559814 64.0
1433.66748 204.0
1434.775513 144.0
1435.191406 180.0
1435.280762 236.0
1435.371216 204.0
1436.208374 208.0
1436.985474 204.0
1437.468384 192.0
1437.943848 132.0
1440.443237 180.0
1440.684937 188.0
1441.44812 128.0
1441.500977 120.0
1442.158569 152.0
1443.273193 180.0
1443.610229 316.0
1443.852173 180.0
1444.215332 120.0
1445.244141 216.0
1445.312256 132.0
1445.577148 152.0
1445.94043 196.0
1446.341553 136.0
1446.409668 88.0
1446.977539 180.0
1447.030518 128.0
1447.363647 164.0
1447.87439 120.0
1450.517334 152.0
1451.645264 224.0
1451.751465 172.0
1452.207275 180.0
1452.373413 172.0
1452.502319 196.0
1453.109253 136.0
1453.207886 140.0
1453.647949 136.0
1454.391846 164.0
1455.113037 176.0
1455.401489 168.0
1455.857178 148.0
1456.768677 104.0
1457.232178 160.0
1457.436401 176.0
1457.528442 60.0
1458.052856 164.0
1458.44812 232.0
1458.80542 136.0
1459.47937 156.0
1459.854614 208.0
1459.945923 132.0
1460.090454 80.0
1460.158936 212.0
1460.371826 168.0
1461.231445 88.0
1461.348267 164.0
1462.456787 132.0
1463.065796 92.0
1463.773438 152.0
1464.124146 180.0
1464.364746 204.0
1464.84021 36.0
1465.007812 184.0
1465.449707 208.0
1466.211792 156.0
1466.501343 128.0
1467.705933 184.0
1467.828003 164.0
1468.758423 160.0
1469.239014 92.0
1469.765503 184.0
1470.459961 80.0
1470.616455 180.0
1470.879883 144.0
1471.17041 196.0
1471.429565 156.0
1472.025146 164.0
1472.391724 204.0
1472.490967 160.0
1472.666626 168.0
1472.872925 120.0
1473.140259 156.0
1473.28833 144.0
1473.461182 172.0
1473.682739 180.0
1474.324585 196.0
1474.508057 144.0
1474.882568 240.0
1476.098267 128.0
1477.107788 144.0
1477.559204 192.0
1477.628052 192.0
1477.872925 184.0
1479.25708 160.0
1479.395996 144.0
1479.679321 204.0
1480.181274 152.0
1480.353149 144.0
1480.981201 140.0
1481.364136 160.0
1481.494385 100.0
1482.48291 188.0
1482.77002 212.0
1483.262329 216.0
1483.969971 156.0
1484.054321 48.0
1484.230713 104.0
1484.338135 100.0
1484.721558 184.0
1484.9823 168.0
1485.281494 188.0
1485.519287 152.0
1485.68042 224.0
1485.787842 180.0
1485.979614 92.0
1486.524414 104.0
1487.117188 232.0
1487.187256 88.0
1487.407104 132.0
1487.864136 140.0
1488.098022 132.0
1488.670898 200.0
1488.766113 208.0
1489.726196 64.0
1490.210327 176.0
1490.540649 124.0
1490.832764 40.0
1490.994141 212.0
1491.455322 180.0
1491.551636 140.0
1493.016113 108.0
1493.762207 200.0
1494.700928 192.0
1495.193481 188.0
1496.771606 144.0
1497.149048 176.0
1497.226074 160.0
1497.288452 176.0
1497.510986 168.0
1497.572632 120.0
1497.695923 44.0
1498.566406 176.0
1498.812988 164.0
1499.136597 144.0
1499.700806 184.0
1499.930542 172.0
1500.130981 224.0
1500.462524 176.0
1501.133301 172.0
1501.580688 76.0
1501.657837 168.0
1501.827515 164.0
1501.950928 120.0
1502.529541 144.0
1503.154541 156.0
1503.447754 52.0
1504.00354 188.0
1504.157837 200.0
1504.211914 128.0
1504.265991 216.0
1505.061157 180.0
1505.285156 48.0
1505.377808 160.0
