>compound MLS001158670-01!(2S)-1-[(2S)-4-methyl-2-[(3-oxo-2,4-dihydroquinoxaline-1-carbonyl)amino]pentanoyl]pyrrolidine-2-carboxylic acid
>formula C20H26N4O5
>ionization [M+H]+
>parentmass 403.198
#inchi InChI=1S/C20H26N4O5/c1-12(2)10-14(18(26)23-9-5-8-16(23)19(27)28)22-20(29)24-11-17(25)21-13-6-3-4-7-15(13)24/h3-4,6-7,12,14,16H,5,8-11H2,1-2H3,(H,21,25)(H,22,29)(H,27,28)/t14-,16-/m0/s1
#inchikey ABGLMHPLWOWSIG
#Ion_Source LC-ESI
#Instrument qTof
#Compound_Source NIH Natural Product Library
#PI Dorrestein
#Data_Collector VVP/LMS
#Scan -1
#Precursor_MZ 403.198
#ExactMass 402.19
#Charge 1
#CAS_Number N/A
#Pubmed_ID N/A
#Smiles CC(C)C[C@H](NC(=O)N1CC(=O)Nc2ccccc12)C(=O)N3CCC[C@H]3C(=O)O
#INCHI_AUX N/A
#Library_Class 1
#SpectrumID CCMSLIB00000080605
#IonMode Positive
#UpdateWorkflowName UPDATE-SINGLE-ANNOTATED-GOLD
#LibraryQualityString Gold
#TaskID b1d8e8f6646f4e71acdff9ca3d919d08
##Scan# 1661
#SpectrumFile p2-E11_GE11_01_18035.mzXML
#LibraryName NIH_Natural_Products_Library.mgf
#MQScore -1
#Organism NIH_Natural_Products_Library
#TIC_Query 0
#RT_Query -1
#MZErrorPPM -1
#SharedPeaks 0
#MassDiff 0
#LibMZ -1
#SpecMZ 403.198
#SpecCharge 0
#internalFilename spec-00000.mgf

>collision 10
94.990723 136.0
95.717606 180.0
95.739021 160.0
96.152328 180.0
96.353455 112.0
96.417938 124.0
96.507858 144.0
96.76976 140.0
96.817039 148.0
97.03846 392.0
97.093369 200.0
97.30529 76.0
97.472244 244.0
97.511551 264.0
97.910934 60.0
98.096687 176.0
98.117828 232.0
98.424606 224.0
98.45327 68.0
98.563896 176.0
98.607376 148.0
98.623184 224.0
98.767525 176.0
98.842705 192.0
98.93969 168.0
99.181366 76.0
99.278519 200.0
99.308266 180.0
99.381668 148.0
99.492805 164.0
99.729195 176.0
99.75106 132.0
99.782867 140.0
99.866386 164.0
101.025337 180.0
101.1474 120.0
101.435852 48.0
101.465927 180.0
102.076317 180.0
102.134644 116.0
102.227188 160.0
102.285553 48.0
102.339912 52.0
102.466797 124.0
102.644173 68.0
103.003418 172.0
103.441299 220.0
103.509033 112.0
103.561684 172.0
103.804886 132.0
103.934708 168.0
103.961082 176.0
104.050163 176.0
104.41819 160.0
104.847771 84.0
104.974159 96.0
105.05069 176.0
105.10939 220.0
105.274139 108.0
105.566368 140.0
105.660454 148.0
105.697289 272.0
105.805763 240.0
105.922493 176.0
106.033134 204.0
106.063881 196.0
106.722878 256.0
107.058289 176.0
107.169525 124.0
107.643951 200.0
108.208427 208.0
108.357552 132.0
109.034019 164.0
109.094292 212.0
109.113007 172.0
109.154587 156.0
109.462563 200.0
109.481308 172.0
110.038048 228.0
110.138283 64.0
110.430908 132.0
110.474838 152.0
110.516678 132.0
110.757431 112.0
110.822372 104.0
110.868477 224.0
111.172562 156.0
111.189346 108.0
111.330009 164.0
111.382515 160.0
111.491768 212.0
111.519089 160.0
111.784081 84.0
111.853531 160.0
112.055702 184.0
112.077415 488.0
112.156853 164.0
112.705559 128.0
113.043892 264.0
113.079872 156.0
113.639313 128.0
113.837212 212.0
113.860077 204.0
113.917427 180.0
113.989662 144.0
114.052055 168.0
114.106567 40.0
114.244804 56.0
114.383125 124.0
114.466156 156.0
114.547089 132.0
114.579041 152.0
115.291725 76.0
115.402878 224.0
115.858749 200.0
115.971657 180.0
116.036629 140.0
116.069229 2004.0
116.122406 116.0
116.154579 80.0
116.229668 156.0
116.246361 72.0
116.367035 164.0
116.418571 220.0
116.4916 188.0
116.549606 196.0
116.887199 116.0
116.919479 188.0
117.072121 552.0
117.121864 236.0
117.182182 184.0
117.566757 188.0
117.775429 188.0
117.892097 132.0
117.972069 200.0
118.132095 132.0
118.235954 184.0
118.303055 76.0
118.749428 184.0
118.76461 176.0
118.901299 184.0
119.001152 216.0
119.060303 9444.0
119.153183 60.0
119.214027 76.0
119.400986 56.0
119.570686 92.0
119.672997 140.0
119.705658 80.0
119.725258 160.0
120.063705 808.0
120.121941 160.0
120.521469 184.0
120.622002 180.0
120.637306 120.0
120.685402 120.0
120.989517 120.0
121.050827 192.0
121.075386 3052.0
121.149384 172.0
121.23922 44.0
121.258949 248.0
121.304977 64.0
121.35759 56.0
121.394867 108.0
121.504539 108.0
121.603287 28.0
121.637253 228.0
121.739403 44.0
121.811882 48.0
121.882187 68.0
121.978889 68.0
122.078583 440.0
122.317642 152.0
122.83989 148.0
122.932892 132.0
123.076042 156.0
123.219604 248.0
123.409683 100.0
123.489296 208.0
123.537956 148.0
124.075348 200.0
124.160362 68.0
124.335632 192.0
124.755432 192.0
124.775444 120.0
124.884407 144.0
125.071312 56.0
125.429932 140.0
125.84935 132.0
126.052612 160.0
126.120903 352.0
126.535751 176.0
127.017563 132.0
127.500298 108.0
127.520523 100.0
127.59021 68.0
127.71389 88.0
127.79937 192.0
128.037979 128.0
128.338898 196.0
128.597122 148.0
129.238922 148.0
129.875504 224.0
129.91861 212.0
130.306824 188.0
130.375 72.0
130.909607 228.0
131.082733 56.0
131.201248 160.0
131.237732 180.0
131.458984 72.0
131.65303 168.0
131.931793 132.0
132.046234 528.0
132.063187 148.0
132.600174 88.0
132.684998 72.0
132.762955 144.0
132.811111 196.0
133.050858 220.0
133.074402 244.0
133.132431 192.0
133.231201 196.0
133.463333 52.0
133.553024 228.0
133.58522 172.0
133.805862 156.0
134.225494 112.0
134.310837 68.0
134.391571 204.0
134.594696 256.0
134.761002 128.0
134.844193 152.0
135.057434 312.0
135.489792 224.0
135.728516 156.0
135.888565 112.0
136.80191 176.0
137.016159 204.0
137.270218 108.0
137.382172 184.0
137.440491 116.0
137.575867 132.0
138.087601 104.0
138.3965 200.0
138.677612 112.0
138.841721 116.0
138.991867 100.0
139.038788 144.0
139.116257 140.0
139.198425 156.0
139.337006 148.0
139.461548 168.0
139.635544 196.0
139.654358 204.0
140.144012 220.0
140.695908 196.0
140.936813 120.0
141.388474 196.0
141.50209 144.0
141.556549 160.0
141.686829 168.0
141.819534 172.0
141.966522 172.0
142.085114 120.0
142.434082 68.0
142.562378 136.0
143.171936 160.0
143.378662 60.0
143.908218 176.0
144.077789 36.0
144.168594 168.0
144.481827 184.0
144.508148 144.0
144.618225 124.0
144.77623 164.0
144.898392 188.0
145.104507 148.0
145.174042 64.0
145.485962 152.0
145.603622 68.0
145.99295 104.0
146.18541 116.0
146.275848 180.0
146.337051 80.0
146.445419 176.0
146.493591 140.0
146.520081 116.0
146.546585 64.0
146.595032 236.0
146.7621 164.0
146.787323 160.0
146.818985 148.0
146.83699 184.0
146.857574 148.0
146.900986 184.0
146.927811 200.0
146.946823 180.0
146.989426 164.0
147.055267 47604.0
147.185776 60.0
147.204056 112.0
147.218948 60.0
147.267334 140.0
147.305161 120.0
147.324768 92.0
147.369354 152.0
147.42218 76.0
147.464828 208.0
147.55545 60.0
147.579636 88.0
147.612335 40.0
147.734421 48.0
147.799744 60.0
147.818558 76.0
147.89563 64.0
147.988541 80.0
148.057999 6200.0
148.153229 60.0
148.17746 56.0
148.279221 64.0
148.309708 92.0
148.351944 76.0
148.381042 32.0
148.434372 40.0
148.480453 68.0
148.502289 52.0
148.54837 64.0
148.606598 36.0
148.623581 40.0
148.640564 92.0
148.71579 96.0
148.842041 52.0
148.87117 48.0
148.89061 168.0
148.968323 44.0
149.009628 96.0
149.069656 868.0
149.106415 116.0
149.165161 100.0
149.28186 108.0
149.318344 152.0
149.409866 64.0
149.491074 252.0
149.610336 196.0
149.987915 212.0
150.065933 180.0
150.236649 72.0
150.434311 240.0
150.903381 48.0
150.966965 228.0
151.116165 136.0
151.35849 124.0
151.419708 168.0
152.170074 96.0
152.568085 168.0
153.06015 168.0
153.252274 148.0
154.321014 40.0
154.358109 116.0
154.469391 160.0
154.508972 144.0
155.227264 192.0
155.405869 92.0
156.024292 96.0
156.357605 244.0
157.252335 136.0
158.615524 196.0
161.067749 348.0
161.977036 140.0
162.298889 128.0
163.144348 132.0
163.30748 208.0
163.821274 92.0
164.085114 376.0
165.084686 76.0
166.566086 164.0
166.704834 200.0
166.900192 152.0
167.989624 124.0
168.041214 192.0
168.131531 148.0
169.095535 80.0
169.512482 224.0
169.535797 136.0
170.763794 140.0
171.1828 116.0
172.591873 216.0
173.0681 148.0
174.05925 172.0
174.077637 152.0
174.101273 104.0
174.455978 136.0
174.553268 156.0
174.711075 92.0
174.974243 64.0
175.003204 184.0
175.050217 15852.0
175.111176 80.0
175.15596 40.0
175.245529 60.0
175.279785 64.0
175.311401 76.0
175.440552 52.0
175.572388 56.0
175.614594 88.0
175.645569 156.0
175.717468 52.0
175.830933 48.0
175.86261 68.0
175.968201 60.0
176.052567 2732.0
176.31424 76.0
176.338028 52.0
176.713531 116.0
176.777039 96.0
176.935852 168.0
177.056717 152.0
177.089432 108.0
177.186371 200.0
177.240433 112.0
177.290787 64.0
177.327881 144.0
177.351746 116.0
177.471039 48.0
177.563843 68.0
178.062805 36.0
178.142487 116.0
178.591721 140.0
179.219986 132.0
179.617218 68.0
180.052277 204.0
180.541336 112.0
181.131836 180.0
181.175705 156.0
183.646057 172.0
183.867294 164.0
184.136993 156.0
185.918701 128.0
187.046646 76.0
187.092926 84.0
187.373428 96.0
187.62471 100.0
188.24353 88.0
188.40741 196.0
189.14003 364.0
190.061111 92.0
190.096786 192.0
190.13237 124.0
190.832932 92.0
191.050201 60.0
191.193283 172.0
191.895706 180.0
192.077713 184.0
193.066498 80.0
194.121597 148.0
194.437851 88.0
195.496689 48.0
196.898972 104.0
197.094513 132.0
198.255814 164.0
198.653961 148.0
200.380112 124.0
201.065979 276.0
201.133072 216.0
201.471924 184.0
202.062805 164.0
203.840607 148.0
203.86618 116.0
203.891754 80.0
203.974182 188.0
204.07663 2820.0
205.014923 176.0
205.076965 288.0
205.777496 100.0
205.840302 124.0
206.011673 200.0
206.080246 212.0
206.257431 72.0
207.078613 196.0
207.287735 56.0
207.431046 48.0
208.401062 148.0
209.127991 972.0
209.459763 80.0
210.122803 256.0
211.634415 172.0
211.770523 108.0
211.808167 96.0
212.124023 112.0
214.271637 108.0
214.618469 164.0
215.143631 196.0
215.599289 68.0
216.1138 160.0
216.178329 152.0
216.78157 152.0
217.060059 120.0
217.129654 648.0
217.194962 36.0
218.08783 140.0
218.137924 124.0
218.787674 188.0
219.082169 152.0
219.435837 88.0
220.090851 180.0
220.947968 128.0
223.821045 116.0
225.049515 144.0
229.460037 124.0
230.138885 176.0
231.112152 140.0
231.738907 144.0
231.775269 124.0
232.143951 1764.0
233.14563 860.0
233.472168 36.0
233.612091 44.0
234.163025 212.0
237.123566 152.0
239.908432 132.0
241.337891 192.0
241.430664 128.0
242.226105 116.0
242.455383 188.0
242.951492 256.0
243.10643 172.0
246.291641 100.0
247.2202 100.0
248.18187 68.0
252.328491 168.0
252.442322 116.0
255.130356 624.0
256.079315 36.0
256.107971 124.0
256.14621 180.0
256.238586 100.0
256.267242 56.0
256.732635 160.0
256.818756 196.0
257.434723 116.0
258.995453 156.0
259.021088 72.0
259.726288 64.0
259.989349 112.0
260.04071 68.0
260.094299 172.0
260.139496 8972.0
260.232605 252.0
260.423798 64.0
260.483826 84.0
260.80835 52.0
260.834076 36.0
260.920868 76.0
260.949799 40.0
261.143158 2140.0
261.293945 40.0
261.371155 28.0
261.470917 68.0
261.5224 60.0
261.8927 72.0
262.138 280.0
262.540497 84.0
263.505646 44.0
264.19101 84.0
265.233734 28.0
267.061768 188.0
267.107025 184.0
267.146362 44.0
268.123169 128.0
270.311157 32.0
273.675659 64.0
276.435211 84.0
278.102203 48.0
282.213074 152.0
283.548737 48.0
288.13855 120.0
289.149628 180.0
289.23761 92.0
290.555847 104.0
305.720337 72.0
338.26355 28.0
348.694824 88.0
353.539337 84.0
367.635895 56.0
371.964661 56.0
372.102875 120.0
374.533264 76.0
392.23642 80.0
393.119873 128.0
396.18811 96.0
400.426392 128.0
403.367035 96.0
404.174896 76.0
405.516479 48.0
412.766937 116.0
419.249847 136.0
436.486603 52.0
457.150543 52.0
509.202087 40.0
516.137512 44.0
518.396301 56.0
521.100647 92.0
574.029541 96.0
579.962524 108.0
641.660706 84.0
644.082947 76.0
655.956848 44.0
666.330078 60.0
667.363159 64.0
681.395569 156.0
686.814697 48.0
707.053589 112.0
856.37207 64.0
865.019653 84.0
871.000671 176.0
875.470581 176.0
877.515198 212.0
881.558472 292.0
885.593262 132.0
902.500061 192.0
913.466064 20.0
918.595337 100.0
949.991394 64.0
961.42334 244.0
967.567322 64.0
969.722961 124.0
986.185486 72.0
986.604309 112.0
995.1875 220.0
1008.966248 176.0
1010.585327 136.0
1013.814697 116.0
1025.164429 148.0
1037.910645 76.0
1059.074463 52.0
1063.580811 128.0
1064.074219 80.0
1066.432251 104.0
1096.862427 192.0
1102.769897 144.0
1110.65564 148.0
1113.031494 148.0
1124.534912 160.0
1140.179932 128.0
1145.266235 160.0
1152.734619 184.0
1158.119751 88.0
1162.221069 184.0
1175.537476 180.0
1178.822144 188.0
1179.437256 184.0
1179.505493 136.0
1192.315552 152.0
1196.366821 76.0
1197.640625 260.0
1200.859375 136.0
1201.901123 184.0
1204.296509 144.0
1204.510742 208.0
1212.023926 68.0
1219.602173 120.0
1230.085205 164.0
1233.179443 160.0
1234.193115 244.0
1235.228149 120.0
1235.920776 204.0
1244.015381 48.0
1251.249268 152.0
1253.00293 176.0
1257.304199 56.0
1257.381836 168.0
1257.861694 168.0
1263.628296 244.0
1271.983398 176.0
1272.324097 152.0
1278.700195 116.0
1279.753662 152.0
1282.303833 156.0
1291.657227 180.0
1292.716187 220.0
1293.15979 228.0
1293.374512 52.0
1295.336548 204.0
1297.070557 208.0
1301.511353 136.0
1304.651001 120.0
1305.779907 104.0
1305.859009 168.0
1308.29834 188.0
1316.633423 224.0
1320.970093 132.0
1324.227295 140.0
1325.610962 188.0
1326.342896 148.0
1326.458862 168.0
1327.256348 152.0
1328.112183 220.0
1329.047974 220.0
1333.019775 160.0
1340.449341 176.0
1341.826904 68.0
1342.19873 148.0
1353.268188 172.0
1357.232056 188.0
1357.312744 176.0
1358.266113 100.0
1358.589722 184.0
1358.67688 100.0
1362.274048 168.0
1365.022827 116.0
1365.655273 152.0
1366.023071 180.0
1369.674072 224.0
1370.484375 200.0
1370.653809 160.0
1374.628296 212.0
1375.27771 144.0
1380.463989 108.0
1380.841187 148.0
1382.661133 132.0
1388.981079 148.0
1389.262939 108.0
1392.856445 236.0
1394.453247 128.0
1394.713379 120.0
1395.040405 72.0
1395.568237 184.0
1397.330933 44.0
1398.060181 112.0
1402.081543 40.0
1409.118042 140.0
1412.856079 112.0
1413.050537 196.0
1413.604248 28.0
1415.685303 120.0
1416.381836 56.0
1417.108521 68.0
1424.445435 188.0
1431.99707 168.0
1432.29834 180.0
1433.338013 160.0
1433.54895 108.0
1433.850464 88.0
1434.438354 184.0
1437.870117 148.0
1438.172119 184.0
1439.161011 172.0
1441.094482 108.0
1442.447266 52.0
1442.870605 132.0
1443.293945 228.0
1447.591919 172.0
1450.061646 56.0
1450.97876 176.0
1453.322388 208.0
1454.293701 152.0
1454.59729 180.0
1454.809814 196.0
1455.326172 120.0
1459.702759 136.0
1463.286499 172.0
1463.97168 64.0
1465.563721 72.0
1466.059082 192.0
1469.574219 104.0
1469.902344 164.0
1471.551025 120.0
1471.904907 232.0
1472.061035 84.0
1476.112549 176.0
1477.290283 148.0
1477.41272 216.0
1479.922974 156.0
1485.61731 188.0
1486.138916 148.0
1486.706787 124.0
1486.814209 112.0
1486.921631 184.0
1488.541382 120.0
1489.569824 204.0
1490.261963 180.0
1491.299438 100.0
1491.776001 128.0
1494.282959 156.0
1496.807617 264.0
1497.446777 156.0
1498.879639 172.0
1502.26416 136.0
1503.112915 192.0
