>compound MLS001146887-01!(+/-)-Metoprolol (+)-tartrate salt
>formula C15H25NO3
>ionization [M+H]+
>parentmass 268.1907201120905
#inchi InChI=1S/C15H25NO3/c1-12(2)16-10-14(17)11-19-15-6-4-13(5-7-15)8-9-18-3/h4-7,12,14,16-17H,8-11H2,1-3H3
#inchikey IUBSYMUCCVWXPE
#origInchi InChI=1S/C15H25NO3.C4H6O6/c1-12(2)16-10-14(17)11-19-15-6-4-13(5-7-15)8-9-18-3;5-1(3(7)8)2(6)4(9)10/h4-7,12,14,16-17H,8-11H2,1-3H3;1-2,5-6H,(H,7,8)(H,9,10)
#Ion_Source LC-ESI
#Instrument qTof
#Compound_Source NIH Pharmacologically Active Library
#PI Dorrestein
#Data_Collector VP/LMS
#Scan -1
#Precursor_MZ 268.196
#ExactMass 267.183
#Charge 1
#CAS_Number N/A
#Pubmed_ID N/A
#Smiles COCCc1ccc(OCC(O)CNC(C)C)cc1.OC(C(O)C(=O)O)C(=O)O
#INCHI_AUX N/A
#Library_Class 1
#SpectrumID CCMSLIB00000086135
#IonMode Positive
#UpdateWorkflowName UPDATE-SINGLE-ANNOTATED-GOLD
#LibraryQualityString Gold
#TaskID d252d724072548979f1f6f1ced849daf
##Scan# 1321
#SpectrumFile p5-F04_GF4_01_18467.mzXML
#LibraryName Pharm_Active_Library.mgf
#MQScore -1
#Organism Pharm_Active_Library
#TIC_Query 0
#RT_Query -1
#MZErrorPPM -1
#SharedPeaks 0
#MassDiff 0
#LibMZ -1
#SpecMZ 268.196
#SpecCharge 0
#internalFilename spec-00000.mgf

>collision 10
45.048935 120.0
45.162556 140.0
45.278996 152.0
45.29641 248.0
45.498901 116.0
45.905243 164.0
46.091526 156.0
46.123959 160.0
46.237572 44.0
46.360813 140.0
46.385208 184.0
46.738316 156.0
46.851318 144.0
46.886745 40.0
47.032684 184.0
47.323868 36.0
47.392349 228.0
47.458141 144.0
47.488312 108.0
47.614578 132.0
47.642048 180.0
47.689125 200.0
47.716259 200.0
47.807041 132.0
48.05093 128.0
48.292671 64.0
48.5905 264.0
48.636436 196.0
48.826641 152.0
48.914295 176.0
49.046627 36.0
49.404106 200.0
49.694111 136.0
49.710949 60.0
49.962452 172.0
50.122959 124.0
50.358551 148.0
50.422131 200.0
50.499889 216.0
50.681091 144.0
50.757633 196.0
50.780323 176.0
50.939297 184.0
51.198158 160.0
51.289341 176.0
51.484806 152.0
51.672058 156.0
51.683502 148.0
51.710693 40.0
51.886009 256.0
52.033218 172.0
52.090664 200.0
52.122269 168.0
52.209957 196.0
52.263184 184.0
52.480675 192.0
52.720295 152.0
52.782452 76.0
52.985085 200.0
53.025658 172.0
53.230206 132.0
53.436604 188.0
53.454067 212.0
53.508049 136.0
53.606964 164.0
53.628826 140.0
53.817013 160.0
54.596581 128.0
54.706932 176.0
54.779091 180.0
54.810028 172.0
54.892574 148.0
54.910271 184.0
54.981087 232.0
55.106602 120.0
55.173107 140.0
55.184937 132.0
55.442497 72.0
55.518105 196.0
55.532936 60.0
55.725914 168.0
55.788334 208.0
56.144196 172.0
56.263561 116.0
56.889328 140.0
57.004978 84.0
57.515533 144.0
57.538177 80.0
57.705875 164.0
57.849598 128.0
57.873821 180.0
57.990467 108.0
58.076893 168.0
58.25449 168.0
58.27272 164.0
58.463238 204.0
58.764614 156.0
59.241486 124.0
59.287449 68.0
59.497589 124.0
59.508335 156.0
59.656914 180.0
60.046921 148.0
60.137951 144.0
60.292393 376.0
60.496563 124.0
60.604973 176.0
60.620468 256.0
60.773979 88.0
60.870216 164.0
60.89817 208.0
61.118919 152.0
61.129814 192.0
61.297989 172.0
61.544445 116.0
61.789825 180.0
62.062351 160.0
62.137634 188.0
62.228664 204.0
62.32452 140.0
62.390484 212.0
62.490623 196.0
62.7384 68.0
62.787281 232.0
62.959301 88.0
63.155277 164.0
63.207485 96.0
63.570362 196.0
63.681492 144.0
63.692612 136.0
63.756161 68.0
63.802258 184.0
63.861092 160.0
63.87859 168.0
64.193939 180.0
64.329559 176.0
64.440285 228.0
64.788216 168.0
65.037071 124.0
65.070786 164.0
65.21624 180.0
65.273232 116.0
65.298965 76.0
65.40033 148.0
65.514656 128.0
65.656502 220.0
65.746841 140.0
65.855011 172.0
65.947105 152.0
66.073235 184.0
66.089417 136.0
66.110451 208.0
66.189774 220.0
66.484802 136.0
66.626068 180.0
66.746338 112.0
66.798386 156.0
66.962776 88.0
67.107811 132.0
67.255424 148.0
67.416313 88.0
67.632202 152.0
68.051872 160.0
68.221977 280.0
68.255615 188.0
68.291794 288.0
68.357597 164.0
68.462959 200.0
68.573334 148.0
68.665665 112.0
68.810875 192.0
68.898407 152.0
68.990952 196.0
69.065361 216.0
69.462906 140.0
69.487793 196.0
69.680382 128.0
69.918159 192.0
69.968094 100.0
69.981415 212.0
70.059692 176.0
70.186356 212.0
70.376572 140.0
70.560356 152.0
70.623901 172.0
70.93367 144.0
71.207169 204.0
71.329826 132.0
71.432396 140.0
71.503067 96.0
71.543465 124.0
71.602402 136.0
71.856606 268.0
72.029121 116.0
72.086563 168.0
72.430008 172.0
72.446953 120.0
72.679222 152.0
72.799797 120.0
72.83371 196.0
72.879578 160.0
72.990067 48.0
73.081917 64.0
73.149986 100.0
73.238533 144.0
73.663261 156.0
73.699142 156.0
73.761749 196.0
74.078949 140.0
74.274361 196.0
74.286369 200.0
74.333977 80.0
74.506104 204.0
74.745094 120.0
74.810493 132.0
74.870758 228.0
74.89315 124.0
74.972404 228.0
75.015488 128.0
75.251839 188.0
75.343376 132.0
75.559479 168.0
75.571587 140.0
75.862541 160.0
75.897217 188.0
76.016907 168.0
76.463531 120.0
76.484413 136.0
76.524216 176.0
76.61676 220.0
76.850388 200.0
76.875435 180.0
77.038933 168.0
77.129807 132.0
77.199738 204.0
77.29245 140.0
77.490303 160.0
78.043175 132.0
78.17334 100.0
78.273674 164.0
78.481598 144.0
78.793991 136.0
78.919479 160.0
79.084 260.0
79.284134 152.0
79.484512 148.0
79.548409 228.0
79.713585 216.0
79.813126 160.0
79.951874 128.0
80.053345 168.0
80.140633 148.0
80.550957 104.0
80.679619 188.0
80.853119 120.0
81.02681 92.0
81.432205 244.0
81.572357 120.0
81.728821 144.0
81.757614 112.0
81.845818 220.0
82.054825 80.0
82.072853 260.0
82.089081 128.0
82.121544 92.0
82.482666 164.0
82.526054 196.0
82.754028 88.0
83.007698 200.0
83.045784 148.0
83.141937 136.0
83.330734 148.0
83.340454 212.0
83.383484 124.0
83.470741 96.0
83.485291 144.0
83.49984 140.0
83.679985 192.0
83.787437 124.0
83.834816 144.0
83.915016 116.0
84.631241 136.0
84.653214 220.0
84.981316 128.0
85.07859 208.0
85.096947 48.0
85.196121 124.0
85.352341 188.0
85.462708 104.0
85.877197 176.0
85.930695 172.0
86.235382 128.0
86.390594 204.0
86.459167 152.0
87.262352 216.0
87.360916 60.0
87.668137 140.0
87.916161 188.0
88.297272 372.0
88.342163 152.0
88.801079 120.0
89.167183 140.0
89.317116 172.0
89.62635 180.0
89.816757 108.0
89.999817 144.0
90.045135 176.0
90.077248 124.0
90.09803 148.0
90.113144 196.0
90.213303 204.0
90.357033 140.0
90.555794 176.0
90.749084 236.0
90.817352 56.0
90.860977 212.0
90.974846 124.0
91.054916 2252.0
91.078278 196.0
91.094482 124.0
91.159081 128.0
91.301659 60.0
91.410088 60.0
91.87117 132.0
92.059402 380.0
92.605186 64.0
92.720139 108.0
92.749649 160.0
93.069412 324.0
93.111511 36.0
93.136482 176.0
93.217171 148.0
93.369041 204.0
93.544128 76.0
93.582634 52.0
93.723236 176.0
94.068459 196.0
94.456863 192.0
94.632973 196.0
94.86351 200.0
94.879021 120.0
94.977921 180.0
95.04361 204.0
95.109863 184.0
95.172745 164.0
95.298233 136.0
95.385689 208.0
95.440125 192.0
95.543205 176.0
95.659966 204.0
95.714478 88.0
95.74369 108.0
96.053589 84.0
96.11602 212.0
96.420654 104.0
96.436295 72.0
96.492981 156.0
96.925537 168.0
97.088242 208.0
97.160812 136.0
97.182533 176.0
97.215752 160.0
97.272675 172.0
97.300156 192.0
97.351212 160.0
97.406204 144.0
97.522133 192.0
97.714844 152.0
98.097023 1184.0
98.227043 36.0
98.244797 188.0
98.533028 192.0
98.687187 100.0
98.859283 104.0
99.042427 200.0
99.100563 164.0
99.172195 116.0
99.257439 176.0
99.503471 172.0
99.531273 172.0
99.632561 180.0
99.676277 200.0
100.00441 112.0
100.110603 536.0
100.8461 180.0
101.042068 196.0
101.066078 44.0
101.379089 164.0
101.467796 232.0
101.825829 156.0
102.046288 912.0
102.062057 152.0
102.081055 200.0
102.094536 176.0
102.550133 176.0
102.636818 48.0
102.780937 196.0
102.802223 124.0
102.845619 136.0
102.917549 152.0
103.030388 160.0
103.054901 14488.0
103.115761 64.0
103.153656 28.0
103.212288 32.0
103.228462 188.0
103.323524 108.0
103.353874 72.0
103.380859 72.0
103.404465 96.0
103.516518 80.0
103.554291 40.0
103.750839 64.0
103.801529 120.0
103.917145 80.0
103.947578 56.0
104.024704 80.0
104.062408 1236.0
104.103889 44.0
104.471771 120.0
104.638657 184.0
104.652908 192.0
104.764923 176.0
104.811783 116.0
104.891266 168.0
105.03653 736.0
105.070694 10684.0
105.225822 36.0
105.313637 48.0
105.332016 196.0
105.366745 116.0
105.477097 92.0
105.53434 84.0
105.828972 32.0
105.927277 116.0
105.98259 212.0
106.039505 160.0
106.072945 372.0
106.366089 56.0
106.540642 204.0
106.707108 224.0
106.816101 68.0
106.902512 180.0
106.93618 112.0
107.049263 760.0
107.085876 424.0
107.277367 96.0
107.35984 216.0
107.630165 72.0
107.797485 64.0
107.828484 48.0
107.933907 92.0
107.950455 132.0
108.018707 164.0
108.055321 584.0
108.089043 168.0
108.548904 80.0
108.837326 116.0
109.0513 108.0
109.101189 112.0
109.221802 116.0
109.277313 140.0
109.642372 140.0
109.83419 208.0
109.953117 176.0
110.026169 136.0
110.092987 168.0
110.393913 156.0
110.425278 80.0
110.525696 116.0
110.659653 184.0
110.676399 188.0
110.77533 156.0
111.208878 76.0
111.414665 140.0
111.589096 156.0
111.780502 216.0
111.917328 224.0
111.969971 212.0
112.094261 180.0
112.161705 224.0
112.372589 108.0
112.554108 184.0
113.226578 148.0
113.309189 28.0
113.376991 28.0
113.54023 56.0
113.824593 120.0
113.945656 148.0
114.253929 168.0
114.311371 124.0
114.368835 100.0
114.537048 112.0
114.81839 104.0
114.835449 100.0
114.932129 200.0
114.947662 160.0
115.016815 168.0
115.053619 2764.0
115.108612 52.0
115.211136 48.0
115.394928 44.0
115.484749 160.0
115.780098 48.0
115.947197 124.0
116.06031 2036.0
116.106682 3396.0
116.232414 64.0
116.502937 76.0
116.517975 152.0
116.634018 56.0
116.801735 140.0
116.954506 248.0
116.992798 172.0
117.069267 1380.0
117.110497 176.0
117.620544 68.0
117.912132 84.0
118.040703 316.0
118.062958 248.0
118.071465 152.0
118.08033 140.0
118.563553 216.0
118.75 88.0
118.782539 80.0
118.990868 56.0
119.027779 252.0
119.05188 808.0
119.083916 1412.0
119.140717 56.0
119.203728 132.0
119.368935 148.0
119.46463 76.0
119.54731 220.0
119.610428 100.0
119.643082 84.0
119.778099 48.0
120.057182 2324.0
120.078468 172.0
120.120323 48.0
120.314545 64.0
120.345108 40.0
120.694702 44.0
120.729691 232.0
120.845627 180.0
120.878448 176.0
120.939728 164.0
120.974747 148.0
121.032509 188.0
121.065208 13156.0
121.176231 72.0
121.211288 40.0
121.281418 76.0
121.38884 36.0
121.439278 44.0
121.669685 56.0
121.698227 60.0
121.832199 56.0
121.900307 40.0
121.931076 56.0
122.068314 1196.0
122.423866 176.0
122.710312 64.0
122.747803 72.0
122.811752 80.0
122.913239 200.0
122.954201 156.0
123.014755 40.0
123.032417 100.0
123.074425 152.0
123.310738 48.0
123.42569 208.0
123.454437 132.0
123.593796 108.0
123.739876 76.0
123.781944 180.0
123.828453 76.0
123.850601 116.0
123.996834 60.0
124.116631 192.0
124.397629 264.0
125.120804 124.0
125.517395 164.0
125.742607 172.0
126.408669 204.0
126.645981 184.0
127.056915 528.0
127.815613 236.0
128.063324 1412.0
128.187164 216.0
128.977066 172.0
129.070099 1984.0
129.148911 148.0
129.574478 68.0
129.932693 152.0
130.074249 336.0
130.40274 168.0
130.586899 240.0
130.743881 200.0
130.823547 116.0
131.048935 624.0
131.085571 2632.0
131.240463 184.0
131.382324 180.0
131.513046 156.0
131.984833 68.0
132.025986 88.0
132.052734 488.0
132.088181 380.0
132.186127 56.0
132.378403 172.0
132.733597 152.0
132.772568 84.0
132.811569 148.0
132.889557 108.0
132.949219 168.0
132.97905 156.0
133.001099 172.0
133.027954 172.0
133.065247 18780.0
133.109909 148.0
133.137466 88.0
133.250015 196.0
133.277588 88.0
133.300568 72.0
133.321259 124.0
133.344238 36.0
133.410889 128.0
133.525864 52.0
133.576462 84.0
133.593414 140.0
133.848038 72.0
133.872208 76.0
134.034607 76.0
134.067093 1280.0
134.172897 40.0
134.276672 72.0
134.470474 40.0
134.578964 56.0
134.715225 160.0
134.733704 40.0
134.814575 184.0
134.879288 72.0
134.925522 124.0
135.038834 32.0
135.080231 1440.0
135.105133 164.0
135.594482 188.0
135.935379 100.0
136.039825 72.0
136.081284 204.0
136.197723 124.0
136.641739 48.0
136.942017 120.0
137.053848 148.0
137.338257 56.0
137.910294 92.0
138.017838 68.0
138.504623 200.0
138.521011 60.0
138.945328 212.0
139.826492 124.0
140.038391 220.0
140.134964 120.0
141.070099 1516.0
141.107361 52.0
142.072647 332.0
142.308578 44.0
143.042969 136.0
143.052551 124.0
143.112213 40.0
143.178894 76.0
143.536346 60.0
143.903793 140.0
144.057602 3280.0
144.09407 168.0
144.131454 76.0
144.453461 80.0
145.040115 96.0
145.060837 760.0
145.162384 40.0
145.978851 52.0
146.005295 224.0
146.063782 284.0
146.080948 344.0
146.152039 100.0
146.296448 36.0
146.508362 76.0
146.891647 64.0
147.009872 176.0
147.080765 1972.0
147.302017 196.0
147.381744 244.0
148.076935 5000.0
148.108505 164.0
148.126877 32.0
148.185852 128.0
148.218948 168.0
148.257721 64.0
148.466202 52.0
148.529266 196.0
149.059677 440.0
149.087814 924.0
149.155731 164.0
149.248123 84.0
149.303482 148.0
149.937027 44.0
150.056458 48.0
150.205215 80.0
150.400421 200.0
151.074036 320.0
151.094421 200.0
152.067245 108.0
152.084427 144.0
152.347168 208.0
152.524094 188.0
153.09137 176.0
153.550812 48.0
153.992599 100.0
154.096344 128.0
154.281708 224.0
155.058929 344.0
155.076279 200.0
155.133301 120.0
155.612106 56.0
155.887817 120.0
156.756287 128.0
156.865936 56.0
156.975647 124.0
157.065857 140.0
157.109024 196.0
158.065735 224.0
158.094193 188.0
158.154846 64.0
159.022064 164.0
159.080582 7060.0
159.178085 136.0
159.275665 96.0
159.315857 60.0
159.378662 36.0
159.43898 40.0
159.742416 64.0
159.778427 56.0
159.99234 44.0
160.080917 756.0
160.206406 80.0
160.521454 120.0
160.773712 60.0
161.059021 148.0
161.080841 316.0
161.085724 252.0
161.097931 196.0
162.027878 160.0
162.074203 180.0
162.114029 144.0
162.740555 124.0
163.086502 2796.0
163.110657 600.0
163.223328 116.0
164.08992 284.0
164.117065 188.0
164.378784 184.0
164.755112 112.0
165.0905 1976.0
165.325302 84.0
166.093597 300.0
167.121521 84.0
167.479355 136.0
167.592712 116.0
167.912354 148.0
168.09552 160.0
169.072342 124.0
169.357132 60.0
169.53331 84.0
170.080551 144.0
171.099564 172.0
172.006744 120.0
173.017853 184.0
173.091736 144.0
174.096497 152.0
175.105484 132.0
175.150742 152.0
176.058029 176.0
176.106918 800.0
176.414719 144.0
177.08931 944.0
177.540009 60.0
177.951294 120.0
178.089767 308.0
178.397629 104.0
179.106628 652.0
179.699921 208.0
180.41835 168.0
184.034637 52.0
189.074509 248.0
189.833359 64.0
189.901917 104.0
190.119888 176.0
190.717377 224.0
191.105118 3736.0
191.186371 44.0
191.796356 112.0
192.108902 332.0
193.009293 68.0
193.107864 196.0
194.032745 180.0
194.118042 720.0
195.240601 228.0
200.154602 40.0
201.135696 128.0
202.110703 320.0
204.42334 132.0
207.132782 128.0
208.133682 208.0
212.144012 172.0
213.110443 156.0
218.159866 448.0
219.017014 180.0
219.131897 140.0
224.503036 88.0
225.562943 92.0
226.143478 456.0
227.131989 156.0
228.784729 116.0
230.927139 148.0
230.948318 72.0
233.155518 172.0
250.176651 160.0
250.327377 104.0
250.885056 40.0
253.274017 52.0
258.063477 108.0
261.573151 120.0
263.873322 124.0
267.148804 148.0
268.135406 120.0
268.188171 1904.0
268.490753 92.0
268.582092 36.0
269.193939 696.0
269.277283 56.0
270.199097 160.0
271.076599 52.0
271.117279 48.0
271.732361 88.0
276.199432 48.0
281.867889 128.0
286.306 84.0
300.573242 40.0
317.552185 116.0
320.69162 108.0
343.262482 56.0
356.868774 136.0
378.548157 76.0
446.067017 92.0
473.184937 100.0
524.096436 68.0
533.588989 124.0
538.196411 104.0
538.302612 52.0
579.068542 52.0
599.168701 100.0
615.457275 52.0
629.639832 72.0
676.610657 132.0
688.653931 136.0
763.600952 136.0
767.488831 56.0
777.612244 148.0
783.857483 140.0
785.435242 204.0
802.337036 200.0
808.086365 120.0
811.036743 60.0
820.912109 184.0
825.154541 212.0
835.914856 112.0
838.898254 84.0
866.831787 48.0
875.249268 228.0
881.95697 168.0
883.861206 124.0
885.424011 164.0
885.483276 236.0
897.510986 208.0
897.642151 192.0
901.498413 140.0
905.590576 228.0
909.47583 60.0
909.613892 232.0
917.235168 216.0
919.65387 44.0
922.595642 144.0
923.895874 184.0
926.317261 164.0
931.582703 180.0
932.311768 152.0
937.41748 132.0
939.905334 168.0
956.015442 128.0
961.815002 196.0
962.920227 104.0
972.070068 156.0
973.178406 212.0
978.19812 112.0
982.90979 256.0
985.763489 160.0
991.827942 172.0
995.510742 176.0
997.672119 168.0
1003.955933 136.0
1004.473083 132.0
1007.162048 136.0
1008.04657 148.0
1009.778748 156.0
1015.187134 88.0
1015.795959 40.0
1015.922852 188.0
1016.068787 128.0
1017.509399 136.0
1019.942444 116.0
1020.934265 200.0
1031.128174 180.0
1035.568359 192.0
1035.728516 184.0
1039.363525 64.0
1039.665039 104.0
1040.294067 140.0
1041.963867 124.0
1042.285034 188.0
1043.364868 252.0
1046.684814 76.0
1052.713989 144.0
1053.153076 124.0
1053.831421 120.0
1054.400024 152.0
1057.504517 152.0
1060.717163 256.0
1063.220703 168.0
1064.226929 164.0
1065.259521 204.0
1066.933105 72.0
1067.735962 80.0
1068.015625 172.0
1068.412354 164.0
1072.873291 172.0
1073.688354 200.0
1073.890625 168.0
1076.324707 132.0
1076.481445 124.0
1083.499634 244.0
1085.931519 172.0
1086.882812 252.0
1087.92627 188.0
1088.142944 212.0
1088.399048 240.0
1097.921021 212.0
1100.593506 180.0
1103.718872 180.0
1105.028442 176.0
1105.200439 140.0
1107.404907 32.0
1108.226318 212.0
1109.054688 200.0
1111.714233 140.0
1114.768921 124.0
1115.978638 80.0
1116.144897 44.0
1116.873291 160.0
1117.082642 188.0
1118.153809 184.0
1118.373535 188.0
1118.786255 176.0
1120.984131 184.0
1123.230957 160.0
1127.430542 144.0
1130.466553 196.0
1130.633911 132.0
1131.497314 232.0
1132.890259 164.0
1133.057739 148.0
1134.45166 152.0
1142.147095 148.0
1142.564087 180.0
1145.580078 180.0
1145.815796 180.0
1147.258057 216.0
1151.022827 132.0
1152.81958 168.0
1153.468506 180.0
1155.822021 192.0
1156.871094 60.0
1158.475952 88.0
1159.228027 124.0
1161.505981 164.0
1163.338135 232.0
1163.921997 132.0
1165.09021 212.0
1165.640625 136.0
1165.885254 124.0
1168.455444 168.0
1169.000488 204.0
1170.579102 68.0
1171.770996 168.0
1175.807861 164.0
1178.546143 112.0
1179.325195 188.0
1185.237915 160.0
1185.984863 88.0
1188.838013 256.0
1192.436646 148.0
1192.96582 188.0
1193.343994 172.0
1194.031616 136.0
1194.430542 200.0
1195.022217 204.0
1199.153931 148.0
1199.856934 196.0
1201.588013 184.0
1201.974365 76.0
1203.044189 156.0
1206.30481 216.0
1206.615845 248.0
1206.719604 208.0
1207.438721 152.0
1211.619507 188.0
1215.037354 52.0
1216.925171 160.0
1217.466675 244.0
1219.398071 128.0
1221.961304 196.0
1222.158813 132.0
1222.569336 260.0
1226.371948 52.0
1228.65918 120.0
1229.566284 80.0
1229.880371 176.0
1231.325562 152.0
1231.570068 216.0
1232.443359 180.0
1234.75708 148.0
1235.750488 152.0
1235.862427 164.0
1237.388184 132.0
1238.277466 152.0
1239.167114 208.0
1239.85376 220.0
1240.582764 80.0
1240.786011 208.0
1241.255859 196.0
1241.655518 148.0
1242.10437 208.0
1243.669189 180.0
1247.666138 156.0
1248.116089 192.0
1248.734863 164.0
1248.854492 188.0
1250.592407 152.0
1251.96521 140.0
1252.535645 168.0
1254.572266 180.0
1256.786743 212.0
1258.925537 140.0
1259.603638 132.0
1259.766113 176.0
1260.091064 168.0
1263.385498 60.0
1270.434204 96.0
1270.647095 64.0
1271.271484 108.0
1271.37085 172.0
1271.959961 148.0
1273.742188 136.0
1274.317627 140.0
1276.549561 144.0
1277.538208 144.0
1279.673218 140.0
1280.78418 224.0
1283.535034 244.0
1285.61084 188.0
1286.417358 64.0
1289.524536 128.0
1289.624512 72.0
1289.953369 216.0
1292.120239 52.0
1293.093384 156.0
1295.893311 128.0
1296.473633 148.0
1297.032715 212.0
1297.692261 132.0
1298.258667 176.0
1301.523682 180.0
1304.002075 192.0
1304.850342 156.0
1305.267334 52.0
1306.806519 184.0
1307.871582 164.0
1308.28186 212.0
1308.490723 216.0
1311.235107 184.0
1311.458618 140.0
1312.496704 196.0
1314.660645 92.0
1315.736206 212.0
1317.144287 200.0
1317.440552 116.0
1317.686157 216.0
1319.463989 128.0
1320.555908 228.0
1321.163574 188.0
1321.995605 152.0
1322.393677 152.0
1322.603516 200.0
1324.073242 116.0
1324.775879 180.0
1326.283081 148.0
1327.269043 188.0
1328.030518 180.0
1328.095825 180.0
1328.959106 176.0
1329.358154 128.0
1329.612183 32.0
1329.815308 52.0
1330.504883 124.0
1330.926025 152.0
1331.623169 248.0
1332.93811 148.0
1333.679321 212.0
1334.682617 160.0
1335.686157 212.0
1336.195435 212.0
1337.716431 40.0
1338.415283 180.0
1338.626465 168.0
1340.321045 116.0
1340.58606 212.0
1341.803223 260.0
1342.634521 136.0
1342.780396 148.0
1344.275879 256.0
1344.66272 152.0
1346.699707 228.0
1347.94165 200.0
1348.453125 164.0
1348.679077 232.0
1349.45459 184.0
1350.858765 180.0
1351.466064 180.0
1356.262695 136.0
1360.64209 188.0
1361.075317 96.0
1361.192749 84.0
1361.479126 72.0
1363.32312 172.0
1366.043457 148.0
1367.448853 152.0
1368.089233 128.0
1369.429443 164.0
1369.547241 196.0
1370.541748 156.0
1370.674438 52.0
1370.725952 236.0
1371.079712 208.0
1371.271362 156.0
1371.536621 164.0
1372.377075 100.0
1373.261963 116.0
1375.379639 196.0
1375.778198 44.0
1377.380615 212.0
1377.757324 40.0
1378.540527 144.0
1379.959717 132.0
1380.262939 152.0
1382.408081 100.0
1385.251099 264.0
1386.347656 232.0
1386.658936 40.0
1386.999878 176.0
1387.637451 136.0
1387.896973 200.0
1388.512451 120.0
1389.34314 204.0
1389.424805 220.0
1389.536011 144.0
1390.092529 248.0
1391.421143 184.0
1392.431152 172.0
1393.233276 208.0
1393.946533 224.0
1394.228882 288.0
1394.451782 216.0
1395.648682 148.0
1395.723022 72.0
1397.560181 148.0
1398.758423 84.0
1398.974243 128.0
1399.860229 192.0
1400.54541 172.0
1403.429443 164.0
1404.510864 64.0
1405.144897 152.0
1405.450806 196.0
1406.756836 160.0
1407.21228 124.0
1408.773071 148.0
1411.800171 124.0
1412.084351 184.0
1413.213989 292.0
1414.561035 88.0
1418.508667 208.0
1420.645874 100.0
1421.388672 172.0
1422.409302 216.0
1423.422852 164.0
1423.774536 232.0
1425.240601 176.0
1425.901855 220.0
1426.435547 124.0
1427.63855 180.0
1428.909668 184.0
1429.872925 184.0
1430.008301 216.0
1430.738525 104.0
1431.039673 232.0
1434.48999 184.0
1435.010254 144.0
1437.280518 168.0
1439.212769 148.0
1440.31543 168.0
1440.844116 160.0
1442.567139 48.0
1442.68811 96.0
1442.758911 212.0
1443.799683 192.0
1444.631592 204.0
1445.622803 200.0
1446.856567 184.0
1447.477417 128.0
1447.984741 184.0
1450.174316 188.0
1451.97876 240.0
1452.084961 180.0
1455.241699 100.0
1455.492188 140.0
1456.327637 40.0
1457.216431 148.0
1458.257446 192.0
1458.865601 56.0
1462.432983 132.0
1462.486328 168.0
1463.483521 116.0
1463.643433 164.0
1464.443115 100.0
1465.616211 84.0
1465.997192 124.0
1466.180176 184.0
1468.322388 140.0
1468.894409 172.0
1469.115723 168.0
1469.359741 160.0
1472.718628 36.0
1473.650513 204.0
1473.780396 180.0
1473.833862 188.0
1474.836548 224.0
1475.010864 172.0
1475.438965 240.0
1476.975952 188.0
1477.817505 184.0
1478.177124 184.0
1480.236206 216.0
1480.527222 168.0
1481.35437 144.0
1482.273804 220.0
1482.503662 160.0
1482.741211 156.0
1484.504517 148.0
1487.703979 152.0
1487.888184 44.0
1488.14917 168.0
1488.225952 124.0
1488.47937 196.0
1488.679077 192.0
1489.162842 44.0
1489.738892 128.0
1490.468872 128.0
1491.11438 340.0
1491.636963 156.0
1492.721069 220.0
1493.090088 44.0
1493.720825 168.0
1494.936401 224.0
1495.259644 124.0
1495.444336 176.0
1495.575195 152.0
1496.991821 180.0
1497.692627 140.0
1499.141113 168.0
1499.942627 156.0
1500.80603 160.0
1501.901123 152.0
1503.613892 196.0
