>compound MLS001148265-01!
>formula C17H20N2O5S
>ionization [M+H]+
>parentmass 365.11656919209054
#inchi InChI=1S/C17H20N2O5S/c1-2-3-9-19-14-10-12(17(20)21)11-15(25(18,22)23)16(14)24-13-7-5-4-6-8-13/h4-8,10-11,19H,2-3,9H2,1H3,(H,20,21)(H2,18,22,23)
#inchikey MAEIEVLCKWDQJH
#Ion_Source LC-ESI
#Instrument qTof
#Compound_Source NIH Pharmacologically Active Library
#PI Dorrestein
#Data_Collector VP/LMS
#Scan -1
#Precursor_MZ 365.123
#ExactMass 364.109
#Charge 1
#CAS_Number N/A
#Pubmed_ID N/A
#Smiles CCCCNc1cc(cc(c1Oc2ccccc2)S(=O)(=O)N)C(=O)O
#INCHI_AUX N/A
#Library_Class 1
#SpectrumID CCMSLIB00000085571
#IonMode Positive
#UpdateWorkflowName UPDATE-SINGLE-ANNOTATED-GOLD
#LibraryQualityString Gold
#TaskID d252d724072548979f1f6f1ced849daf
##Scan# 2059
#SpectrumFile p4-C09_GC9_01_18357.mzXML
#LibraryName Pharm_Active_Library.mgf
#MQScore -1
#Organism Pharm_Active_Library
#TIC_Query 0
#RT_Query -1
#MZErrorPPM -1
#SharedPeaks 0
#MassDiff 0
#LibMZ -1
#SpecMZ 365.123
#SpecCharge 0
#internalFilename spec-00000.mgf

>collision 10
44.901546 124.0
44.965588 196.0
45.000294 152.0
45.02433 188.0
45.040356 128.0
45.132568 100.0
45.161991 160.0
45.339661 136.0
45.557423 156.0
45.832462 164.0
45.915462 220.0
46.050423 124.0
46.126091 116.0
46.138256 60.0
46.199112 184.0
46.228878 176.0
46.257301 188.0
46.356171 188.0
46.770397 116.0
47.034832 116.0
47.082619 144.0
47.502815 188.0
47.519276 56.0
47.624977 116.0
47.663445 112.0
47.916611 92.0
48.120728 144.0
48.355724 216.0
48.417595 180.0
48.44157 68.0
48.553841 100.0
48.641251 240.0
48.678738 168.0
48.807964 232.0
48.831608 160.0
48.85247 168.0
48.903957 184.0
48.929012 180.0
48.955467 148.0
49.234379 176.0
49.360146 176.0
49.491581 180.0
49.51548 112.0
49.596745 60.0
49.791897 172.0
49.881691 128.0
49.90559 228.0
49.947781 120.0
49.987171 120.0
50.177319 156.0
50.232319 168.0
50.698902 80.0
50.771202 272.0
50.97562 132.0
50.986992 116.0
51.254021 148.0
51.350033 120.0
51.419941 80.0
51.501324 128.0
51.53561 208.0
51.640751 156.0
51.914852 140.0
52.062748 188.0
52.085728 152.0
52.131626 148.0
52.212208 144.0
52.320126 212.0
52.46563 136.0
52.618553 148.0
52.632992 156.0
52.648876 52.0
52.703766 136.0
52.738449 156.0
52.763023 140.0
52.864273 116.0
52.883087 176.0
52.89756 168.0
52.924511 256.0
52.990246 36.0
53.181664 220.0
53.26152 184.0
53.431602 232.0
53.762848 204.0
53.847034 112.0
53.857258 232.0
53.892876 232.0
53.947857 152.0
54.083893 172.0
54.121956 140.0
54.138065 204.0
54.164429 44.0
54.183472 208.0
54.308071 120.0
54.365623 192.0
54.525364 192.0
54.567993 152.0
54.582695 148.0
54.641529 276.0
54.70628 128.0
54.789703 136.0
54.865383 164.0
55.027668 156.0
55.275986 128.0
55.293941 148.0
55.310024 108.0
55.352959 144.0
55.471481 180.0
55.645054 188.0
55.698166 68.0
55.716339 180.0
55.744572 136.0
55.763889 40.0
55.790646 48.0
55.847092 200.0
55.873928 164.0
56.139053 128.0
56.542412 84.0
56.780621 144.0
56.942711 132.0
57.080967 216.0
57.249504 156.0
57.321812 168.0
57.371552 132.0
57.475616 280.0
57.525421 80.0
57.554104 88.0
57.584309 148.0
57.679497 192.0
57.76115 204.0
57.947353 68.0
58.001911 180.0
58.048908 92.0
58.341942 56.0
58.419498 184.0
58.460579 152.0
58.526035 124.0
58.713467 136.0
58.788219 156.0
58.856907 184.0
58.921055 96.0
58.939392 208.0
59.135136 164.0
59.236195 128.0
59.380272 112.0
59.458515 124.0
59.484608 148.0
59.570602 96.0
59.658195 176.0
59.704323 128.0
59.732006 144.0
59.785858 128.0
59.962963 64.0
59.981457 152.0
60.019005 124.0
60.127983 140.0
60.215984 148.0
60.260784 100.0
60.339603 68.0
60.378262 72.0
60.512882 220.0
60.650757 192.0
60.813618 172.0
60.94717 180.0
61.057537 72.0
61.068424 100.0
61.144661 116.0
61.178905 172.0
61.26767 80.0
61.353382 156.0
61.52499 124.0
61.56871 36.0
61.614006 120.0
61.984821 236.0
62.055355 36.0
62.072601 100.0
62.312748 164.0
62.583271 192.0
62.781815 196.0
62.803894 76.0
62.881207 108.0
62.985306 176.0
63.009109 108.0
63.077061 96.0
63.146633 48.0
63.192505 148.0
63.206745 108.0
63.426884 104.0
63.620411 200.0
63.888981 124.0
64.032234 148.0
64.075249 192.0
64.099144 124.0
64.202759 124.0
64.317635 140.0
64.462967 216.0
64.535667 208.0
64.635666 148.0
64.774956 192.0
64.789368 176.0
64.975334 84.0
65.158356 184.0
65.294991 80.0
65.385078 164.0
65.483292 136.0
65.497787 188.0
65.51712 196.0
65.622856 168.0
65.734779 176.0
65.750916 124.0
66.11454 128.0
66.178139 204.0
66.192245 200.0
66.292671 168.0
66.372101 160.0
66.464561 184.0
66.830147 176.0
66.927803 168.0
67.005981 216.0
67.074425 204.0
67.090729 112.0
67.141273 152.0
67.204887 188.0
67.31752 188.0
67.500534 120.0
67.534882 172.0
67.62487 172.0
67.670708 160.0
67.719048 136.0
67.80011 96.0
67.816498 172.0
67.939484 68.0
68.062576 196.0
68.203857 128.0
68.53299 128.0
68.546173 92.0
68.757256 108.0
68.793571 112.0
68.859619 188.0
68.907516 180.0
68.955437 212.0
69.140671 116.0
69.269814 192.0
69.525146 236.0
69.574944 200.0
69.822525 128.0
69.877419 196.0
70.058884 208.0
70.130531 36.0
70.145531 116.0
70.240578 184.0
70.262268 196.0
70.417503 120.0
70.486 152.0
70.643158 160.0
70.818909 72.0
70.857437 116.0
70.961349 128.0
71.083794 52.0
71.108971 200.0
71.300423 180.0
71.330681 120.0
71.342445 76.0
71.519073 64.0
71.60157 164.0
71.635254 140.0
71.663895 260.0
71.800438 236.0
71.871239 156.0
72.226051 140.0
72.254814 212.0
72.275116 368.0
72.288651 228.0
72.311043 224.0
72.326057 120.0
72.374977 188.0
72.502029 168.0
72.615616 232.0
72.639359 224.0
72.697044 72.0
72.795502 112.0
72.856651 156.0
72.899124 140.0
72.919518 168.0
73.040237 76.0
73.176376 168.0
73.244499 148.0
73.299011 236.0
73.372307 184.0
73.534355 200.0
73.626541 160.0
73.840172 164.0
73.852142 128.0
74.09214 180.0
74.211761 140.0
74.465736 196.0
74.510399 176.0
74.677139 128.0
74.701218 36.0
74.735626 128.0
74.780365 140.0
74.811348 208.0
74.833733 116.0
75.173294 136.0
75.280327 60.0
75.347908 220.0
75.383972 104.0
75.522278 64.0
75.572441 212.0
75.653786 188.0
75.776749 192.0
75.950096 104.0
75.986526 160.0
76.139282 160.0
76.154915 36.0
76.240044 120.0
76.469604 208.0
76.539238 240.0
76.708237 116.0
76.74659 200.0
76.811111 148.0
76.941994 136.0
77.144646 160.0
77.193596 168.0
77.233673 144.0
77.300301 240.0
77.365059 164.0
77.517441 220.0
77.634888 176.0
77.85952 216.0
78.1091 116.0
78.191071 244.0
78.232277 108.0
78.253403 64.0
78.311516 204.0
78.39608 48.0
78.593575 124.0
78.632393 140.0
78.697708 108.0
78.710068 148.0
78.899307 224.0
78.980461 228.0
79.700218 140.0
79.762421 128.0
79.934937 156.0
80.050636 184.0
80.129013 180.0
80.219894 208.0
80.269821 144.0
80.301918 120.0
80.451805 144.0
80.505371 132.0
80.553589 140.0
80.578606 180.0
80.662537 128.0
80.709076 156.0
80.873657 204.0
80.964966 140.0
81.233818 164.0
81.334305 108.0
81.486954 132.0
81.699089 124.0
81.911507 96.0
82.088127 132.0
82.125999 132.0
82.225235 128.0
82.252304 160.0
82.306465 80.0
82.331749 140.0
82.360649 164.0
82.450981 200.0
82.653519 120.0
82.707809 148.0
82.724098 120.0
82.811012 200.0
82.92878 188.0
82.977722 200.0
83.186348 280.0
83.264427 72.0
83.424324 204.0
83.943214 132.0
84.023468 124.0
84.094635 140.0
84.257156 68.0
84.326591 272.0
84.386917 124.0
84.491158 204.0
84.568016 180.0
84.626595 148.0
84.687027 124.0
84.807953 176.0
84.965652 196.0
85.01152 176.0
85.145538 168.0
85.465393 128.0
85.667908 228.0
85.830093 172.0
85.898331 216.0
86.126862 104.0
86.204811 140.0
86.249168 236.0
86.300926 112.0
86.480179 152.0
86.630356 224.0
86.758705 168.0
86.780472 124.0
86.938141 172.0
86.956696 160.0
87.081093 56.0
87.894608 196.0
88.10746 176.0
88.22332 200.0
88.303726 120.0
88.339363 156.0
88.448387 164.0
88.700508 232.0
88.78418 204.0
88.938889 96.0
88.985817 188.0
89.102257 188.0
89.262024 128.0
89.356064 96.0
89.512291 212.0
89.576324 148.0
89.747818 148.0
89.857216 200.0
89.912979 180.0
90.208473 72.0
90.380577 208.0
90.528221 140.0
90.569885 160.0
90.585045 160.0
90.670303 120.0
90.736649 124.0
90.865608 28.0
90.903557 168.0
90.93203 172.0
91.078224 120.0
91.097221 120.0
91.173218 160.0
91.273972 204.0
91.437569 136.0
91.532753 84.0
91.645134 204.0
91.723267 144.0
91.761391 76.0
91.938789 116.0
92.179161 160.0
92.31321 172.0
92.414589 156.0
92.577293 196.0
92.713303 84.0
92.816818 204.0
93.166122 192.0
93.193024 180.0
93.543037 128.0
93.695168 196.0
93.717323 136.0
93.860924 216.0
93.87442 200.0
93.907211 168.0
94.055779 180.0
94.198669 188.0
94.332001 72.0
94.542824 176.0
94.680275 220.0
94.843018 84.0
94.899239 152.0
95.097099 108.0
95.21553 140.0
95.231071 100.0
95.339867 180.0
95.421509 196.0
95.460396 48.0
95.494186 192.0
95.518738 144.0
95.561539 164.0
95.645218 168.0
95.688049 116.0
95.740616 128.0
95.762039 156.0
95.828278 152.0
96.043762 200.0
96.081726 156.0
96.34137 156.0
96.444931 200.0
96.640495 176.0
96.989075 96.0
97.018478 44.0
97.142021 112.0
97.304909 152.0
97.41095 128.0
97.613388 200.0
97.72747 176.0
97.756981 192.0
97.816025 220.0
97.859337 184.0
98.10363 176.0
98.148979 68.0
98.214058 144.0
98.346252 60.0
98.492363 84.0
98.56546 96.0
98.601028 184.0
98.684052 72.0
98.73349 144.0
98.929375 208.0
99.159142 192.0
99.220085 220.0
99.349495 76.0
99.69696 124.0
99.752609 156.0
99.842087 128.0
99.905731 44.0
99.95945 168.0
100.038315 240.0
100.170494 180.0
100.535355 220.0
100.59523 136.0
100.882889 168.0
100.910881 180.0
100.978867 156.0
101.269073 216.0
101.337181 312.0
101.413338 120.0
101.658005 104.0
101.680084 136.0
101.732269 108.0
101.870827 144.0
102.178406 144.0
102.349487 156.0
102.448174 176.0
102.627541 96.0
102.813126 208.0
102.92617 188.0
103.023109 40.0
103.055161 260.0
103.122124 176.0
103.209045 160.0
103.324333 136.0
103.587502 168.0
103.76989 212.0
103.814499 140.0
103.855064 192.0
103.924034 144.0
104.029572 180.0
104.061234 232.0
104.112816 140.0
104.200157 48.0
104.314171 156.0
104.487923 140.0
104.507164 120.0
104.757576 196.0
104.788132 240.0
104.818695 120.0
104.839073 140.0
104.928757 96.0
105.035889 180.0
105.06192 176.0
105.157219 184.0
105.291969 156.0
105.332817 156.0
105.365501 164.0
105.381844 100.0
105.43293 144.0
105.455414 76.0
105.610802 236.0
105.735603 196.0
105.907585 216.0
105.962898 132.0
106.046913 196.0
106.073555 160.0
106.135063 308.0
106.327888 188.0
106.61129 100.0
106.650345 124.0
106.878616 76.0
106.96917 156.0
107.020638 140.0
107.051521 152.0
107.067993 40.0
107.197777 128.0
107.255486 208.0
107.27816 80.0
107.31321 92.0
107.346199 216.0
107.364761 224.0
107.432823 108.0
107.519485 136.0
107.591728 248.0
107.701172 172.0
107.868546 156.0
107.992607 108.0
108.042549 548.0
108.075348 128.0
108.209885 168.0
108.84227 156.0
108.952347 44.0
108.983513 160.0
109.02507 168.0
109.048447 208.0
109.180984 108.0
109.389046 108.0
109.414032 228.0
109.430687 108.0
109.597313 180.0
109.647324 180.0
109.707771 236.0
109.8162 176.0
109.943459 116.0
109.983116 212.0
110.194031 164.0
110.277618 176.0
110.457794 188.0
110.763046 116.0
111.285225 180.0
111.430145 100.0
111.615105 168.0
111.987595 224.0
112.010765 64.0
112.18988 120.0
112.637245 120.0
112.734428 176.0
112.998436 172.0
113.305717 208.0
113.509193 160.0
113.572815 108.0
113.615242 152.0
113.700111 328.0
113.806435 140.0
113.869957 184.0
113.968712 212.0
114.23555 176.0
114.488831 168.0
114.745308 196.0
114.77224 188.0
114.874611 192.0
114.966354 124.0
115.05378 852.0
115.203354 136.0
115.425293 280.0
115.447014 156.0
115.498337 140.0
115.530426 48.0
115.637413 204.0
115.722885 164.0
115.890099 152.0
116.053726 292.0
116.209564 104.0
116.256775 136.0
116.481483 236.0
116.546158 120.0
116.926384 196.0
116.95311 176.0
116.994003 176.0
117.076843 348.0
117.35379 144.0
117.763802 184.0
117.811325 148.0
117.906395 172.0
117.93882 164.0
118.06395 164.0
118.111748 188.0
118.146408 176.0
118.261093 180.0
118.568054 164.0
118.848366 72.0
119.084991 44.0
119.213165 128.0
119.267502 216.0
119.565468 184.0
119.696083 184.0
119.717857 156.0
119.826767 76.0
119.927002 120.0
120.171242 132.0
120.544617 160.0
120.574776 128.0
120.65609 152.0
120.682327 172.0
120.8573 144.0
120.977676 148.0
121.12001 140.0
121.238319 148.0
121.274689 252.0
121.352303 184.0
121.415894 136.0
121.450981 76.0
121.512405 148.0
121.536537 144.0
121.709938 212.0
121.738487 196.0
121.797783 144.0
121.975769 160.0
122.01754 184.0
122.054916 168.0
122.081299 204.0
122.158279 104.0
122.244087 156.0
122.295166 192.0
122.387161 108.0
122.473053 116.0
122.631691 148.0
122.728683 164.0
122.916168 240.0
123.039772 60.0
123.086136 196.0
123.119263 168.0
123.136925 128.0
123.291573 164.0
123.488342 132.0
123.503822 156.0
123.528152 104.0
123.571999 132.0
123.634354 188.0
123.776031 108.0
124.04126 412.0
124.248123 232.0
124.332436 164.0
124.454529 184.0
124.483391 76.0
124.685547 96.0
124.992432 176.0
125.045837 200.0
125.068092 164.0
125.132652 188.0
125.63855 176.0
125.67202 140.0
125.692101 208.0
125.725571 152.0
125.814514 196.0
126.033508 164.0
126.118645 140.0
126.183472 148.0
126.384766 184.0
126.575027 176.0
126.711655 152.0
126.763191 184.0
126.88871 120.0
126.933548 324.0
126.971672 204.0
126.989616 104.0
127.054916 576.0
127.143684 172.0
127.456558 148.0
127.51049 140.0
127.597237 196.0
127.63295 92.0
127.710587 172.0
128.018921 196.0
128.062439 2760.0
128.10675 120.0
128.250961 184.0
128.305069 172.0
128.4133 184.0
128.557693 172.0
128.675064 140.0
128.872116 208.0
128.986801 100.0
129.070038 3060.0
129.160919 40.0
129.197113 52.0
129.262726 112.0
129.278564 164.0
129.495895 52.0
129.611435 52.0
129.697556 224.0
129.773071 152.0
129.80864 36.0
129.876678 216.0
129.924316 132.0
130.024155 244.0
130.069153 824.0
130.094513 112.0
130.171707 96.0
130.237564 160.0
130.387527 200.0
130.530609 136.0
130.801468 76.0
130.890259 88.0
130.965408 140.0
131.050842 432.0
131.070358 312.0
131.266235 68.0
131.54686 116.0
131.59938 224.0
131.850647 76.0
131.987808 112.0
132.056625 124.0
132.257751 208.0
132.285217 136.0
132.321854 128.0
132.337875 152.0
132.420319 176.0
132.488113 220.0
132.585266 156.0
132.652817 108.0
132.894836 144.0
133.064667 268.0
133.099106 128.0
133.280563 120.0
133.326523 160.0
133.547241 156.0
133.632355 104.0
133.851013 84.0
133.897064 184.0
134.016861 172.0
134.510376 132.0
134.660461 136.0
134.702042 180.0
134.930817 116.0
135.060318 204.0
135.198517 224.0
135.488556 144.0
135.518677 152.0
135.627594 120.0
135.699463 240.0
135.79686 244.0
135.813095 192.0
135.854843 172.0
135.898926 112.0
135.996384 160.0
136.037048 180.0
136.114792 208.0
136.161224 104.0
136.226273 140.0
136.270401 160.0
136.600525 168.0
136.816483 224.0
136.856583 148.0
136.940353 132.0
136.984604 220.0
137.010239 140.0
137.048538 200.0
137.382874 216.0
137.523239 136.0
137.546585 140.0
137.700684 164.0
138.002121 148.0
138.123734 160.0
138.229019 148.0
138.282837 208.0
138.46077 192.0
138.624756 160.0
138.673965 188.0
138.816971 172.0
139.054642 1776.0
139.258179 80.0
139.338043 164.0
139.582489 152.0
139.669495 160.0
139.810013 188.0
139.923645 120.0
139.954254 148.0
140.054672 916.0
140.269943 72.0
140.328873 96.0
140.635544 216.0
140.668594 132.0
140.822067 148.0
140.872925 120.0
141.000351 196.0
141.068954 3308.0
141.104523 196.0
141.129272 116.0
141.184082 164.0
141.216766 200.0
141.235687 208.0
141.292465 44.0
141.345291 160.0
141.387115 84.0
141.545715 64.0
141.725739 200.0
141.833878 144.0
141.857574 144.0
142.072906 620.0
142.249863 184.0
142.347198 164.0
142.948608 44.0
142.984299 88.0
143.072021 188.0
143.089661 308.0
143.291473 148.0
143.505981 144.0
143.539291 156.0
143.770752 240.0
143.923523 180.0
144.055145 232.0
144.181503 220.0
144.238861 244.0
144.310593 152.0
144.35405 204.0
144.626358 44.0
144.767609 52.0
144.971237 192.0
145.064545 172.0
145.458099 148.0
145.837616 212.0
145.921753 176.0
146.057068 192.0
146.126175 184.0
146.18634 168.0
146.220032 68.0
146.289825 104.0
146.549927 184.0
146.634262 168.0
146.653549 108.0
146.868134 144.0
147.08223 452.0
147.63858 148.0
147.660339 172.0
147.73291 200.0
147.885345 100.0
148.028183 124.0
148.444977 48.0
148.782227 256.0
148.879349 88.0
149.078552 312.0
149.127167 120.0
149.1539 128.0
149.175781 172.0
149.516296 216.0
149.613647 324.0
149.66478 204.0
149.815781 220.0
150.003418 208.0
150.02536 76.0
150.05217 108.0
150.096069 124.0
150.144836 172.0
150.193619 92.0
150.535294 160.0
150.74292 188.0
150.804016 168.0
150.9776 236.0
151.054886 348.0
151.525894 188.0
151.601852 152.0
151.638611 200.0
152.00647 156.0
152.033524 592.0
152.061737 640.0
152.222488 340.0
152.406708 56.0
152.524673 152.0
152.566452 48.0
152.989319 240.0
153.037994 400.0
153.069061 2388.0
153.147186 80.0
153.249893 104.0
153.344284 136.0
153.415771 48.0
153.479874 84.0
153.585907 72.0
153.608109 40.0
153.757767 128.0
153.864761 140.0
153.98822 92.0
154.065216 964.0
154.252609 40.0
154.405899 116.0
154.487518 84.0
154.517593 76.0
154.564224 144.0
154.591446 148.0
154.726288 208.0
154.839417 120.0
154.977219 200.0
155.06871 936.0
155.099152 148.0
155.237991 212.0
155.26442 100.0
155.444534 244.0
155.515854 40.0
155.555557 164.0
155.632523 96.0
155.65239 48.0
155.669769 156.0
155.687149 184.0
155.749115 232.0
155.815369 84.0
155.910065 164.0
155.940552 92.0
156.014343 204.0
156.051254 500.0
156.080795 32764.0
156.129501 144.0
156.161835 36.0
156.190674 168.0
156.215759 144.0
156.236465 92.0
156.27005 144.0
156.300735 72.0
156.348434 44.0
156.410645 112.0
156.435547 192.0
156.460434 52.0
156.483856 108.0
156.507736 40.0
156.562531 72.0
156.61731 60.0
156.692047 72.0
156.724808 244.0
156.839417 116.0
156.926331 72.0
156.95874 48.0
157.011108 144.0
157.084442 4840.0
157.203201 160.0
157.332977 40.0
157.352951 48.0
157.470322 72.0
157.540253 124.0
157.650192 56.0
157.690186 68.0
157.809204 176.0
157.902695 180.0
157.952713 116.0
157.987732 220.0
158.05928 148.0
158.086624 392.0
158.117844 36.0
158.217972 140.0
158.250519 136.0
158.305466 144.0
158.335663 68.0
158.35318 212.0
158.518524 132.0
158.63884 120.0
158.70903 120.0
159.040176 72.0
159.062759 160.0
159.082199 308.0
159.306335 68.0
159.504852 184.0
159.577759 140.0
159.68338 176.0
159.708298 176.0
159.794052 144.0
160.27243 156.0
160.577454 176.0
160.811508 172.0
161.428528 60.0
161.909348 176.0
162.015717 84.0
162.545624 44.0
163.094177 180.0
163.180618 64.0
163.228928 144.0
163.50621 196.0
163.671661 172.0
163.904053 144.0
164.035324 452.0
164.092072 132.0
164.125214 140.0
164.306305 140.0
164.354782 172.0
164.502792 220.0
164.524109 228.0
164.993286 132.0
165.018845 104.0
165.036743 188.0
165.065887 156.0
165.108353 112.0
165.32579 60.0
165.366745 120.0
165.412811 136.0
165.615097 68.0
165.799561 104.0
165.984131 96.0
166.02446 44.0
166.06575 6004.0
166.263748 140.0
166.291977 40.0
166.533325 140.0
166.656631 32.0
166.764557 204.0
166.800552 144.0
166.939377 96.0
167.071091 1400.0
167.258408 40.0
167.342972 136.0
167.441284 140.0
167.479843 104.0
167.889633 168.0
167.979904 60.0
168.057678 3396.0
168.15535 44.0
168.204391 216.0
168.250854 68.0
168.297333 52.0
168.374802 100.0
168.470367 188.0
168.550461 176.0
168.584061 72.0
168.710709 96.0
168.969315 100.0
169.021057 128.0
169.064194 4584.0
169.114227 168.0
169.243668 76.0
169.308395 68.0
169.497498 140.0
169.533783 88.0
169.748947 196.0
169.938293 68.0
170.029465 176.0
170.06282 1408.0
170.097519 3088.0
170.761749 124.0
170.852798 220.0
171.041458 112.0
171.048538 180.0
171.078415 428.0
171.204178 172.0
171.352646 80.0
171.420395 52.0
171.482941 104.0
171.537674 108.0
171.592422 144.0
171.78801 80.0
171.827148 72.0
171.889755 280.0
172.032211 200.0
172.079849 508.0
172.670853 104.0
172.78334 80.0
173.068619 164.0
173.103287 196.0
173.181213 132.0
173.199554 88.0
173.652985 68.0
173.750046 172.0
173.999359 172.0
174.054504 140.0
174.351349 216.0
174.522202 152.0
174.695786 180.0
174.793121 176.0
174.816803 120.0
175.080063 116.0
175.119568 372.0
175.161713 68.0
175.285538 160.0
175.427856 160.0
175.538589 180.0
175.683655 128.0
175.710037 184.0
175.865723 196.0
176.037323 96.0
176.745743 120.0
176.774841 136.0
177.03653 140.0
177.05365 152.0
177.07399 220.0
177.214386 124.0
177.27269 156.0
177.362793 144.0
177.81369 128.0
178.020752 172.0
178.039337 132.0
178.073837 320.0
178.38208 164.0
178.578842 60.0
178.746445 108.0
178.911469 216.0
178.946075 148.0
178.996658 136.0
179.040985 168.0
179.075562 368.0
179.191101 48.0
179.30835 152.0
179.361649 36.0
179.588287 88.0
179.61763 92.0
179.649643 232.0
179.735016 160.0
179.772369 84.0
179.905823 152.0
179.980576 148.0
180.007278 248.0
180.041992 148.0
180.079468 888.0
180.188904 172.0
180.226318 168.0
180.274414 200.0
180.341217 152.0
180.630005 164.0
180.699554 116.0
180.798553 168.0
180.870819 140.0
181.022308 96.0
181.063354 1860.0
181.162704 40.0
181.352951 156.0
181.685455 80.0
181.728378 172.0
181.851822 272.0
181.94577 152.0
181.97261 96.0
182.061432 3180.0
182.09877 228.0
182.160599 88.0
182.243881 72.0
182.345993 216.0
182.593338 52.0
182.628311 132.0
182.743973 196.0
182.813934 60.0
182.851608 172.0
182.908142 56.0
182.950607 216.0
182.984268 248.0
183.067734 15408.0
183.130905 204.0
183.300598 144.0
183.339066 156.0
183.392975 32.0
183.439972 128.0
183.460358 156.0
183.490005 56.0
183.560394 156.0
183.630234 184.0
183.699249 196.0
183.738129 176.0
183.778595 60.0
183.813675 112.0
183.89534 200.0
183.929718 64.0
183.951324 188.0
184.004211 180.0
184.03447 336.0
184.075485 26040.0
184.130768 104.0
184.164627 180.0
184.216888 104.0
184.244904 196.0
184.297516 104.0
184.327393 96.0
184.378067 80.0
184.496994 32.0
184.537552 72.0
184.569992 44.0
184.605148 80.0
184.678177 64.0
184.724152 148.0
184.859436 72.0
184.889191 88.0
184.934189 128.0
184.96228 60.0
184.988419 212.0
185.016418 36.0
185.078903 3084.0
185.116592 144.0
185.219513 52.0
185.291428 80.0
185.338715 60.0
185.473099 68.0
185.552826 124.0
185.639587 76.0
185.742661 108.0
185.840317 72.0
185.908157 128.0
185.946152 160.0
186.056076 136.0
186.08786 492.0
186.261108 80.0
186.281326 72.0
186.298447 128.0
186.50293 92.0
186.595352 128.0
186.902695 120.0
187.055099 112.0
187.090485 176.0
187.21846 128.0
187.398239 192.0
187.490891 204.0
187.515411 88.0
187.559021 28.0
187.665344 72.0
187.88353 316.0
188.06636 180.0
188.15097 52.0
188.292969 92.0
188.486923 244.0
188.812225 152.0
189.307556 108.0
189.515732 144.0
189.828201 168.0
190.04216 128.0
190.242493 168.0
190.497879 60.0
190.632507 88.0
191.270569 208.0
191.556946 128.0
191.752579 184.0
191.91246 152.0
192.06485 200.0
192.089569 132.0
192.171722 60.0
192.447723 44.0
192.491913 152.0
192.729462 88.0
192.911865 172.0
193.030746 192.0
193.093628 184.0
193.157959 32.0
193.514954 64.0
193.614639 124.0
194.057144 628.0
194.092926 452.0
194.135635 216.0
194.229935 64.0
194.293732 124.0
194.918442 52.0
195.067001 1264.0
195.121338 136.0
195.2854 168.0
195.416153 144.0
195.541367 144.0
195.566422 132.0
195.618591 176.0
195.636658 120.0
195.733444 156.0
195.80864 144.0
195.847031 148.0
195.911697 220.0
195.945129 212.0
196.009567 192.0
196.036911 184.0
196.076035 25008.0
196.154327 56.0
196.209885 40.0
196.261856 92.0
196.299118 80.0
196.322769 56.0
196.380722 144.0
196.42514 64.0
196.449722 80.0
196.505524 92.0
196.544571 112.0
196.617477 64.0
196.717606 44.0
196.843246 120.0
196.87117 68.0
196.929825 76.0
196.991272 180.0
197.024796 72.0
197.07962 3644.0
197.177002 76.0
197.360184 112.0
197.553146 220.0
197.897385 156.0
197.928177 68.0
198.088058 1292.0
198.25592 108.0
198.281143 80.0
198.32637 88.0
198.345612 128.0
198.511032 64.0
198.562057 100.0
198.581131 160.0
198.691742 64.0
198.741028 40.0
198.839249 88.0
198.994675 140.0
199.035751 48.0
199.06102 148.0
199.095642 172.0
199.319458 44.0
199.344742 112.0
199.493698 104.0
199.80304 100.0
199.873383 128.0
200.016235 188.0
200.027588 156.0
200.068192 532.0
200.304123 48.0
200.85379 116.0
201.023056 144.0
201.064575 124.0
201.127487 328.0
201.384415 40.0
202.026001 148.0
202.068512 172.0
202.130753 108.0
203.025909 180.0
203.135391 176.0
203.846313 200.0
205.018738 64.0
205.075729 184.0
205.406494 84.0
206.048798 28.0
206.080139 128.0
206.717865 136.0
207.081818 180.0
207.588684 184.0
207.608765 168.0
207.69194 64.0
207.855469 164.0
207.996094 140.0
208.021927 160.0
208.077942 1064.0
208.605057 220.0
208.694183 32.0
208.728683 124.0
209.020691 188.0
209.083649 1136.0
209.465439 180.0
209.572037 64.0
209.998688 144.0
210.053574 1364.0
210.091858 580.0
210.217941 180.0
210.255447 180.0
210.75502 40.0
211.059097 500.0
211.094406 388.0
211.200211 48.0
211.339066 48.0
211.753021 100.0
211.921036 96.0
212.070129 160.0
212.108459 112.0
212.142227 4224.0
212.431274 80.0
212.547531 116.0
212.645996 132.0
212.66922 80.0
212.881149 96.0
212.942139 188.0
213.003128 176.0
213.049988 152.0
213.074783 60.0
213.107712 196.0
213.144684 1272.0
213.23848 96.0
214.055939 408.0
214.085953 144.0
214.149139 152.0
214.62706 68.0
214.664963 84.0
214.977097 36.0
215.047134 112.0
215.098373 152.0
215.213531 216.0
215.330338 84.0
216.017212 276.0
216.198624 100.0
216.508942 144.0
218.01976 132.0
218.504929 128.0
219.03775 156.0
219.459183 144.0
219.585983 240.0
219.78067 40.0
220.071274 140.0
220.103943 164.0
220.126038 80.0
220.894455 176.0
221.098068 132.0
221.341354 48.0
222.056442 324.0
222.083084 152.0
222.254288 56.0
222.414551 88.0
222.622375 224.0
223.068039 108.0
223.097855 184.0
223.142349 104.0
223.526047 216.0
224.068893 304.0
224.104553 632.0
225.056 1212.0
225.101852 156.0
225.548065 40.0
225.649704 68.0
225.945786 84.0
226.053909 204.0
226.155258 164.0
226.418732 148.0
226.793228 108.0
227.006088 132.0
227.056305 2976.0
227.102051 248.0
227.147049 44.0
227.240051 60.0
227.522156 144.0
227.690308 64.0
228.011765 180.0
228.064941 772.0
228.435715 96.0
228.577118 128.0
229.028137 616.0
229.073013 1136.0
229.550079 36.0
229.728027 88.0
230.02475 180.0
230.075165 172.0
230.120346 140.0
230.836456 136.0
230.8909 36.0
231.021667 168.0
231.069351 40.0
231.27211 116.0
232.982346 124.0
233.012726 196.0
233.084335 336.0
233.131226 148.0
233.237595 88.0
233.699844 52.0
234.077271 60.0
234.116867 100.0
235.141205 60.0
235.544235 104.0
236.070526 280.0
236.109665 204.0
236.137192 172.0
236.1586 76.0
236.253418 176.0
236.53801 184.0
236.994324 48.0
237.080124 124.0
237.116898 100.0
238.079727 228.0
238.123566 2620.0
238.799362 60.0
238.993164 88.0
239.056427 164.0
239.086746 184.0
239.129471 996.0
239.319412 52.0
239.402557 60.0
239.45491 136.0
239.590439 64.0
239.636658 148.0
239.812302 200.0
239.929443 180.0
239.95546 172.0
240.064606 8728.0
240.138351 4920.0
240.18454 232.0
240.245132 76.0
240.268127 68.0
240.361237 60.0
240.39827 68.0
240.459991 60.0
240.517685 52.0
240.595795 40.0
240.750183 204.0
240.847229 76.0
240.879578 76.0
240.932419 56.0
241.026825 108.0
241.070572 1264.0
241.140625 692.0
241.179779 80.0
241.243576 64.0
241.322586 180.0
241.426956 120.0
241.467163 68.0
241.579636 44.0
241.714645 76.0
241.87558 68.0
242.081558 3108.0
242.148605 176.0
242.182114 72.0
242.240967 60.0
242.26265 100.0
242.340103 36.0
242.550842 88.0
242.606628 56.0
242.814377 44.0
242.858978 84.0
242.89502 104.0
243.047928 180.0
243.086044 1208.0
243.141754 100.0
243.267395 100.0
243.519089 64.0
243.612091 56.0
244.684982 96.0
244.741028 68.0
245.273743 60.0
245.622986 112.0
246.021912 276.0
246.425278 132.0
246.83786 108.0
247.006744 192.0
247.57637 56.0
248.040497 616.0
248.101898 172.0
248.312851 96.0
249.037857 124.0
249.110107 176.0
249.405472 76.0
250.043945 148.0
252.100113 152.0
253.099701 168.0
254.084427 276.0
254.682175 160.0
255.084518 308.0
256.093018 284.0
256.132477 1116.0
256.298279 80.0
257.07312 52.0
257.112579 132.0
257.137054 136.0
258.082489 208.0
258.680756 36.0
258.824829 68.0
260.357635 92.0
262.136597 136.0
264.067108 120.0
265.592621 224.0
265.95929 44.0
266.117554 1360.0
266.348907 44.0
267.121826 324.0
267.565125 28.0
268.22641 92.0
268.696014 68.0
270.228271 172.0
270.75528 32.0
273.707458 72.0
274.017059 156.0
275.026123 100.0
276.884247 116.0
276.947174 56.0
277.039917 52.0
278.034607 112.0
278.276947 68.0
280.222595 184.0
280.489197 52.0
283.122437 556.0
284.126709 1168.0
284.395966 80.0
285.126862 300.0
286.962677 128.0
287.148163 52.0
291.128052 132.0
291.596863 80.0
292.022705 388.0
293.034119 176.0
294.055847 120.0
296.12088 216.0
296.940002 100.0
297.289948 44.0
299.989899 144.0
303.034576 156.0
304.01239 184.0
304.03717 332.0
305.005676 52.0
305.09259 124.0
306.042389 168.0
306.105072 136.0
307.059906 192.0
307.161072 96.0
307.722931 128.0
307.848633 48.0
310.227814 100.0
314.385193 32.0
315.628601 32.0
318.030518 228.0
318.964691 40.0
319.160217 136.0
320.056854 68.0
321.108124 36.0
323.222931 100.0
325.746918 64.0
331.976471 52.0
333.512177 84.0
336.382477 36.0
337.218903 76.0
338.481018 56.0
341.240204 124.0
344.583008 52.0
344.760376 72.0
346.540192 44.0
346.688416 40.0
348.150055 104.0
353.185242 116.0
353.62674 120.0
353.862549 64.0
362.056305 92.0
363.084351 76.0
363.341278 64.0
364.195374 164.0
364.221954 132.0
364.259949 124.0
366.13504 148.0
367.278442 160.0
367.801178 124.0
371.712494 32.0
375.243408 96.0
380.994415 96.0
382.285278 92.0
382.616119 68.0
392.690765 88.0
398.211945 116.0
399.225372 152.0
412.96579 36.0
415.128418 48.0
415.643585 76.0
421.074097 108.0
423.618225 44.0
425.746918 104.0
434.912567 72.0
436.187744 88.0
446.19989 104.0
472.183502 56.0
479.302856 52.0
483.394379 68.0
485.918152 44.0
525.722046 120.0
531.529053 60.0
535.41803 140.0
542.84906 68.0
545.848816 96.0
550.943054 148.0
553.894775 84.0
556.826233 164.0
563.411316 48.0
567.016907 64.0
570.46759 68.0
571.785095 120.0
582.187927 40.0
603.661255 228.0
626.504395 144.0
629.042664 64.0
632.316528 52.0
636.191101 76.0
638.743835 100.0
689.935974 48.0
690.448425 204.0
706.110413 68.0
709.499268 140.0
711.71698 48.0
715.678223 64.0
749.01593 88.0
774.647461 108.0
774.73053 92.0
785.738098 84.0
819.21521 200.0
832.432861 52.0
833.300171 232.0
838.669189 108.0
839.689697 64.0
855.898438 240.0
864.543579 140.0
868.193298 56.0
884.691223 100.0
915.254517 172.0
916.019348 72.0
927.985229 108.0
935.561157 132.0
978.927917 212.0
991.628662 124.0
992.02356 176.0
992.105042 276.0
994.425903 208.0
1002.085083 176.0
1011.931458 164.0
1035.781006 92.0
1041.57959 60.0
1042.671875 160.0
1043.989746 152.0
1069.168335 184.0
1082.138672 152.0
1083.605713 108.0
1086.018066 144.0
1088.951904 116.0
1090.863892 180.0
1091.541138 212.0
1092.225098 44.0
1095.509766 36.0
1096.293823 176.0
1102.979614 104.0
1106.55188 40.0
1107.757202 76.0
1113.627441 236.0
1115.328369 212.0
1123.412231 132.0
1130.842529 168.0
1138.330933 156.0
1145.695801 180.0
1148.83728 44.0
1150.024902 148.0
1169.797363 92.0
1170.859497 124.0
1174.417236 156.0
1181.535034 128.0
1182.356201 216.0
1182.7052 48.0
1186.856812 48.0
1186.925293 168.0
1194.830688 92.0
1195.381226 116.0
1197.653076 176.0
1199.574585 148.0
1199.816772 152.0
1204.979126 236.0
1209.176392 192.0
1213.769287 144.0
1214.005127 192.0
1215.510376 76.0
1219.427124 180.0
1221.742554 160.0
1224.519897 100.0
1229.344238 132.0
1231.648071 124.0
1237.151367 148.0
1238.243652 132.0
1240.569946 52.0
1240.878418 136.0
1242.168823 176.0
1243.30542 148.0
1248.48291 132.0
1252.565063 164.0
1257.373657 104.0
1257.627808 144.0
1258.31958 112.0
1260.219482 184.0
1260.579834 168.0
1263.924438 116.0
1270.946289 180.0
1271.308228 104.0
1273.338623 228.0
1273.778931 128.0
1281.440796 156.0
1282.359985 96.0
1285.112671 32.0
1290.533691 184.0
1293.352295 188.0
1293.402344 104.0
1296.288574 204.0
1303.888306 48.0
1304.923462 152.0
1305.757568 168.0
1308.556763 184.0
1309.176025 208.0
1309.809814 188.0
1310.206055 236.0
1310.825684 188.0
1310.933716 112.0
1311.128296 64.0
1312.137451 200.0
1312.339355 80.0
1315.159912 128.0
1322.525146 200.0
1323.328735 112.0
1324.357056 228.0
1326.05249 140.0
1330.658691 228.0
1335.432983 100.0
1336.975342 128.0
1338.605957 168.0
1338.955444 204.0
1339.530884 204.0
1342.234741 128.0
1343.511108 176.0
1343.700806 48.0
1344.722412 160.0
1344.809937 204.0
1348.315674 272.0
1348.374146 196.0
1350.172607 144.0
1351.906372 204.0
1357.957764 240.0
1359.094849 244.0
1360.834351 108.0
1365.80542 192.0
1369.592773 120.0
1373.233887 148.0
1380.78186 140.0
1383.364258 184.0
1383.911987 100.0
1384.956177 112.0
1385.341431 140.0
1385.615479 160.0
1386.408325 164.0
1390.96228 200.0
1391.467041 88.0
1396.133423 172.0
1400.509644 244.0
1401.299194 204.0
1406.486694 200.0
1407.594482 144.0
1410.15686 224.0
1410.231567 96.0
1412.489746 104.0
1413.589478 128.0
1416.32959 220.0
1420.527222 148.0
1423.379272 156.0
1423.476807 156.0
1423.709595 196.0
1425.354736 180.0
1426.324219 172.0
1429.242188 128.0
1432.592529 200.0
1433.994019 124.0
1435.886353 140.0
1436.057007 116.0
1436.595459 140.0
1439.078369 76.0
1439.289795 172.0
1440.807861 184.0
1442.655518 180.0
1444.542358 144.0
1448.107422 128.0
1448.516479 188.0
1451.176392 252.0
1454.248779 168.0
1455.660767 172.0
1461.681152 124.0
1465.290161 212.0
1465.450073 164.0
1465.709229 156.0
1466.029175 236.0
1467.302124 196.0
1468.14856 172.0
1468.728149 40.0
1469.70459 168.0
1473.025635 452.0
1473.697876 176.0
1476.029175 124.0
1478.561279 192.0
1480.32959 188.0
1481.432617 112.0
1481.953491 164.0
1483.427979 200.0
1483.815918 124.0
1484.736084 140.0
1484.897095 40.0
1485.495361 168.0
1485.656494 152.0
1486.56958 152.0
1486.630981 148.0
1488.181519 232.0
1488.672852 104.0
1489.717407 148.0
1491.192749 88.0
1491.884521 124.0
1495.977051 144.0
1496.870239 156.0
1498.564697 156.0
1500.244873 164.0
1501.979858 120.0
1503.206543 104.0
1503.445801 188.0
1503.916504 204.0
