>compound MLS001075314-01!1-[2-(4-methyl-2-oxochromen-7-yl)oxyacetyl]-4-phenylpiperidine-4-carboxylic acid
>formula C24H23NO6
>ionization [M+H]+
>parentmass 422.16
#inchi InChI=1S/C24H23NO6/c1-16-13-22(27)31-20-14-18(7-8-19(16)20)30-15-21(26)25-11-9-24(10-12-25,23(28)29)17-5-3-2-4-6-17/h2-8,13-14H,9-12,15H2,1H3,(H,28,29)
#inchikey MJBZORKOZMBVFI
#Ion_Source LC-ESI
#Instrument qTof
#Compound_Source NIH Natural Product Library
#PI Dorrestein
#Data_Collector VVP/LMS
#Scan -1
#Precursor_MZ 422.16
#ExactMass 421.153
#Charge 1
#CAS_Number N/A
#Pubmed_ID N/A
#Smiles Cc1cc(=O)oc2cc(OCC(=O)N3CCC(CC3)(C(=O)O)c4ccccc4)ccc12
#INCHI_AUX N/A
#Library_Class 1
#SpectrumID CCMSLIB00000080138
#IonMode Positive
#UpdateWorkflowName UPDATE-SINGLE-ANNOTATED-GOLD
#LibraryQualityString Gold
#TaskID b1d8e8f6646f4e71acdff9ca3d919d08
##Scan# 1980
#SpectrumFile p2-F04_GF4_01_18040.mzXML
#LibraryName NIH_Natural_Products_Library.mgf
#MQScore -1
#Organism NIH_Natural_Products_Library
#TIC_Query 0
#RT_Query -1
#MZErrorPPM -1
#SharedPeaks 0
#MassDiff 0
#LibMZ -1
#SpecMZ 422.16
#SpecCharge 0
#internalFilename spec-00000.mgf

>collision 10
95.096512 224.0
95.290703 156.0
95.39106 180.0
95.537605 180.0
95.551224 160.0
95.751724 100.0
95.802368 240.0
96.078651 172.0
96.089394 160.0
96.391602 172.0
96.460007 132.0
96.514748 180.0
96.696678 100.0
96.747574 52.0
96.868988 164.0
97.194443 48.0
97.40184 156.0
97.416824 224.0
97.634476 144.0
97.911972 144.0
97.961212 44.0
98.002586 168.0
98.063675 152.0
98.144501 56.0
98.164223 164.0
98.18 196.0
98.288498 176.0
98.347702 200.0
98.564331 376.0
98.693176 224.0
98.792313 164.0
99.04641 484.0
99.190346 112.0
99.422401 192.0
99.605072 92.0
99.799835 124.0
100.183952 176.0
100.36731 40.0
100.484993 116.0
100.786484 288.0
100.804466 160.0
100.880417 140.0
100.968399 180.0
101.047241 164.0
101.232567 248.0
101.272621 152.0
101.340729 168.0
101.675613 212.0
101.876404 200.0
102.045082 164.0
102.181992 180.0
102.228271 184.0
102.26651 44.0
102.405434 44.0
102.895454 60.0
102.941895 132.0
103.05352 1292.0
103.340103 236.0
103.651924 204.0
103.708672 204.0
103.805984 56.0
103.834373 160.0
103.848572 140.0
103.869751 224.0
104.053429 788.0
104.25869 76.0
104.40303 168.0
104.49456 188.0
104.523048 64.0
104.734779 136.0
105.028297 156.0
105.068657 904.0
105.173172 144.0
105.187462 136.0
105.274193 200.0
105.669762 104.0
105.780273 220.0
105.794601 156.0
105.813026 120.0
105.876503 136.0
105.929756 132.0
106.069618 352.0
106.290604 68.0
106.522598 132.0
106.656166 48.0
106.805244 20.0
106.818611 152.0
107.032654 244.0
107.047073 252.0
107.211876 108.0
107.61412 136.0
107.928185 144.0
108.033661 72.0
108.17852 144.0
108.38356 56.0
108.503777 196.0
108.528656 128.0
108.675919 68.0
108.937515 116.0
108.952057 72.0
109.062195 96.0
109.143272 220.0
109.647049 160.0
109.690819 140.0
109.747108 204.0
110.059158 568.0
110.170784 100.0
110.24601 64.0
110.704147 152.0
110.792122 244.0
110.875938 116.0
111.062149 220.0
111.236702 152.0
111.259796 196.0
111.429909 48.0
111.564415 172.0
111.656937 160.0
111.694794 56.0
111.768433 136.0
111.909454 88.0
112.073708 604.0
112.189667 120.0
112.292198 32.0
112.601128 184.0
112.62014 36.0
112.755356 88.0
112.867401 176.0
113.205978 84.0
113.309761 156.0
113.751129 164.0
113.81881 60.0
113.891022 164.0
114.049179 224.0
114.086517 144.0
114.10936 188.0
114.235374 152.0
114.307716 148.0
114.377953 80.0
114.974739 152.0
115.054054 3000.0
115.147667 56.0
115.164757 68.0
115.314316 80.0
115.4319 192.0
115.611595 180.0
115.974609 192.0
116.061676 988.0
116.100044 196.0
116.181549 180.0
116.296867 76.0
116.31031 204.0
116.512169 136.0
116.727104 72.0
116.759361 176.0
116.826042 56.0
117.068092 1712.0
117.118797 136.0
117.192047 132.0
117.418388 184.0
118.072678 780.0
118.109558 176.0
118.633591 80.0
118.65094 144.0
118.772377 208.0
119.044609 184.0
119.711281 136.0
119.916069 200.0
120.076477 224.0
120.245071 180.0
120.31089 212.0
120.365479 120.0
120.411339 156.0
120.859482 168.0
120.98423 272.0
121.041161 184.0
121.0644 412.0
121.087151 148.0
121.201065 136.0
121.398346 224.0
121.426857 144.0
121.587013 60.0
121.687996 152.0
121.927429 224.0
122.072525 168.0
123.293831 180.0
123.331406 100.0
123.45079 108.0
123.490601 40.0
123.518227 164.0
123.607857 128.0
123.901833 136.0
124.028648 120.0
124.078911 312.0
124.434616 76.0
124.641335 116.0
124.718971 128.0
124.905746 40.0
124.980392 188.0
125.041473 192.0
125.079315 120.0
125.159462 116.0
125.402283 140.0
125.65873 180.0
125.886406 140.0
126.020432 192.0
126.054245 248.0
126.094177 176.0
126.112053 164.0
126.288696 160.0
126.438599 60.0
126.46769 164.0
126.671455 152.0
126.709541 168.0
126.729706 172.0
126.82383 116.0
127.034615 180.0
127.05452 396.0
127.153534 188.0
127.189445 156.0
127.422997 140.0
127.535362 144.0
127.566826 180.0
127.917755 148.0
127.947021 172.0
127.980797 116.0
128.001053 216.0
128.062347 6376.0
128.120438 168.0
128.154236 136.0
128.228592 60.0
128.255646 84.0
128.388657 136.0
128.659439 92.0
128.756531 104.0
129.009598 108.0
129.066711 2044.0
129.143005 40.0
129.360245 48.0
129.552734 152.0
129.729492 100.0
129.895035 112.0
129.947205 112.0
130.037979 156.0
130.076828 1040.0
130.110626 188.0
130.146942 40.0
130.603745 140.0
130.662888 176.0
130.956924 212.0
131.04866 1944.0
131.079086 892.0
131.145645 52.0
131.161606 92.0
131.214249 44.0
131.321213 92.0
131.41246 200.0
131.463776 156.0
131.597336 140.0
132.048721 332.0
132.086639 664.0
132.171051 64.0
132.374786 84.0
132.556732 224.0
132.624512 64.0
132.64743 140.0
133.064545 924.0
133.099686 168.0
133.271667 132.0
133.372787 28.0
133.407272 136.0
133.524536 112.0
133.605042 172.0
133.63266 196.0
134.005646 176.0
134.069595 208.0
134.187729 248.0
134.282272 124.0
134.298416 136.0
134.443771 192.0
134.545334 188.0
134.621521 208.0
134.762421 240.0
134.96814 172.0
135.012085 220.0
135.0401 176.0
135.150055 220.0
135.417099 172.0
135.465744 216.0
135.579269 180.0
135.894638 152.0
135.943375 144.0
135.961929 152.0
136.01532 192.0
136.047821 160.0
136.224304 52.0
136.305618 192.0
136.352097 232.0
136.421829 184.0
136.547394 208.0
136.814987 208.0
137.602997 176.0
137.852936 168.0
137.995514 296.0
138.05632 116.0
138.407333 120.0
138.578308 128.0
138.711899 164.0
138.897141 148.0
138.96048 48.0
139.01915 184.0
139.089554 156.0
139.291504 176.0
139.307938 160.0
139.333786 336.0
139.42308 188.0
139.608795 180.0
139.72406 188.0
139.820526 160.0
140.018295 172.0
140.107803 220.0
140.874512 32.0
141.069901 988.0
141.172333 168.0
141.290588 160.0
141.70018 228.0
141.792587 140.0
141.925339 164.0
141.99649 212.0
142.07634 1508.0
142.183914 56.0
142.219513 100.0
142.575775 184.0
142.675613 144.0
142.732666 176.0
143.03006 212.0
143.056015 372.0
143.085159 13760.0
143.12291 56.0
143.191971 64.0
143.251511 56.0
143.322342 88.0
143.336304 156.0
143.404007 84.0
143.432617 60.0
143.455887 68.0
143.527985 128.0
143.671082 128.0
143.88826 148.0
143.98378 256.0
144.056549 1708.0
144.083786 3508.0
144.111664 112.0
144.149765 100.0
144.244217 68.0
144.483353 76.0
144.508148 132.0
144.641296 136.0
144.75621 64.0
144.825668 96.0
144.986191 144.0
145.014954 216.0
145.062698 392.0
145.087036 616.0
145.13002 72.0
145.206757 92.0
145.297913 144.0
145.31842 148.0
145.775742 56.0
146.079803 360.0
146.097931 316.0
146.24231 156.0
146.331375 76.0
146.719269 176.0
146.789246 164.0
147.042496 156.0
147.076279 152.0
147.098007 120.0
147.221146 80.0
147.259781 128.0
147.494156 36.0
147.977997 148.0
148.042206 324.0
148.489304 228.0
149.018341 124.0
149.027786 156.0
149.033997 252.0
149.456161 100.0
149.796997 64.0
150.123596 160.0
150.412415 112.0
150.658142 200.0
150.724106 216.0
150.956329 52.0
151.193634 172.0
151.220551 92.0
151.269501 188.0
151.345398 172.0
151.521744 140.0
152.036682 32.0
152.062103 224.0
152.545105 112.0
152.854813 232.0
153.024841 208.0
153.256363 124.0
153.433823 152.0
153.628647 56.0
153.922363 76.0
154.021149 132.0
154.063141 224.0
154.196579 48.0
154.307816 152.0
154.471039 168.0
154.691269 200.0
154.837357 176.0
155.05954 148.0
155.083389 200.0
155.166931 212.0
155.548965 160.0
155.571304 64.0
155.611038 192.0
155.742645 104.0
155.807236 164.0
155.827118 128.0
156.033401 368.0
156.076324 364.0
156.309494 124.0
156.381653 124.0
156.41153 148.0
156.486206 148.0
156.558426 96.0
156.949661 156.0
157.011993 148.0
157.065155 412.0
157.100601 284.0
157.124252 112.0
157.362366 256.0
157.568649 168.0
157.633606 68.0
157.656097 156.0
157.963638 228.0
158.043701 220.0
158.064011 332.0
158.0961 13328.0
158.171326 88.0
158.261459 44.0
158.321564 84.0
158.374146 76.0
158.394196 96.0
158.424255 396.0
158.491898 176.0
158.648392 64.0
158.795227 116.0
159.043625 4252.0
159.103394 5956.0
159.229431 52.0
159.308701 136.0
159.460571 48.0
159.478165 40.0
159.596329 164.0
159.81012 180.0
159.845352 64.0
159.988815 60.0
160.046799 484.0
160.075348 140.0
160.110489 3304.0
160.22554 104.0
160.260818 64.0
160.279922 56.0
160.330872 244.0
160.371704 80.0
160.41774 140.0
160.828232 192.0
160.997391 64.0
161.059982 3764.0
161.11911 708.0
161.161591 144.0
161.292999 64.0
161.33345 48.0
161.673477 168.0
161.750854 72.0
161.8116 216.0
162.064224 668.0
162.128616 164.0
162.148514 132.0
163.073639 180.0
163.134018 188.0
163.341888 88.0
163.480377 140.0
163.988632 152.0
164.026871 80.0
164.738831 168.0
164.769485 88.0
164.861465 144.0
165.065979 100.0
165.454895 52.0
165.59317 112.0
165.84938 108.0
165.98526 84.0
166.057068 56.0
166.634659 116.0
166.757996 224.0
167.009979 236.0
167.071655 164.0
167.080902 160.0
167.179779 184.0
167.249268 108.0
167.558289 160.0
167.77478 172.0
168.097183 160.0
168.16687 156.0
168.600754 128.0
169.048141 52.0
169.076614 104.0
169.185333 228.0
170.038132 108.0
170.075958 168.0
170.097504 340.0
170.714554 108.0
170.986755 128.0
171.079086 752.0
171.107895 224.0
171.520706 132.0
171.791901 100.0
171.854523 52.0
172.003265 100.0
172.062866 212.0
172.112701 3292.0
172.193878 124.0
172.264404 96.0
172.544037 156.0
173.056839 120.0
173.097092 948.0
173.483887 36.0
173.772369 56.0
173.869461 140.0
174.097565 328.0
174.117599 188.0
174.2397 52.0
174.516495 64.0
174.97084 216.0
175.041229 136.0
175.099869 264.0
175.173615 100.0
175.342255 68.0
175.72197 108.0
176.073563 144.0
176.564621 104.0
176.723343 132.0
176.741867 148.0
176.808014 140.0
177.014511 104.0
177.055374 1008.0
177.372177 96.0
177.512695 68.0
177.592255 144.0
177.995651 200.0
178.058487 260.0
178.564346 108.0
178.726624 268.0
179.219223 208.0
179.432449 96.0
179.477768 120.0
180.401535 204.0
181.00621 160.0
181.657486 156.0
181.952682 172.0
182.095291 156.0
182.436264 36.0
182.543808 128.0
182.715958 184.0
182.850494 132.0
183.084534 172.0
183.170914 152.0
185.410812 80.0
185.966812 200.0
186.088867 1568.0
186.192154 172.0
186.226044 156.0
186.319824 184.0
186.366013 28.0
186.463837 152.0
186.530029 260.0
186.578003 176.0
186.623566 184.0
186.736816 168.0
186.76564 112.0
186.795563 136.0
186.836365 120.0
186.898941 120.0
186.990616 128.0
187.048386 376.0
187.098831 28544.0
187.233597 64.0
187.244308 60.0
187.315491 176.0
187.350891 52.0
187.369965 52.0
187.389038 180.0
187.406631 52.0
187.427185 48.0
187.743393 92.0
187.767944 72.0
187.787033 32.0
187.90979 128.0
187.939804 32.0
187.972549 116.0
188.02713 72.0
188.054428 172.0
188.102386 4088.0
188.147232 52.0
188.283768 56.0
188.376633 52.0
188.406677 108.0
188.453125 128.0
188.515182 148.0
188.644424 48.0
188.891953 64.0
188.994507 56.0
189.05545 11064.0
189.102264 640.0
189.186081 48.0
189.241638 68.0
189.262741 100.0
189.290131 88.0
189.423828 116.0
189.442062 136.0
189.497101 100.0
189.550354 144.0
189.572281 136.0
189.766907 132.0
189.802551 52.0
189.848541 140.0
189.930603 104.0
190.024719 132.0
190.056717 1432.0
190.12085 1544.0
190.198257 84.0
190.244278 56.0
190.370575 96.0
190.472198 68.0
190.499664 48.0
190.701813 116.0
190.727737 116.0
190.873444 60.0
191.050568 160.0
191.12648 320.0
191.220078 56.0
191.33844 68.0
191.432068 68.0
191.514679 64.0
191.93634 72.0
192.0439 144.0
192.126648 144.0
192.190109 184.0
192.223221 128.0
193.264954 44.0
194.631454 140.0
195.014832 72.0
196.094742 84.0
196.183945 84.0
196.320572 60.0
196.62413 84.0
197.074249 124.0
197.205597 208.0
197.518753 164.0
197.560715 204.0
197.625061 108.0
197.778992 200.0
198.227097 84.0
198.381241 112.0
199.040573 156.0
199.071457 136.0
199.110779 132.0
199.130432 52.0
199.318665 112.0
199.504166 112.0
200.105621 832.0
200.40477 72.0
201.05899 164.0
201.114609 2420.0
201.157776 144.0
201.188828 52.0
201.33284 180.0
201.505142 152.0
201.71315 164.0
202.123169 1436.0
202.192276 36.0
202.398926 56.0
203.075958 156.0
203.12616 456.0
203.899597 56.0
204.101791 1796.0
204.144089 168.0
204.445389 224.0
204.847107 120.0
205.040863 124.0
205.104919 800.0
205.136093 116.0
205.388702 36.0
206.113312 852.0
206.15387 40.0
206.479767 104.0
206.883224 144.0
206.969116 80.0
207.03212 148.0
207.075073 172.0
207.124756 164.0
207.327194 44.0
207.556519 68.0
208.314209 100.0
210.029831 76.0
210.089325 172.0
210.439621 88.0
213.336792 144.0
214.136993 124.0
214.42543 144.0
215.064178 192.0
215.125473 120.0
215.996292 160.0
216.174759 172.0
217.049911 3400.0
217.112198 104.0
217.173798 76.0
217.250061 56.0
217.45253 68.0
217.628662 72.0
217.690323 156.0
217.793121 116.0
217.893005 44.0
217.969391 48.0
218.016418 48.0
218.054657 580.0
218.116837 4028.0
218.308105 36.0
218.380981 60.0
218.480988 44.0
218.54277 68.0
218.763504 60.0
219.056351 164.0
219.120407 664.0
219.215317 100.0
219.302551 204.0
219.615097 112.0
219.741943 76.0
220.426971 60.0
220.885971 96.0
224.008072 56.0
224.380585 136.0
226.475388 84.0
227.105606 164.0
228.050629 172.0
228.074677 96.0
228.700317 76.0
229.115875 116.0
230.073853 156.0
230.67305 172.0
231.090393 196.0
231.281052 32.0
231.959564 156.0
233.486816 84.0
234.077148 1460.0
234.208145 52.0
235.082397 200.0
236.657379 136.0
237.073975 184.0
239.759949 152.0
240.129913 232.0
240.935562 80.0
241.396103 252.0
241.594055 216.0
243.152649 112.0
244.093948 112.0
246.073059 480.0
246.109253 364.0
246.550446 144.0
246.575455 108.0
246.678589 40.0
246.825546 96.0
247.11882 496.0
247.908646 44.0
248.084167 156.0
250.185837 68.0
255.102341 528.0
255.843201 188.0
256.015137 56.0
256.043793 60.0
256.104614 124.0
257.095856 164.0
258.083954 184.0
260.101227 128.0
261.049042 160.0
264.964325 112.0
265.061523 64.0
269.111145 108.0
269.160126 28.0
269.496552 116.0
269.63382 88.0
272.639099 52.0
272.984253 80.0
277.106995 152.0
277.150055 128.0
290.077362 136.0
290.229919 144.0
290.362183 96.0
291.10199 172.0
294.16626 104.0
297.109985 336.0
297.171082 36.0
297.366699 48.0
297.943573 48.0
298.10849 100.0
298.744568 52.0
300.477448 76.0
302.886963 180.0
307.420715 36.0
308.90213 160.0
320.062164 200.0
321.352448 124.0
326.291962 128.0
327.37088 56.0
330.435394 44.0
331.423828 40.0
332.156158 208.0
337.341644 120.0
345.050964 64.0
347.124451 124.0
348.157104 564.0
349.165649 300.0
349.531525 100.0
350.168121 84.0
350.887299 64.0
352.596924 80.0
352.79129 40.0
352.869781 136.0
354.167267 148.0
359.658081 108.0
365.319397 32.0
365.368866 120.0
368.162811 152.0
370.078583 120.0
374.552643 68.0
374.725983 152.0
375.288727 192.0
375.500793 132.0
376.075684 192.0
376.155426 4524.0
376.233948 204.0
376.315033 40.0
376.374634 72.0
376.454041 140.0
376.653168 56.0
376.708954 36.0
376.871216 60.0
376.933044 92.0
377.052856 60.0
377.095367 104.0
377.15918 1868.0
377.31955 56.0
378.011902 48.0
378.089325 68.0
378.153656 412.0
378.867584 32.0
379.123322 148.0
379.149445 124.0
379.359772 80.0
379.906555 60.0
379.964752 104.0
380.457611 100.0
381.650391 84.0
383.012482 52.0
384.712677 48.0
390.354706 152.0
403.435272 80.0
404.315247 40.0
415.27002 52.0
417.28418 104.0
420.469635 96.0
421.169159 228.0
422.165833 456.0
423.164917 184.0
424.191711 156.0
427.62149 48.0
427.654419 176.0
449.093018 140.0
460.946381 68.0
472.434906 72.0
480.153564 76.0
485.717102 152.0
486.085632 40.0
491.886353 56.0
497.268677 160.0
500.090973 68.0
510.025208 32.0
511.964355 92.0
578.469421 60.0
605.920044 56.0
606.816956 96.0
626.925598 36.0
652.949524 68.0
653.213989 88.0
659.470459 184.0
660.344727 164.0
666.707092 100.0
694.841431 76.0
724.349731 104.0
735.021667 100.0
751.205933 144.0
752.079041 68.0
762.771179 80.0
774.552124 104.0
785.346558 96.0
806.735352 48.0
810.555725 144.0
820.411072 144.0
824.800842 148.0
825.046631 136.0
829.076172 204.0
842.835144 40.0
845.038086 224.0
859.832642 180.0
870.604675 80.0
894.52124 200.0
904.005066 252.0
918.068237 148.0
936.858032 168.0
949.774475 208.0
949.952393 104.0
962.779358 80.0
965.492371 136.0
967.082397 188.0
967.905762 216.0
969.37384 76.0
976.251953 140.0
979.158264 144.0
981.451477 148.0
982.829895 80.0
983.572571 196.0
985.233643 168.0
994.017944 96.0
994.7146 112.0
999.780457 148.0
1002.49469 152.0
1015.809998 120.0
1018.838013 204.0
1025.525879 72.0
1028.842773 84.0
1034.417236 156.0
1038.646362 108.0
1043.687622 168.0
1046.383545 140.0
1051.934082 96.0
1069.396362 188.0
1076.306519 76.0
1084.536377 168.0
1090.226562 132.0
1095.911865 144.0
1098.918457 180.0
1099.004272 124.0
1101.030762 88.0
1101.625244 156.0
1103.3302 132.0
1105.115845 208.0
1106.492554 136.0
1106.909668 128.0
1108.373535 164.0
1109.818481 56.0
1111.708984 100.0
1113.408447 120.0
1119.193726 64.0
1119.24707 124.0
1120.838989 164.0
1122.472046 248.0
1123.172363 172.0
1130.454712 36.0
1132.175049 92.0
1132.583618 120.0
1134.299072 224.0
1136.485352 120.0
1143.305786 176.0
1148.662109 228.0
1152.10498 184.0
1156.040039 252.0
1158.545166 176.0
1162.593018 148.0
1163.882812 136.0
1164.901489 188.0
1165.295532 48.0
1166.090576 156.0
1168.960449 188.0
1169.498169 96.0
1170.090332 132.0
1174.717651 152.0
1174.888184 324.0
1175.406738 200.0
1176.321167 168.0
1176.444092 188.0
1178.253784 144.0
1180.434204 176.0
1187.131348 192.0
1189.182617 172.0
1194.831055 188.0
1197.990845 180.0
1198.486938 76.0
1208.152588 132.0
1213.31897 168.0
1215.316406 208.0
1220.685669 156.0
1223.447876 156.0
1238.881348 252.0
1241.306396 140.0
1241.720093 200.0
1241.867432 272.0
1242.491699 188.0
1243.930298 160.0
1251.706177 156.0
1252.55835 192.0
1254.10144 168.0
1255.180054 68.0
1258.023315 156.0
1258.178589 184.0
1260.96167 128.0
1261.081787 152.0
1264.674805 136.0
1264.887207 128.0
1266.452026 140.0
1267.620972 224.0
1269.428589 220.0
1273.963867 132.0
1274.589111 68.0
1279.973755 152.0
1283.051636 224.0
1286.704346 100.0
1286.775757 116.0
1287.047119 220.0
1292.751343 228.0
1294.970581 152.0
1298.554199 164.0
1299.33606 124.0
1304.664795 212.0
1305.959106 152.0
1311.077271 176.0
1312.75769 144.0
1314.351807 156.0
1317.109619 100.0
1317.326294 136.0
1319.082275 116.0
1322.814819 124.0
1323.4375 112.0
1324.277466 232.0
1325.074341 180.0
1325.711914 132.0
1326.501953 188.0
1326.813721 180.0
1331.167114 168.0
1331.675415 164.0
1333.862427 152.0
1334.727661 168.0
1334.982178 128.0
1335.091187 36.0
1337.52124 72.0
1338.271118 164.0
1339.115845 208.0
1339.938965 156.0
1340.019043 208.0
1343.839478 212.0
1344.072998 192.0
1344.540039 224.0
1346.379761 200.0
1348.286499 168.0
1348.359497 136.0
1354.337036 164.0
1355.318726 188.0
1356.19812 176.0
1356.256714 64.0
1356.491333 132.0
1359.755249 152.0
1360.261719 160.0
1361.796265 184.0
1363.449341 168.0
1364.934326 132.0
1365.757935 40.0
1371.60437 100.0
1373.019897 144.0
1374.266602 128.0
1375.646606 216.0
1378.756226 172.0
1381.454956 188.0
1385.171021 88.0
1385.793213 116.0
1387.475586 184.0
1390.487183 204.0
1390.761719 172.0
1391.882812 248.0
1392.551147 88.0
1394.38623 248.0
1394.988281 160.0
1396.480713 140.0
1398.677856 124.0
1399.139282 128.0
1401.105469 148.0
1406.093872 152.0
1408.490479 220.0
1411.651855 172.0
1413.319946 164.0
1415.310913 136.0
1416.651489 80.0
1418.982178 136.0
1420.49707 172.0
1421.494873 160.0
1423.348999 164.0
1425.617554 168.0
1427.045654 48.0
1428.444458 160.0
1430.43103 172.0
1432.516968 140.0
1433.217529 232.0
1433.677246 160.0
1433.910889 168.0
1436.813965 124.0
1439.078125 164.0
1439.256958 148.0
1441.910767 196.0
1442.303833 164.0
1443.362183 96.0
1444.180542 196.0
1448.523682 216.0
1451.130615 172.0
1455.075806 112.0
1457.285889 124.0
1459.520508 152.0
1462.814697 140.0
1463.796875 168.0
1464.131958 144.0
1464.253784 88.0
1469.36084 112.0
1470.047607 188.0
1470.810791 160.0
1475.868164 172.0
1477.997803 164.0
1478.767456 208.0
1478.905151 188.0
1480.428711 176.0
1483.800171 64.0
1486.162354 148.0
1486.354126 52.0
1488.741455 172.0
1489.363647 196.0
1489.432739 184.0
1490.323853 124.0
1491.292114 84.0
1491.807129 60.0
1492.783569 216.0
1493.552612 112.0
1495.160645 144.0
1496.792603 144.0
1497.88623 164.0
1498.910278 220.0
1501.169434 184.0
1502.45752 196.0
1503.738403 156.0
