>compound MLS001306413-01!Meloxicam71125-38-7
>formula C14H13N3O4S2
>ionization [M+H]+
>parentmass 352.044
#inchi InChI=1S/C14H13N3O4S2/c1-8-7-15-14(22-8)16-13(19)11-12(18)9-5-3-4-6-10(9)23(20,21)17(11)2/h3-7,18H,1-2H3,(H,15,16,19)
#inchikey ZRVUJXDFFKFLMG
#Ion_Source LC-ESI
#Instrument qTof
#Compound_Source NIH Pharmacologically Active Library
#PI Dorrestein
#Data_Collector VP/LMS
#Scan -1
#Precursor_MZ 352.044
#ExactMass 351.035
#Charge 1
#CAS_Number N/A
#Pubmed_ID N/A
#Smiles CN1/C(=C(/O)\c2ccccc2S1(=O)=O)/C(=O)Nc3ncc(C)s3
#INCHI_AUX N/A
#Library_Class 1
#SpectrumID CCMSLIB00000085195
#IonMode Positive
#UpdateWorkflowName UPDATE-SINGLE-ANNOTATED-GOLD
#LibraryQualityString Gold
#TaskID d252d724072548979f1f6f1ced849daf
##Scan# 2069
#SpectrumFile p3-F10_GF10_01_18291.mzXML
#LibraryName Pharm_Active_Library.mgf
#MQScore -1
#Organism Pharm_Active_Library
#TIC_Query 0
#RT_Query -1
#MZErrorPPM -1
#SharedPeaks 0
#MassDiff 0
#LibMZ -1
#SpecMZ 352.044
#SpecCharge 0
#internalFilename spec-00000.mgf

>collision 10
44.89666 236.0
45.100952 244.0
45.226692 140.0
45.297668 212.0
45.380764 144.0
45.46072 272.0
45.471992 116.0
45.485413 164.0
45.52301 156.0
45.611691 148.0
45.622444 208.0
45.643959 212.0
45.687 148.0
45.727375 116.0
45.773148 96.0
45.826221 224.0
45.837811 128.0
45.872856 112.0
45.941639 112.0
45.99157 116.0
46.075302 128.0
46.226898 180.0
46.280899 92.0
46.301212 168.0
46.329659 240.0
46.363537 228.0
46.519531 124.0
46.660828 176.0
46.722034 136.0
46.735641 168.0
46.79417 244.0
46.818684 184.0
46.865002 232.0
46.874538 136.0
46.886806 212.0
46.911343 172.0
46.941341 140.0
47.021942 228.0
47.051868 228.0
47.162525 176.0
47.174831 364.0
47.407528 172.0
47.437687 232.0
47.521351 96.0
47.563896 140.0
47.609207 180.0
47.680653 92.0
47.801678 228.0
47.909081 164.0
47.924973 180.0
48.033157 152.0
48.100777 156.0
48.129772 152.0
48.162922 220.0
48.176735 160.0
48.219574 176.0
48.290749 208.0
48.309998 184.0
48.388348 212.0
48.452843 208.0
48.630959 164.0
48.650391 32.0
48.686497 176.0
48.722614 140.0
48.829655 192.0
48.846348 136.0
49.031544 252.0
49.060001 212.0
49.127762 140.0
49.22966 148.0
49.280422 164.0
49.292526 160.0
49.347042 152.0
49.457565 192.0
49.541592 56.0
49.664955 128.0
49.677582 176.0
49.771622 192.0
49.93465 156.0
49.990929 260.0
50.012039 220.0
50.057095 116.0
50.103577 176.0
50.124714 200.0
50.159058 252.0
50.176868 188.0
50.212124 208.0
50.235737 292.0
50.291142 64.0
50.306671 72.0
50.340557 132.0
50.392826 164.0
50.527149 140.0
50.588512 212.0
50.643234 172.0
50.701328 68.0
50.722588 136.0
50.813061 212.0
51.03352 144.0
51.043472 148.0
51.079033 96.0
51.094681 164.0
51.172966 192.0
51.254158 56.0
51.348251 128.0
51.463852 52.0
51.503841 176.0
51.579578 176.0
51.61961 124.0
51.671108 168.0
51.734081 188.0
51.767014 80.0
51.788498 132.0
51.81715 180.0
51.852978 140.0
51.939014 120.0
51.960533 208.0
52.069633 160.0
52.10675 196.0
52.20042 136.0
52.214802 228.0
52.237816 92.0
52.332809 180.0
52.376019 80.0
52.45816 212.0
52.499973 180.0
52.735321 76.0
52.755558 200.0
52.820637 200.0
52.842339 164.0
52.898785 84.0
52.962502 156.0
52.985439 192.0
53.158237 160.0
53.387783 164.0
53.539143 188.0
53.61636 148.0
53.684883 192.0
53.718433 56.0
53.773884 216.0
53.804543 116.0
53.814762 196.0
53.874645 144.0
53.925793 200.0
54.082306 236.0
54.362251 228.0
54.385735 184.0
54.42244 128.0
54.457687 116.0
54.484131 144.0
54.610558 212.0
54.787209 216.0
54.807838 176.0
54.832893 84.0
54.850582 168.0
54.862373 148.0
54.88633 276.0
55.142853 260.0
55.168304 256.0
55.280399 96.0
55.311481 156.0
55.324806 204.0
55.35294 60.0
55.421082 192.0
55.431454 140.0
55.464062 128.0
55.520405 200.0
55.55304 200.0
55.582714 112.0
55.596073 124.0
55.616852 124.0
55.648029 108.0
55.753502 148.0
55.827839 60.0
55.89032 64.0
55.97517 92.0
56.088406 120.0
56.10928 200.0
56.143578 136.0
56.159985 188.0
56.228859 176.0
56.343605 132.0
56.407871 204.0
56.520046 164.0
56.612862 264.0
56.702755 212.0
56.728241 180.0
56.780724 116.0
56.804722 148.0
56.848236 172.0
56.91922 240.0
57.002918 168.0
57.052525 228.0
57.193935 136.0
57.210495 160.0
57.242115 184.0
57.334015 160.0
57.365669 140.0
57.663048 224.0
57.776463 160.0
57.813892 196.0
57.88242 172.0
58.018791 164.0
58.124966 128.0
58.152287 140.0
58.247952 152.0
58.35434 84.0
58.401222 116.0
58.436474 80.0
58.509533 84.0
58.520191 104.0
58.553696 152.0
58.568928 220.0
58.65731 196.0
58.727459 168.0
58.799171 80.0
58.8862 156.0
58.896893 160.0
58.927448 56.0
58.939674 164.0
59.060455 160.0
59.085602 156.0
59.110947 224.0
59.222713 116.0
59.32692 120.0
59.369854 244.0
59.469971 176.0
59.543289 180.0
59.6693 160.0
59.749279 108.0
59.774155 144.0
59.903236 160.0
59.951 156.0
59.983261 168.0
60.018833 104.0
60.148434 184.0
60.174679 168.0
60.194756 132.0
60.363201 272.0
60.383305 168.0
60.42662 208.0
60.448284 232.0
60.64241 164.0
60.691494 188.0
60.75819 88.0
60.775257 176.0
60.818714 176.0
60.865292 152.0
60.924316 260.0
60.96627 200.0
61.056446 144.0
61.06889 184.0
61.096889 132.0
61.143574 196.0
61.212074 164.0
61.257244 156.0
61.27594 136.0
61.375698 196.0
61.547352 108.0
61.709858 232.0
61.985359 116.0
62.001034 168.0
62.106087 216.0
62.193958 160.0
62.232555 212.0
62.363605 188.0
62.434361 136.0
62.55867 204.0
62.580711 88.0
62.607483 212.0
62.64056 176.0
62.679951 220.0
62.694134 108.0
62.788734 204.0
62.820282 228.0
62.850258 88.0
62.877087 180.0
62.965504 200.0
63.017639 176.0
63.044502 76.0
63.082439 132.0
63.129875 88.0
63.226383 228.0
63.262791 56.0
63.275455 188.0
63.408524 124.0
63.468769 160.0
63.494141 104.0
63.544907 216.0
63.578232 176.0
63.805389 136.0
63.859459 84.0
63.935829 148.0
63.956524 220.0
64.104645 132.0
64.214653 276.0
64.284264 216.0
64.468704 200.0
64.815788 184.0
64.862396 100.0
64.924797 180.0
65.046745 96.0
65.082069 200.0
65.265259 116.0
65.282944 96.0
65.3666 128.0
65.393959 128.0
65.411667 128.0
65.429375 144.0
65.468025 100.0
65.535683 160.0
65.624336 176.0
65.659813 196.0
65.740585 184.0
65.767921 152.0
65.813126 172.0
65.887428 176.0
65.960152 200.0
65.998955 72.0
66.050964 228.0
66.073357 120.0
66.097633 112.0
66.173706 152.0
66.185043 168.0
66.347076 216.0
66.357567 160.0
66.397346 148.0
66.417801 176.0
66.49823 268.0
66.532028 144.0
66.629478 180.0
66.644104 216.0
66.706131 196.0
66.762321 200.0
66.796928 88.0
66.884804 112.0
66.902718 128.0
66.941795 184.0
67.165092 124.0
67.227089 132.0
67.249939 224.0
67.274429 156.0
67.34301 108.0
67.376434 180.0
67.427979 124.0
67.503181 136.0
67.544075 136.0
67.607887 176.0
67.68647 172.0
67.822754 216.0
67.838844 104.0
67.8536 216.0
67.89624 148.0
67.909363 172.0
67.978271 208.0
68.086624 188.0
68.127693 84.0
68.168854 156.0
68.199997 164.0
68.318398 184.0
68.470253 80.0
68.501137 40.0
68.547272 148.0
68.560455 172.0
68.575294 184.0
68.58683 184.0
68.682472 96.0
68.722069 180.0
68.796341 120.0
68.852486 156.0
68.877258 172.0
68.908356 180.0
68.981369 168.0
69.017181 200.0
69.138512 188.0
69.189827 140.0
69.265648 184.0
69.428444 236.0
69.581116 120.0
69.602699 128.0
69.627609 176.0
69.685753 196.0
69.710678 152.0
69.84536 180.0
69.878632 168.0
69.903587 120.0
69.973503 108.0
70.043449 84.0
70.175117 148.0
70.293678 160.0
70.330269 160.0
70.390373 184.0
70.413757 100.0
70.4338 144.0
70.512337 124.0
70.642761 72.0
70.741501 80.0
70.933701 180.0
71.096863 212.0
71.153938 164.0
71.18248 108.0
71.212715 152.0
71.226151 228.0
71.25135 160.0
71.329216 228.0
71.429558 160.0
71.506958 196.0
71.648415 76.0
71.677963 164.0
71.781128 164.0
71.870987 140.0
71.896294 196.0
71.946938 48.0
71.958755 100.0
71.982399 52.0
72.058411 204.0
72.151367 272.0
72.200409 176.0
72.334084 180.0
72.420441 144.0
72.440773 220.0
72.462799 168.0
72.533981 264.0
72.549232 128.0
72.691719 36.0
72.713776 176.0
72.781685 196.0
72.881912 168.0
73.078308 216.0
73.228966 216.0
73.240891 152.0
73.348251 140.0
73.418159 144.0
73.595634 144.0
73.60759 128.0
73.645164 132.0
73.69471 136.0
73.74366 144.0
73.764778 152.0
73.807526 176.0
73.896469 212.0
73.917053 152.0
74.12764 196.0
74.196205 176.0
74.227074 204.0
74.350594 132.0
74.391792 192.0
74.546379 232.0
74.567001 164.0
74.622017 156.0
74.658127 188.0
74.744888 184.0
74.837097 64.0
74.871536 264.0
74.892204 196.0
74.907707 84.0
74.930107 240.0
75.074905 176.0
75.090431 148.0
75.104225 188.0
75.159439 172.0
75.199135 168.0
75.275093 52.0
75.32502 208.0
75.344193 260.0
75.396027 148.0
75.473824 144.0
75.575882 148.0
75.721306 132.0
75.813126 144.0
75.93882 308.0
76.165352 172.0
76.203575 136.0
76.229637 164.0
76.295692 124.0
76.32325 184.0
76.357758 208.0
76.387741 224.0
76.554962 116.0
76.615929 124.0
76.660057 196.0
76.678665 196.0
76.692604 208.0
76.711784 112.0
76.72747 164.0
76.744911 180.0
76.766708 152.0
76.797226 140.0
76.879974 224.0
77.041626 172.0
77.108025 188.0
77.1325 144.0
77.193695 128.0
77.293213 176.0
77.310905 184.0
77.398438 132.0
77.547356 136.0
77.657822 196.0
78.049469 200.0
78.107506 120.0
78.151489 244.0
78.170845 164.0
78.227173 108.0
78.251823 156.0
78.295845 116.0
78.528503 180.0
78.773865 176.0
78.788002 152.0
78.890503 168.0
78.920563 144.0
78.99131 208.0
79.019615 168.0
79.079262 68.0
79.18425 128.0
79.288788 152.0
79.341965 236.0
79.46257 112.0
79.57972 304.0
79.625374 240.0
79.714722 212.0
79.752052 184.0
79.780495 80.0
79.801826 312.0
79.856956 180.0
79.966232 176.0
79.995758 160.0
80.056801 228.0
80.129333 180.0
80.172096 128.0
80.379929 164.0
80.42894 60.0
80.443222 160.0
80.475365 140.0
80.509293 112.0
80.545013 168.0
80.593254 104.0
80.616356 168.0
80.689774 184.0
80.729111 152.0
80.850769 164.0
80.958191 112.0
80.995804 100.0
81.100784 116.0
81.146347 132.0
81.259346 224.0
81.273697 128.0
81.392174 208.0
81.490967 144.0
81.510735 156.0
81.589821 156.0
81.63118 116.0
81.668953 164.0
81.793114 212.0
81.827316 176.0
81.88855 64.0
81.99305 132.0
82.079582 80.0
82.12648 48.0
82.148125 176.0
82.182404 212.0
82.250984 160.0
82.315987 128.0
82.414116 148.0
82.434517 124.0
82.608795 40.0
82.786186 192.0
82.918938 180.0
83.038109 232.0
83.107048 148.0
83.254089 204.0
83.288597 100.0
83.32312 268.0
83.410347 72.0
83.473984 132.0
83.592232 140.0
83.672325 196.0
83.745171 160.0
83.898247 144.0
83.971184 92.0
84.013145 164.0
84.086136 168.0
84.109863 92.0
84.153679 224.0
84.181068 44.0
84.228561 264.0
84.353447 192.0
84.642502 160.0
84.66938 152.0
84.700516 140.0
84.73716 156.0
84.817795 192.0
84.894806 200.0
84.91452 176.0
84.981026 132.0
85.096657 168.0
85.195839 76.0
85.214211 204.0
85.256477 144.0
85.288963 148.0
85.339203 224.0
85.394371 176.0
85.447723 200.0
85.495567 184.0
85.536057 44.0
85.615234 196.0
85.667786 208.0
85.740517 140.0
85.869583 156.0
85.935997 104.0
86.00428 140.0
86.019043 172.0
86.137238 244.0
86.16864 148.0
86.396049 184.0
86.431206 220.0
86.486732 228.0
86.542274 200.0
86.709 144.0
86.723831 196.0
86.757195 164.0
86.823952 276.0
86.851776 88.0
86.906441 160.0
86.933411 120.0
87.028084 156.0
87.111664 84.0
87.176697 132.0
87.226883 100.0
87.267784 128.0
87.297539 128.0
87.630173 164.0
87.649376 176.0
87.729523 204.0
87.903183 80.0
87.940323 172.0
87.970184 164.0
87.990723 376.0
88.022644 540.0
88.065422 56.0
88.094162 200.0
88.140152 192.0
88.19809 76.0
88.234428 220.0
88.272881 208.0
88.349571 136.0
88.415062 88.0
88.54425 84.0
88.658218 336.0
88.682899 208.0
88.795403 120.0
88.954903 212.0
88.996208 88.0
89.045036 160.0
89.061935 176.0
89.152008 188.0
89.296898 92.0
89.342041 152.0
89.481316 192.0
89.503914 220.0
89.622589 148.0
89.675354 216.0
89.746994 164.0
89.763779 204.0
89.860168 128.0
89.877151 188.0
89.897911 124.0
89.926224 172.0
89.986633 180.0
90.012596 180.0
90.047058 232.0
90.126404 148.0
90.190666 228.0
90.300339 144.0
90.36087 220.0
90.377899 108.0
90.400612 188.0
90.499184 164.0
90.586166 224.0
90.946465 136.0
90.988228 156.0
91.05825 208.0
91.090782 76.0
91.113586 176.0
91.235222 200.0
91.273247 144.0
91.315086 112.0
91.379768 164.0
91.400696 48.0
91.467316 144.0
91.537758 112.0
91.61776 56.0
91.827446 124.0
91.850342 88.0
92.026878 192.0
92.048836 192.0
92.167274 140.0
92.237991 104.0
92.320206 160.0
92.423508 116.0
92.628372 180.0
92.662857 144.0
92.695854 128.0
92.894836 220.0
93.006966 84.0
93.025337 144.0
93.05368 204.0
93.125191 164.0
93.14196 208.0
93.203957 164.0
93.242393 196.0
93.284348 68.0
93.428925 148.0
93.681129 268.0
93.823746 156.0
93.978043 188.0
94.01857 40.0
94.080338 128.0
94.159508 184.0
94.202003 156.0
94.26384 148.0
94.316017 160.0
94.451378 168.0
94.56942 128.0
94.650734 124.0
94.780518 124.0
94.912331 172.0
94.999611 164.0
95.046181 172.0
95.114113 120.0
95.141289 156.0
95.217018 232.0
95.251984 132.0
95.374405 208.0
95.430786 180.0
95.485237 104.0
95.549431 128.0
95.609756 224.0
95.66037 180.0
95.720726 148.0
95.83371 160.0
95.890221 224.0
95.90387 160.0
95.9916 152.0
96.255051 176.0
96.290199 128.0
96.339035 148.0
96.385933 92.0
96.644051 104.0
96.745827 184.0
96.818275 180.0
96.880547 152.0
97.010513 332.0
97.090698 212.0
97.220184 204.0
97.247665 168.0
97.440117 188.0
97.528549 220.0
97.729156 216.0
97.79483 156.0
97.817719 240.0
97.839378 124.0
97.933899 132.0
98.009178 160.0
98.150696 172.0
98.434944 176.0
98.461647 184.0
98.517815 132.0
98.559311 196.0
98.602783 136.0
98.626503 164.0
98.664062 116.0
98.723389 200.0
98.796577 156.0
98.817322 160.0
98.834167 128.0
98.980652 176.0
99.008377 168.0
99.073746 128.0
99.133194 152.0
99.402557 188.0
99.583565 192.0
99.694824 252.0
99.776329 368.0
99.810127 200.0
99.839958 136.0
99.987183 84.0
100.004707 204.0
100.158424 100.0
100.395615 212.0
100.501343 120.0
100.597145 156.0
100.659042 188.0
100.766907 76.0
100.843254 228.0
100.906815 44.0
100.920815 140.0
100.938812 176.0
101.018814 108.0
101.100853 144.0
101.309105 72.0
101.501518 136.0
101.577736 36.0
101.653984 148.0
101.758362 152.0
101.772415 176.0
101.812584 188.0
101.834671 36.0
101.947189 144.0
102.015526 160.0
102.176422 180.0
102.216667 152.0
102.262955 168.0
102.293465 280.0
102.399872 212.0
102.439499 164.0
102.488518 200.0
102.611465 216.0
102.702217 96.0
102.776871 112.0
102.974716 88.0
102.994911 188.0
103.053497 172.0
103.138382 112.0
103.176796 220.0
103.1912 316.0
103.318367 116.0
103.375023 144.0
103.403358 152.0
103.549141 184.0
103.642326 148.0
104.023628 240.0
104.049004 336.0
104.141411 124.0
104.245026 204.0
104.505318 172.0
104.531769 172.0
104.58876 188.0
104.731293 188.0
104.745552 152.0
104.918777 148.0
104.955482 172.0
104.97995 28.0
105.032608 1048.0
105.057465 136.0
105.15036 244.0
105.429092 220.0
105.476105 300.0
105.598793 112.0
105.768631 144.0
105.801384 172.0
105.938599 200.0
106.033409 208.0
106.067703 228.0
106.143562 244.0
106.219452 96.0
106.315887 252.0
106.473976 160.0
106.51506 156.0
106.708244 140.0
106.747314 168.0
106.833702 124.0
106.876907 208.0
106.9757 104.0
107.103378 128.0
107.282776 152.0
107.342461 56.0
107.356895 172.0
107.422905 100.0
107.54052 88.0
107.639626 132.0
107.666107 228.0
107.786293 148.0
107.858627 176.0
107.891708 172.0
107.944778 156.0
108.003548 148.0
108.313881 132.0
108.47345 56.0
108.527351 120.0
108.591644 28.0
108.842758 164.0
109.010208 1896.0
109.125359 168.0
109.302162 200.0
109.391663 56.0
109.416641 164.0
109.558266 208.0
109.841789 168.0
110.009857 124.0
110.194618 160.0
110.213425 148.0
110.234322 200.0
110.312561 148.0
110.336746 148.0
110.57296 152.0
110.642204 188.0
110.841194 144.0
110.972221 132.0
111.006462 344.0
111.071823 208.0
111.092796 132.0
111.348892 136.0
111.485458 228.0
111.508575 140.0
111.586357 48.0
111.75383 164.0
111.784088 204.0
111.887222 172.0
111.973564 116.0
112.125259 192.0
112.165314 196.0
112.226456 132.0
112.260452 144.0
112.344566 76.0
112.625328 60.0
112.663353 112.0
112.830322 108.0
112.847237 92.0
112.893753 236.0
112.942398 224.0
113.015335 1640.0
113.035492 328.0
113.181557 60.0
113.228355 124.0
113.304405 52.0
113.348373 132.0
113.442162 204.0
113.573639 144.0
113.739159 220.0
113.964279 176.0
114.000237 1412.0
114.0242 228.0
114.053543 156.0
114.174736 112.0
114.400291 124.0
114.446068 148.0
114.532318 152.0
114.589844 124.0
114.609016 156.0
114.623932 48.0
114.690002 176.0
114.704559 164.0
114.748062 344.0
114.770851 148.0
114.802605 128.0
114.808891 200.0
114.818619 176.0
114.857323 224.0
114.888329 172.0
114.913933 200.0
114.940086 172.0
114.974754 192.0
114.990425 352.0
115.031868 103812.0
115.083893 32.0
115.112289 104.0
115.115845 68.0
115.147476 100.0
115.16658 116.0
115.186066 220.0
115.20343 116.0
115.23053 136.0
115.253227 100.0
115.261215 188.0
115.287788 160.0
115.31395 128.0
115.336792 68.0
115.359505 64.0
115.382874 1296.0
115.406822 132.0
115.460808 80.0
115.47924 84.0
115.495461 184.0
115.537224 160.0
115.574188 80.0
115.616989 84.0
115.653374 100.0
115.690376 56.0
115.73687 148.0
115.753998 48.0
115.792549 56.0
115.848915 64.0
115.878242 148.0
115.922249 84.0
115.946815 108.0
115.963318 80.0
115.997704 140.0
116.033997 6516.0
116.073303 76.0
116.097321 60.0
116.136436 164.0
116.180542 100.0
116.217018 64.0
116.23848 128.0
116.270668 52.0
116.305016 76.0
116.362976 124.0
116.380157 56.0
116.42955 80.0
116.472183 188.0
116.526215 32.0
116.588531 160.0
116.632561 124.0
116.664841 128.0
116.750526 160.0
116.802597 136.0
116.84227 88.0
116.868088 144.0
116.893974 136.0
116.931427 176.0
116.957047 76.0
116.986465 168.0
117.027618 5192.0
117.055992 720.0
117.085518 60.0
117.150139 44.0
117.285904 112.0
117.482147 28.0
117.549034 88.0
117.627342 212.0
117.687187 132.0
117.708778 40.0
117.991844 64.0
118.031624 140.0
118.064354 360.0
118.325035 60.0
118.493973 152.0
118.710739 212.0
118.77581 136.0
118.821365 96.0
118.966782 80.0
119.042778 192.0
119.064491 212.0
119.144867 104.0
119.229614 44.0
119.325264 132.0
119.595024 104.0
119.688637 100.0
119.908669 92.0
119.967529 172.0
120.018852 600.0
120.046021 156.0
120.174728 92.0
120.227097 180.0
120.397392 144.0
120.941818 168.0
121.028313 440.0
121.106049 132.0
121.520386 104.0
121.550598 120.0
121.682808 408.0
121.854126 164.0
121.898079 160.0
121.926643 44.0
121.970604 108.0
122.016777 136.0
122.045357 100.0
122.202652 172.0
122.24334 204.0
122.30056 72.0
122.335785 180.0
122.445885 184.0
122.489937 160.0
122.567963 192.0
122.661827 108.0
122.690483 104.0
122.783096 72.0
123.021408 176.0
123.100899 60.0
123.202507 68.0
123.337311 48.0
123.397003 104.0
123.988052 112.0
124.034599 92.0
124.342918 164.0
124.376213 152.0
124.509438 128.0
124.598289 136.0
124.753868 212.0
124.793884 152.0
124.811676 172.0
124.829468 136.0
125.00193 432.0
125.054169 164.0
125.352615 64.0
125.459602 40.0
125.544334 88.0
125.611252 52.0
125.861221 40.0
126.005127 176.0
126.359673 52.0
126.433517 44.0
126.500671 152.0
126.579033 216.0
126.816521 60.0
126.999214 176.0
127.032188 328.0
127.085907 100.0
127.11705 76.0
127.166428 88.0
127.703445 112.0
127.782181 88.0
128.023041 156.0
128.045563 208.0
128.070633 156.0
128.153702 124.0
128.509949 128.0
128.81926 192.0
129.070145 80.0
129.710892 204.0
129.903641 136.0
130.059052 144.0
130.350937 56.0
130.644257 160.0
130.728439 168.0
130.901459 204.0
131.019897 264.0
131.309402 216.0
131.606079 144.0
132.040283 140.0
132.097473 104.0
132.124924 72.0
132.269104 84.0
132.337784 60.0
132.56456 172.0
132.582901 112.0
133.043961 152.0
133.147293 144.0
133.335693 228.0
133.648453 124.0
133.715179 224.0
134.01918 172.0
134.524277 136.0
134.554291 76.0
134.787582 136.0
134.836105 68.0
134.912399 88.0
134.93782 164.0
134.979446 152.0
135.009506 124.0
135.233948 132.0
135.643951 128.0
135.76915 44.0
135.998489 360.0
136.01828 332.0
136.346146 168.0
136.493713 172.0
136.509995 172.0
136.761276 60.0
137.004593 1780.0
137.093719 144.0
137.229538 132.0
137.490799 180.0
137.635544 148.0
137.827087 228.0
138.00708 224.0
138.029861 216.0
138.383789 116.0
138.653198 120.0
138.693726 152.0
138.749298 160.0
138.782135 112.0
138.899399 84.0
138.986755 156.0
139.010925 60.0
139.030792 244.0
139.33606 212.0
139.354858 184.0
139.479843 156.0
139.894791 140.0
140.190231 112.0
140.218506 56.0
140.536316 244.0
140.614761 128.0
140.643082 84.0
140.685577 164.0
140.708557 168.0
140.737518 148.0
140.780579 668.0
140.819244 164.0
140.825546 116.0
140.886307 172.0
140.905212 196.0
140.926483 160.0
140.945389 248.0
140.969009 188.0
141.010895 83796.0
141.055481 200.0
141.096024 60.0
141.116272 188.0
141.165237 204.0
141.194 124.0
141.212524 80.0
141.246033 124.0
141.281128 48.0
141.297699 76.0
141.376892 112.0
141.400101 212.0
141.422089 120.0
141.442062 96.0
141.489395 76.0
141.524536 132.0
141.554688 84.0
141.604691 128.0
141.692078 56.0
141.746231 108.0
141.773651 108.0
141.88269 56.0
141.949081 108.0
142.012115 5092.0
142.0569 120.0
142.081909 112.0
142.164963 92.0
142.268341 92.0
142.296799 164.0
142.36676 56.0
142.403503 60.0
142.458298 60.0
142.568695 212.0
142.630493 48.0
142.652481 160.0
142.692307 136.0
142.725601 44.0
142.770782 88.0
142.796951 92.0
142.84111 156.0
142.895065 172.0
142.937317 56.0
142.960785 116.0
143.006836 2380.0
143.046799 108.0
143.067551 152.0
143.120346 192.0
143.146805 140.0
143.196808 52.0
143.231903 60.0
143.341431 108.0
143.447006 48.0
143.497086 56.0
143.551926 56.0
143.933746 108.0
144.010818 176.0
144.033401 88.0
144.234772 88.0
144.308899 48.0
144.50502 32.0
144.981567 72.0
145.045059 144.0
146.059219 992.0
146.098129 140.0
146.856949 164.0
146.975159 92.0
147.059631 196.0
147.076523 188.0
147.281784 88.0
147.784637 144.0
148.01944 220.0
148.077576 172.0
148.135696 160.0
149.004242 180.0
149.400543 232.0
149.858261 196.0
149.941132 128.0
149.996155 160.0
150.026443 184.0
150.087402 100.0
150.260574 88.0
150.284973 84.0
151.004974 300.0
151.924255 36.0
151.990295 452.0
152.238449 104.0
152.437439 88.0
152.540665 136.0
152.658691 320.0
152.821045 152.0
152.998932 7644.0
153.030258 144.0
153.086899 48.0
153.10907 60.0
153.338196 40.0
153.481186 52.0
153.594635 60.0
153.927826 216.0
154.002121 332.0
154.402328 64.0
154.75621 72.0
154.882523 60.0
154.992798 336.0
155.009216 168.0
155.108017 100.0
155.671234 60.0
156.054214 188.0
156.892975 172.0
157.117432 172.0
157.90181 88.0
158.089447 84.0
158.262177 44.0
159.815933 56.0
160.018555 124.0
160.357391 56.0
161.038635 144.0
161.99736 188.0
162.058167 244.0
162.890335 160.0
164.014969 1120.0
164.346634 68.0
164.995392 160.0
165.01329 116.0
165.302338 112.0
165.827362 156.0
165.924774 68.0
166.009399 152.0
166.046585 196.0
166.807922 92.0
168.033813 176.0
168.29451 104.0
168.83461 68.0
168.994003 2700.0
169.277145 60.0
169.479202 68.0
170.001923 368.0
170.283417 56.0
170.98909 176.0
171.050507 152.0
171.079132 116.0
171.214539 56.0
171.495926 92.0
172.01503 52.0
172.080307 100.0
174.053452 160.0
174.475037 64.0
175.784149 148.0
176.015121 588.0
176.082474 92.0
177.005447 160.0
177.023987 228.0
177.052628 192.0
177.585861 76.0
177.994568 120.0
178.013168 188.0
178.034943 180.0
178.361221 196.0
179.965057 68.0
180.021133 128.0
180.141327 64.0
181.22757 64.0
182.031357 380.0
183.040756 168.0
183.582413 64.0
184.011475 180.0
184.052597 812.0
184.165405 120.0
185.047028 192.0
186.03389 164.0
188.274887 76.0
189.043106 128.0
189.645645 48.0
190.059769 152.0
192.269592 96.0
193.987335 120.0
194.027252 740.0
194.14537 36.0
194.89212 44.0
195.381485 128.0
197.020813 136.0
198.00267 148.0
198.165146 108.0
200.038422 104.0
200.548294 100.0
200.601852 148.0
203.056274 140.0
203.959213 60.0
204.101364 124.0
205.351608 168.0
205.545609 192.0
205.614105 84.0
206.105301 124.0
210.019379 3056.0
210.607315 96.0
210.904938 100.0
211.02533 292.0
211.422668 52.0
211.961319 56.0
212.015366 380.0
212.494843 68.0
216.034012 148.0
217.030548 128.0
218.752243 136.0
220.158722 68.0
220.362549 56.0
220.669937 128.0
221.794937 80.0
222.569275 44.0
226.060059 132.0
228.05455 172.0
230.038971 192.0
230.072876 176.0
231.073273 132.0
231.854538 152.0
232.030365 156.0
233.013733 236.0
233.159592 184.0
235.520966 64.0
238.011093 192.0
239.0186 172.0
240.017227 176.0
243.545425 80.0
247.039932 156.0
249.011932 284.0
250.638107 48.0
251.016373 108.0
251.161469 128.0
251.808533 128.0
252.054947 156.0
254.884735 116.0
255.037292 128.0
256.017242 176.0
256.769409 40.0
257.950836 68.0
260.829529 164.0
260.92276 124.0
261.015991 32.0
264.717407 80.0
265.005035 896.0
266.01358 128.0
267.005432 192.0
267.955963 132.0
268.614502 84.0
272.891785 164.0
273.08252 152.0
275.013367 132.0
277.182953 128.0
279.041779 164.0
279.134888 68.0
281.050262 60.0
284.793213 128.0
288.047211 168.0
291.357086 56.0
305.902008 120.0
306.026581 164.0
310.998688 80.0
311.304138 144.0
315.193268 152.0
322.096619 64.0
326.789581 68.0
327.160278 92.0
329.421478 52.0
331.875336 144.0
334.025421 116.0
334.225525 64.0
336.021851 148.0
343.926849 84.0
346.030396 124.0
348.619568 96.0
352.035767 168.0
352.252411 148.0
355.10849 32.0
357.494232 40.0
361.914673 128.0
366.343262 92.0
388.839081 136.0
414.607056 100.0
417.981812 140.0
426.229858 64.0
435.442719 52.0
441.47345 96.0
524.626953 76.0
595.3078 28.0
597.115723 100.0
601.564575 184.0
636.488708 64.0
663.350281 52.0
671.376709 32.0
679.430664 116.0
688.383606 36.0
696.459839 200.0
717.720093 244.0
763.370117 220.0
765.852295 188.0
771.199097 136.0
780.902466 44.0
784.666992 200.0
791.293457 124.0
794.706909 172.0
802.976562 52.0
835.407104 172.0
847.224854 144.0
864.009827 84.0
880.859009 140.0
896.130249 176.0
899.410339 44.0
901.046631 132.0
908.91449 140.0
910.409302 108.0
914.81073 184.0
947.210083 112.0
949.5271 120.0
955.085815 140.0
956.421143 144.0
957.449402 148.0
959.988525 144.0
960.469604 184.0
973.398926 200.0
973.485901 148.0
978.53363 84.0
978.603577 144.0
983.815857 144.0
984.983704 160.0
985.889648 168.0
989.223572 128.0
990.457214 188.0
992.776245 156.0
993.278076 180.0
993.834717 180.0
995.412048 128.0
998.403442 36.0
999.642761 184.0
1000.694031 168.0
1002.665771 184.0
1005.914246 112.0
1017.671265 140.0
1018.554016 164.0
1018.986023 160.0
1022.776367 168.0
1024.266479 60.0
1025.553589 164.0
1025.713013 152.0
1026.082764 76.0
1029.107056 176.0
1030.710327 176.0
1033.338379 228.0
1034.042358 224.0
1035.329224 128.0
1035.822388 168.0
1036.930908 56.0
1037.071899 116.0
1037.463013 196.0
1039.322998 176.0
1040.221558 224.0
1042.193359 144.0
1042.630249 212.0
1044.533569 148.0
1044.990356 156.0
1045.820557 144.0
1046.10376 128.0
1047.797485 64.0
1048.338867 116.0
1050.776245 196.0
1057.827271 148.0
1058.578369 172.0
1058.89563 180.0
1059.524048 132.0
1061.565796 84.0
1061.663086 164.0
1062.811279 92.0
1063.797852 192.0
1067.117798 128.0
1067.546997 124.0
1067.878662 192.0
1068.516235 168.0
1069.63562 184.0
1069.882935 188.0
1071.380859 136.0
1072.452881 200.0
1073.336304 156.0
1075.03894 164.0
1075.63208 156.0
1077.50061 56.0
1079.96521 240.0
1081.804077 204.0
1082.039795 120.0
1083.441284 84.0
1084.371826 168.0
1084.922485 144.0
1085.54541 224.0
1088.800537 48.0
1089.628296 276.0
1089.87793 176.0
1090.193359 144.0
1091.955322 180.0
1093.165894 148.0
1094.093994 192.0
1094.640503 128.0
1095.068604 120.0
1095.417725 128.0
1096.788452 80.0
1099.486084 240.0
1099.908569 236.0
1101.136719 184.0
1103.013306 140.0
1103.244629 224.0
1104.375488 140.0
1106.07605 168.0
1111.776245 192.0
1112.094849 164.0
1112.300659 112.0
1115.668701 200.0
1117.584229 224.0
1117.783936 192.0
1118.070068 196.0
1119.834473 60.0
1122.893799 200.0
1123.947876 176.0
1125.115967 176.0
1126.792358 200.0
1127.607666 240.0
1128.149048 136.0
1129.285889 144.0
1129.372803 44.0
1129.814331 156.0
1130.797974 164.0
1131.373657 120.0
1134.147095 196.0
1134.676758 144.0
1135.300293 184.0
1136.118652 108.0
1137.420532 180.0
1137.695801 172.0
1137.907349 156.0
1138.018066 108.0
1138.125488 192.0
1138.441162 180.0
1138.642578 188.0
1139.059082 208.0
1139.17334 148.0
1140.167725 112.0
1140.302246 164.0
1141.14917 168.0
1143.052856 200.0
1146.076294 140.0
1146.31897 232.0
1146.453735 64.0
1146.763794 132.0
1147.741333 128.0
1148.348267 164.0
1148.550659 116.0
1148.64502 196.0
1148.901367 148.0
1149.521973 144.0
1149.625244 168.0
1149.688965 152.0
1149.819092 160.0
1151.081543 160.0
1151.750244 44.0
1152.250122 148.0
1155.001709 140.0
1156.923584 160.0
1158.25769 60.0
1158.853882 172.0
1158.982544 120.0
1161.213013 204.0
1161.742065 216.0
1162.936401 204.0
1164.729126 172.0
1165.075562 204.0
1168.46814 188.0
1168.522583 152.0
1168.992065 140.0
1170.319458 240.0
1171.702148 136.0
1171.879395 68.0
1172.206421 124.0
1173.856201 200.0
1175.165894 152.0
1175.30542 116.0
1175.348633 252.0
1175.739014 196.0
1176.640137 140.0
1177.732788 188.0
1179.652954 108.0
1179.994873 200.0
1180.227295 156.0
1180.432495 168.0
1182.751831 148.0
1182.909302 216.0
1183.573486 96.0
1183.792603 188.0
1186.75293 136.0
1186.951782 120.0
1188.453979 200.0
1189.730591 164.0
1190.472168 180.0
1191.028564 192.0
1192.141602 116.0
1192.340942 180.0
1192.813477 308.0
1194.025391 172.0
1195.738525 204.0
1198.070435 180.0
1198.190063 184.0
1199.113403 220.0
1199.899292 176.0
1201.699463 160.0
1203.597656 196.0
1205.241699 64.0
1206.292236 228.0
1206.458252 172.0
1207.336426 100.0
1210.097412 188.0
1210.249756 180.0
1212.494385 192.0
1212.861694 112.0
1213.0896 176.0
1213.298462 160.0
1214.539795 140.0
1214.844971 176.0
1215.719238 168.0
1216.010742 144.0
1216.53833 204.0
1216.69104 176.0
1219.143066 192.0
1219.282104 172.0
1220.067627 108.0
1220.359619 168.0
1220.415283 144.0
1220.568237 192.0
1221.06897 112.0
1222.387451 140.0
1222.95459 160.0
1223.198242 100.0
1223.448853 68.0
1223.553223 220.0
1224.033691 176.0
1224.103271 200.0
1226.214233 180.0
1227.141479 164.0
1228.145752 100.0
1229.02478 176.0
1229.185303 176.0
1229.869263 188.0
1230.672119 192.0
1230.769897 156.0
1232.187744 200.0
1233.7323 200.0
1235.256958 144.0
1235.669678 120.0
1237.7052 168.0
1237.909668 148.0
1238.189819 156.0
1238.497925 152.0
1238.925293 264.0
1240.971802 164.0
1241.701172 224.0
1242.262329 160.0
1242.732422 160.0
1244.108032 204.0
1246.137817 100.0
1246.229126 148.0
1246.594604 176.0
1248.978027 140.0
1249.083618 184.0
1249.175049 128.0
1249.238403 184.0
1250.012329 168.0
1250.296021 192.0
1250.856934 160.0
1251.244141 152.0
1252.568115 112.0
1252.726196 244.0
1253.91394 248.0
1256.501953 68.0
1257.602905 172.0
1257.652344 180.0
1257.70874 168.0
1258.047607 60.0
1258.428833 152.0
1259.693115 232.0
1260.088745 96.0
1261.141724 172.0
1261.750244 180.0
1262.584106 128.0
1263.630981 176.0
1264.147583 216.0
1264.274902 120.0
1264.579346 152.0
1264.989868 152.0
1265.577515 216.0
1265.662476 160.0
1267.44751 148.0
1268.14209 180.0
1268.319336 188.0
1268.574463 180.0
1268.680786 188.0
1269.049561 168.0
1269.737427 36.0
1269.978516 164.0
1270.297729 52.0
1271.34082 124.0
1271.873169 176.0
1272.09314 92.0
1272.418945 192.0
1272.93811 148.0
1273.513428 196.0
1276.221069 60.0
1276.469971 152.0
1277.103027 184.0
1277.238159 220.0
1279.536743 208.0
1279.899902 208.0
1281.716431 140.0
1282.500366 244.0
1284.047607 44.0
1287.630493 192.0
1287.78772 156.0
1288.001953 196.0
1288.198242 192.0
1288.680664 168.0
1290.253052 184.0
1291.168457 120.0
1291.876587 140.0
1291.998169 152.0
1292.556274 152.0
1292.935547 92.0
1293.572632 204.0
1293.637085 152.0
1294.059448 180.0
1294.313965 204.0
1294.961792 176.0
1295.735474 296.0
1295.843018 168.0
1296.065063 136.0
1296.717285 140.0
1298.4021 172.0
1298.595825 148.0
1298.861206 212.0
1299.514038 192.0
1299.822632 192.0
1299.915894 60.0
1300.468506 192.0
1300.762817 96.0
1300.856201 196.0
1301.10022 148.0
1302.112793 124.0
1302.292358 220.0
1302.787964 56.0
1303.758057 168.0
1303.837158 212.0
1304.491211 192.0
1304.850708 172.0
1305.016113 196.0
1305.591309 180.0
1305.907837 184.0
1306.000854 180.0
1306.06604 116.0
1306.303467 128.0
1306.972534 216.0
1307.317993 136.0
1307.828979 184.0
1308.512939 160.0
1308.953003 168.0
1309.060181 128.0
1309.621948 100.0
1309.7948 176.0
1310.054199 152.0
1310.558472 184.0
1311.365723 132.0
1312.007202 36.0
1312.144287 112.0
1314.238892 128.0
1314.358643 208.0
1314.697754 152.0
1315.500732 156.0
1316.156006 188.0
1316.791626 240.0
1317.644043 200.0
1318.995483 232.0
1319.508667 164.0
1320.391968 172.0
1320.542847 160.0
1320.730957 144.0
1320.9552 120.0
1322.706421 216.0
1323.024902 64.0
1323.372437 144.0
1324.109497 140.0
1325.418091 176.0
1325.523804 132.0
1326.42981 152.0
1327.038818 152.0
1328.264526 208.0
1328.518433 136.0
1328.939209 164.0
1329.15686 184.0
1329.650391 40.0
1329.991577 124.0
1331.087891 120.0
1331.952148 184.0
1333.245483 204.0
1334.36499 212.0
1334.881226 172.0
1335.386597 176.0
1335.797607 164.0
1338.170288 64.0
1338.687256 204.0
1340.705322 192.0
1340.938477 216.0
1341.288452 164.0
1342.688354 60.0
1343.279175 200.0
1343.3302 196.0
1344.505005 188.0
1345.439331 156.0
1346.242554 208.0
1346.381348 140.0
1346.739258 40.0
1347.513672 108.0
1347.703613 180.0
1347.959351 64.0
1348.288208 168.0
1348.960693 144.0
1349.238525 56.0
1349.830811 156.0
1349.94043 212.0
1351.820557 168.0
1353.365234 196.0
1355.452881 60.0
1355.921875 152.0
1356.390991 52.0
1357.147583 208.0
1357.644775 152.0
1357.842773 128.0
1358.143555 176.0
1358.987183 120.0
1359.515625 140.0
1360.161499 224.0
1360.24231 148.0
1360.367065 300.0
1361.204102 124.0
1361.284912 136.0
1361.835693 156.0
1362.144165 164.0
1362.467407 168.0
1362.812744 140.0
1363.180176 156.0
1363.334595 184.0
1365.120972 180.0
1366.005859 168.0
1366.237793 184.0
1366.349365 72.0
1367.688721 80.0
1367.821289 184.0
1368.012695 152.0
1368.483032 200.0
1369.234985 168.0
1369.883179 176.0
1369.986328 116.0
1370.214722 124.0
1370.524292 72.0
1370.99585 144.0
1371.821411 264.0
1372.831543 164.0
1372.949585 164.0
1373.430176 132.0
1373.650269 164.0
1374.078247 168.0
1374.144653 88.0
1374.196289 144.0
1374.904663 172.0
1375.229492 152.0
1376.40332 156.0
1376.469727 32.0
1377.008911 224.0
1378.057861 168.0
1378.604736 120.0
1378.678711 220.0
1379.336548 168.0
1379.935303 172.0
1380.238525 144.0
1380.867065 180.0
1380.933716 136.0
1381.606812 92.0
1381.95459 268.0
1382.170776 164.0
1382.561401 200.0
1382.69458 188.0
1384.108643 164.0
1384.605591 240.0
1384.75293 136.0
1385.450317 136.0
1386.387085 180.0
1386.664551 156.0
1387.094482 200.0
1387.390991 220.0
1387.56897 232.0
1388.154785 168.0
1388.303101 256.0
1388.35498 136.0
1388.837036 132.0
1389.000244 212.0
1389.230225 192.0
1390.603027 128.0
1391.248901 180.0
1391.768677 140.0
1392.282349 88.0
1394.658691 128.0
1395.089844 136.0
1395.20874 140.0
1395.528442 168.0
1396.063843 60.0
1397.015991 44.0
1397.640991 212.0
1398.623413 232.0
1398.764771 32.0
1398.876465 180.0
1399.293335 136.0
1400.14978 192.0
1400.583618 184.0
1401.997437 116.0
1403.063354 120.0
1403.190063 136.0
1403.734497 156.0
1404.237671 164.0
1405.181519 148.0
1405.517334 180.0
1405.920288 172.0
1406.539795 136.0
1407.585083 124.0
1407.652344 48.0
1407.973389 164.0
1408.810059 56.0
1409.422729 204.0
1410.229858 172.0
1410.329712 68.0
1410.768311 168.0
1411.896362 148.0
1412.830933 216.0
1413.235474 176.0
1413.730103 168.0
1415.144897 160.0
1415.257324 68.0
1416.410645 204.0
1416.5979 156.0
1416.854736 140.0
1416.994995 56.0
1417.504517 132.0
1417.871704 208.0
1418.081665 48.0
1418.621338 172.0
1418.883789 200.0
1419.026245 252.0
1419.116211 136.0
1419.926025 108.0
1420.016113 196.0
1420.301147 60.0
1420.983765 68.0
1421.261475 168.0
1422.40979 160.0
1422.60498 164.0
1422.867676 44.0
1423.445923 132.0
1423.588623 28.0
1423.911499 220.0
1424.414795 140.0
1424.745361 204.0
1424.843018 200.0
1425.331421 108.0
1425.819946 180.0
1427.398682 160.0
1427.699463 92.0
1427.864868 108.0
1428.052979 184.0
1428.436646 160.0
1429.407227 196.0
1429.80603 180.0
1430.746948 100.0
1431.063232 176.0
1431.733398 168.0
1431.89917 144.0
1432.109985 268.0
1432.215454 124.0
1432.931152 184.0
1433.601807 184.0
1435.577026 160.0
1435.773071 148.0
1436.103149 136.0
1436.141724 60.0
1436.162842 188.0
1436.489624 128.0
1437.447876 32.0
1438.210205 168.0
1439.161499 204.0
1441.079956 212.0
1441.525879 188.0
1442.107788 144.0
1443.067871 180.0
1443.665283 52.0
1444.149292 136.0
1444.277954 164.0
1444.346069 96.0
1444.663696 148.0
1445.972778 84.0
1446.033325 132.0
1446.184814 124.0
1446.949341 48.0
1447.025024 160.0
1447.577881 120.0
1447.668701 244.0
1448.229248 240.0
1448.456421 260.0
1448.729126 176.0
1448.850342 204.0
1449.100464 56.0
1450.843628 120.0
1450.911865 124.0
1451.002808 164.0
1451.503296 204.0
1452.117554 140.0
1452.929321 204.0
1454.515381 192.0
1454.726929 144.0
1455.024048 228.0
1455.608643 164.0
1456.428955 212.0
1456.565674 136.0
1457.013916 36.0
1457.082275 288.0
1457.254761 188.0
1457.621826 168.0
1458.868286 52.0
1458.9823 172.0
1459.552612 160.0
1459.697144 116.0
1459.94043 124.0
1460.024048 136.0
1460.442383 128.0
1460.54895 236.0
1460.663086 60.0
1462.17627 100.0
1463.128784 212.0
1463.677002 140.0
1464.293823 212.0
1464.61377 136.0
1466.629517 184.0
1466.800781 100.0
1467.014282 168.0
1467.197144 52.0
1467.441162 164.0
1467.570801 140.0
1468.463013 220.0
1468.600342 192.0
1468.844482 216.0
1469.187744 152.0
1469.50061 244.0
1469.966064 68.0
1470.103394 92.0
1470.217896 168.0
1470.400146 188.0
1470.958252 200.0
1471.339966 164.0
1471.485107 96.0
1472.22583 140.0
1472.416748 228.0
1472.584717 208.0
1472.897949 132.0
1473.814697 160.0
1474.922974 244.0
1475.106323 156.0
1476.612793 188.0
1476.895752 236.0
1480.605591 244.0
1480.959961 192.0
1481.036865 152.0
1481.526367 180.0
1481.764648 184.0
1481.825928 172.0
1482.239746 36.0
1484.056519 212.0
1484.731323 104.0
1485.452271 76.0
1485.552002 164.0
1485.782227 128.0
1485.95105 176.0
1486.055786 184.0
1487.209595 148.0
1488.637695 160.0
1489.125977 148.0
1489.210083 188.0
1489.782104 140.0
1490.027954 188.0
1490.327637 168.0
1491.860596 188.0
1492.995117 156.0
1493.518188 168.0
1493.833618 124.0
1495.765137 248.0
1496.234741 208.0
1496.465698 40.0
1497.135742 144.0
1497.289673 180.0
1497.551636 176.0
1497.952148 180.0
1498.275757 196.0
1498.337402 188.0
1498.938354 148.0
1499.277466 208.0
1499.346802 164.0
1499.500977 160.0
1500.418335 240.0
1500.788452 64.0
1501.698486 164.0
1502.138062 164.0
1503.202881 148.0
1503.54248 164.0
1503.650513 240.0
1503.778809 204.0
1503.889771 176.0
1504.067261 144.0
1504.22937 184.0
1504.337524 188.0
1504.430176 168.0
1504.491943 236.0
1504.87793 124.0
1505.410767 88.0
