>compound Tranilast (SB 252218)
>formula C18H17NO5
>ionization [M+H]+
>parentmass 328.118
#inchi InChI=1S/C18H17NO5/c1-23-15-9-7-12(11-16(15)24-2)8-10-17(20)19-14-6-4-3-5-13(14)18(21)22/h3-11H,1-2H3,(H,19,20)(H,21,22)/b10-8+
#inchikey NZHGWWWHIYHZNX
#Ion_Source LC-ESI
#Instrument qTof
#Compound_Source Commercial
#PI Dorrestein
#Data_Collector Garg_Neha
#Scan -1
#Precursor_MZ 328.118
#ExactMass 327.111
#Charge 1
#CAS_Number 53902-12-8, 104931-56-8 (sodium salt)
#Pubmed_ID N/A
#Smiles C1(=C(C=CC(=C1)/C=C/C(NC2=CC=CC=C2C(O)=O)=O)OC)OC
#INCHI_AUX N/A
#Library_Class 1
#SpectrumID CCMSLIB00000078148
#IonMode Positive
#UpdateWorkflowName UPDATE-SINGLE-ANNOTATED-GOLD
#LibraryQualityString Gold
#TaskID 77f51c88eb8b467eb4a01dd2d0cb90d2
##Scan# 1423
#SpectrumFile Plate2_61_88_GG8_01_16496.mzXML
#LibraryName FDALibrary_2_04302014.mgf
#MQScore -1
#Organism FDALibrary_2_04302014
#TIC_Query 0
#RT_Query -1
#MZErrorPPM -1
#SharedPeaks 0
#MassDiff 0
#LibMZ -1
#SpecMZ 328.118
#SpecCharge 0
#internalFilename spec-00000.mgf

>collision 10
44.970085 236.0
45.092964 236.0
46.015827 152.0
46.036083 156.0
46.121197 200.0
46.214512 164.0
46.241577 148.0
46.822662 180.0
47.032631 176.0
47.212978 192.0
47.353947 228.0
47.432045 144.0
47.556866 152.0
48.652916 208.0
49.141422 144.0
49.313183 184.0
49.78392 160.0
50.066589 176.0
50.610252 176.0
50.637157 140.0
51.126961 252.0
51.246574 180.0
51.91412 192.0
52.555676 196.0
52.824394 144.0
52.834522 332.0
52.92136 152.0
53.313015 244.0
53.809986 200.0
54.23542 140.0
54.291134 144.0
54.624542 196.0
54.792366 140.0
55.119919 160.0
55.515163 188.0
55.711086 188.0
56.056271 184.0
56.126331 180.0
56.323326 204.0
56.967453 176.0
57.182476 196.0
57.789108 172.0
59.989937 240.0
61.525791 140.0
62.290001 164.0
62.401581 152.0
62.63134 192.0
63.224991 224.0
63.3279 184.0
63.635544 188.0
63.932793 184.0
66.223915 156.0
66.254692 176.0
66.486557 212.0
67.24987 212.0
67.480209 176.0
67.702744 164.0
68.047096 164.0
68.616348 144.0
69.058907 172.0
70.766319 224.0
70.845039 176.0
72.560692 172.0
72.659058 164.0
72.908669 200.0
73.407463 204.0
73.788231 148.0
74.827934 148.0
75.445564 160.0
76.543846 176.0
76.569969 160.0
76.603065 200.0
76.702393 164.0
77.201729 184.0
78.062775 232.0
78.601799 196.0
78.933235 108.0
79.055954 184.0
79.664108 168.0
80.54409 172.0
80.742485 208.0
81.59243 232.0
82.287865 144.0
82.939117 204.0
84.840431 148.0
85.464882 204.0
86.539116 208.0
86.909813 172.0
87.739326 212.0
89.402649 156.0
89.598473 152.0
89.900162 204.0
89.917145 144.0
89.949234 160.0
91.189896 140.0
91.296356 164.0
93.652397 180.0
93.688995 184.0
94.184753 240.0
95.015228 268.0
95.263718 176.0
95.288971 260.0
95.649864 264.0
95.759727 180.0
95.790894 160.0
95.913658 164.0
96.001389 156.0
96.139641 152.0
96.397675 144.0
96.60688 184.0
96.644051 228.0
96.947571 140.0
97.365433 140.0
98.006729 148.0
98.537476 180.0
99.095413 152.0
99.220276 208.0
99.575462 172.0
99.70063 172.0
99.734413 268.0
100.976578 208.0
100.996582 180.0
101.048592 164.0
101.571457 220.0
101.956955 204.0
102.049225 244.0
102.345192 224.0
102.369354 180.0
103.058983 160.0
103.196663 168.0
103.425262 172.0
103.668297 168.0
104.000908 292.0
104.816429 152.0
105.032272 204.0
105.071045 720.0
105.346893 232.0
105.780418 148.0
106.030304 144.0
106.079498 192.0
106.093849 196.0
106.356415 168.0
106.430321 208.0
107.170799 252.0
109.941223 164.0
111.194832 172.0
111.699112 236.0
111.797997 184.0
112.059105 208.0
113.888985 160.0
114.116371 188.0
114.231216 204.0
114.917206 228.0
116.21167 192.0
116.535873 208.0
117.036736 172.0
117.058571 188.0
117.209351 172.0
117.634232 180.0
118.041771 388.0
119.050056 800.0
119.347946 184.0
120.016403 208.0
120.054642 272.0
121.05658 176.0
123.448608 180.0
124.226028 184.0
126.06189 192.0
126.398323 164.0
128.43602 176.0
128.483398 188.0
129.075165 160.0
129.774536 160.0
131.029419 188.0
131.072708 144.0
131.127502 164.0
131.300674 204.0
132.058548 1032.0
132.097809 156.0
132.365601 208.0
132.592392 204.0
133.007538 172.0
133.028702 392.0
133.063629 496.0
133.763794 220.0
134.032654 168.0
134.066254 224.0
134.390656 148.0
134.944977 156.0
135.030533 192.0
135.080597 356.0
135.518982 180.0
136.656677 164.0
136.947662 180.0
137.06308 192.0
137.588928 192.0
137.60527 152.0
138.011826 260.0
139.406555 192.0
139.509964 140.0
140.617065 256.0
141.262115 144.0
141.700089 176.0
142.096024 180.0
143.077576 208.0
143.158524 228.0
143.494507 160.0
143.888168 140.0
143.978897 144.0
145.022034 176.0
146.036606 420.0
146.432404 212.0
146.519119 176.0
146.912079 160.0
147.044006 688.0
147.999664 160.0
148.019028 272.0
148.052063 3656.0
148.089264 148.0
148.247864 112.0
149.054626 164.0
149.843155 216.0
150.01619 148.0
150.406479 156.0
150.611588 148.0
150.76796 184.0
151.252228 172.0
151.587753 248.0
151.87706 148.0
152.038986 152.0
152.264847 192.0
153.759262 152.0
154.156876 256.0
155.677902 160.0
156.013336 200.0
158.037094 128.0
158.098557 140.0
158.396515 148.0
159.040924 144.0
160.052185 1212.0
160.09436 212.0
161.05394 380.0
161.267517 168.0
162.409454 184.0
162.4272 212.0
162.927231 152.0
162.995895 208.0
163.075974 12008.0
163.184677 164.0
163.336578 220.0
163.38237 164.0
163.555405 152.0
164.018997 220.0
164.080811 1060.0
165.056961 304.0
166.552216 148.0
166.984009 176.0
167.261902 216.0
167.725555 152.0
169.454422 156.0
171.635147 172.0
172.813141 144.0
173.423309 288.0
174.008301 232.0
174.160614 156.0
174.486465 156.0
174.902115 152.0
175.033737 172.0
175.814041 168.0
175.850983 140.0
176.048431 1876.0
176.765381 152.0
176.945374 156.0
177.04747 128.0
177.067169 256.0
177.122803 184.0
177.812164 204.0
177.979416 176.0
178.04747 184.0
178.933929 160.0
179.312057 164.0
179.482788 236.0
179.658829 164.0
179.717514 204.0
180.20079 196.0
180.339752 152.0
181.271088 140.0
183.666565 180.0
184.966278 212.0
186.10762 164.0
186.90947 176.0
188.357147 164.0
188.630402 216.0
189.826859 164.0
189.878967 180.0
190.010635 140.0
190.342743 140.0
190.669647 152.0
190.691986 160.0
190.815338 220.0
190.854385 100.0
190.914322 204.0
190.942551 216.0
190.997894 220.0
191.019516 164.0
191.070724 70940.0
191.159531 148.0
191.238022 120.0
191.260986 156.0
191.348328 176.0
191.550125 184.0
191.582581 148.0
191.814651 196.0
192.074051 6724.0
192.128235 248.0
193.076401 1144.0
193.10965 188.0
193.217529 184.0
193.424179 232.0
193.486496 108.0
193.598434 124.0
193.899796 100.0
194.931061 144.0
213.99382 176.0
228.57637 140.0
265.083527 180.0
285.277832 356.0
286.110596 176.0
310.103821 460.0
325.270325 144.0
327.193573 140.0
331.198364 180.0
456.826935 140.0
1002.082153 216.0
1061.980591 144.0
1076.506836 144.0
1238.57312 156.0
1276.608521 156.0
1320.934692 156.0
1380.399536 212.0
1388.011841 176.0
1413.644531 180.0
1478.518921 160.0
1493.703125 184.0
1496.057861 152.0
1544.285522 268.0
1548.25354 220.0
1599.735718 164.0
1600.882202 160.0
1613.313354 140.0
1617.160889 188.0
1634.809204 160.0
1645.844604 180.0
1664.59021 172.0
1688.827759 164.0
1744.522339 192.0
1744.746826 160.0
1746.734375 144.0
1747.150269 152.0
1750.920898 152.0
1755.379395 140.0
1757.556519 172.0
1758.232422 148.0
1764.998901 188.0
1786.015503 140.0
1789.58374 168.0
1795.840088 248.0
1811.211548 148.0
1812.02478 192.0
1817.519043 216.0
1829.290039 192.0
1837.641968 196.0
1839.331665 156.0
1862.047241 152.0
1864.469971 144.0
1864.942749 212.0
1865.467041 172.0
1869.001831 144.0
1871.696045 176.0
1872.057617 196.0
1874.05603 168.0
1875.960693 220.0
1883.24353 164.0
1883.433594 208.0
1891.5271 212.0
1897.565308 224.0
1899.212891 148.0
1905.984497 148.0
1911.906494 156.0
1926.511353 148.0
1931.091675 208.0
1940.707031 184.0
1943.943726 224.0
1952.429932 204.0
1960.13269 180.0
1960.291382 148.0
1984.422363 168.0
2000.974487 204.0
2002.746582 188.0
