>compound MLS002154021-01!Ifosfamide3778-73-2
>formula C7H15Cl2N2O2P
>ionization [M+H]+
>parentmass 261.030304
#inchi InChI=1S/C7H15Cl2N2O2P/c8-2-4-10-14(12)11(6-3-9)5-1-7-13-14/h1-7H2,(H,10,12)
#inchikey HOMGKSMUEGBAAB
#Ion_Source LC-ESI
#Instrument qTof
#Compound_Source NIH Pharmacologically Active Library
#PI Dorrestein
#Data_Collector VP/LMS
#Scan -1
#Precursor_MZ 261.03
#ExactMass 260.025
#Charge 1
#CAS_Number N/A
#Pubmed_ID N/A
#Smiles ClCCNP1(=O)OCCCN1CCCl
#INCHI_AUX N/A
#Library_Class 1
#SpectrumID CCMSLIB00000085950
#IonMode Positive
#UpdateWorkflowName UPDATE-SINGLE-ANNOTATED-GOLD
#LibraryQualityString Gold
#TaskID d252d724072548979f1f6f1ced849daf
##Scan# 1476
#SpectrumFile p4-H06_GH6_01_18414.mzXML
#LibraryName Pharm_Active_Library.mgf
#MQScore -1
#Organism Pharm_Active_Library
#TIC_Query 0
#RT_Query -1
#MZErrorPPM -1
#SharedPeaks 0
#MassDiff 0
#LibMZ -1
#SpecMZ 261.03
#SpecCharge 0
#internalFilename spec-00000.mgf

>collision 10
46.73716 204.0
47.452892 160.0
47.658775 156.0
48.027737 168.0
48.093967 148.0
49.410011 136.0
49.684608 180.0
50.752323 28.0
50.989395 168.0
51.178596 160.0
52.055164 132.0
52.306774 172.0
52.341328 224.0
53.001469 260.0
53.616177 156.0
53.640957 208.0
54.605911 144.0
54.876873 164.0
55.318615 156.0
55.533478 180.0
55.545345 148.0
55.962959 140.0
56.640987 156.0
56.831387 124.0
56.852398 132.0
56.98003 196.0
57.596184 76.0
57.694408 168.0
58.23539 116.0
59.263618 184.0
59.387794 52.0
60.515877 56.0
61.253574 148.0
61.87043 132.0
62.18708 28.0
62.242027 56.0
62.498245 224.0
63.850826 224.0
64.022713 212.0
64.370361 200.0
64.518959 60.0
64.988235 144.0
66.857941 160.0
66.937714 160.0
67.549767 152.0
67.729828 48.0
68.043922 256.0
68.475533 164.0
68.595818 164.0
68.94574 52.0
69.94091 148.0
71.740059 168.0
71.940811 152.0
72.072556 228.0
72.278847 148.0
72.763611 152.0
73.592796 176.0
74.153908 104.0
74.171646 136.0
74.178474 48.0
74.182503 152.0
74.696503 140.0
74.928909 136.0
74.940971 156.0
75.546974 196.0
75.711411 136.0
75.867355 208.0
76.075539 128.0
77.040329 160.0
77.125961 132.0
77.139946 152.0
77.187149 188.0
77.507484 188.0
78.009445 212.0
78.638298 148.0
78.809593 292.0
79.004082 192.0
79.416817 128.0
79.48246 200.0
79.496658 148.0
79.844864 172.0
80.28833 76.0
80.695465 136.0
81.234535 76.0
81.995132 192.0
83.038353 76.0
83.546974 216.0
83.65799 204.0
84.011536 208.0
84.261856 176.0
85.749886 128.0
86.486862 148.0
86.796257 180.0
88.274818 176.0
88.357117 228.0
90.190666 180.0
90.995804 188.0
91.286522 180.0
91.873177 176.0
92.025917 2348.0
92.218811 140.0
92.373695 36.0
93.033005 184.0
93.249985 168.0
94.02401 652.0
94.068626 76.0
95.026611 300.0
95.251816 172.0
95.999207 120.0
96.129913 232.0
96.506912 140.0
96.667313 200.0
96.961075 104.0
97.074776 136.0
97.955307 304.0
98.938919 168.0
98.990257 52.0
99.055618 192.0
99.779976 100.0
99.962975 156.0
99.992241 204.0
100.928452 124.0
101.01445 204.0
101.503143 176.0
101.715813 256.0
102.017143 132.0
102.14785 180.0
102.756264 100.0
102.865242 212.0
103.135925 216.0
103.336136 188.0
103.992714 108.0
104.047523 180.0
104.541458 76.0
105.19165 136.0
106.004616 900.0
107.055435 208.0
107.325386 212.0
107.812561 136.0
107.924187 152.0
107.998642 140.0
108.025528 148.0
108.690598 76.0
108.962601 168.0
109.018707 168.0
109.2183 224.0
110.593369 96.0
111.283081 196.0
112.044449 192.0
112.825325 156.0
113.625885 152.0
113.793556 112.0
115.207726 144.0
115.357315 116.0
115.964188 156.0
116.951195 492.0
117.000633 80.0
117.088921 40.0
117.17939 88.0
117.589111 136.0
117.967125 208.0
118.005775 1344.0
118.043777 568.0
118.332748 180.0
118.948608 424.0
118.991859 148.0
119.043976 132.0
119.69635 216.0
119.868439 92.0
119.912025 68.0
119.975502 168.0
120.023407 320.0
120.056259 1488.0
120.330864 80.0
120.615677 88.0
120.667328 96.0
121.021782 164.0
121.057373 252.0
121.085289 68.0
121.225502 128.0
121.609306 128.0
121.903603 40.0
122.056046 224.0
122.969536 152.0
123.026924 216.0
123.594948 200.0
123.971962 396.0
124.018776 160.0
124.066711 124.0
124.483849 176.0
124.806061 112.0
125.208847 68.0
125.82206 196.0
125.951164 1156.0
126.01712 48.0
126.110229 160.0
126.342796 184.0
126.55542 292.0
126.64724 124.0
126.970261 196.0
127.216812 208.0
127.504326 68.0
127.79216 40.0
127.948486 540.0
127.966072 1096.0
128.026825 452.0
128.238052 236.0
128.350769 144.0
128.447754 108.0
128.517685 136.0
128.68924 228.0
128.965881 400.0
129.013397 232.0
129.93634 140.0
129.959641 324.0
130.556458 184.0
131.098282 200.0
131.668625 188.0
131.801117 116.0
131.931396 124.0
132.249374 148.0
132.537933 184.0
134.508926 132.0
135.014938 168.0
135.269455 40.0
135.470932 140.0
135.943924 56.0
135.971405 192.0
136.015976 588.0
136.554947 36.0
137.708679 124.0
137.984421 108.0
138.070938 132.0
138.16217 152.0
139.346146 192.0
139.967117 184.0
139.972351 160.0
139.981888 220.0
140.738174 168.0
141.982208 1060.0
142.070679 32.0
142.111008 68.0
142.217804 64.0
142.78804 84.0
143.927155 280.0
143.959503 416.0
143.977936 360.0
144.070465 204.0
144.087189 48.0
144.144531 100.0
145.058807 44.0
146.037659 912.0
146.975662 184.0
147.035995 152.0
148.138596 68.0
148.448837 176.0
149.247757 160.0
150.480652 148.0
151.873123 120.0
153.385376 192.0
153.471664 84.0
153.841736 200.0
153.92569 192.0
153.981964 11728.0
154.015564 124.0
154.059067 40.0
154.088715 48.0
154.184097 60.0
154.298798 36.0
154.45459 168.0
154.548599 68.0
154.637695 96.0
154.75354 80.0
154.858047 76.0
154.932358 72.0
154.984177 176.0
155.131348 68.0
155.361252 92.0
155.49028 56.0
155.544891 40.0
155.979126 4444.0
156.064346 48.0
156.098938 100.0
156.195938 116.0
156.290482 36.0
156.974564 224.0
157.607056 88.0
158.097183 140.0
158.959244 160.0
161.051422 208.0
162.984436 100.0
163.037796 104.0
163.839325 80.0
164.992889 120.0
166.142792 136.0
166.977631 120.0
171.994492 192.0
172.119324 196.0
172.634125 160.0
173.873291 52.0
173.983551 48.0
174.007172 152.0
174.127975 156.0
174.501114 132.0
174.885193 180.0
176.587036 76.0
176.737839 144.0
181.809097 160.0
181.9272 124.0
181.954056 204.0
182.014816 1724.0
182.066833 44.0
183.008499 180.0
183.032242 212.0
184.009903 296.0
189.950729 176.0
191.951508 132.0
193.211197 84.0
196.115891 116.0
197.02002 100.0
198.080276 164.0
198.934387 152.0
200.019775 140.0
201.837585 112.0
202.029922 152.0
207.899765 236.0
217.076141 256.0
217.936218 136.0
217.98616 144.0
218.989395 164.0
221.002747 156.0
222.962906 112.0
225.051132 128.0
230.068176 164.0
231.610428 180.0
232.598969 124.0
232.641464 128.0
233.001083 1044.0
233.051483 80.0
233.300705 36.0
233.960861 120.0
235.000229 956.0
235.03067 152.0
235.910278 80.0
237.864716 60.0
241.151367 208.0
244.161896 172.0
260.190918 108.0
261.030304 716.0
262.027374 112.0
262.907654 104.0
263.027161 256.0
264.027283 180.0
280.077057 108.0
312.878967 56.0
336.425964 100.0
346.443939 76.0
434.721069 92.0
520.644348 68.0
550.027039 52.0
678.414429 80.0
735.461426 200.0
795.119812 80.0
829.070435 192.0
871.622253 128.0
872.121765 196.0
877.720581 172.0
882.970581 168.0
911.239014 52.0
918.505371 208.0
920.04425 152.0
970.940796 176.0
1007.182068 148.0
1007.832764 124.0
1009.134888 148.0
1011.292053 100.0
1013.236145 184.0
1014.345215 184.0
1023.665894 68.0
1031.545654 40.0
1035.564087 204.0
1041.471558 200.0
1044.601929 128.0
1050.838379 184.0
1065.412109 144.0
1066.269897 120.0
1073.509277 244.0
1082.082275 148.0
1108.350464 144.0
1114.122803 180.0
1132.976562 72.0
1140.06897 52.0
1145.040771 140.0
1147.385864 152.0
1152.79248 100.0
1158.245728 144.0
1170.491089 172.0
1170.763428 184.0
1171.151733 116.0
1182.958252 52.0
1183.834717 200.0
1185.053955 80.0
1186.609863 272.0
1202.811279 136.0
1203.315186 164.0
1210.298706 116.0
1218.580444 136.0
1224.695435 212.0
1238.623779 144.0
1249.779541 164.0
1251.98291 216.0
1252.116699 136.0
1253.553955 204.0
1255.457397 32.0
1255.626587 140.0
1258.936523 180.0
1267.496216 128.0
1278.403809 188.0
1294.773926 84.0
1303.166992 180.0
1312.199829 168.0
1314.082397 180.0
1316.890503 148.0
1321.329102 116.0
1323.261475 60.0
1324.57959 124.0
1325.608398 148.0
1329.444702 260.0
1329.74231 52.0
1331.949585 212.0
1336.282471 188.0
1339.806274 52.0
1346.217773 200.0
1350.42749 180.0
1352.293213 196.0
1355.310547 92.0
1356.549072 144.0
1356.600464 200.0
1358.448486 132.0
1358.881348 216.0
1359.930664 44.0
1370.77124 168.0
1374.089355 128.0
1378.216797 168.0
1381.181396 180.0
1391.252197 148.0
1393.970703 132.0
1394.765991 64.0
1399.862427 100.0
1402.753418 136.0
1404.550537 132.0
1410.419678 208.0
1410.62146 236.0
1419.90625 96.0
1422.217285 132.0
1422.990479 168.0
1426.581665 188.0
1427.273315 108.0
1428.33374 108.0
1428.491699 128.0
1429.341919 152.0
1430.282715 200.0
1430.892456 44.0
1433.280151 144.0
1434.930908 216.0
1436.228027 184.0
1439.002808 64.0
1440.508057 188.0
1442.034424 140.0
1445.982544 132.0
1454.221191 160.0
1458.634399 120.0
1459.311035 156.0
1464.638306 180.0
1465.605835 212.0
1465.735352 156.0
1474.007202 92.0
1481.022827 168.0
1484.003906 84.0
1485.944458 164.0
1489.168579 168.0
1491.594604 176.0
1493.749878 180.0
1497.737305 152.0
1498.746582 168.0
