>compound MLS001165770-01!ROFECOXIB
>formula C17H14O4S
>ionization [M+H]+
>parentmass 315.07
#inchi InChI=1S/C17H14O4S/c1-22(19,20)14-9-7-12(8-10-14)15-11-21-17(18)16(15)13-5-3-2-4-6-13/h2-10H,11H2,1H3
#inchikey RZJQGNCSTQAWON
#Ion_Source LC-ESI
#Instrument qTof
#Compound_Source NIH Pharmacologically Active Library
#PI Dorrestein
#Data_Collector VP/LMS
#Scan -1
#Precursor_MZ 315.07
#ExactMass 314.061
#Charge 1
#CAS_Number N/A
#Pubmed_ID N/A
#Smiles CS(=O)(=O)c1ccc(cc1)C2=C(C(=O)OC2)c3ccccc3
#INCHI_AUX N/A
#Library_Class 1
#SpectrumID CCMSLIB00000085763
#IonMode Positive
#UpdateWorkflowName UPDATE-SINGLE-ANNOTATED-GOLD
#LibraryQualityString Gold
#TaskID d252d724072548979f1f6f1ced849daf
##Scan# 1883
#SpectrumFile p4-F03_GF3_01_18387.mzXML
#LibraryName Pharm_Active_Library.mgf
#MQScore -1
#Organism Pharm_Active_Library
#TIC_Query 0
#RT_Query -1
#MZErrorPPM -1
#SharedPeaks 0
#MassDiff 0
#LibMZ -1
#SpecMZ 315.07
#SpecCharge 0
#internalFilename spec-00000.mgf

>collision 10
45.05201 160.0
45.672161 72.0
46.204334 116.0
46.441399 212.0
48.068161 220.0
48.213165 112.0
48.584263 212.0
48.812054 216.0
49.084988 176.0
49.283203 180.0
49.607906 268.0
50.244987 140.0
50.662052 192.0
50.871941 120.0
51.004051 152.0
51.422817 176.0
51.698654 160.0
51.877701 232.0
52.09296 180.0
52.452721 40.0
53.138222 160.0
53.295036 156.0
53.31974 168.0
53.565643 100.0
53.628304 148.0
53.669121 164.0
53.964069 160.0
54.053295 200.0
54.300884 116.0
54.441776 124.0
55.021938 180.0
55.047039 48.0
55.172634 176.0
55.54879 176.0
55.593304 144.0
56.085606 228.0
56.258648 164.0
57.198586 132.0
57.313049 228.0
58.454823 196.0
58.724483 124.0
58.866417 108.0
58.878635 56.0
59.11866 136.0
59.150799 184.0
59.590954 160.0
59.614002 96.0
59.789322 160.0
60.085178 152.0
60.967812 236.0
61.057983 176.0
61.339813 188.0
61.422459 156.0
61.438057 160.0
61.722324 164.0
61.894451 168.0
62.695629 136.0
62.79969 168.0
62.851749 204.0
62.984367 144.0
63.08234 112.0
63.354538 204.0
63.443287 180.0
63.484516 108.0
63.511478 44.0
63.837067 208.0
64.16349 164.0
64.97596 176.0
65.067444 148.0
65.10759 140.0
65.223274 144.0
65.819382 184.0
66.359825 184.0
66.393875 168.0
66.42794 176.0
66.457138 148.0
66.518814 152.0
66.575645 148.0
66.819466 96.0
67.246422 152.0
67.484932 124.0
67.65345 168.0
68.217789 168.0
68.296715 152.0
68.741554 160.0
68.933113 236.0
69.100121 192.0
69.335266 156.0
69.529312 112.0
69.796021 176.0
69.875145 164.0
69.9282 240.0
70.011444 108.0
70.379982 172.0
70.423401 60.0
70.548729 108.0
70.593872 120.0
70.818138 116.0
70.950523 180.0
71.009216 56.0
71.219025 172.0
71.331604 132.0
71.953255 220.0
72.823677 148.0
73.409142 244.0
73.525146 128.0
73.607094 184.0
73.678825 132.0
73.777954 164.0
74.451363 180.0
74.895103 196.0
75.050209 100.0
75.360901 40.0
75.442139 128.0
75.911362 140.0
76.029327 188.0
76.183868 188.0
77.331276 164.0
77.401306 184.0
78.008362 76.0
78.045288 172.0
78.224739 192.0
78.751976 136.0
78.820877 140.0
79.125107 124.0
79.25972 116.0
79.78154 100.0
79.929169 180.0
80.171356 220.0
81.097168 128.0
81.326759 180.0
81.43808 232.0
82.075165 48.0
82.161743 172.0
82.409096 148.0
82.579025 52.0
82.636909 132.0
82.698441 120.0
83.03363 92.0
83.206024 148.0
83.296822 140.0
83.327713 160.0
83.378593 112.0
83.737007 92.0
83.862732 200.0
84.3172 144.0
84.487259 196.0
85.345627 128.0
85.645607 176.0
86.604263 160.0
86.739532 108.0
86.769196 132.0
86.863777 148.0
87.060516 176.0
87.285378 180.0
87.404427 156.0
87.711731 88.0
88.079338 288.0
88.174629 148.0
90.306793 176.0
90.405174 28.0
91.004181 116.0
91.251183 156.0
91.275902 136.0
91.548035 208.0
91.772888 204.0
91.868248 72.0
92.759399 144.0
92.828423 52.0
93.523918 184.0
93.701088 148.0
94.032768 156.0
94.250992 176.0
94.291573 232.0
94.465599 228.0
94.50042 172.0
95.178841 104.0
95.904503 128.0
96.920761 220.0
97.214905 136.0
97.775009 116.0
97.895096 184.0
98.060593 172.0
98.082275 228.0
98.172966 128.0
98.224251 200.0
98.307114 124.0
98.668587 148.0
98.828796 240.0
99.441154 204.0
99.782829 224.0
100.268539 104.0
100.316383 164.0
100.477921 116.0
100.779411 120.0
100.955322 176.0
101.397774 160.0
101.841187 112.0
101.905472 132.0
102.007973 188.0
102.046173 152.0
102.219154 140.0
102.24733 132.0
102.450706 140.0
102.684532 344.0
102.856041 132.0
102.876228 64.0
102.989311 60.0
103.057083 220.0
103.598198 176.0
104.090714 252.0
104.21904 60.0
104.235298 188.0
105.032776 336.0
105.306908 140.0
106.167191 192.0
106.978119 80.0
107.495461 220.0
107.538803 136.0
107.619316 184.0
107.941666 104.0
108.577438 176.0
109.775337 144.0
110.0821 108.0
110.309845 172.0
110.717857 56.0
111.254646 160.0
111.330238 200.0
111.674927 172.0
111.735931 236.0
112.433411 108.0
113.037819 192.0
113.287659 168.0
113.310966 64.0
113.378777 156.0
113.491127 108.0
113.645966 184.0
113.783928 128.0
114.64328 108.0
114.783981 196.0
115.050156 388.0
116.103455 44.0
116.476921 116.0
116.922005 64.0
118.17144 188.0
118.216881 160.0
118.483215 92.0
118.89521 100.0
119.047173 124.0
119.112335 116.0
119.155785 172.0
119.440575 180.0
119.62989 136.0
119.838974 176.0
120.281693 184.0
120.752563 144.0
121.025703 320.0
121.491859 208.0
121.638893 128.0
121.678413 128.0
121.898064 152.0
122.065132 152.0
122.23011 128.0
122.304939 140.0
123.67569 144.0
123.956963 96.0
124.436081 228.0
124.500473 148.0
125.267799 192.0
125.624527 84.0
126.646095 192.0
126.977814 164.0
128.618103 124.0
128.719696 260.0
128.742279 152.0
129.063171 132.0
129.14006 152.0
129.180771 140.0
129.416153 164.0
129.509003 92.0
130.038666 244.0
130.189423 200.0
130.309814 112.0
130.455261 180.0
130.637192 144.0
130.757797 140.0
131.047516 636.0
131.133591 120.0
131.227066 144.0
131.457443 104.0
132.017151 152.0
132.05603 116.0
132.225342 228.0
132.922012 60.0
133.027603 148.0
133.068924 92.0
133.134689 144.0
133.152573 160.0
133.38826 224.0
133.611328 56.0
133.638931 52.0
133.95665 140.0
134.277054 68.0
134.443161 176.0
134.916687 156.0
135.323883 168.0
136.100632 56.0
136.142441 160.0
136.48172 196.0
136.819077 168.0
136.993744 140.0
137.492737 220.0
137.61412 192.0
138.016022 188.0
138.765274 64.0
138.821564 160.0
139.037384 96.0
139.053818 132.0
139.154755 180.0
139.961258 156.0
140.056717 176.0
140.326477 168.0
140.399582 140.0
140.621353 132.0
141.07489 120.0
141.574142 100.0
141.858475 140.0
142.316376 72.0
142.656113 84.0
142.912979 276.0
143.541824 148.0
143.582367 100.0
143.755341 152.0
143.811417 104.0
144.54274 168.0
144.573837 120.0
144.93544 212.0
144.978577 64.0
145.084045 188.0
145.103226 124.0
145.491684 140.0
146.034973 148.0
146.179321 144.0
146.227448 204.0
146.369492 172.0
146.446564 116.0
147.042099 176.0
147.05899 184.0
147.249374 132.0
147.479263 204.0
147.546951 192.0
147.965515 124.0
148.261032 116.0
148.408905 132.0
148.442856 52.0
148.952545 100.0
149.448502 188.0
150.135452 64.0
150.228134 164.0
150.660248 144.0
150.8582 160.0
150.990234 40.0
151.052734 196.0
151.379364 132.0
151.413651 140.0
151.842545 176.0
152.061111 2332.0
153.061569 484.0
153.597427 132.0
153.887512 136.0
154.01265 220.0
154.376785 164.0
154.52272 84.0
154.64151 236.0
154.993164 184.0
155.129486 128.0
155.739929 52.0
155.840469 152.0
155.951126 144.0
156.46109 156.0
156.904556 40.0
157.685883 192.0
157.983444 132.0
158.096893 164.0
158.166122 192.0
159.043442 152.0
159.073563 160.0
159.219208 168.0
159.392548 148.0
159.455368 132.0
159.830078 276.0
159.875366 144.0
160.679199 136.0
161.070496 136.0
161.965958 204.0
162.092636 308.0
162.110367 180.0
163.051559 196.0
163.176468 164.0
163.428284 180.0
163.965607 132.0
164.057892 372.0
165.004532 196.0
165.068497 2844.0
165.198898 40.0
165.413864 52.0
165.480423 136.0
165.646896 116.0
166.07486 644.0
166.108322 184.0
166.321304 212.0
166.495895 64.0
166.54213 184.0
166.732254 108.0
166.945633 36.0
167.087112 288.0
167.251816 68.0
167.370239 28.0
167.675446 84.0
167.738663 72.0
167.790222 44.0
167.810852 124.0
168.056442 184.0
168.190079 128.0
168.378571 156.0
168.5439 32.0
168.799805 200.0
169.061096 120.0
169.125793 32.0
169.564255 184.0
169.952515 172.0
171.104385 184.0
171.690231 128.0
172.026825 56.0
172.112976 108.0
172.510117 204.0
172.748093 176.0
172.915558 216.0
173.64917 160.0
174.642014 288.0
174.899872 184.0
175.039413 160.0
175.453079 124.0
175.606033 60.0
176.059982 300.0
176.144501 212.0
176.292465 184.0
177.06929 1464.0
177.817947 124.0
178.076523 10256.0
178.149872 68.0
178.168472 44.0
178.264114 44.0
178.309296 108.0
178.333221 84.0
178.351822 64.0
178.439896 32.0
179.081131 2224.0
179.190109 136.0
179.227417 52.0
179.264725 64.0
179.331345 60.0
179.467316 36.0
179.57399 196.0
179.656677 116.0
179.899521 72.0
180.025024 148.0
180.08606 552.0
180.284149 144.0
180.323074 164.0
180.353653 84.0
180.401764 64.0
180.572891 120.0
180.671875 48.0
180.714676 140.0
181.062729 252.0
181.097504 120.0
181.207336 36.0
181.242172 200.0
181.445877 92.0
181.52095 96.0
182.060349 212.0
182.903229 164.0
183.008392 148.0
183.103851 116.0
183.494583 108.0
183.602448 100.0
184.001816 112.0
184.111115 184.0
184.2827 164.0
185.210632 128.0
185.47348 40.0
185.587341 40.0
186.051285 72.0
186.284851 172.0
187.01088 100.0
187.089813 108.0
187.250473 112.0
188.027512 44.0
188.049347 180.0
188.174911 84.0
188.417999 88.0
188.467178 148.0
188.628418 96.0
188.655762 172.0
188.911621 172.0
189.068802 12700.0
189.128998 136.0
189.249466 188.0
189.274109 40.0
189.307846 216.0
189.345306 176.0
189.397339 188.0
189.451675 48.0
189.781021 44.0
189.819412 60.0
189.857803 36.0
189.89621 192.0
189.951065 48.0
190.07608 7888.0
190.178818 212.0
190.241943 64.0
190.34079 64.0
190.373749 88.0
190.420441 196.0
190.454102 176.0
190.536545 148.0
190.653961 72.0
190.711685 132.0
190.744675 108.0
190.763916 44.0
190.793137 152.0
190.832642 36.0
190.893143 136.0
190.942642 112.0
190.996674 168.0
191.0224 52.0
191.084061 19844.0
191.155029 200.0
191.179932 84.0
191.223282 56.0
191.277832 44.0
191.316864 76.0
191.380188 104.0
191.435272 208.0
191.479324 60.0
191.50412 128.0
191.532761 60.0
191.617065 40.0
191.658386 136.0
191.691467 104.0
191.764084 68.0
191.936798 44.0
191.958054 96.0
192.033325 136.0
192.091827 6900.0
192.165741 128.0
192.185043 48.0
192.251282 64.0
192.289917 44.0
192.328552 76.0
192.375488 96.0
192.499741 132.0
192.616806 124.0
192.690323 108.0
192.712433 228.0
192.78981 44.0
192.83403 152.0
192.95842 92.0
193.005417 52.0
193.062408 328.0
193.093842 1048.0
193.221161 88.0
193.439789 124.0
193.59761 156.0
193.747192 88.0
193.863571 64.0
194.072388 968.0
194.097046 160.0
194.248962 44.0
194.29335 96.0
194.376602 48.0
194.601425 92.0
195.080261 260.0
195.989395 56.0
196.056274 120.0
196.148254 172.0
196.544281 132.0
197.058044 164.0
198.087585 200.0
199.058029 108.0
199.091736 84.0
200.092773 88.0
200.633713 72.0
200.729568 72.0
200.938309 196.0
201.099152 84.0
201.70929 164.0
201.873276 104.0
202.357132 92.0
202.668701 36.0
202.697037 124.0
203.003204 124.0
203.091125 156.0
203.224457 108.0
204.089417 180.0
204.124908 160.0
204.944702 228.0
204.984604 200.0
205.067001 340.0
205.606293 48.0
205.871796 196.0
205.950424 236.0
206.072006 6376.0
206.150909 132.0
206.474823 48.0
206.755203 72.0
206.898315 160.0
207.004257 148.0
207.077759 3844.0
207.13887 44.0
207.224823 28.0
207.41684 76.0
207.749481 88.0
207.781036 60.0
208.042206 124.0
208.083893 408.0
208.125473 76.0
208.165665 92.0
208.22023 80.0
208.967636 56.0
209.025101 252.0
209.08815 280.0
209.416733 100.0
209.557892 36.0
209.785568 76.0
210.602203 160.0
214.120453 112.0
217.060043 204.0
217.274551 56.0
217.779465 244.0
218.071335 2052.0
218.405548 76.0
218.502625 56.0
218.750076 96.0
219.073517 336.0
219.173935 120.0
220.091309 160.0
220.197617 60.0
220.457596 72.0
220.649734 40.0
221.052383 224.0
221.353958 60.0
221.685745 40.0
222.064926 1896.0
222.507385 156.0
223.069031 172.0
223.446564 52.0
223.518784 88.0
226.50058 100.0
230.870895 164.0
231.570038 160.0
233.065643 248.0
236.025452 128.0
236.08226 276.0
237.082031 136.0
238.041779 104.0
238.579483 72.0
239.068558 108.0
240.467773 132.0
241.181274 156.0
250.060028 144.0
251.893723 92.0
254.041718 168.0
256.746887 140.0
259.946014 100.0
260.051941 116.0
263.381348 40.0
268.956726 132.0
269.022003 352.0
269.061218 7180.0
269.116699 52.0
269.500946 56.0
269.819153 44.0
269.946686 148.0
270.063263 1768.0
270.154022 76.0
270.18219 44.0
271.058533 672.0
272.020691 88.0
272.063812 232.0
272.129028 116.0
272.437744 88.0
272.970215 124.0
273.167542 96.0
273.825867 76.0
273.908203 156.0
277.610016 116.0
285.575653 56.0
287.077759 172.0
287.5737 32.0
289.395844 112.0
293.981506 140.0
296.820831 136.0
297.051514 168.0
297.222168 40.0
298.060028 156.0
299.074585 136.0
299.95639 124.0
304.138489 148.0
306.012299 144.0
307.015869 48.0
311.759613 80.0
312.459351 84.0
315.071808 128.0
315.237885 84.0
317.166809 124.0
336.691772 96.0
339.396149 44.0
342.96225 112.0
346.684082 60.0
348.394623 112.0
360.089661 72.0
380.50589 56.0
381.527679 104.0
382.391235 96.0
383.259674 88.0
406.983398 56.0
413.489929 44.0
428.893127 48.0
428.946716 124.0
436.107849 68.0
464.95459 120.0
473.231323 112.0
474.596191 68.0
497.047546 64.0
517.864075 80.0
558.428589 60.0
560.132568 68.0
629.509705 88.0
631.438843 80.0
638.284302 64.0
651.013977 56.0
661.343506 68.0
668.930359 84.0
719.486389 56.0
735.003662 112.0
776.48053 56.0
824.550598 64.0
891.069824 88.0
1061.682495 40.0
1088.300903 104.0
1100.389648 136.0
1127.953857 216.0
1129.016968 100.0
1159.278809 204.0
1160.634644 220.0
1186.325317 168.0
1192.565063 44.0
1215.134155 168.0
1216.722656 72.0
1222.241455 152.0
1232.897095 112.0
1258.057739 156.0
1286.490601 124.0
1293.897217 132.0
1299.078735 216.0
1301.598022 152.0
1306.838989 168.0
1338.455811 140.0
1362.865356 168.0
1368.705811 204.0
1373.216064 120.0
1380.416748 168.0
1387.562134 160.0
1389.653809 108.0
1405.763916 188.0
1425.556763 248.0
1427.353394 124.0
1434.12915 176.0
1436.346069 184.0
1449.175537 220.0
1468.599365 132.0
1472.797485 140.0
1492.493774 64.0
1493.509033 132.0
1497.519165 164.0
1498.482178 68.0
1498.859741 108.0
1503.563843 156.0
