>compound MLS001140785-01!(2S)-1-[(2S)-5-amino-2-[[(2S)-2-(2,4-dioxo-1H-quinazolin-3-yl)-3-phenylpropanoyl]amino]-5-oxopentanoyl]pyrrolidine-2-carboxylic acid
>formula C27H29N5O7
>ionization [M+H]+
>parentmass 536.215
#inchi InChI=1S/C27H29N5O7/c28-22(33)13-12-19(25(36)31-14-6-11-20(31)26(37)38)29-23(34)21(15-16-7-2-1-3-8-16)32-24(35)17-9-4-5-10-18(17)30-27(32)39/h1-5,7-10,19-21H,6,11-15H2,(H2,28,33)(H,29,34)(H,30,39)(H,37,38)/t19-,20-,21-/m0/s1
#inchikey JOLAMJWIIUJAJL
#Ion_Source LC-ESI
#Instrument qTof
#Compound_Source NIH Natural Product Library
#PI Dorrestein
#Data_Collector VVP/LMS
#Scan -1
#Precursor_MZ 536.215
#ExactMass 535.207
#Charge 1
#CAS_Number N/A
#Pubmed_ID N/A
#Smiles NC(=O)CC[C@H](NC(=O)[C@H](Cc1ccccc1)n2c(=O)[nH]c3ccccc3c2=O)C(=O)N4CCC[C@H]4C(=O)O
#INCHI_AUX N/A
#Library_Class 1
#SpectrumID CCMSLIB00000079653
#IonMode Positive
#UpdateWorkflowName UPDATE-SINGLE-ANNOTATED-GOLD
#LibraryQualityString Gold
#TaskID b1d8e8f6646f4e71acdff9ca3d919d08
##Scan# 1706
#SpectrumFile p1-D09_GD9_01_17917.mzXML
#LibraryName NIH_Natural_Products_Library.mgf
#MQScore -1
#Organism NIH_Natural_Products_Library
#TIC_Query 0
#RT_Query -1
#MZErrorPPM -1
#SharedPeaks 0
#MassDiff 0
#LibMZ -1
#SpecMZ 536.215
#SpecCharge 0
#internalFilename spec-00000.mgf

>collision 10
95.188347 160.0
95.612122 176.0
96.96357 196.0
97.061584 32.0
98.407402 72.0
99.172958 252.0
99.865891 136.0
99.955414 108.0
100.539276 196.0
101.073212 568.0
101.122841 72.0
101.391205 120.0
101.463364 128.0
101.744225 200.0
101.929008 192.0
102.24472 272.0
102.456139 136.0
103.010887 184.0
103.053391 912.0
103.223099 76.0
103.423378 28.0
103.461845 36.0
103.561066 192.0
103.834671 140.0
104.054771 148.0
104.500938 232.0
104.702454 160.0
105.036713 188.0
105.39193 100.0
105.733421 164.0
105.895157 168.0
106.079567 144.0
107.917992 188.0
108.418922 108.0
108.96048 160.0
109.570038 236.0
110.101929 192.0
110.643486 132.0
112.033722 124.0
112.43644 152.0
112.782814 196.0
113.227112 152.0
113.401932 136.0
113.765671 56.0
113.988678 108.0
114.701637 116.0
114.814636 148.0
115.309929 172.0
115.928406 120.0
116.07019 408.0
116.172829 140.0
116.531349 120.0
116.746292 216.0
117.077698 136.0
117.125084 104.0
118.068245 140.0
118.146111 176.0
118.674553 180.0
118.986969 108.0
119.286751 140.0
119.885277 112.0
120.042229 164.0
120.332428 76.0
121.047401 216.0
121.501099 276.0
121.546707 132.0
121.79525 124.0
122.105148 64.0
122.706284 100.0
123.251442 200.0
124.167892 60.0
124.274368 104.0
124.714066 224.0
124.871918 104.0
125.158981 124.0
125.926102 132.0
125.999817 132.0
128.767212 204.0
128.934387 152.0
129.038361 136.0
129.783249 148.0
130.050934 292.0
131.047333 196.0
131.432281 100.0
132.871399 176.0
132.898926 152.0
133.326035 196.0
133.947235 220.0
134.696899 124.0
134.88176 84.0
135.309723 140.0
135.393066 136.0
135.492676 188.0
136.814072 164.0
136.879272 148.0
136.956116 120.0
137.22644 72.0
137.812256 128.0
138.312698 240.0
138.478943 228.0
139.208282 144.0
139.838318 120.0
141.931335 120.0
142.698242 104.0
143.650818 140.0
143.977798 164.0
144.075729 168.0
144.618301 208.0
144.709503 212.0
144.752594 64.0
145.016113 184.0
145.037689 200.0
145.088028 176.0
145.690384 108.0
145.952347 124.0
146.023575 4680.0
146.06778 96.0
146.202515 52.0
146.311462 76.0
146.539627 60.0
146.787888 76.0
146.90123 36.0
147.025986 536.0
147.074966 112.0
147.106354 72.0
147.130493 36.0
147.659653 48.0
147.715286 36.0
147.854767 80.0
148.027496 160.0
148.153442 136.0
149.583725 176.0
149.800446 144.0
150.136795 116.0
150.197769 128.0
150.668671 212.0
151.334122 236.0
152.334717 160.0
152.538666 168.0
152.848541 112.0
153.844238 108.0
154.657486 176.0
154.845642 136.0
155.088455 192.0
155.157852 148.0
155.309113 188.0
157.84935 148.0
158.437515 140.0
159.556793 200.0
161.500992 156.0
162.991623 164.0
163.050247 2812.0
163.179718 32.0
163.948425 44.0
164.051834 192.0
165.051163 176.0
166.029358 84.0
166.540085 176.0
167.066391 80.0
167.234283 160.0
169.24527 128.0
169.525024 136.0
172.102783 200.0
172.400558 208.0
173.583771 196.0
173.864456 124.0
174.09021 132.0
174.394958 44.0
174.752594 92.0
175.730057 84.0
175.785477 132.0
177.589722 284.0
179.464493 148.0
179.541824 156.0
179.958084 160.0
180.112976 392.0
180.58873 200.0
180.883057 140.0
181.09874 196.0
181.322311 44.0
181.437576 60.0
181.746002 60.0
182.328705 184.0
182.463104 184.0
183.413345 176.0
184.990845 136.0
185.318527 248.0
185.679062 116.0
185.942215 224.0
186.83345 132.0
188.346329 200.0
189.769348 76.0
192.088135 208.0
192.12352 136.0
193.782288 172.0
194.094055 256.0
194.120438 52.0
194.184219 32.0
195.448181 108.0
195.61795 200.0
195.865768 124.0
195.963272 108.0
196.018997 60.0
198.719986 104.0
199.281509 172.0
200.849533 180.0
200.996231 156.0
201.775757 104.0
201.829483 128.0
202.202881 128.0
203.606216 148.0
203.958511 112.0
204.106339 156.0
204.627014 120.0
204.960251 168.0
205.390732 172.0
207.40654 176.0
207.676056 92.0
208.45694 156.0
208.934219 148.0
209.593521 140.0
209.720322 124.0
210.912384 112.0
211.094513 176.0
211.418503 64.0
211.676147 256.0
211.800674 164.0
212.815659 120.0
212.937622 128.0
213.696304 112.0
213.984436 176.0
214.082352 160.0
214.421371 236.0
214.794571 132.0
216.226227 80.0
216.946777 44.0
217.8741 64.0
218.673904 216.0
219.006607 172.0
219.083191 160.0
219.389664 152.0
219.507599 40.0
220.056396 168.0
220.34584 120.0
221.312973 60.0
222.090164 372.0
222.228806 52.0
223.091095 148.0
223.197083 164.0
223.446915 160.0
224.877228 192.0
225.023499 176.0
225.516388 216.0
226.120148 1520.0
227.101364 1376.0
227.577377 176.0
227.787598 20.0
227.829651 184.0
228.112534 228.0
228.788971 60.0
229.1353 84.0
230.046036 136.0
231.098129 152.0
232.074966 160.0
234.063171 224.0
236.083252 128.0
236.730652 156.0
237.103378 172.0
237.13945 240.0
237.912415 136.0
238.081299 172.0
239.335892 192.0
241.211594 132.0
241.496063 112.0
241.901398 96.0
242.065491 176.0
243.206345 156.0
243.296371 120.0
243.523041 136.0
243.625549 144.0
243.849258 116.0
244.126953 160.0
244.278351 112.0
244.33403 156.0
244.502365 124.0
245.992203 248.0
246.135818 204.0
246.420044 64.0
247.035904 236.0
247.086594 516.0
247.358215 136.0
247.567978 68.0
248.031662 160.0
248.069 180.0
248.092438 304.0
250.196014 136.0
251.750427 76.0
251.936783 128.0
252.461456 96.0
254.063782 164.0
254.638657 220.0
256.426666 160.0
257.437958 108.0
257.501831 56.0
257.795715 52.0
257.904388 132.0
258.857758 136.0
260.053528 72.0
260.085602 176.0
260.130554 180.0
260.811523 180.0
260.834015 96.0
261.293884 108.0
262.730713 204.0
262.979156 188.0
263.770508 168.0
263.825439 260.0
263.938599 168.0
263.996826 128.0
264.029144 140.0
264.077667 148.0
264.168243 276.0
264.190887 96.0
264.24588 84.0
264.504761 144.0
264.651001 188.0
264.745026 76.0
264.796173 120.0
264.854462 112.0
264.967194 184.0
265.048248 156.0
265.096863 45836.0
265.162933 188.0
265.193176 148.0
265.223846 60.0
265.259491 44.0
265.340546 60.0
265.374817 84.0
265.38678 120.0
265.41394 44.0
265.53186 48.0
265.600525 176.0
265.624756 68.0
265.647644 100.0
265.692505 68.0
265.739441 52.0
265.808075 120.0
265.818634 108.0
265.831757 124.0
265.903137 152.0
266.005554 44.0
266.099396 6396.0
266.152161 68.0
266.163422 96.0
266.307526 76.0
266.330261 36.0
266.382233 76.0
266.482941 84.0
266.61618 60.0
266.684418 52.0
266.798187 40.0
266.820953 92.0
266.859955 40.0
266.954254 36.0
267.101624 1360.0
267.19519 120.0
267.442261 32.0
267.484558 168.0
267.593811 120.0
267.689667 84.0
267.758209 168.0
267.81015 72.0
267.836212 68.0
267.898102 96.0
267.937195 40.0
267.9776 132.0
268.113159 104.0
268.135956 72.0
268.165314 96.0
268.24353 56.0
268.318512 44.0
268.351105 96.0
268.432617 64.0
268.494568 88.0
268.638092 60.0
268.957855 100.0
268.99704 120.0
269.104767 128.0
269.434631 108.0
269.745087 120.0
270.117828 72.0
270.83139 140.0
271.336029 56.0
271.778809 144.0
274.565002 72.0
275.080078 440.0
275.271179 248.0
276.077484 316.0
277.067139 124.0
277.093658 184.0
277.315674 48.0
278.197968 148.0
278.373932 64.0
278.543335 92.0
279.095001 200.0
280.070038 160.0
280.493225 92.0
285.112 48.0
286.986908 180.0
287.735901 184.0
288.597443 136.0
288.878143 72.0
289.351929 48.0
291.213531 208.0
291.787811 92.0
292.02243 68.0
292.258057 132.0
292.338837 116.0
292.372864 168.0
292.403473 104.0
292.519196 132.0
292.638367 220.0
292.895081 104.0
292.992554 148.0
293.048798 228.0
293.090729 5060.0
293.227661 32.0
293.425995 88.0
293.466278 40.0
293.623138 88.0
293.728851 72.0
293.756165 152.0
293.896027 32.0
293.943787 44.0
294.093353 1092.0
294.151978 48.0
294.336334 44.0
294.554901 92.0
295.090759 160.0
295.566864 64.0
295.690033 112.0
295.809845 64.0
295.968353 92.0
296.152252 120.0
297.640594 64.0
297.925659 92.0
305.065216 136.0
305.990601 172.0
306.743073 136.0
310.091492 84.0
310.123047 264.0
310.729675 80.0
310.968292 36.0
314.022156 112.0
314.583191 200.0
315.197723 152.0
318.020172 88.0
319.961029 144.0
321.54364 176.0
323.033569 144.0
323.062195 132.0
323.89624 108.0
332.86203 164.0
333.050873 136.0
339.056213 76.0
342.388306 112.0
375.085022 64.0
377.250549 108.0
383.803986 20.0
396.081421 132.0
400.386749 52.0
403.12735 204.0
403.742981 116.0
409.582642 248.0
412.006989 128.0
414.985657 68.0
417.088501 124.0
434.106628 60.0
436.623199 56.0
438.875977 52.0
441.243225 116.0
447.060913 184.0
455.393677 76.0
462.194824 136.0
462.51413 108.0
468.836151 84.0
470.034943 64.0
474.585205 140.0
482.203125 212.0
484.552917 128.0
485.030579 48.0
485.144531 168.0
489.780396 72.0
491.93222 204.0
495.102386 200.0
500.813812 56.0
509.599609 60.0
513.278198 208.0
519.336792 40.0
524.310608 80.0
533.616394 100.0
536.825684 120.0
546.413574 60.0
571.330078 172.0
573.101135 72.0
587.175293 100.0
613.427917 88.0
626.849304 136.0
634.611755 68.0
692.39032 140.0
694.827637 188.0
695.830078 72.0
714.374329 176.0
760.393494 156.0
780.416809 152.0
780.6073 40.0
780.929871 176.0
782.482361 60.0
869.094421 72.0
892.490356 104.0
903.470154 80.0
906.254089 88.0
934.748413 200.0
974.526306 64.0
1033.554565 120.0
1059.488281 76.0
1060.04541 156.0
1079.012085 144.0
1091.390503 152.0
1103.912231 200.0
1114.318604 192.0
1117.689453 96.0
1123.665894 72.0
1132.258545 20.0
1155.484497 64.0
1169.578979 120.0
1201.87793 124.0
1213.82605 204.0
1257.040039 20.0
1298.393555 156.0
1304.036499 60.0
1311.867798 116.0
1315.575684 96.0
1319.751465 88.0
1336.142456 76.0
1339.250122 232.0
1340.132202 216.0
1377.459106 128.0
1384.070679 144.0
1384.515015 176.0
1391.150879 172.0
1418.962524 128.0
1436.793945 184.0
1441.497681 144.0
1458.876709 192.0
1467.463623 168.0
1488.121582 192.0
1493.193115 120.0
1493.585449 180.0
1493.77002 100.0
1494.901001 52.0
