>compound MLS000028591-01!
>formula C12H13NO3
>ionization [M+H]+
>parentmass 220.095
#inchi InChI=1S/C12H13NO3/c1-16-10-6-4-9(5-7-10)12(15)13-8-2-3-11(13)14/h4-7H,2-3,8H2,1H3
#inchikey ZXNRTKGTQJPIJK
#Ion_Source LC-ESI
#Instrument qTof
#Compound_Source NIH Pharmacologically Active Library
#PI Dorrestein
#Data_Collector VP/LMS
#Scan -1
#Precursor_MZ 220.095
#ExactMass 219.09
#Charge 1
#CAS_Number N/A
#Pubmed_ID N/A
#Smiles COc1ccc(cc1)C(=O)N2CCCC2=O
#INCHI_AUX N/A
#Library_Class 1
#SpectrumID CCMSLIB00000085246
#IonMode Positive
#UpdateWorkflowName UPDATE-SINGLE-ANNOTATED-GOLD
#LibraryQualityString Gold
#TaskID d252d724072548979f1f6f1ced849daf
##Scan# 1632
#SpectrumFile p3-G06_GG6_01_18299.mzXML
#LibraryName Pharm_Active_Library.mgf
#MQScore -1
#Organism Pharm_Active_Library
#TIC_Query 0
#RT_Query -1
#MZErrorPPM -1
#SharedPeaks 0
#MassDiff 0
#LibMZ -1
#SpecMZ 220.095
#SpecCharge 0
#internalFilename spec-00000.mgf

>collision 10
48.223881 236.0
53.81348 196.0
56.740421 204.0
56.979069 200.0
58.237511 152.0
58.54475 80.0
59.082069 112.0
60.09153 148.0
70.44072 124.0
72.637665 100.0
74.639458 160.0
74.907959 172.0
75.484451 92.0
77.305916 120.0
77.717728 200.0
77.758095 228.0
79.478806 188.0
79.814545 28.0
80.047661 196.0
80.688255 40.0
80.745476 160.0
83.392448 156.0
84.210571 72.0
86.898445 184.0
88.189041 116.0
91.064499 80.0
91.564728 72.0
92.024948 632.0
92.075882 68.0
93.897331 148.0
95.837921 104.0
96.251465 168.0
96.534821 212.0
97.477776 184.0
97.938171 60.0
98.42926 84.0
102.803444 256.0
105.64006 144.0
107.04818 536.0
107.091377 68.0
107.373756 212.0
108.030632 48.0
110.904442 200.0
113.474342 200.0
115.219635 72.0
116.963181 60.0
122.569664 164.0
123.044647 212.0
124.061615 200.0
124.25679 184.0
124.4832 204.0
125.060875 204.0
125.337433 144.0
128.345718 136.0
128.953018 68.0
130.480942 96.0
134.746445 124.0
134.813446 256.0
135.043518 9332.0
135.08934 176.0
135.119888 136.0
135.343201 108.0
135.364044 36.0
135.461319 68.0
135.57486 120.0
135.623535 84.0
135.711639 44.0
136.047333 808.0
136.113068 48.0
136.275665 56.0
136.429062 36.0
136.975952 36.0
136.994598 120.0
137.044571 200.0
143.252075 84.0
144.823914 84.0
147.502167 48.0
160.902817 120.0
170.957367 184.0
211.032837 140.0
221.552673 132.0
295.069641 172.0
467.999908 88.0
504.56424 92.0
516.80304 52.0
811.042297 220.0
813.061523 116.0
825.463989 224.0
934.648193 36.0
990.328979 252.0
1015.294922 44.0
1047.182617 200.0
1081.846924 132.0
1090.275879 168.0
1109.126831 204.0
1139.109863 140.0
1139.318237 40.0
1143.144165 168.0
1175.599731 160.0
1204.734497 184.0
1210.039185 228.0
1218.445312 128.0
1225.835083 144.0
1241.880737 212.0
1247.006348 172.0
1254.09436 220.0
1270.131714 204.0
1284.109009 144.0
1285.485962 100.0
1293.655762 192.0
1313.403442 184.0
1328.392212 68.0
1366.707153 224.0
1379.082397 136.0
1385.579834 132.0
1396.239624 52.0
1399.223633 176.0
1401.398438 176.0
1413.248413 184.0
1419.180908 164.0
1436.841553 144.0
1447.423706 204.0
1449.976685 160.0
1484.352783 144.0
1487.183838 172.0
1492.238892 92.0
1494.115479 180.0
1499.544556 164.0
