>compound Rifaximin
>formula C43H51N3O11 
>ionization [M+H]+
>parentmass 786.3596359040905
#inchi InChI=1S/C43H51N3O11/c1-19-14-16-46-28(18-19)44-32-29-30-37(50)25(7)40-31(29)41(52)43(9,57-40)55-17-15-27(54-10)22(4)39(56-26(8)47)24(6)36(49)23(5)35(48)20(2)12-11-13-21(3)42(53)45-33(34(32)46)38(30)51/h11-18,20,22-24,27,35-36,39,48-51H,1-10H3,(H,45,53)/b12-11+,17-15+,21-13-/t20-,22+,23+,24+,27-,35-,36+,39+,43-/m0/s1
#inchikey NZCRJKRKKOLAOJ
#Ion_Source LC-ESI
#Instrument qTof
#Compound_Source Isolated
#PI Sirenas
#Data_Collector Ed Esquenazi 
#Scan -1
#Precursor_MZ 786.36
#ExactMass 0.0
#Charge 1
#CAS_Number N/A
#Pubmed_ID N/A
#Smiles N/A
#INCHI_AUX N/A
#Library_Class 3
#SpectrumID CCMSLIB00000005103
#IonMode Positive
#UpdateWorkflowName UPDATE-SINGLE-ANNOTATED-BRONZE
#LibraryQualityString Bronze
#TaskID d19310cd93df49b68e9fcbec27720eb5
##Scan# 6
#SpectrumFile Rifaximin.mgf
#LibraryName fda_library.mgf
#MQScore -1
#Organism fda_library
#TIC_Query 0
#RT_Query -1
#MZErrorPPM -1
#SharedPeaks 0
#MassDiff 0
#LibMZ -1
#SpecMZ 786.36
#SpecCharge 0
#internalFilename spec-00000.mgf

>collision 10
101.059311 26.45822
101.093658 2.7
101.331245 6.728571
101.370178 2.4
103.054337 48.538521
105.069801 928.684326
105.099365 9.417857
105.120224 10.71852
105.1446 10.98777
105.152641 2.604167
105.21991 1.4
105.263275 4.128572
105.327385 9.428488
105.348297 7.356481
105.377571 5.72803
105.413223 8.130645
105.456085 3.072727
105.512054 6.467857
105.56385 4.008333
105.839127 3.5
106.436066 8.933333
106.480934 3.422368
106.495895 12.92857
106.53054 6.737195
106.554695 3.535
106.570068 4.207258
106.591621 8.227739
106.609421 8.491667
106.651794 3.001667
106.717369 8.726563
106.739449 4.1
106.789253 6.894231
106.814423 7.206081
106.892525 1.7125
106.915459 1.69
107.044708 22.00214
107.066147 20.42827
107.085426 4992.275879
107.129959 43.160851
107.145462 5.800455
107.152901 2.203572
107.177483 1.616667
107.187813 10.08989
107.207542 21.35041
107.224503 9.604546
107.238602 18.93136
107.255165 9.134091
107.264328 3.207759
107.282333 6.000926
107.29039 5.466667
107.308792 30.602051
107.335365 10.969
107.347183 2.401087
107.356155 14.76364
107.365921 12.23322
107.379654 7.804245
107.391663 6.0
107.413017 5.155769
107.430084 5.823148
107.437584 10.40833
107.466286 26.44241
107.473404 1.807143
107.494843 3.525
107.567917 8.033334
107.585274 5.002273
107.610497 3.401191
107.657288 8.235
107.668861 4.409
107.740646 7.693889
107.767929 6.544047
107.791229 2.938889
107.883904 5.475
108.054214 46.064449
108.550987 23.641001
108.648834 4.375
108.663559 4.713636
108.671654 2.184091
108.699463 4.627174
108.707916 2.184091
108.779465 2.719118
108.929573 9.020454
108.999298 2.236765
109.064568 3052.292969
109.100975 2212.395996
109.146088 11.00526
109.157127 8.962
109.17128 1.815
109.18924 6.088044
109.216293 2.025
109.229721 4.804167
109.238914 3.911364
109.279213 11.24706
109.293198 19.07576
109.309853 3.325
109.327522 6.649
109.335159 4.021552
109.344131 1.401923
109.392044 2.184091
109.406502 9.267592
109.429863 7.613333
109.609528 17.915791
109.694023 4.808333
110.140816 30.18343
110.429176 4.261364
110.490639 2.311364
110.535141 2.817308
110.619377 6.192857
110.676895 14.67778
110.795059 10.89146
110.920456 4.31413
111.044601 172.970093
111.080437 1465.777954
111.116478 51.892632
111.190895 3.245
111.209259 2.002778
111.334442 11.38788
111.385399 1.848077
111.414429 14.2225
111.660942 8.030769
111.762482 3.689286
112.102509 4.000926
112.589241 8.751515
112.68232 1.656818
113.022751 35.107521
113.059654 374.612701
113.09803 36.77142
113.258308 5.760715
113.288513 7.2375
113.304657 2.825
113.513985 5.847059
113.680832 9.4
113.696442 5.01
114.10067 15.05143
114.148674 3.015385
115.037582 15.65
115.052376 49.18409
115.072868 65.827423
115.144409 6.328125
115.325768 3.481667
115.341171 3.600806
115.445808 2.45
116.468513 4.417857
116.645035 5.909828
116.889435 2.602273
117.070526 372.208008
117.115273 1.875
118.406593 3.1
118.45182 13.004
118.46875 3.8
118.625351 5.988461
118.637314 3.625
119.04467 38.248001
119.085434 1461.271973
119.134041 3.428571
119.141647 2.0125
119.168701 4.004167
119.202415 2.433333
119.217773 3.413333
119.232101 4.0
119.244362 2.8
119.25589 7.093889
119.278557 5.802941
119.305153 11.40278
119.370117 2.314286
119.472412 7.610593
119.578903 11.20556
119.670578 10.22407
119.704475 2.201667
119.719704 2.604545
119.902481 7.27161
120.108276 3.803125
120.142319 1.8
120.291283 6.015385
120.398529 11.62632
120.419647 3.232692
120.467751 12.09143
120.508492 5.491129
120.535675 5.470349
120.554764 1.4125
120.615639 3.783696
120.62838 3.201667
120.669891 3.4
120.742035 6.061364
121.032715 4.004546
121.046013 23.38203
121.064766 1435.469971
121.1007 2222.275879
121.147522 46.762218
121.164482 13.3213
121.19957 8.12
121.216492 6.405769
121.235649 2.825
121.254776 5.344118
121.297966 10.31429
121.326607 18.61902
121.344833 2.625
121.383041 19.295361
121.427422 17.825001
121.44928 6.711539
121.484756 6.421491
121.507759 5.837121
121.524536 10.935
121.567986 3.875
121.620911 5.975
121.976059 1.6
122.253174 3.081667
122.372124 3.869828
122.409691 4.245
122.425957 14.00791
122.434097 11.66173
122.455231 23.816879
122.492699 14.38432
122.514557 3.803846
122.54557 7.005
122.560768 7.200511
122.568489 13.03559
122.592247 15.46231
122.626472 11.72656
122.641663 10.81951
122.660927 1.801667
122.737946 9.400714
122.896248 11.00042
123.04409 145.608795
123.0802 8317.307617
123.115921 538.571106
123.14209 27.92214
123.17009 3.28
123.20192 47.755829
123.220711 18.777781
123.27581 30.7096
123.308716 13.20192
123.333214 14.74441
123.346024 6.584091
123.365044 6.955556
123.386002 14.1125
123.42939 33.210178
123.456818 14.07885
123.48645 11.43645
123.510796 9.377831
123.533234 7.233197
123.560249 5.809
123.586243 18.363371
123.654617 3.057143
123.663185 11.22661
123.742729 4.266667
123.749916 6.5
123.879677 8.904166
124.00927 6.144231
124.019371 9.91413
124.385361 7.212755
124.556763 5.246154
124.676521 2.629762
124.783051 2.632692
124.991592 24.35598
125.05896 219.999298
125.095917 1745.81897
125.143097 6.833333
125.150879 5.069828
125.166412 11.83472
125.177979 5.163333
125.217621 5.111207
125.229713 11.28893
125.244308 10.03571
125.315269 20.370131
125.33007 14.43325
125.380669 8.284091
125.400009 8.459524
125.465439 8.292064
125.509438 3.202778
125.54435 3.464474
125.616829 3.16
125.665131 4.816026
125.680328 2.456818
125.71991 6.560714
125.747437 22.98139
125.895332 6.514796
126.137733 12.02838
126.419159 10.97295
127.076233 193.052704
127.186752 3.869828
127.406555 4.001087
127.471504 16.56053
127.689445 4.816892
128.062317 45.249611
128.114532 4.601923
128.267471 4.563636
129.08905 31.525209
130.081192 17.77
130.2966 6.556481
130.595169 6.602941
130.846436 38.980019
131.085983 330.727997
131.136642 2.025
131.235718 12.06429
131.409622 2.408333
131.495209 6.984183
131.56459 6.248529
131.715973 1.5125
132.186264 17.849449
132.246338 9.464063
132.362701 13.28305
132.451965 7.511111
132.931259 7.200471
133.064819 310.909088
133.101227 1463.614014
133.137115 4.481667
133.151611 5.472727
133.200134 8.220454
133.27916 3.694286
133.296631 9.323076
133.61412 5.857143
133.644836 11.20064
133.730652 3.072727
134.112869 28.94792
134.213852 5.269444
134.326721 8.498684
134.383179 5.445
134.451752 4.008333
134.480179 17.01951
134.548584 13.74494
134.56073 13.28804
134.644119 12.16
134.708023 4.075
134.968582 1.617308
135.039719 7.144048
135.079727 3635.50293
135.116455 1352.854004
135.164505 11.96053
135.180222 4.992391
135.203094 6.423113
135.224503 3.29
135.251556 4.48
135.265579 9.225801
135.284012 2.605556
135.30661 16.073931
135.352997 3.208333
135.365494 12.90471
135.373032 10.47206
135.410156 15.69
135.439865 22.008039
135.451187 9.606428
135.474258 5.645
135.487549 18.889811
135.497818 12.67813
135.551743 11.04045
135.60791 9.403261
135.644379 5.042529
135.706635 5.272222
135.714417 1.875
135.754852 5.05
135.837875 1.445
135.887741 6.328031
135.963669 13.20056
136.025513 1.402273
136.220169 8.152381
136.332535 2.632692
136.476776 1.911364
136.569748 7.600423
136.590057 4.283333
136.67955 3.504167
136.783371 2.857143
137.021408 5.201087
137.059692 329.585114
137.095566 2068.113037
137.130661 500.138397
137.186462 6.778947
137.205887 15.45387
137.221085 3.48
137.244339 9.336667
137.282135 6.010526
137.355515 1.2
137.404724 1.432143
137.434265 12.84542
137.441833 5.827778
137.477859 1.801923
137.490616 9.257143
137.510345 6.920714
137.677963 5.788236
138.17627 7.476818
138.259964 2.8
138.331696 1.41
138.343719 6.40119
138.384903 9.422273
138.466766 6.672
138.503601 5.028125
138.651031 7.029762
138.954086 4.921
139.075317 1131.166992
139.110809 293.345612
139.298996 1.005
139.341049 14.86286
139.389297 5.089286
139.409607 7.853333
139.512619 3.001316
139.833328 11.60588
140.03038 5.993966
140.201492 6.678226
141.05011 8.490306
141.091553 128.600403
141.213852 5.422727
141.355606 12.60417
141.434021 2.45
141.576233 2.857143
141.760712 8.091666
141.878067 2.69
142.578232 4.800581
143.065811 25.889339
143.085022 308.444
143.122482 2.4125
143.301941 4.414286
143.439163 14.01275
143.489655 1.469445
143.710358 5.413333
144.25325 5.657857
144.344833 3.696429
144.370041 7.612255
144.395126 3.44537
144.428574 1.608333
145.059097 56.434521
145.100967 1927.862061
145.150131 15.78712
145.198837 6.681756
145.214554 21.93536
145.236603 5.077564
145.271179 20.2041
145.329681 11.42407
145.348206 3.208333
145.376129 4.494231
145.420715 2.494231
145.465683 3.257143
145.521515 5.413333
145.576401 3.418182
145.611099 10.98226
145.626373 1.605
145.796936 1.44
145.925003 3.620162
146.156235 8.007407
146.181458 9.731579
146.227737 8.446539
146.236145 5.0
146.300095 11.64853
146.316391 12.62402
146.328354 9.420161
146.393051 5.725
146.463562 10.74325
146.509735 3.607759
146.77092 6.619565
147.011261 10.17175
147.080048 474.261108
147.11647 2994.60498
147.167923 19.677389
147.19426 5.775
147.226013 14.40292
147.2397 3.681667
147.251785 4.800862
147.298676 19.245001
147.323608 31.90723
147.350616 5.44921
147.38504 17.55781
147.404846 19.616329
147.454575 4.156482
147.479813 4.418182
147.524323 9.829902
147.547592 19.199129
147.630585 7.974249
147.685837 6.944047
147.729156 13.21154
147.746109 4.404546
147.762421 6.504167
148.160126 3.977778
148.207397 10.2
148.381088 6.506522
148.467545 9.152273
148.773834 6.168182
148.814194 6.494118
148.881561 5.864362
149.060654 244.3638
149.095947 416.768707
149.131607 447.412415
149.170883 6.068182
149.195709 1.6
149.207443 18.1619
149.251083 5.007759
149.276688 6.209
149.340363 8.048016
149.387131 3.214286
149.433975 3.531522
149.450836 16.80687
149.498352 16.557831
149.510452 3.800758
149.523178 6.894736
149.540237 3.403125
150.076889 6.097581
150.174789 3.209783
150.208542 8.053333
150.231857 8.401667
150.239624 12.89074
150.264496 13.625
150.272476 4.769
150.31012 8.895
150.321899 6.4
150.337387 8.272727
150.358856 20.092751
150.380096 11.48989
150.395676 15.00862
150.403595 43.463829
150.444809 7.580173
150.47348 17.35479
150.483932 44.79575
150.556595 10.475
150.588654 2.628572
150.682541 6.438095
150.712601 8.0125
150.75087 5.952381
150.789322 3.249
150.825806 18.632021
150.861954 9.630487
150.931564 6.259138
150.947418 6.641327
151.024368 3.0
151.047073 38.907742
151.075455 17853.119141
151.108765 1057.60498
151.118301 18.81263
151.199997 32.920849
151.213303 13.10613
151.250671 53.297131
151.280807 17.8624
151.295731 29.955509
151.322845 33.807072
151.346024 30.235029
151.365692 29.09078
151.383743 18.437639
151.417099 16.196301
151.436615 48.969139
151.45842 13.98422
151.508743 23.191019
151.540131 20.182671
151.561111 43.603371
151.57222 11.00357
151.591019 27.954861
151.619385 14.205
151.655502 13.00865
151.672012 16.218531
151.687927 22.82522
151.715378 18.817829
151.730072 8.43141
151.756317 5.681818
151.773682 14.04865
151.786331 4.410526
151.8069 12.35385
151.849136 33.405979
151.954025 7.62
151.972092 14.31115
152.000793 11.57175
152.160309 16.785561
152.283859 12.24939
152.337677 15.71125
152.363251 13.00765
152.452072 32.022011
152.524414 9.000471
152.537323 26.18141
152.616684 10.42722
152.635941 2.906579
152.653351 4.9125
152.76947 13.53921
152.911377 3.007143
153.09053 3846.340088
153.143631 35.039349
153.186798 8.25
153.240494 13.66579
153.251312 14.2118
153.263916 24.107121
153.315994 12.04623
153.333435 6.605
153.38385 8.496428
153.406326 3.072059
153.419647 8.176219
153.472961 14.23361
153.498245 16.216669
153.580231 8.721
153.592041 14.04261
153.622025 10.95578
153.630005 2.6125
153.670868 19.165291
153.685944 5.163636
153.796661 2.85
154.0103 3.225
154.278091 1.2
154.339218 7.567391
154.403427 6.64
154.974655 2.85625
155.06694 89.055458
155.084396 100.831001
155.107269 204.831604
155.138824 10.81333
155.18248 2.410714
155.208633 4.640909
155.386276 5.829878
155.394943 7.818
155.451324 3.200806
155.481689 1.4
156.319702 8.215384
156.489716 1.601667
157.026245 5.778125
157.061356 7.958721
157.101151 596.992676
157.139664 1.608333
157.156006 2.0125
157.295898 6.849391
157.323135 11.82336
157.378616 3.202273
157.387527 2.020455
157.505707 3.125
157.608276 5.529
157.738235 8.288095
158.071136 48.293159
158.305283 6.7875
158.344757 3.8125
158.358139 2.0125
158.480484 3.403571
158.673248 3.6
158.69516 4.609524
158.834366 4.177941
159.077896 188.669098
159.115952 1251.185059
159.168823 3.6
159.177811 8.750475
159.243439 3.610714
159.326874 7.802778
159.335648 4.669444
159.366257 4.912037
159.480591 5.405769
159.504089 7.673684
159.523407 2.625
159.576965 1.21
159.594849 2.605556
159.625565 4.649
159.726715 6.814517
159.801468 3.201
159.929398 5.694118
160.089035 91.287086
160.146484 2.2
160.162292 2.601316
160.190384 5.111207
160.268219 13.68916
160.298798 4.065322
160.334274 16.62669
160.360474 5.843085
160.563187 3.2375
160.608109 23.149111
160.699875 5.242105
160.745041 3.832143
161.096008 2738.396973
161.13205 393.748505
161.170151 9.861765
161.203888 4.519118
161.228897 3.648077
161.243805 5.11413
161.267929 71.107758
161.301529 16.97294
161.34848 41.30896
161.386673 27.264549
161.40596 13.00962
161.425476 1.0125
161.442825 8.23314
161.471603 4.853333
161.536667 3.325
161.574265 4.881757
161.620056 22.99826
161.67598 7.605232
161.90387 8.478226
162.162933 10.48
162.177353 5.889
162.208923 34.522289
162.237 8.21
162.300201 8.519681
162.321991 4.336364
162.363159 11.40885
162.382889 9.268333
162.431686 1.025
162.443481 3.601191
162.455444 11.20702
162.486649 7.56
162.495361 6.243085
162.557449 2.201667
162.615112 16.235029
162.655121 12.65833
162.685562 4.41
162.721603 10.03399
162.735336 4.408333
162.802399 4.813334
162.944229 6.177857
163.011993 2.133333
163.073853 150.706604
163.111526 9343.355469
163.167877 54.122318
163.226273 11.2414
163.243515 2.844841
163.259048 5.083333
163.294052 39.728741
163.309647 39.91098
163.331772 45.44043
163.376801 22.09877
163.403473 15.38526
163.415497 35.320511
163.44577 3.629762
163.464172 8.631411
163.483139 3.9125
163.500015 40.925381
163.525009 17.69474
163.549225 13.86613
163.561462 6.229878
163.588181 14.63125
163.612747 16.03009
163.627777 21.63377
163.661362 25.786921
163.703903 11.63115
163.721817 25.140499
163.766495 5.408333
163.851074 33.30994
163.892456 10.69167
163.973694 8.635838
164.033524 32.258572
164.150269 5.18
164.242844 14.06531
164.443542 1.41
164.452728 19.53894
164.479233 7.0875
164.49263 7.502273
164.564011 6.007759
164.952515 2.6
165.089172 145.149506
165.126892 1282.292969
165.180466 7.445
165.198212 3.088889
165.2267 6.808333
165.244736 6.659524
165.269623 2.656818
165.292892 6.023148
165.323257 13.41524
165.381622 7.854348
165.439896 5.008696
165.566238 7.913888
165.578644 6.861735
165.639084 5.625
165.671844 3.35625
165.712967 4.0
165.811905 12.18026
165.976059 3.05
166.807602 10.032
167.009735 1.80625
167.069519 57.83778
167.104996 77.589737
167.266098 3.461538
167.666336 8.265323
167.896042 6.193965
168.361206 2.4
168.94516 14.69
169.082245 114.507599
169.097946 229.292892
169.121536 17.41894
169.143036 2.228571
170.108658 92.272987
170.159439 3.669444
170.435776 6.822298
171.083908 37.579311
171.117783 521.114502
171.376984 8.26875
171.650421 10.72654
171.667999 4.817857
171.932465 5.04939
172.074097 9.815244
172.090897 16.040319
172.171646 7.697345
172.192596 15.19527
172.379791 3.216667
172.530014 13.30667
172.594025 8.213158
172.848663 12.3
172.934601 5.938793
173.0952 2324.552002
173.131973 1418.310059
173.237137 14.90417
173.301865 11.09194
173.330612 14.06429
173.349991 13.33885
173.391144 5.458333
173.407196 6.76
173.451004 5.88
173.48436 6.304167
173.494247 3.584091
173.524231 18.648149
173.636124 8.914335
173.871918 4.611842
173.900558 3.64
174.176636 2.9125
174.211655 1.2125
174.367813 3.058333
174.44133 3.834615
174.510254 16.633101
174.54715 5.625
174.625168 2.432895
174.695938 6.665385
174.753906 1.801923
174.870773 4.205
175.029953 4.705882
175.048538 6.688095
175.077713 136.998199
175.110947 2522.138916
175.147186 430.582703
175.182358 18.039419
175.204895 12.64545
175.237228 13.40735
175.260147 3.800926
175.279419 3.527778
175.320709 8.08913
175.343384 1.416667
175.36557 7.449
175.402954 3.400806
175.439819 8.2
175.478088 3.848529
175.616547 4.696053
175.633408 9.85487
175.647369 5.606429
175.739609 10.82311
175.776733 10.81286
175.850922 9.335185
176.020889 9.001724
176.053207 2.816667
176.068222 9.111364
176.289459 6.291667
176.313477 2.857143
176.34433 7.120715
176.382614 12.96089
176.540375 17.336109
176.565948 6.016667
176.667664 2.840909
176.72316 6.400556
176.760345 8.343868
176.989182 5.35
177.09079 747.18927
177.127731 690.81073
177.157333 15.36455
177.166718 102.485199
177.217499 6.891129
177.250763 3.805
177.283279 11.65331
177.314087 11.60465
177.339127 12.89697
177.491699 5.6
177.510239 4.886428
177.525528 7.157143
177.537933 12.00714
177.558075 8.192105
177.895172 7.56875
177.960114 6.803689
178.066544 13.75208
178.179123 30.495859
178.210815 14.88273
178.249329 23.16333
178.355133 14.94181
178.461685 4.611764
178.545349 5.667222
178.615005 2.001316
178.638901 4.667593
178.833679 3.0375
178.868027 3.081667
179.0298 7.76
179.106186 3485.417969
179.165039 26.26236
179.254471 7.511111
179.288818 26.13628
179.332703 33.916889
179.382675 3.563636
179.39389 6.273485
179.42601 7.491129
179.45311 8.451923
179.480927 10.80037
179.500626 9.556818
179.522888 8.619566
179.554565 8.201315
179.583496 9.284483
179.5979 4.68
179.634766 3.42
179.662735 5.105882
179.701721 10.73721
179.715729 5.296052
179.751328 4.825
180.045334 8.400676
180.059311 11.43324
180.274246 8.806429
180.400253 2.422222
180.596558 7.835526
180.629364 11.81885
180.741516 3.010714
180.989044 2.535
181.098358 35.629768
181.12207 1198.531006
181.176743 5.055556
181.382843 11.2
181.524826 7.473485
181.715652 1.6
181.781616 10.18788
182.074326 42.826889
182.183334 4.448529
182.321106 9.835714
182.56546 18.4
183.137787 39.422729
183.386627 5.075
183.657578 10.02227
183.973633 8.215517
184.076523 2.816667
184.597031 12.27941
184.806259 8.422297
184.824203 5.281
185.095581 137.693497
185.13205 730.11853
185.235672 2.801191
185.326141 19.00709
185.382477 3.823148
185.565811 7.911364
185.612045 7.352941
185.628906 3.007143
185.67627 11.23378
185.740265 9.063235
187.112732 176.680099
187.147415 199.820007
187.210587 5.065789
187.345215 11.26
187.41066 3.48
187.422714 3.657143
187.582047 1.401923
187.654282 1.066667
187.698502 11.36766
187.848969 6.808696
188.011322 2.281667
188.047699 10.17786
188.244934 1.8
188.354431 5.440909
188.435898 1.848077
188.902084 2.275
189.03331 1.2
189.09079 312.517487
189.127533 297.306885
189.161987 93.014221
189.186432 3.296429
189.343216 9.060714
189.35994 21.56933
189.775421 4.8025
189.938309 3.513636
189.955002 19.78908
189.977005 13.02581
190.005539 3.20625
190.046738 10.18494
190.192596 1.2125
190.211807 5.352027
190.224564 8.45
190.490173 4.003333
190.619019 6.025
190.736359 8.467308
191.004288 2.625
191.071045 54.180241
191.10643 4637.217773
191.140762 121.6241
191.169418 45.207649
191.17984 5.72
191.20079 18.407631
191.239258 13.25889
191.256577 8.278226
191.284195 7.45
191.328079 14.20833
191.33992 11.56107
191.383957 8.617857
191.40535 12.96138
191.417984 4.201
191.435043 18.582029
191.467087 9.482564
191.496582 18.83214
191.510025 2.735
191.538101 9.223684
191.575714 6.955645
191.687195 6.029762
191.716049 14.13913
191.742981 17.0632
191.829437 9.661892
191.875061 6.691667
191.938553 11.36667
192.004898 19.31303
192.214783 31.82303
192.309219 2.648077
192.474579 3.75625
193.077377 4.810714
193.121353 1332.017944
193.17926 12.80947
193.25444 14.82664
193.274368 2.65
193.308609 10.31599
193.323929 12.03205
193.342865 8.933915
193.396561 7.037122
193.515335 5.829762
193.532791 1.469445
193.546494 1.601923
193.569458 4.4
193.59584 9.377831
193.619095 1.601667
193.648132 1.807143
193.740356 13.75284
193.790436 3.16
193.866699 4.889286
193.922333 8.201667
193.94696 8.400758
194.403458 2.64
194.61322 6.981097
195.134171 68.229424
195.195541 2.0
195.346237 5.6
195.594116 3.264474
195.670807 1.736111
196.063126 1.96
196.082703 2.184091
196.125595 53.531288
196.217682 10.58
196.749268 5.411111
197.092133 25.391399
197.131104 97.411049
197.300888 4.805488
197.349777 13.00036
197.437744 4.803571
197.530624 2.401316
198.104691 9.185976
198.139252 153.220703
198.20105 1.2
198.334351 9.425113
198.514633 3.889286
198.617767 3.344048
199.039276 1.803571
199.110886 343.135498
199.1474 317.395111
199.265366 2.906579
199.280624 9.053302
199.396759 6.755645
199.481705 2.938889
199.529907 5.916579
199.547745 4.25
199.717911 1.35
199.741959 10.81059
199.997665 7.447093
200.043243 6.497059
200.307968 6.907558
200.381622 6.192857
200.63739 5.981452
201.094193 27.018101
201.126526 1390.771973
201.164169 104.0653
201.212921 12.77648
201.237411 9.470186
201.292023 6.445
201.313477 9.048016
201.352921 9.401351
201.407318 11.47439
201.471405 2.809783
201.51091 3.869828
201.546234 6.656396
201.713623 18.36413
201.739609 6.844565
201.763077 12.93654
202.383591 3.125
202.410706 6.84
203.106873 98.407349
203.141434 773.603577
203.232224 6.55
203.25795 1.4
203.30896 31.139099
203.460312 1.633333
203.501053 11.20833
203.51593 6.916667
203.620178 3.889286
203.779099 3.064474
203.918167 3.504167
203.952957 4.001471
204.365494 9.600352
204.698837 5.002381
205.121353 193.0354
205.159485 29.42421
205.226837 4.953125
206.105942 29.883949
206.312363 10.475
206.919754 7.070349
207.098679 30.72191
207.116348 136.801407
207.137253 74.215134
207.95694 6.679717
207.976837 3.05625
208.062195 5.697581
208.088089 6.832895
208.242996 7.854546
208.288177 11.22
208.509155 10.81512
208.524216 3.620162
208.579483 11.87434
208.687988 5.968803
209.047409 10.25
209.117416 1239.012939
209.172775 3.401191
209.258316 7.95579
209.288513 8.604245
209.36673 20.43718
209.394348 6.19
209.470551 18.26771
209.504974 15.88048
209.567001 11.935
209.669052 7.163025
209.797134 7.555769
210.135864 261.543701
210.235764 8.067063
210.778214 37.231838
210.947586 5.737195
210.982605 1.202778
211.147476 139.104797
211.195328 3.801667
211.312225 7.497973
211.889923 3.696053
212.040405 2.041667
212.118958 51.7556
212.265259 3.032692
212.320374 11.40755
213.126282 637.495789
213.160675 122.996201
213.204468 2.225
213.294876 6.720715
213.329071 5.43141
213.451004 7.077564
213.51712 5.077564
213.568817 1.469445
213.894058 2.005556
213.927872 10.74412
213.979523 8.5
214.035934 4.265323
214.217224 6.344048
215.106125 59.351822
215.140442 283.277893
215.18158 35.089859
215.235703 16.02622
215.770462 8.213158
215.918121 7.246296
215.99942 5.458333
216.352859 3.4375
217.121048 443.223602
217.156143 87.058067
217.377975 5.458333
217.834213 3.481
217.922043 24.193041
218.02681 2.875
218.080536 8.811765
218.164459 78.724739
218.790314 4.53629
219.137558 1247.849976
219.198853 4.445
219.241409 5.968182
219.324799 7.841001
219.454025 12.79252
219.500992 1.833333
219.541153 3.475
219.557678 1.403571
219.609558 8.428125
219.712357 1.4
219.736008 9.081667
219.807007 4.592391
220.062729 8.446154
220.088959 7.604787
220.279953 3.20625
220.874146 9.017754
221.152176 335.841797
221.190674 20.806101
221.314316 2.535
221.334534 6.962
221.536682 5.84
221.640854 2.09
221.867966 7.632692
222.114975 12.089
222.139999 57.469299
222.210083 7.459314
222.439514 8.666666
222.46637 9.91875
223.109833 116.663399
223.186096 4.400926
223.279663 6.941667
223.321426 2.464286
223.362579 5.605556
223.451233 7.692214
223.89357 9.07258
223.976776 2.629762
224.14888 102.463203
224.757614 7.115
224.8992 4.827174
225.123825 69.514931
225.161758 201.440399
225.428497 10.26957
226.430542 10.87206
226.791855 2.236765
227.106308 4.697581
227.142365 145.140701
227.176346 17.490061
227.489517 1.45
228.114349 37.003448
228.497772 6.552381
228.829208 9.032258
229.156128 43.97514
229.292862 4.25
229.487518 1.625
230.126404 23.00024
230.828018 6.941667
231.108383 16.408331
231.136948 894.861023
231.168976 41.951031
231.208405 35.697338
231.277054 11.52201
231.298782 2.615
231.33606 19.7045
231.393906 11.21
231.436188 4.20147
231.504608 2.225
231.540894 4.0
231.699478 4.822368
231.730072 4.775
231.872437 6.265385
232.11972 22.412901
232.155991 9.1
232.326233 7.431154
233.104736 5.761
233.117538 45.46648
233.151703 76.170578
233.18663 12.94325
233.330322 7.136111
235.149948 183.381805
235.205948 3.930882
235.251816 1.633333
235.658035 8.336111
235.800568 1.825
237.124557 171.402893
237.162201 137.120102
237.385651 3.00625
238.112122 22.008039
238.398987 12.51029
239.141235 24.0383
239.174957 41.108829
239.421448 1.21
239.469589 4.05
239.803818 6.600555
239.909592 5.665385
239.954697 9.21875
240.151215 23.657471
240.196579 2.0
240.850403 3.096428
241.117188 98.432999
241.157181 134.957794
241.19429 178.840698
241.46608 9.69697
241.551163 6.488889
241.812042 5.201
242.124039 53.00222
242.461655 5.021429
242.775665 4.026471
243.132278 52.636429
243.171387 66.410912
245.11557 27.29442
245.152542 46.341129
245.191376 26.38941
246.110611 11.92821
246.143478 55.30217
247.12796 39.522499
247.166504 19.489361
249.080841 18.799999
249.146255 164.849106
249.368118 8.824019
249.499985 3.2
249.554932 3.407258
249.835297 5.65473
250.00029 8.2
250.096512 30.816231
250.126846 7.816892
250.535339 10.44449
250.802368 1.666667
251.179413 425.537415
251.219498 2.889286
251.24498 2.202273
251.385223 5.479348
251.439072 3.645
251.476624 1.8
251.588593 5.656034
251.603531 3.249
251.626099 13.89337
251.675476 4.575
251.945816 9.506666
252.142166 27.81171
252.582489 7.11579
252.796875 1.828572
252.940704 5.249391
253.06813 10.29613
253.157669 308.799805
253.204178 4.325
253.61676 1.616667
254.438217 7.972414
255.135132 120.336098
255.172562 118.027199
255.370331 15.23104
255.427963 5.555645
255.606598 5.281667
255.792679 7.469898
255.970673 5.800641
256.397675 3.733333
256.545959 3.92
257.149872 129.873703
257.192657 31.87756
257.275269 9.04
257.520691 7.567391
259.037323 12.54697
259.168732 455.028015
259.522888 6.125
259.815979 7.616025
261.643738 6.666667
261.724396 4.416026
262.484039 8.785256
262.737976 4.496428
264.156982 203.598007
264.211548 2.675
264.297089 2.222222
264.433319 3.125
264.517578 5.249
267.172333 12.0
267.883575 4.869444
268.816101 7.355769
269.126709 9.242105
269.189972 564.207275
269.388885 2.401667
269.451874 1.25
269.518768 2.625
271.166718 274.756897
271.3974 11.13684
271.861328 2.013235
271.912689 1.84
272.497009 7.649138
273.14328 26.26642
273.440948 8.343254
273.545135 7.202381
275.162354 17.25
276.168884 41.204029
277.094513 7.605
277.176666 45.673771
277.226471 1.245
279.174255 639.629272
279.323578 6.928571
279.351807 1.828572
279.369263 7.646539
279.479736 10.51905
279.631042 16.719191
279.74231 13.65669
279.794037 2.5
279.910278 3.613333
280.086243 8.802084
280.359253 4.072059
280.47522 5.445
280.521759 3.83
280.661133 6.2
281.54187 3.081667
281.916077 7.017308
282.159332 12.73389
284.149139 17.55238
285.185211 107.975601
285.208527 6.856396
285.825592 1.21
287.197418 92.908607
287.398163 3.413235
287.651764 6.553723
287.68219 19.726959
287.926239 1.675
288.471008 3.232143
289.178284 183.038498
289.323975 2.005556
289.505066 3.584091
289.636353 6.106579
289.657196 10.84545
289.738342 3.800676
289.957886 1.21
291.553192 2.408333
295.39978 5.553846
295.503265 7.555645
295.661407 6.844737
295.839844 7.004592
295.941101 9.84939
295.981232 11.74405
296.810272 6.416905
297.184021 921.396484
297.253845 1.875
297.355652 3.411842
297.394379 34.970531
297.445648 11.35503
297.642914 12.54094
297.717896 5.616667
297.846313 9.234756
298.003876 4.637121
298.690582 5.208333
299.140137 16.3661
305.086823 13.28929
306.085571 30.803841
308.264069 2.811842
309.77655 9.104348
310.969482 3.325
315.15976 29.42841
315.195801 694.906189
315.266571 3.203846
315.340698 3.418182
315.356903 8.425
315.476624 4.253333
315.519867 3.053261
315.551544 9.477632
315.686737 4.705882
315.717773 3.531522
315.782166 6.178704
315.810364 3.201316
316.094818 2.005556
318.09137 39.30928
319.10379 28.944281
330.089417 2.75625
331.157776 8.224073
331.374329 9.6
333.206146 171.106705
333.782166 3.178571
334.341705 2.535
335.097229 46.02227
343.018341 5.0
344.837708 4.075
344.902252 2.602273
345.005707 1.401923
345.03833 17.12595
345.079712 46.0
345.123505 8.981451
345.928955 1.245
346.095398 75.537376
346.532684 4.188462
347.06369 24.402861
347.10144 818.352112
347.186768 1.815
347.215424 4.854546
347.328186 10.05901
347.377228 14.16806
347.647156 14.72574
347.770538 16.1325
347.861237 4.402941
347.958618 8.066667
347.984528 2.816667
348.023468 3.432143
353.182526 8.969615
357.202698 171.389496
358.247833 5.911364
358.827881 8.703049
358.894226 6.578948
359.07077 12.99536
359.11496 43.312569
359.368011 7.291667
359.464142 11.97143
359.78363 6.603571
359.95932 16.550119
359.995117 17.710461
360.01474 2.404545
360.094696 31.477261
360.134125 38.39278
360.247284 5.983696
360.391022 3.025
360.423615 4.264474
360.70816 9.403461
360.727997 12.34412
360.788574 8.48913
360.808563 4.519118
360.897766 17.585661
360.930817 14.84392
361.032104 9.69697
361.105774 599.727783
361.15976 5.089286
361.215973 8.233333
361.26416 7.998376
361.296783 19.92
361.355896 4.10431
361.53125 8.47189
361.646057 12.80992
361.93927 9.073484
361.977814 39.98978
362.030762 9.623529
362.053314 8.111112
362.112701 4118.383789
362.192688 15.73359
362.243286 13.78177
362.351227 8.176471
362.373474 19.427271
362.408417 25.408831
362.434692 10.24802
362.496429 27.10227
362.54184 19.47323
362.563843 9.551111
362.602112 21.946751
362.659912 17.83824
362.773865 17.637659
362.805969 19.40262
362.926697 9.5
363.668823 34.856838
363.995697 7.12803
364.05246 6.498
364.387207 4.879348
364.623474 5.257143
365.813599 3.60147
371.107635 68.608261
372.658875 4.040909
374.112976 10.19292
375.108124 62.791
375.201721 2.064286
375.235168 1.825
375.410614 4.478125
375.444336 4.411111
375.526001 6.357432
375.909576 7.612255
376.018555 10.30637
376.30307 4.368182
379.112274 17.26614
385.875397 7.157433
386.102173 5.2375
386.190857 1.6
387.121216 2.208333
387.985596 23.5208
388.099213 227.245697
388.340332 16.836729
388.450256 2.809783
389.012695 8.01875
389.698517 7.7125
390.406738 1.656818
394.148224 4.600641
398.140472 10.72704
398.192047 1.817308
398.546173 3.605
398.573425 4.807143
399.109192 4.444444
400.136383 23.549999
404.118652 42.668739
405.381012 5.202778
406.131561 28.21273
406.15274 10.232
406.516235 7.370454
412.134064 17.450529
414.152832 9.289815
415.793335 15.98045
423.724915 11.00802
424.162781 9.005714
424.720367 10.70588
425.166748 11.40081
426.150848 15.86944
432.126678 8.377941
434.912872 19.117359
436.122711 15.38063
436.147308 3.615
438.132782 7.525
438.183716 6.20049
438.288116 4.816667
439.146027 52.435169
441.16745 5.405
443.644501 2.441667
445.492004 8.859524
446.151886 53.15984
449.15506 17.60392
450.136597 23.198389
451.183899 11.91029
453.66922 3.661538
453.735901 4.037121
454.140686 46.036289
455.146454 32.751751
455.160797 14.28305
456.157532 107.794998
456.221802 4.261364
456.310974 10.95803
456.422638 5.0
457.463562 2.025
458.573914 6.96
458.654846 5.077564
458.76001 11.55152
460.14325 3.136111
461.497864 2.228571
462.507355 6.418939
464.15802 18.613449
464.439636 5.249391
465.167145 83.834038
465.288452 4.416667
465.678223 3.21
466.173248 497.27771
466.353394 1.402778
466.444031 11.06607
467.025665 7.802778
467.225281 6.111363
467.368164 9.488889
467.435883 11.41286
472.155609 13.6332
477.17395 9.003572
478.168732 38.441528
480.012421 4.2
481.156677 7.938
482.164185 96.863197
482.84433 8.010246
482.928711 3.95
483.380005 9.562903
484.184692 110.981598
484.351471 1.61
484.458649 2.609783
484.948883 4.128572
485.198578 31.46937
485.30246 7.244512
485.977539 3.44
493.338257 3.081667
494.167542 261.167694
494.25531 2.422222
494.6138 28.955681
494.843201 4.005
495.17688 244.587402
495.996979 3.288043
496.128784 3.938462
496.226349 19.20455
499.528503 3.466667
505.204346 11.29074
506.201599 92.652321
506.386383 4.0
507.169556 2.201471
507.365448 5.259524
509.197205 7.628448
509.373444 2.4
509.646912 3.4
512.14093 8.11968
512.181885 157.932495
512.369324 3.811764
512.583008 24.524031
513.192505 108.804802
513.328064 26.548759
513.409302 2.611842
514.137085 9.522
515.816711 12.82667
516.185303 23.225
518.918152 6.85307
520.655151 4.613334
522.188354 5.160714
524.214233 98.527161
533.272827 5.845
534.199768 23.144621
534.727417 12.68396
535.170654 3.425
537.059387 4.35
538.193115 96.011818
538.830566 15.60718
539.614075 6.434783
540.199768 21.275
543.224304 6.481757
546.513123 3.216667
548.681763 3.530882
552.212524 112.0644
553.832581 3.032895
554.356201 4.956481
556.224243 49.915531
558.213135 2.858333
560.807312 9.868519
561.38208 3.009783
564.237732 3.481
565.246277 5.445
565.828247 2.36
565.973022 11.77696
566.225708 18.695999
566.528992 9.915714
566.650879 1.689286
566.699402 4.56
566.885132 6.2
567.70575 5.066667
568.468445 5.406428
570.229553 18.423059
570.626892 5.215244
570.670532 8.306131
571.089905 3.578571
571.233887 42.737499
580.242065 17.591841
584.237427 12.56538
593.249329 14.0481
596.229919 38.266739
599.240112 3.696154
605.276978 41.872021
606.809204 11.06614
609.288269 2.201667
612.280212 9.2
614.031067 15.02841
614.23584 4.03
615.277283 14.83809
618.261047 10.24709
619.567261 6.185256
621.284241 8.712
622.27887 46.033409
623.116577 9.830641
623.291382 42.371769
623.349609 1.605
623.426514 8.734701
623.491699 2.175
623.561707 6.353846
632.256714 7.45307
632.319214 17.37561
634.237 18.15674
635.295776 1.0125
640.282532 46.281029
647.666687 1.205
648.00647 3.980263
648.317749 11.04
650.298706 31.25053
650.366333 9.144444
651.177124 7.826064
653.249878 1.96
654.26123 5.04939
655.188721 3.622368
658.202087 41.84074
658.285583 380.70929
658.548401 4.606081
658.941284 1.289286
659.557617 9.923256
660.747375 6.466666
660.835815 5.22647
664.269043 44.974319
672.007812 8.251429
672.131775 8.291129
672.274292 18.66667
673.306702 5.205556
673.44281 2.003572
674.083618 4.004167
674.84259 5.768421
676.299255 1056.546997
676.438782 3.8
676.515503 11.058
676.582214 17.154591
676.673706 29.052311
676.705688 4.405556
676.768311 25.89876
676.877136 3.969
676.931824 37.426361
677.339294 12.20495
677.615906 4.588462
677.719482 5.200641
678.244812 8.802273
678.272095 8.04
678.489502 7.306521
678.57135 9.202272
680.33197 22.2139
680.67511 3.400926
682.302673 25.79756
685.849304 5.26579
685.952881 2.808333
689.592896 4.792391
689.644653 4.065322
690.019226 9.273052
690.316528 35.42971
690.558533 3.001191
690.793945 1.489286
690.891785 5.175
690.9151 8.627273
691.189514 4.128572
691.321411 38.256069
691.34491 21.601919
691.491333 5.864362
692.093384 4.822727
692.766235 3.92
694.074951 25.010599
694.119263 5.85
694.245972 14.76
694.310303 689.314026
694.422058 13.89389
694.458496 1.2
694.658997 17.27149
694.847168 10.14661
694.897949 1.416667
695.018921 5.872727
695.218689 11.11029
696.357483 5.328948
697.234497 2.0
697.954895 4.204167
708.324707 374.862488
708.444824 1.016667
708.471741 24.165489
709.056091 8.573236
709.604004 2.111364
710.300171 15.80056
710.586182 6.049
712.274414 5.606429
712.343018 4.654546
713.82019 5.279348
713.890625 1.0
714.215942 3.401191
714.253174 14.4207
714.891724 2.25
715.173889 1.6
717.488708 13.15872
718.310364 386.580994
718.387207 2.405555
718.694946 5.069457
718.895142 11.40833
718.974731 1.44
719.030701 4.5125
719.217346 5.057143
720.113281 5.568421
721.587769 2.64
721.71991 7.303049
722.512695 4.264286
722.654724 3.803333
725.294373 3.675
725.350403 2.817308
726.339783 77.457153
727.946045 2.733333
730.729248 6.708174
731.265808 8.157353
731.37854 19.506281
731.426697 23.20455
731.509949 1.80625
731.575806 6.806666
731.83136 8.712
732.179749 8.956481
732.32135 34.455841
732.573547 6.070349
732.620728 9.934702
732.750793 3.864286
732.799744 3.513636
734.476807 4.020162
734.73407 10.76034
735.259644 5.160714
736.019592 10.22917
736.156006 3.63
736.319641 3129.503906
736.441528 2.832143
736.496155 32.651539
736.555115 9.733889
736.586914 6.800555
736.628052 12.77011
736.666077 6.401667
736.709229 20.30427
736.751282 51.78558
736.816223 13.60049
736.888062 42.244579
736.956116 11.67045
737.024658 11.04615
737.08606 30.65934
737.540955 25.074249
737.616943 21.641001
737.803467 21.474079
737.913391 12.09643
738.177307 9.414545
738.23407 14.79245
738.449402 4.664286
738.83905 8.221429
739.310669 2.95625
739.444458 7.778571
740.989136 6.446429
742.370483 1.403571
743.641113 1.817308
744.765747 2.25
747.16272 4.232143
749.210815 4.053333
749.267944 8.71413
749.373596 1.69
749.457825 27.796961
749.508545 8.534091
749.813354 4.514286
750.335266 119.098801
750.355957 8.121
750.564148 2.938889
751.219849 27.460649
751.506165 10.19202
752.038635 4.2
753.991699 1.736111
754.085022 64.662987
754.33197 2963.612061
754.445801 2.832143
754.480469 7.003572
754.524536 42.037788
754.65155 39.97839
754.762756 30.543381
754.828918 30.6819
754.86792 4.625
754.93457 35.789661
754.98053 43.121719
755.195984 39.9254
755.621521 45.75988
755.732483 7.038236
755.884094 25.980551
756.235718 16.66287
756.335999 1.475
756.47406 9.413333
756.50647 3.045
756.541748 5.009091
757.155884 1.469445
757.556335 5.803125
758.044861 14.39649
758.178894 7.229878
759.250183 3.577941
759.760742 5.033065
763.091309 4.615244
763.295044 7.512805
764.158386 5.5
764.850952 6.227222
765.139832 15.33846
768.162354 4.875
768.344055 710.502014
768.447388 6.629392
768.518311 7.028472
768.631897 6.1
768.819336 17.06369
768.887512 5.656818
768.965515 16.9611
769.092102 11.97159
769.283325 4.013236
769.362305 12.05765
770.177917 23.20606
770.248291 1.401923
770.393127 3.823148
771.27533 4.003572
771.555115 10.922
772.013306 2.236765
774.323242 2.175
779.739258 7.255
780.467834 8.406428
781.128174 12.91963
781.358887 2.857143
786.362244 166.562897
786.682922 13.27647
800.184387 2.841667
840.848633 10.40045
1025.251831 10.81731
1130.147583 6.221429
1152.186401 16.537279
1305.824219 2.827174
1371.046631 3.007143
1494.079468 20.600861
