>compound MLS001157730-01!N-[4-(2-hydroxyethyl)phenyl]-2-[(4,8,8-trimethyl-2-oxo-9,10-dihydropyrano[2,3-h]chromen-5-yl)oxy]acetamide
>formula C25H27NO6
>ionization [M+H]+
>parentmass 438.189728
#inchi InChI=1S/C25H27NO6/c1-15-12-22(29)31-24-18-8-10-25(2,3)32-19(18)13-20(23(15)24)30-14-21(28)26-17-6-4-16(5-7-17)9-11-27/h4-7,12-13,27H,8-11,14H2,1-3H3,(H,26,28)
#inchikey KCJBAOYPSIGKFG
#Ion_Source LC-ESI
#Instrument qTof
#Compound_Source NIH Natural Product Library
#PI Dorrestein
#Data_Collector VVP/LMS
#Scan -1
#Precursor_MZ 438.192
#ExactMass 437.184
#Charge 1
#CAS_Number N/A
#Pubmed_ID N/A
#Smiles Cc1cc(=O)oc2c3CCC(C)(C)Oc3cc(OCC(=O)Nc4ccc(CCO)cc4)c12
#INCHI_AUX N/A
#Library_Class 1
#SpectrumID CCMSLIB00000079667
#IonMode Positive
#UpdateWorkflowName UPDATE-SINGLE-ANNOTATED-GOLD
#LibraryQualityString Gold
#TaskID b1d8e8f6646f4e71acdff9ca3d919d08
##Scan# 2170
#SpectrumFile p1-E09_GE9_01_17929.mzXML
#LibraryName NIH_Natural_Products_Library.mgf
#MQScore -1
#Organism NIH_Natural_Products_Library
#TIC_Query 0
#RT_Query -1
#MZErrorPPM -1
#SharedPeaks 0
#MassDiff 0
#LibMZ -1
#SpecMZ 438.192
#SpecCharge 0
#internalFilename spec-00000.mgf

>collision 10
95.040604 216.0
95.081352 160.0
95.158997 136.0
95.228905 184.0
95.469894 180.0
95.504074 132.0
95.586182 164.0
95.666405 192.0
95.748184 148.0
95.943031 212.0
96.054184 156.0
96.1035 184.0
96.218109 104.0
96.249039 128.0
96.32415 212.0
96.475983 172.0
96.507263 212.0
96.667656 124.0
96.695053 156.0
96.76944 120.0
96.810555 96.0
96.837975 200.0
96.984146 132.0
97.086868 180.0
97.120209 184.0
97.218307 128.0
97.265411 28.0
97.444115 52.0
97.622818 96.0
97.82032 80.0
97.906357 212.0
97.935905 152.0
98.012733 136.0
98.040321 168.0
98.060028 136.0
98.081711 200.0
98.152679 96.0
98.190147 252.0
98.251297 116.0
98.272835 240.0
98.316406 100.0
98.381546 152.0
98.456573 52.0
98.54744 92.0
98.598816 148.0
98.65416 88.0
98.679863 144.0
98.753029 148.0
98.788628 200.0
98.847382 196.0
98.93705 80.0
99.03804 184.0
99.214401 180.0
99.230255 200.0
99.271896 212.0
99.337349 156.0
99.373055 180.0
99.405617 132.0
99.432587 200.0
99.482208 144.0
99.563614 204.0
99.633133 204.0
99.795746 236.0
99.85775 220.0
99.875648 108.0
99.917427 156.0
99.983086 148.0
100.004982 172.0
100.229698 152.0
100.263885 112.0
100.291794 100.0
100.333649 164.0
100.598976 176.0
100.676636 172.0
100.828674 148.0
100.844658 228.0
100.913467 276.0
100.956619 144.0
100.990616 240.0
101.018623 132.0
101.076637 212.0
101.158699 60.0
101.362984 184.0
101.433128 132.0
101.499283 196.0
101.527359 240.0
101.615616 112.0
101.744057 132.0
101.796265 132.0
101.818352 204.0
101.860527 144.0
101.993149 120.0
102.035362 112.0
102.14798 184.0
102.250595 236.0
102.405174 164.0
102.542618 128.0
102.584946 176.0
102.603088 52.0
102.720055 168.0
102.800758 204.0
102.970337 88.0
103.008713 160.0
103.03093 148.0
103.053406 944.0
103.159477 184.0
103.200699 64.0
103.253273 80.0
103.328117 160.0
103.496101 160.0
103.587242 116.0
103.650047 112.0
103.708817 120.0
103.808151 144.0
103.933914 228.0
103.960297 244.0
104.05526 296.0
104.082092 148.0
104.169418 128.0
104.253227 144.0
104.40519 156.0
104.429596 68.0
104.456039 160.0
104.506897 80.0
104.52317 200.0
104.647331 88.0
104.68602 112.0
104.720337 204.0
104.800087 76.0
104.858055 144.0
104.914215 136.0
104.930527 164.0
105.069992 5316.0
105.13858 76.0
105.207985 180.0
105.254936 216.0
105.277405 136.0
105.35981 196.0
105.755798 136.0
105.909363 204.0
105.952377 148.0
106.068031 456.0
106.118385 152.0
106.537048 52.0
106.59111 280.0
106.625404 144.0
106.77137 156.0
106.798103 208.0
106.828964 216.0
107.044533 288.0
107.082138 92.0
107.244904 116.0
107.341797 164.0
107.380981 84.0
107.451111 148.0
107.475632 104.0
107.492378 60.0
107.506821 112.0
107.638939 116.0
107.704865 156.0
107.886864 80.0
107.984749 188.0
108.126801 148.0
108.238586 52.0
108.383583 144.0
108.396614 128.0
108.541115 44.0
108.574295 56.0
108.617844 148.0
108.657265 144.0
108.779701 112.0
108.88559 176.0
108.915497 40.0
108.979073 156.0
109.037254 36.0
109.062935 212.0
109.116241 232.0
109.130798 160.0
109.305511 184.0
109.345055 108.0
109.390846 44.0
109.486618 156.0
109.603271 192.0
109.751266 192.0
109.87014 108.0
109.918129 164.0
110.016228 112.0
110.190926 220.0
110.241798 140.0
110.415314 160.0
110.57222 124.0
110.606071 160.0
110.654968 128.0
110.743896 208.0
110.896851 68.0
111.04361 164.0
111.108635 160.0
111.177879 124.0
111.205162 100.0
111.312225 176.0
111.352127 144.0
111.387833 136.0
111.402542 136.0
111.43615 180.0
111.48658 152.0
111.530716 168.0
111.647339 136.0
112.002037 184.0
112.077881 224.0
112.263374 200.0
112.360397 184.0
112.392052 48.0
112.436363 108.0
112.459579 56.0
112.497574 136.0
112.706657 96.0
112.755264 176.0
112.854614 64.0
112.882103 220.0
113.030167 100.0
113.116943 204.0
113.207367 192.0
113.290588 156.0
113.332954 288.0
113.511009 104.0
113.638268 124.0
113.727402 184.0
113.742256 88.0
113.919716 212.0
114.03112 144.0
114.211838 192.0
114.230988 164.0
114.394836 196.0
114.428902 220.0
114.503426 176.0
114.535378 144.0
114.558807 180.0
114.599281 184.0
114.686653 120.0
114.729286 76.0
114.919098 160.0
114.936165 176.0
114.972214 184.0
115.053772 4412.0
115.128288 84.0
115.268707 136.0
115.305603 196.0
115.324837 72.0
115.369728 136.0
115.414627 224.0
115.754845 172.0
115.806244 236.0
116.005516 88.0
116.058174 336.0
116.080551 136.0
116.234825 196.0
116.280067 100.0
116.327286 188.0
116.393837 88.0
116.505524 148.0
116.546341 156.0
116.688194 164.0
116.774208 144.0
116.791412 144.0
116.93557 140.0
117.002495 88.0
117.019524 156.0
117.057762 7852.0
117.105232 260.0
117.230614 72.0
117.280182 164.0
117.35347 172.0
117.374809 192.0
117.437576 108.0
117.521706 120.0
117.55407 156.0
117.616661 44.0
117.789406 196.0
117.862854 44.0
117.880142 148.0
117.969025 224.0
118.002373 124.0
118.007416 68.0
118.015518 184.0
118.063599 1436.0
118.139595 168.0
118.208824 176.0
118.260765 164.0
118.291069 152.0
118.312721 260.0
118.33004 164.0
118.446976 124.0
118.518471 132.0
118.776451 116.0
118.832855 136.0
118.852379 124.0
118.921822 160.0
118.9869 176.0
119.006485 68.0
119.072937 1816.0
119.119415 40.0
119.200371 124.0
119.262825 108.0
119.299782 48.0
119.36718 156.0
119.630432 180.0
119.904877 116.0
119.920135 72.0
120.037315 224.0
120.080353 1468.0
120.325867 180.0
120.75634 100.0
120.850403 164.0
120.881035 224.0
121.06395 660.0
121.087646 372.0
121.36293 140.0
121.413361 184.0
121.650955 168.0
121.7118 104.0
121.751328 132.0
121.790855 148.0
121.924881 88.0
121.964439 192.0
122.045776 164.0
122.087563 92.0
122.135948 112.0
122.225456 64.0
122.240906 152.0
122.373611 168.0
122.391228 196.0
122.433067 180.0
122.492531 168.0
122.67543 136.0
122.77906 156.0
122.867287 152.0
122.918037 164.0
122.945366 192.0
123.147629 196.0
123.200638 156.0
123.390701 160.0
123.569839 164.0
123.64286 188.0
123.903824 140.0
123.932945 200.0
124.200912 160.0
124.234459 64.0
124.272179 164.0
124.334305 96.0
124.434196 168.0
124.454735 128.0
124.667419 120.0
124.707428 168.0
124.811905 148.0
125.001724 192.0
125.118942 200.0
125.277054 172.0
125.379547 156.0
125.410751 124.0
125.45533 140.0
125.473167 204.0
125.593582 196.0
125.794411 172.0
125.834595 136.0
125.85022 196.0
126.042313 108.0
126.113823 108.0
126.180885 128.0
126.341904 64.0
126.506134 72.0
126.590347 156.0
126.614983 144.0
126.718018 56.0
126.960098 204.0
127.056549 188.0
127.099182 152.0
127.219627 120.0
127.382057 212.0
127.413506 132.0
127.483162 180.0
127.564072 176.0
127.604538 168.0
127.67424 44.0
127.728218 188.0
127.752968 144.0
127.820457 136.0
127.964684 156.0
128.047821 212.0
128.063599 176.0
128.081619 164.0
128.104141 88.0
128.142441 164.0
128.379105 124.0
128.458054 116.0
128.552811 152.0
128.65889 152.0
128.839554 68.0
128.859894 140.0
128.884735 140.0
129.024872 220.0
129.160553 164.0
129.223892 116.0
129.27594 36.0
129.466095 228.0
129.500061 128.0
129.542465 172.0
129.788269 180.0
129.849091 96.0
129.874039 96.0
130.065643 1648.0
130.189499 48.0
130.241745 184.0
130.420013 148.0
130.575439 156.0
130.582718 216.0
130.678207 164.0
130.723724 64.0
130.821594 68.0
130.87851 184.0
131.047348 312.0
131.073013 2380.0
131.243057 124.0
131.293228 124.0
131.354813 124.0
131.373062 196.0
131.423248 144.0
131.649231 136.0
131.674347 204.0
131.699478 192.0
131.717758 116.0
131.733734 248.0
131.774857 120.0
131.802277 208.0
131.827423 76.0
131.873123 280.0
131.900558 204.0
131.921127 156.0
131.942459 168.0
131.96196 172.0
131.967239 280.0
131.98317 368.0
132.03067 212.0
132.048264 168.0
132.080963 67708.0
132.159592 44.0
132.192993 92.0
132.225327 220.0
132.243637 76.0
132.283371 168.0
132.303787 112.0
132.324509 144.0
132.354156 88.0
132.387711 56.0
132.391403 52.0
132.427948 72.0
132.457825 316.0
132.49852 156.0
132.591766 124.0
132.665115 52.0
132.684708 116.0
132.706375 96.0
132.827927 196.0
132.993134 132.0
133.021606 148.0
133.08316 5460.0
133.122101 316.0
133.172211 72.0
133.199783 132.0
133.250961 100.0
133.275589 60.0
133.46637 88.0
133.606659 68.0
133.654984 196.0
133.711212 164.0
133.750717 60.0
133.811493 40.0
133.841949 52.0
133.873657 156.0
133.894958 132.0
134.030762 228.0
134.06044 208.0
134.085129 616.0
134.138611 44.0
134.166275 32.0
134.184723 184.0
134.405197 88.0
134.445374 176.0
134.505371 184.0
134.546921 96.0
134.641296 212.0
134.717819 80.0
134.800995 80.0
134.879578 180.0
134.976669 124.0
135.04068 268.0
135.073807 88.0
135.092316 152.0
135.476593 152.0
135.571579 52.0
135.657333 160.0
135.717621 68.0
135.931015 156.0
135.977432 140.0
136.054031 44.0
136.073883 340.0
136.156189 40.0
136.172455 236.0
136.276978 148.0
136.495468 136.0
136.583847 396.0
136.604782 48.0
136.725769 156.0
136.930649 144.0
136.979553 172.0
137.056442 292.0
137.077408 140.0
137.268555 104.0
137.337372 196.0
137.634888 172.0
137.667587 180.0
137.821747 196.0
137.86615 80.0
137.910553 164.0
138.022766 192.0
138.073486 64.0
138.08963 612.0
138.25235 140.0
138.357346 224.0
138.502518 192.0
138.53064 108.0
138.565765 220.0
138.734512 240.0
138.811874 140.0
138.854095 196.0
138.903351 96.0
138.980759 192.0
139.001877 172.0
139.037079 124.0
139.105148 108.0
139.197403 260.0
139.290649 148.0
139.492737 120.0
139.647919 128.0
139.784378 252.0
139.814957 152.0
140.04805 56.0
140.088089 140.0
140.118713 192.0
140.396851 332.0
140.585571 188.0
140.644577 224.0
140.942139 128.0
141.093399 212.0
141.13884 144.0
141.372498 108.0
141.398529 144.0
141.507416 136.0
141.587936 148.0
141.632935 156.0
141.827225 192.0
141.959991 124.0
142.064438 756.0
142.358658 124.0
142.439407 48.0
142.686554 64.0
143.048141 284.0
143.072083 332.0
143.145767 220.0
143.383987 172.0
143.534164 184.0
143.555618 40.0
143.577087 132.0
143.620026 64.0
143.739304 120.0
143.920715 192.0
144.077454 148.0
144.219315 104.0
144.532608 184.0
144.889343 176.0
144.937256 224.0
145.049301 160.0
145.085861 76.0
145.220139 76.0
145.306488 116.0
145.60173 40.0
145.734787 216.0
145.80835 96.0
145.98143 184.0
146.058899 632.0
146.149811 48.0
146.212585 204.0
146.291809 168.0
146.335144 152.0
146.429047 204.0
146.932831 156.0
147.002808 232.0
147.064682 144.0
147.113831 152.0
147.207993 156.0
147.232147 28.0
147.38916 160.0
147.417786 128.0
147.476151 84.0
147.580109 196.0
147.67926 140.0
147.731155 140.0
147.751816 180.0
147.853455 132.0
147.979324 160.0
148.048111 332.0
148.074661 2068.0
148.138306 148.0
148.598801 120.0
148.7211 52.0
148.942062 212.0
149.017365 156.0
149.060608 1184.0
149.081726 988.0
149.437988 212.0
149.520721 104.0
149.605911 152.0
149.644867 160.0
149.674072 192.0
149.698425 68.0
149.849442 96.0
149.922546 116.0
149.983475 176.0
150.063293 304.0
150.091187 28304.0
150.145615 48.0
150.214096 48.0
150.2444 268.0
150.270554 160.0
150.294647 100.0
150.302292 60.0
150.311691 144.0
150.339081 104.0
150.368835 136.0
150.417648 56.0
150.468918 224.0
150.485245 40.0
150.533585 140.0
150.631317 88.0
150.722931 72.0
150.757141 76.0
150.784027 136.0
150.811279 180.0
150.923355 32.0
151.03273 204.0
151.093781 2888.0
151.11972 184.0
151.155151 140.0
151.20697 128.0
151.28656 44.0
151.324615 176.0
151.565475 236.0
151.584244 68.0
152.043457 172.0
152.094162 156.0
152.249039 184.0
152.273605 108.0
152.320587 120.0
152.346893 100.0
152.455399 124.0
152.723373 48.0
152.875916 52.0
152.900513 164.0
153.107315 144.0
153.202835 144.0
153.358612 56.0
153.501602 160.0
153.76062 72.0
154.081635 140.0
154.276855 128.0
154.299118 176.0
154.890549 168.0
155.093735 152.0
155.292084 168.0
155.391312 152.0
155.478149 168.0
155.766159 184.0
155.798462 48.0
156.071838 136.0
156.09671 148.0
156.136505 120.0
156.452499 108.0
156.494827 32.0
156.529678 136.0
156.55957 104.0
156.900925 132.0
156.97821 120.0
157.063004 112.0
157.392426 184.0
157.442368 96.0
157.479843 60.0
157.667206 152.0
157.742203 176.0
157.892212 48.0
157.939728 100.0
158.059021 228.0
158.097046 288.0
158.245041 196.0
158.387772 56.0
158.415329 152.0
158.673447 72.0
158.859024 104.0
158.949356 108.0
159.007065 80.0
159.043579 308.0
159.069824 284.0
159.112488 232.0
159.206314 164.0
159.226379 180.0
159.346054 152.0
159.368668 168.0
159.42395 148.0
159.486786 152.0
159.545609 196.0
159.612488 116.0
159.675171 168.0
159.695465 200.0
159.763382 156.0
159.821243 208.0
159.876602 148.0
159.940384 284.0
160.023102 424.0
160.076065 77472.0
160.158951 88.0
160.17659 216.0
160.193756 132.0
160.237259 92.0
160.268173 64.0
160.293808 180.0
160.313446 156.0
160.34433 272.0
160.374054 140.0
160.423172 112.0
160.455276 92.0
160.489517 116.0
160.539154 116.0
160.566895 80.0
160.63884 136.0
160.679169 144.0
160.696136 108.0
160.743469 192.0
160.766769 52.0
160.805725 72.0
160.849472 180.0
160.89743 68.0
160.965607 216.0
160.981583 148.0
161.016113 228.0
161.078094 8528.0
161.188034 76.0
161.276352 48.0
161.370407 76.0
161.429855 216.0
161.45108 108.0
161.503906 60.0
161.524139 40.0
161.596481 128.0
161.617752 48.0
161.653168 52.0
161.675949 36.0
161.701248 180.0
161.731628 104.0
161.759476 60.0
161.861389 172.0
161.924042 156.0
161.964569 48.0
162.03804 44.0
162.080185 608.0
162.116577 60.0
162.157135 112.0
162.174866 64.0
162.215424 132.0
162.314804 264.0
162.334167 96.0
162.34642 36.0
162.3526 120.0
162.371613 120.0
162.405594 112.0
162.428436 36.0
162.448715 28.0
162.621262 72.0
162.722809 60.0
163.014908 88.0
163.036087 324.0
163.075897 168.0
163.1064 104.0
163.126724 144.0
163.188889 92.0
163.218262 120.0
163.36322 76.0
163.492981 68.0
163.559158 60.0
164.042618 176.0
164.068634 184.0
164.17572 40.0
164.392548 68.0
164.492096 68.0
164.752563 56.0
165.053299 260.0
165.309937 100.0
165.619339 136.0
165.837509 84.0
166.317139 44.0
167.165237 164.0
167.752472 68.0
167.773087 44.0
168.366547 92.0
168.601639 148.0
169.346741 152.0
169.56955 28.0
169.629166 116.0
169.797699 64.0
169.914047 140.0
169.940369 72.0
170.093475 128.0
170.436279 64.0
170.787247 104.0
171.063065 164.0
171.224487 44.0
171.27919 148.0
171.586685 120.0
172.114487 204.0
172.197281 116.0
172.563126 32.0
172.740952 152.0
172.9673 184.0
173.010483 128.0
173.06546 280.0
173.083664 164.0
173.125687 48.0
174.02771 140.0
174.061844 108.0
174.103867 44.0
174.156387 68.0
174.569 84.0
175.034348 152.0
175.614532 244.0
175.976059 100.0
176.044754 888.0
176.069061 184.0
176.282455 232.0
176.694931 56.0
177.054504 2544.0
177.190002 92.0
177.282745 48.0
177.333099 52.0
177.367554 88.0
177.516022 220.0
177.611496 56.0
177.659241 144.0
178.058609 544.0
178.084213 2072.0
178.145035 52.0
178.261948 56.0
178.323059 112.0
178.458633 120.0
178.687363 156.0
178.775177 40.0
179.067596 152.0
179.092209 444.0
180.059555 164.0
180.093597 144.0
180.244461 32.0
180.284546 76.0
180.391449 156.0
180.490372 44.0
180.533157 84.0
181.191605 168.0
181.686127 104.0
181.773438 68.0
182.09021 108.0
182.117065 136.0
182.294373 56.0
182.907578 180.0
183.133743 104.0
183.52449 132.0
183.543365 124.0
183.581116 140.0
183.660965 152.0
184.264008 108.0
184.350479 60.0
184.783096 256.0
184.858856 208.0
184.926514 132.0
185.061874 144.0
185.132278 136.0
185.316467 44.0
186.089447 180.0
186.195343 48.0
187.036026 348.0
187.130753 176.0
187.23967 84.0
188.024826 168.0
188.04393 68.0
188.147659 192.0
188.489075 68.0
188.647583 144.0
188.784286 48.0
188.871811 104.0
189.054962 1572.0
189.139954 68.0
189.170074 124.0
189.698761 52.0
190.062225 372.0
190.101883 192.0
190.362717 124.0
190.873825 180.0
191.005829 36.0
191.032959 348.0
191.067581 188.0
191.118622 68.0
191.374588 148.0
191.421402 220.0
191.947708 184.0
192.043381 308.0
192.071259 176.0
192.096634 128.0
192.218033 68.0
192.369827 128.0
192.601776 128.0
192.670837 156.0
192.715042 156.0
193.04744 448.0
193.173965 180.0
193.331665 112.0
193.578049 152.0
194.051849 176.0
194.118393 196.0
194.248749 148.0
194.437424 216.0
195.062363 152.0
195.860947 52.0
195.941742 60.0
195.980743 156.0
196.047623 228.0
196.078278 128.0
196.499329 200.0
197.910767 152.0
198.193665 44.0
198.339386 64.0
198.572098 148.0
198.703949 184.0
198.760056 136.0
199.622421 104.0
199.965622 108.0
200.010666 168.0
200.081039 172.0
201.047836 136.0
201.174835 160.0
201.417694 248.0
201.793533 208.0
202.665283 224.0
202.781464 76.0
203.036621 276.0
203.075211 208.0
203.135895 204.0
203.229507 88.0
203.456558 68.0
203.564453 108.0
203.828629 104.0
204.041962 472.0
204.101501 152.0
204.317657 116.0
204.516846 96.0
204.727524 124.0
204.753159 164.0
204.795868 188.0
204.957077 256.0
204.998154 228.0
205.048828 27032.0
205.119568 120.0
205.156738 100.0
205.240433 64.0
205.271667 80.0
205.282166 76.0
205.29007 128.0
205.334274 124.0
205.391586 172.0
205.53566 56.0
205.57988 148.0
205.616989 160.0
205.699753 120.0
205.773987 80.0
205.892746 128.0
206.005295 128.0
206.052231 3744.0
206.173874 40.0
206.442596 192.0
206.611343 40.0
206.654266 52.0
206.674286 124.0
206.745834 80.0
206.989151 128.0
207.063492 2396.0
207.169388 168.0
207.226883 88.0
207.261261 56.0
207.327179 144.0
207.358704 92.0
207.413162 84.0
207.466827 52.0
207.593781 64.0
207.665466 80.0
207.688416 60.0
207.737183 112.0
207.757263 60.0
207.86055 48.0
208.001175 44.0
208.035904 80.0
208.068588 308.0
208.14473 68.0
208.443451 136.0
208.486557 148.0
208.679153 100.0
208.998413 52.0
209.07254 200.0
209.26033 96.0
209.438873 124.0
209.663589 68.0
209.755829 88.0
209.859604 164.0
209.90863 144.0
210.496109 108.0
210.739914 244.0
211.541 156.0
211.601791 60.0
212.926941 80.0
213.063858 148.0
213.104141 136.0
213.764175 124.0
214.064011 112.0
214.104904 180.0
214.358215 188.0
215.072739 144.0
215.099304 308.0
215.139862 164.0
216.080017 120.0
216.107239 180.0
216.648849 88.0
216.809998 176.0
216.841919 144.0
216.892059 128.0
217.048859 6724.0
217.081268 300.0
217.273285 60.0
217.387711 56.0
217.422928 104.0
217.490433 64.0
217.719437 76.0
217.74292 32.0
218.051208 792.0
218.119003 128.0
218.301285 40.0
218.577789 96.0
218.919266 48.0
219.064087 1584.0
219.100296 328.0
219.231522 60.0
219.440796 44.0
219.473236 48.0
219.605942 52.0
219.794739 48.0
219.921631 80.0
220.066284 244.0
220.544846 44.0
220.580124 60.0
220.609879 72.0
220.82869 212.0
221.050171 124.0
221.080154 244.0
222.037048 184.0
222.419785 104.0
222.692947 152.0
225.499542 152.0
225.99295 68.0
226.43898 128.0
226.615707 44.0
226.708603 164.0
227.074341 152.0
228.032089 96.0
228.708817 88.0
229.040024 148.0
229.760483 132.0
230.098495 160.0
230.878067 104.0
231.017197 136.0
231.06398 180.0
232.068085 108.0
232.095383 164.0
232.119629 112.0
232.438141 220.0
233.043152 292.0
233.113495 136.0
233.133514 168.0
233.449677 168.0
234.375046 196.0
234.960419 68.0
235.058563 216.0
235.122147 128.0
235.274765 128.0
235.467133 100.0
236.029404 176.0
236.470657 168.0
238.051819 44.0
238.107086 200.0
238.51265 112.0
238.678665 152.0
239.007782 76.0
241.120132 88.0
241.877899 184.0
242.08844 128.0
242.788803 48.0
243.272827 164.0
244.068161 168.0
244.131668 180.0
244.282761 104.0
244.843002 156.0
245.04274 4304.0
245.083694 480.0
245.123367 156.0
245.185699 48.0
245.238678 76.0
245.422607 52.0
245.890518 116.0
245.965439 140.0
246.044724 536.0
246.088455 108.0
246.129211 216.0
246.227707 140.0
247.055389 688.0
247.080597 144.0
247.506699 240.0
247.873169 116.0
248.020477 80.0
248.061981 164.0
248.074219 192.0
248.619507 56.0
248.735641 88.0
248.914581 128.0
249.473831 136.0
250.106094 68.0
250.373703 148.0
251.342072 104.0
252.311081 80.0
252.421753 104.0
252.583038 116.0
252.662125 124.0
252.880463 84.0
253.111557 164.0
254.135345 148.0
256.227356 164.0
256.743713 72.0
257.445801 116.0
257.723694 180.0
258.475098 128.0
258.628723 96.0
258.846405 164.0
259.093842 192.0
259.237213 128.0
259.535309 60.0
260.101959 840.0
260.183411 92.0
260.424225 240.0
260.475616 132.0
260.960907 100.0
260.996246 132.0
261.111115 6772.0
261.340424 60.0
261.419281 96.0
261.47879 64.0
261.545471 56.0
261.822052 84.0
261.946991 48.0
262.039093 144.0
262.114349 1736.0
262.30011 40.0
262.412933 44.0
262.71286 40.0
263.115906 148.0
263.35199 104.0
263.552277 148.0
263.674744 120.0
263.733246 76.0
263.914276 124.0
264.141418 84.0
264.198883 80.0
264.341248 56.0
264.490112 84.0
264.778259 144.0
264.875427 128.0
266.848511 68.0
267.085907 228.0
267.303894 152.0
268.026764 52.0
268.535309 52.0
268.74408 192.0
269.223389 104.0
269.664948 152.0
270.921448 160.0
271.096619 304.0
272.368073 136.0
272.765656 104.0
272.877441 48.0
272.97937 88.0
273.109009 2008.0
273.163544 124.0
273.219452 36.0
273.676941 56.0
274.116577 548.0
274.342438 140.0
274.372101 116.0
274.969147 100.0
275.109985 212.0
275.725433 164.0
277.217926 128.0
277.287537 144.0
277.881073 152.0
278.120026 132.0
279.459259 60.0
280.128418 56.0
280.291656 176.0
280.544952 172.0
282.642365 60.0
284.855072 152.0
285.254944 184.0
285.671906 128.0
286.176727 148.0
287.127563 116.0
287.500549 88.0
287.66684 228.0
288.582367 160.0
289.638214 112.0
290.012268 208.0
290.309265 72.0
290.336395 164.0
290.974304 168.0
291.072784 96.0
291.473602 52.0
291.929077 32.0
293.215912 116.0
294.461182 44.0
295.107025 136.0
296.130188 172.0
296.294617 140.0
296.551605 132.0
296.705872 124.0
297.786774 108.0
301.020508 168.0
301.105255 1476.0
302.106262 200.0
303.047424 148.0
303.102875 208.0
303.248413 196.0
303.737305 104.0
304.105835 188.0
304.559937 156.0
304.712799 148.0
305.124207 148.0
306.079163 136.0
306.11499 388.0
307.076355 144.0
308.120056 116.0
308.980072 100.0
310.111115 96.0
310.524841 132.0
310.584473 160.0
310.900208 148.0
312.1297 172.0
315.450806 72.0
316.391785 88.0
316.852173 92.0
317.809448 80.0
318.114655 196.0
319.749664 272.0
322.099792 144.0
322.13858 116.0
322.467316 140.0
322.77475 80.0
322.917786 248.0
322.946411 92.0
323.841187 220.0
324.131378 140.0
324.289062 116.0
324.877106 116.0
325.088806 148.0
326.112335 172.0
326.212982 200.0
326.363953 168.0
327.101471 88.0
328.113739 164.0
328.925415 184.0
331.221497 180.0
334.108643 296.0
336.117706 260.0
336.249969 100.0
337.122772 104.0
337.671143 152.0
339.472931 96.0
340.111298 100.0
340.335236 176.0
341.820221 48.0
342.353973 84.0
343.20517 176.0
344.182983 168.0
346.108398 132.0
347.0802 160.0
347.109863 104.0
347.224823 172.0
348.364319 64.0
348.914307 148.0
349.308502 60.0
350.145935 124.0
351.085083 228.0
352.114868 432.0
353.060608 92.0
353.122223 324.0
353.895081 160.0
354.128418 292.0
354.475647 44.0
354.8992 112.0
355.62323 196.0
357.528656 48.0
360.232056 100.0
361.487274 132.0
362.502106 176.0
362.566528 100.0
363.078308 76.0
364.046021 92.0
364.11734 2724.0
364.182739 36.0
364.315704 56.0
364.425873 56.0
364.482849 40.0
365.116852 684.0
365.635101 88.0
365.692169 116.0
365.836823 132.0
366.113617 160.0
366.12442 112.0
366.625244 128.0
366.987366 56.0
367.148468 60.0
367.269562 120.0
367.517548 100.0
368.995605 228.0
369.182983 144.0
369.886963 60.0
370.126221 460.0
370.170258 228.0
370.204041 68.0
370.400055 68.0
371.124542 272.0
371.362122 36.0
375.238281 120.0
376.195007 200.0
376.700897 172.0
377.978668 72.0
378.127655 124.0
378.166351 112.0
378.266968 56.0
378.654175 84.0
379.160095 164.0
379.405884 136.0
380.503784 68.0
380.791138 116.0
380.981476 120.0
381.113556 112.0
381.187378 224.0
381.296204 136.0
381.459442 168.0
381.564392 148.0
381.622711 60.0
381.665497 116.0
381.696594 188.0
381.796326 112.0
381.972717 152.0
382.0513 100.0
382.127991 18140.0
382.223663 120.0
382.29953 44.0
382.473114 40.0
382.615845 60.0
382.695312 140.0
382.778351 76.0
382.819763 88.0
382.875427 56.0
383.04483 148.0
383.132172 3440.0
383.199005 48.0
383.245758 68.0
383.312012 72.0
383.460083 60.0
383.50531 40.0
383.557526 48.0
383.608185 64.0
383.69397 52.0
383.818726 32.0
383.877228 60.0
384.068329 140.0
384.132324 952.0
384.20874 72.0
384.236053 112.0
384.376526 68.0
384.552124 56.0
384.716064 56.0
385.083099 64.0
385.142059 364.0
385.215912 40.0
385.317474 56.0
385.411255 104.0
385.442505 68.0
385.56366 112.0
385.609772 120.0
385.688721 108.0
385.83725 108.0
386.240051 104.0
386.373047 64.0
386.513885 80.0
386.682159 80.0
386.88855 52.0
387.171539 52.0
387.198944 92.0
387.904205 188.0
388.963318 120.0
389.764465 72.0
390.157501 148.0
391.188171 120.0
392.176849 128.0
392.665741 96.0
392.953705 192.0
394.118439 104.0
394.222992 148.0
395.217621 76.0
396.171753 112.0
396.223267 56.0
397.158783 144.0
397.376953 136.0
397.968323 52.0
398.57605 216.0
400.517456 84.0
411.97403 108.0
412.936035 40.0
415.47171 124.0
415.962738 116.0
416.011444 132.0
416.917206 76.0
417.161072 100.0
417.998871 132.0
418.365173 124.0
419.139008 132.0
419.310181 152.0
419.448761 120.0
419.725983 140.0
420.023682 180.0
420.180511 4460.0
420.258728 124.0
420.390869 72.0
420.603088 68.0
420.672485 68.0
420.984192 128.0
421.178955 808.0
421.268707 108.0
421.342224 40.0
421.632324 116.0
421.992035 68.0
422.198364 96.0
423.08847 184.0
423.186737 164.0
423.280914 32.0
423.506165 84.0
423.538544 88.0
423.592163 32.0
423.809296 32.0
425.429291 80.0
425.609924 176.0
430.464661 80.0
431.241333 252.0
431.617523 104.0
432.291779 208.0
434.280365 56.0
435.467377 76.0
435.758148 40.0
436.082275 96.0
436.780792 132.0
436.943054 56.0
437.001282 84.0
437.078888 136.0
437.23764 160.0
437.317535 44.0
437.386627 148.0
437.529846 100.0
437.771332 168.0
437.921265 100.0
438.033722 28.0
438.100372 204.0
438.189728 14020.0
438.280121 220.0
438.325348 48.0
438.411957 92.0
438.450378 96.0
438.485504 112.0
438.838043 92.0
438.897461 128.0
438.975647 236.0
439.190491 3464.0
439.376038 60.0
439.423889 128.0
439.526245 32.0
439.697327 68.0
439.730713 36.0
439.780792 40.0
439.830902 32.0
439.985504 116.0
440.022919 72.0
440.060028 72.0
440.198364 788.0
440.540405 48.0
440.699524 64.0
441.021301 56.0
441.181793 152.0
441.290039 84.0
441.539734 52.0
441.782318 120.0
441.83252 100.0
441.903656 144.0
441.986877 108.0
442.213318 48.0
442.414215 76.0
443.021454 60.0
444.002258 44.0
444.379761 72.0
446.484222 80.0
447.750977 52.0
450.015381 140.0
452.416718 84.0
453.068909 80.0
454.42981 104.0
455.669525 72.0
458.771973 76.0
460.175537 68.0
471.455505 80.0
473.978302 120.0
475.153259 156.0
477.229279 44.0
477.45105 72.0
478.356049 84.0
479.261902 92.0
482.041412 44.0
482.753937 72.0
498.362793 76.0
503.472046 52.0
508.719604 92.0
512.30365 52.0
514.69397 124.0
518.085999 64.0
521.862 48.0
537.80426 76.0
544.36438 60.0
545.084412 68.0
548.463135 52.0
548.83606 76.0
550.445862 48.0
550.506592 60.0
554.014465 44.0
576.408569 76.0
578.26886 176.0
578.757141 60.0
598.126282 96.0
598.656982 124.0
598.700806 60.0
602.993958 84.0
612.458435 80.0
615.590149 112.0
630.283691 96.0
634.888977 60.0
635.922485 44.0
641.888916 88.0
651.352966 92.0
651.398682 80.0
662.483582 144.0
663.734131 76.0
672.495056 96.0
682.560852 84.0
682.706421 96.0
684.262207 60.0
689.729248 156.0
694.357666 264.0
696.903564 184.0
703.396912 64.0
729.252258 100.0
729.413513 104.0
751.367615 216.0
754.699158 172.0
771.970764 48.0
775.791077 128.0
781.605957 44.0
799.766296 48.0
803.146973 180.0
803.237183 184.0
804.060974 112.0
806.353882 56.0
808.746338 40.0
813.712097 168.0
815.47876 116.0
818.761475 92.0
832.388794 52.0
836.873718 120.0
851.178711 188.0
860.693176 88.0
873.828064 180.0
874.19873 172.0
879.390808 124.0
880.211365 192.0
880.42395 184.0
886.179382 136.0
904.791138 216.0
905.467773 128.0
913.727295 96.0
917.527405 100.0
921.667786 44.0
934.071716 92.0
935.751343 128.0
936.575928 48.0
941.037292 140.0
942.044922 148.0
942.747559 160.0
943.976318 92.0
944.930481 144.0
946.766785 56.0
948.506775 48.0
949.84967 224.0
951.893372 148.0
953.441406 124.0
963.447876 208.0
971.942322 160.0
986.23468 176.0
989.312256 140.0
992.940125 160.0
994.32666 108.0
996.122375 124.0
999.819336 44.0
1004.702576 164.0
1013.699707 116.0
1014.745544 64.0
1015.722168 84.0
1015.855408 80.0
1017.772034 104.0
1027.663086 192.0
1035.910034 136.0
1036.204712 40.0
1036.371338 40.0
1041.092407 60.0
1045.547485 100.0
1050.624878 68.0
1053.400635 60.0
1057.875488 184.0
1059.870239 164.0
1060.025757 52.0
1062.457153 184.0
1063.359009 152.0
1068.323242 208.0
1068.498901 164.0
1068.817749 104.0
1070.249756 132.0
1077.273682 140.0
1077.717896 48.0
1083.259155 204.0
1083.396729 168.0
1084.05188 128.0
1086.727173 228.0
1089.070679 116.0
1091.554932 160.0
1092.40332 188.0
1095.582886 92.0
1097.533691 148.0
1097.909546 124.0
1101.632202 200.0
1104.838379 144.0
1106.671631 128.0
1111.755737 200.0
1112.226929 200.0
1112.69165 192.0
1113.441895 76.0
1113.820557 172.0
1114.923462 160.0
1117.816162 176.0
1122.05896 156.0
1123.526123 164.0
1123.959717 204.0
1126.075928 180.0
1126.189453 104.0
1126.844116 224.0
1127.158203 136.0
1127.819824 184.0
1131.164185 172.0
1131.873901 148.0
1132.13501 176.0
1132.349365 160.0
1133.890259 140.0
1136.445068 112.0
1136.639648 116.0
1136.733643 184.0
1137.210083 128.0
1137.505493 188.0
1137.720215 96.0
1142.653076 192.0
1145.406372 192.0
1146.336182 40.0
1146.652954 160.0
1150.801392 88.0
1151.199829 216.0
1152.902222 176.0
1154.355591 160.0
1155.803101 112.0
1155.891113 148.0
1157.562988 104.0
1158.761963 56.0
1161.839844 156.0
1162.993408 144.0
1165.336182 52.0
1170.335327 204.0
1170.58728 52.0
1181.09729 152.0
1184.204712 252.0
1184.417114 176.0
1184.889771 136.0
1185.143188 164.0
1185.718872 120.0
1187.035034 112.0
1187.810059 176.0
1188.75 264.0
1189.175415 168.0
1189.745239 188.0
1191.675049 136.0
1193.235107 160.0
1193.283325 160.0
1193.510132 208.0
1193.606445 152.0
1194.108398 32.0
1194.5271 148.0
1195.966064 188.0
1196.303345 112.0
1196.661377 156.0
1199.837402 68.0
1200.223511 156.0
1200.747681 124.0
1201.927246 44.0
1202.616699 204.0
1203.266235 96.0
1203.866943 108.0
1205.407349 244.0
1206.146851 132.0
1208.076172 36.0
1208.242188 136.0
1209.667725 200.0
1210.637085 156.0
1214.067383 136.0
1215.753052 128.0
1216.169434 56.0
1217.585815 220.0
1218.384644 68.0
1219.468628 108.0
1219.983032 68.0
1220.831177 168.0
1221.144165 136.0
1221.554565 64.0
1224.317749 92.0
1227.007324 172.0
1227.984253 228.0
1230.488647 184.0
1232.031982 208.0
1233.394653 140.0
1233.667236 236.0
1234.904907 100.0
1235.121094 160.0
1235.513428 48.0
1236.521118 140.0
1241.656372 176.0
1242.196533 188.0
1243.543701 56.0
1244.189453 208.0
1244.856445 116.0
1245.734375 136.0
1246.015381 128.0
1248.039551 212.0
1249.263306 148.0
1250.38208 108.0
1250.952148 176.0
1251.149292 140.0
1253.551025 84.0
1255.02417 176.0
1256.018555 92.0
1256.13855 156.0
1256.448853 168.0
1259.710327 168.0
1261.575928 128.0
1262.14856 252.0
1263.273071 196.0
1264.327271 200.0
1264.730713 40.0
1265.042236 140.0
1265.53064 196.0
1265.799683 188.0
1268.39978 208.0
1268.640869 124.0
1268.867676 112.0
1269.059082 140.0
1270.782593 104.0
1271.776123 148.0
1273.188843 192.0
1273.259888 212.0
1274.514282 196.0
1274.829956 188.0
1276.187622 148.0
1277.873169 216.0
1279.11853 160.0
1284.17749 140.0
1285.483032 124.0
1285.825562 136.0
1286.020142 76.0
1286.189575 272.0
1289.982544 132.0
1290.053955 252.0
1292.349731 148.0
1295.549927 112.0
1295.607178 176.0
1295.75769 240.0
1295.836426 220.0
1296.072876 188.0
1296.474243 204.0
1297.004517 124.0
1297.219604 128.0
1299.944946 208.0
1300.418701 148.0
1300.842163 168.0
1301.100586 244.0
1301.560059 80.0
1302.084351 144.0
1302.314087 76.0
1302.903198 112.0
1303.025269 204.0
1303.671997 108.0
1304.002563 240.0
1305.26062 176.0
1305.55542 184.0
1306.597168 104.0
1307.332275 224.0
1307.767944 140.0
1308.851074 148.0
1308.901489 164.0
1310.687866 144.0
1310.976074 220.0
1312.670166 104.0
1313.69812 208.0
1313.751953 188.0
1314.473511 36.0
1315.339478 132.0
1315.513428 216.0
1317.390259 180.0
1320.151245 188.0
1322.198608 136.0
1323.146851 60.0
1323.400146 184.0
1324.481934 148.0
1324.73999 128.0
1326.131226 176.0
1328.494995 96.0
1328.719971 136.0
1329.670532 32.0
1329.895508 148.0
1331.035278 172.0
1331.40564 196.0
1334.057617 152.0
1334.537476 180.0
1334.87915 144.0
1335.620972 112.0
1336.086548 196.0
1338.036987 164.0
1338.96167 128.0
1340.593506 44.0
1340.68103 152.0
1341.643066 80.0
1341.971191 116.0
1342.926514 188.0
1343.014038 180.0
1343.320312 172.0
1343.845581 216.0
1344.305298 132.0
1345.137329 236.0
1345.239502 144.0
1345.451172 48.0
1348.277954 196.0
1348.387573 236.0
1348.826172 256.0
1349.082031 92.0
1349.462158 120.0
1350.227417 196.0
1351.078369 220.0
1351.502808 168.0
1352.490723 140.0
1353.537598 64.0
1356.255493 220.0
1357.01062 128.0
1357.93457 164.0
1360.201782 200.0
1360.781738 164.0
1361.090088 184.0
1361.986084 148.0
1363.411377 168.0
1363.462769 92.0
1363.595093 152.0
1363.903809 172.0
1365.182983 120.0
1365.764038 80.0
1366.036255 44.0
1366.793945 128.0
1367.103027 248.0
1367.213379 68.0
1367.949463 160.0
1368.221802 156.0
1368.35437 144.0
1368.89917 244.0
1369.164307 180.0
1369.21582 184.0
1370.394409 136.0
1370.895508 176.0
1371.278687 164.0
1371.684082 44.0
1373.815186 188.0
1374.176758 56.0
1374.494019 168.0
1374.685791 192.0
1375.017944 180.0
1375.874146 96.0
1376.331909 188.0
1376.782349 96.0
1377.026123 220.0
1377.432251 124.0
1379.25 164.0
1379.782227 184.0
1380.107544 104.0
1380.188965 188.0
1380.640015 208.0
1381.339355 216.0
1382.230469 132.0
1382.659668 28.0
1382.822388 176.0
1383.007446 88.0
1384.303101 88.0
1384.369751 248.0
1385.376953 216.0
1386.384644 136.0
1387.363037 160.0
1387.793091 208.0
1388.022949 116.0
1389.432129 96.0
1390.819702 152.0
1390.923706 212.0
1391.176025 120.0
1391.940796 168.0
1392.401245 48.0
1392.958252 188.0
1393.158813 232.0
1393.307373 144.0
1395.523804 88.0
1397.024414 244.0
1398.646606 196.0
1398.773193 72.0
1401.878906 152.0
1402.147095 144.0
1402.303711 152.0
1402.88501 144.0
1403.85437 36.0
1404.160034 120.0
1404.264526 216.0
1404.398804 152.0
1404.995483 160.0
1405.592407 172.0
1406.756714 152.0
1407.286743 172.0
1407.552612 52.0
1408.810303 196.0
1408.914795 44.0
1410.633545 164.0
1410.76062 172.0
1412.046753 44.0
1412.525391 124.0
1412.645142 132.0
1412.862061 180.0
1413.56543 48.0
1413.737549 188.0
1414.844238 152.0
1415.009277 128.0
1415.309448 168.0
1416.560181 192.0
1416.645752 112.0
1417.361816 116.0
1417.511597 140.0
1418.575928 72.0
1418.763306 244.0
1419.168091 128.0
1419.33313 144.0
1420.105469 128.0
1420.518066 168.0
1421.118164 228.0
1421.613403 212.0
1421.666016 168.0
1421.748535 140.0
1421.930176 208.0
1423.15979 136.0
1423.918213 180.0
1424.053345 176.0
1424.669312 164.0
1424.827026 108.0
1426.555542 116.0
1429.338257 56.0
1429.970337 128.0
1431.025146 156.0
1431.626587 208.0
1431.792236 120.0
1432.568115 164.0
1432.651001 164.0
1433.389282 212.0
1434.18811 128.0
1434.610229 160.0
1436.223877 176.0
1436.404907 180.0
1436.963257 204.0
1437.197144 128.0
1437.287598 60.0
1437.898926 176.0
1438.019653 208.0
1438.472534 192.0
1439.144409 172.0
1439.469116 144.0
1440.435791 136.0
1440.730469 108.0
1441.516235 60.0
1443.481567 132.0
1443.708374 136.0
1444.510132 192.0
1444.616089 156.0
1444.752197 116.0
1444.827881 28.0
1445.516357 68.0
1445.629883 152.0
1445.728271 224.0
1446.507812 148.0
1447.296021 176.0
1447.817627 148.0
1449.13562 32.0
1449.628174 128.0
1449.703979 128.0
1450.014648 168.0
1450.221069 212.0
1450.727173 168.0
1452.43335 192.0
1453.988647 120.0
1454.279419 196.0
1455.119629 152.0
1455.484131 96.0
1457.261475 160.0
1457.390625 32.0
1458.431763 92.0
1459.214722 196.0
1460.438965 132.0
1462.196533 164.0
1462.577026 152.0
1463.010986 164.0
1463.125122 152.0
1463.31543 212.0
1463.863647 116.0
1464.747192 152.0
1465.394653 64.0
1465.989014 252.0
1466.042358 180.0
1466.110962 180.0
1466.880737 204.0
1468.771851 176.0
1469.336304 80.0
1469.397339 196.0
1471.290039 128.0
1471.801514 56.0
1472.137451 180.0
1472.557495 152.0
1475.155396 56.0
1476.279297 172.0
1476.937012 84.0
1477.342529 124.0
1478.689209 140.0
1478.819214 160.0
1479.01062 160.0
1479.41626 196.0
1480.786865 96.0
1481.21582 72.0
1481.437988 184.0
1482.54895 132.0
1483.177368 152.0
1483.418701 124.0
1484.281372 156.0
1484.457764 176.0
1485.101929 112.0
1485.2323 192.0
1486.651611 160.0
1486.935669 76.0
1486.98938 148.0
1487.112183 144.0
1487.342407 156.0
1487.971924 132.0
1489.484741 36.0
1489.743408 152.0
1490.122314 156.0
1491.305664 140.0
1491.803833 140.0
1492.012939 108.0
1492.497314 136.0
1492.98938 80.0
1493.066284 48.0
1493.127808 92.0
1493.250854 220.0
1493.404663 80.0
1493.866211 212.0
1494.774048 84.0
1495.443604 188.0
1495.94397 208.0
1497.008667 200.0
1498.100098 136.0
1498.661865 144.0
1499.864746 144.0
1499.972656 216.0
1500.080566 204.0
1501.54834 184.0
1502.154785 140.0
1503.844604 232.0
