>compound MLS000877029-01!(E)-3-[4-[(2E)-3,7-dimethylocta-2,6-dienoxy]-3,5-dimethoxyphenyl]prop-2-en-1-ol
>formula C21H30O4
>ionization [M+H]+
>parentmass 347.221527
#inchi InChI=1S/C21H30O4/c1-16(2)8-6-9-17(3)11-13-25-21-19(23-4)14-18(10-7-12-22)15-20(21)24-5/h7-8,10-11,14-15,22H,6,9,12-13H2,1-5H3/b10-7+,17-11+
#inchikey MWNIFFJAKKQUJF
#Ion_Source LC-ESI
#Instrument qTof
#Compound_Source NIH Natural Product Library
#PI Dorrestein
#Data_Collector VVP/LMS
#Scan -1
#Precursor_MZ 347.222
#ExactMass 346.214
#Charge 1
#CAS_Number N/A
#Pubmed_ID N/A
#Smiles COc1cc(/C=C/CO)cc(OC)c1OC\C=C(/C)\CCC=C(C)C
#INCHI_AUX N/A
#Library_Class 3
#SpectrumID CCMSLIB00000080270
#IonMode Positive
#UpdateWorkflowName UPDATE-SINGLE-ANNOTATED-BRONZE
#LibraryQualityString Bronze
#TaskID b1d8e8f6646f4e71acdff9ca3d919d08
##Scan# 2587
#SpectrumFile p2-D06_GD6_01_18018.mzXML
#LibraryName NIH_Natural_Products_Library.mgf
#MQScore -1
#Organism NIH_Natural_Products_Library
#TIC_Query 0
#RT_Query -1
#MZErrorPPM -1
#SharedPeaks 0
#MassDiff 0
#LibMZ -1
#SpecMZ 347.222
#SpecCharge 0
#internalFilename spec-00000.mgf

>collision 10
95.08474 904.0
95.13044 68.0
95.367409 124.0
95.853943 148.0
96.089439 220.0
96.568451 196.0
96.76413 228.0
97.071754 128.0
97.881332 204.0
98.579628 96.0
98.710098 148.0
103.055984 992.0
104.058327 224.0
104.892403 200.0
105.01474 156.0
105.029015 200.0
105.070206 1320.0
106.038445 216.0
106.072227 196.0
106.66507 68.0
107.020973 228.0
107.051857 176.0
107.082748 180.0
107.530136 136.0
108.055 176.0
108.092239 148.0
108.37384 72.0
108.543808 124.0
109.064896 76.0
109.099243 404.0
109.337349 164.0
109.44976 144.0
110.067802 168.0
110.292587 164.0
110.893288 140.0
113.498924 156.0
115.053467 824.0
116.07048 76.0
116.882423 296.0
116.987885 172.0
117.067543 136.0
118.038582 344.0
118.066711 152.0
118.328529 104.0
119.040657 360.0
119.087593 172.0
119.687706 44.0
121.06559 232.0
121.115959 196.0
122.009079 180.0
122.031059 168.0
122.361076 248.0
122.468979 176.0
122.502251 192.0
123.044991 988.0
123.119888 148.0
124.050377 496.0
124.430435 204.0
125.02169 144.0
125.213142 232.0
125.259918 140.0
127.061729 208.0
128.06134 196.0
128.161148 112.0
128.282852 168.0
129.032349 152.0
129.06987 360.0
129.604965 156.0
130.072144 180.0
131.046356 228.0
131.483292 172.0
132.058273 180.0
132.084183 32.0
133.065201 2232.0
133.117813 220.0
133.878967 240.0
134.034515 212.0
134.070053 1000.0
134.68158 124.0
134.723145 132.0
134.753189 96.0
134.882599 152.0
135.727615 160.0
137.059479 156.0
137.133789 1112.0
137.278595 156.0
137.556244 88.0
137.684647 192.0
137.712677 152.0
138.002441 68.0
138.034561 412.0
138.273804 100.0
138.819641 40.0
138.962723 68.0
140.044067 148.0
142.041367 144.0
142.078491 276.0
142.100662 184.0
142.297653 152.0
143.048889 132.0
143.089005 436.0
143.515823 48.0
144.058167 292.0
144.227234 48.0
144.926025 128.0
145.06398 180.0
146.038055 144.0
146.070755 208.0
146.475555 160.0
146.96254 236.0
147.078369 328.0
147.116989 184.0
147.218399 176.0
148.079346 160.0
148.345886 96.0
149.025406 220.0
149.056992 180.0
151.043167 252.0
151.089142 168.0
152.042374 272.0
152.065674 160.0
152.773331 120.0
153.049835 188.0
153.428391 232.0
154.011398 76.0
154.062622 128.0
154.586792 172.0
155.069702 116.0
155.089539 180.0
155.424332 132.0
155.632828 92.0
156.092499 124.0
157.071625 136.0
157.111176 196.0
157.493088 52.0
158.073563 392.0
158.143173 196.0
158.253311 144.0
158.558609 196.0
159.039093 180.0
159.07196 124.0
159.095688 148.0
160.623154 144.0
161.060867 3624.0
161.095917 196.0
162.063293 580.0
162.289734 172.0
162.908966 132.0
163.044815 216.0
163.075333 164.0
163.109711 88.0
163.145309 136.0
163.28006 160.0
163.313126 112.0
163.855637 168.0
164.043915 140.0
164.674164 204.0
165.05748 184.0
165.073853 168.0
165.354233 104.0
165.487335 64.0
165.828033 88.0
166.075607 212.0
166.906235 176.0
166.962799 152.0
167.070679 3328.0
168.077347 652.0
168.204666 88.0
168.413818 112.0
168.468063 104.0
168.793716 100.0
168.935959 192.0
168.990295 168.0
169.077164 356.0
169.319031 68.0
169.417465 68.0
170.081284 136.0
170.780228 144.0
171.081024 260.0
171.115921 204.0
171.99704 88.0
172.085785 72.0
172.775757 128.0
172.807144 148.0
172.883026 128.0
173.058411 132.0
173.092438 192.0
173.171585 216.0
173.435638 100.0
174.059875 152.0
174.099411 164.0
175.114563 144.0
175.462387 88.0
175.525665 52.0
176.053421 168.0
177.05307 340.0
177.092789 168.0
178.060974 208.0
179.060822 304.0
179.088928 204.0
181.053131 160.0
181.087585 224.0
181.264755 112.0
182.072205 164.0
183.040298 120.0
183.080688 96.0
183.99205 140.0
184.051453 160.0
184.084442 208.0
184.110855 156.0
185.062683 176.0
185.092453 52.0
186.071243 204.0
187.077484 584.0
187.105377 116.0
187.131561 164.0
188.061127 228.0
188.088409 240.0
188.151199 44.0
189.098129 228.0
189.485809 140.0
190.071274 192.0
191.074112 296.0
192.036774 180.0
192.07753 144.0
192.492126 152.0
192.987915 120.0
193.086838 300.0
193.195953 100.0
193.285446 84.0
194.088531 244.0
195.027039 76.0
195.090714 132.0
196.085449 196.0
197.100357 296.0
198.068405 152.0
198.097656 204.0
199.075256 300.0
199.106155 140.0
200.081848 128.0
201.090714 172.0
202.946686 168.0
203.072357 200.0
203.999969 156.0
204.07814 104.0
204.43512 224.0
204.625824 64.0
205.018906 124.0
205.086868 296.0
205.309692 132.0
206.097534 148.0
207.105637 272.0
207.141754 180.0
208.11969 156.0
209.07692 92.0
211.081787 176.0
211.101028 268.0
211.6026 60.0
213.091476 164.0
214.102676 128.0
214.13472 120.0
214.265793 64.0
215.073547 180.0
217.062912 192.0
217.095612 160.0
217.611603 148.0
218.092667 148.0
219.102478 224.0
220.114334 176.0
221.060501 212.0
221.086884 204.0
223.095337 212.0
224.127625 164.0
225.640839 92.0
226.090759 140.0
226.122421 144.0
227.112518 208.0
231.102707 380.0
232.10527 124.0
233.123642 140.0
234.031662 192.0
235.110733 176.0
237.006622 112.0
241.028214 144.0
241.114746 128.0
243.096695 292.0
244.109375 168.0
245.126144 208.0
247.126923 128.0
247.93663 76.0
248.130966 124.0
249.144638 116.0
252.030563 220.0
255.137238 176.0
255.177856 168.0
255.944656 36.0
257.110901 112.0
259.132233 148.0
260.136017 380.0
261.144928 184.0
265.154816 144.0
269.18219 196.0
270.044861 168.0
272.533051 88.0
273.144287 156.0
275.600586 100.0
285.773529 44.0
287.164764 116.0
287.198486 104.0
317.196503 124.0
329.200317 88.0
334.151581 76.0
337.075745 80.0
343.54126 60.0
347.221527 56.0
460.602264 40.0
556.292236 20.0
789.651306 172.0
862.007446 220.0
878.641174 164.0
898.241089 228.0
903.779053 144.0
912.421509 108.0
919.209351 52.0
950.363586 152.0
982.043274 156.0
984.858154 36.0
991.276794 156.0
1006.713684 164.0
1027.424194 136.0
1043.511841 136.0
1050.437988 156.0
1051.770264 188.0
1072.513184 128.0
1074.338989 184.0
1089.290161 172.0
1105.694214 116.0
1108.720703 224.0
1111.857544 140.0
1122.467651 148.0
1127.86853 212.0
1146.80957 212.0
1154.417969 152.0
1163.578491 184.0
1178.937988 172.0
1179.63855 196.0
1186.549194 104.0
1204.254272 108.0
1207.481812 108.0
1223.245728 180.0
1226.442871 180.0
1228.771851 224.0
1234.765015 60.0
1257.034058 180.0
1257.288086 108.0
1259.921753 80.0
1280.199829 152.0
1283.106812 208.0
1288.437866 164.0
1291.068115 216.0
1309.476074 72.0
1309.86499 160.0
1319.050171 208.0
1319.715698 172.0
1324.202148 184.0
1337.416016 144.0
1341.043091 152.0
1344.967163 124.0
1350.563965 116.0
1359.758667 28.0
1375.620117 164.0
1380.585083 168.0
1387.582153 192.0
1390.764404 192.0
1391.328613 152.0
1393.170288 132.0
1399.983154 196.0
1403.977417 196.0
1407.178467 188.0
1411.272705 188.0
1419.681519 276.0
1425.865234 176.0
1442.834351 156.0
1443.862671 88.0
1444.982056 164.0
1446.351807 128.0
1450.911865 244.0
1453.4375 164.0
1457.005859 196.0
1457.917603 168.0
1459.088135 36.0
1459.55188 64.0
1460.74585 184.0
1463.774902 108.0
1465.336182 132.0
1465.732422 196.0
1471.987183 104.0
1481.394165 232.0
1499.558105 180.0
1503.522095 196.0
