>compound MLS002177804-01!
>formula C15H10O2
>ionization [M+H]+
>parentmass 223.077286
#inchi InChI=1S/C15H10O2/c16-13-10-15(11-6-2-1-3-7-11)17-14-9-5-4-8-12(13)14/h1-10H
#inchikey VHBFFQKBGNRLFZ
#Ion_Source LC-ESI
#Instrument qTof
#Compound_Source NIH Natural Product Library
#PI Dorrestein
#Data_Collector VVP/LMS
#Scan -1
#Precursor_MZ 223.076
#ExactMass 222.068
#Charge 1
#CAS_Number N/A
#Pubmed_ID N/A
#Smiles O=c1cc(oc2ccccc12)c3ccccc3
#INCHI_AUX N/A
#Library_Class 1
#SpectrumID CCMSLIB00000080397
#IonMode Positive
#UpdateWorkflowName UPDATE-SINGLE-ANNOTATED-GOLD
#LibraryQualityString Gold
#TaskID b1d8e8f6646f4e71acdff9ca3d919d08
##Scan# 2203
#SpectrumFile p2-C08_GC8_01_18008.mzXML
#LibraryName NIH_Natural_Products_Library.mgf
#MQScore -1
#Organism NIH_Natural_Products_Library
#TIC_Query 0
#RT_Query -1
#MZErrorPPM -1
#SharedPeaks 0
#MassDiff 0
#LibMZ -1
#SpecMZ 223.076
#SpecCharge 0
#internalFilename spec-00000.mgf

>collision 10
95.050819 316.0
95.134453 40.0
95.239304 92.0
95.266251 156.0
95.27095 136.0
95.279083 184.0
95.420029 160.0
95.626221 156.0
95.661263 72.0
95.735245 148.0
95.813156 128.0
95.885254 132.0
95.987686 188.0
96.049026 200.0
96.088043 128.0
96.320351 188.0
96.63118 140.0
96.665657 212.0
96.738815 184.0
96.756432 188.0
96.911156 148.0
96.958183 160.0
97.003265 36.0
97.026787 68.0
97.075806 116.0
97.215088 160.0
97.431068 184.0
97.455513 172.0
97.873924 120.0
97.944489 160.0
98.013443 180.0
98.175079 228.0
98.518517 188.0
98.561981 156.0
98.603477 128.0
98.773521 172.0
98.815063 128.0
98.927864 156.0
98.957565 128.0
99.003105 48.0
99.022911 164.0
99.076393 144.0
99.161598 152.0
99.177452 172.0
99.363853 224.0
99.514694 136.0
99.538521 140.0
99.604057 56.0
99.621933 132.0
99.6418 212.0
99.747124 120.0
99.778931 72.0
99.796822 184.0
100.203835 184.0
100.419434 128.0
100.489937 160.0
100.533836 192.0
100.703529 224.0
100.749474 184.0
100.791428 148.0
100.90345 172.0
100.93335 180.0
101.017349 180.0
101.03981 388.0
101.085983 172.0
101.117393 140.0
101.189453 196.0
101.337662 196.0
101.381744 168.0
101.411804 164.0
101.598289 136.0
102.047112 792.0
102.106476 188.0
102.29158 168.0
102.603828 244.0
102.696587 176.0
102.95694 208.0
102.983192 124.0
103.02359 124.0
103.055222 11504.0
103.162483 268.0
103.387535 208.0
103.407776 28.0
103.498871 68.0
103.557602 228.0
103.594971 80.0
103.620392 180.0
103.677132 40.0
103.711586 152.0
103.77037 216.0
103.843376 124.0
103.881912 148.0
103.910316 252.0
103.932632 64.0
103.979309 84.0
104.057762 1316.0
104.097046 40.0
104.139694 44.0
104.155464 84.0
104.430344 152.0
104.456787 44.0
104.519852 132.0
104.534096 68.0
104.572762 104.0
104.648079 140.0
104.668442 76.0
104.745834 48.0
104.843628 140.0
104.91497 128.0
104.936295 156.0
104.986328 52.0
105.032509 1532.0
105.061935 184.0
105.131172 160.0
105.149536 36.0
105.223022 168.0
105.365982 28.0
105.750412 152.0
106.035095 200.0
106.05764 188.0
106.074043 176.0
106.12529 52.0
106.412537 144.0
106.65699 112.0
106.702217 92.0
106.763901 104.0
106.932602 148.0
107.021118 148.0
107.117912 172.0
107.278648 172.0
107.501396 124.0
107.555054 240.0
107.621117 144.0
107.685135 192.0
107.70372 92.0
108.034462 212.0
108.055145 124.0
108.080727 144.0
108.271515 144.0
108.425797 160.0
108.790848 160.0
108.948677 84.0
109.352074 188.0
109.693665 152.0
109.716599 152.0
109.85006 208.0
110.177803 136.0
110.232132 136.0
110.278107 164.0
110.72583 140.0
111.026886 172.0
111.071663 56.0
111.266823 184.0
111.415932 56.0
111.512589 104.0
111.687103 144.0
111.775459 160.0
111.819649 160.0
111.973343 132.0
112.062836 140.0
112.118706 172.0
112.375961 116.0
112.475143 120.0
112.494141 200.0
112.722244 132.0
112.944229 104.0
112.994995 164.0
113.062706 132.0
113.077522 188.0
113.193954 124.0
113.579674 188.0
113.787636 188.0
113.866203 72.0
114.034042 72.0
114.04892 124.0
114.157349 196.0
114.255188 272.0
114.497841 176.0
114.576653 104.0
114.627785 136.0
114.928436 188.0
115.054497 312.0
115.105598 208.0
115.670013 140.0
115.729958 120.0
115.946312 116.0
116.057777 68.0
116.171448 168.0
116.433022 152.0
116.886887 116.0
116.970825 132.0
117.038765 156.0
117.386635 212.0
117.86216 188.0
117.898254 196.0
118.021461 192.0
118.044029 316.0
118.086342 152.0
118.298386 152.0
118.70137 148.0
119.007309 92.0
119.403275 184.0
119.610794 196.0
119.642151 200.0
119.676987 148.0
119.783699 152.0
120.197922 80.0
120.324516 128.0
120.429337 192.0
120.689384 108.0
120.75499 104.0
120.857803 84.0
120.892815 220.0
120.934395 104.0
120.949722 164.0
121.029251 19364.0
121.067886 140.0
121.090721 100.0
121.153366 36.0
121.188423 132.0
121.212524 244.0
121.26976 68.0
121.28923 176.0
121.354996 192.0
121.377861 56.0
121.425163 56.0
121.462456 44.0
121.482193 48.0
121.506325 168.0
121.565567 92.0
121.602875 196.0
121.633606 44.0
121.673119 148.0
121.69252 172.0
121.714836 40.0
121.730209 48.0
121.752167 152.0
121.785454 152.0
121.822449 160.0
121.854141 160.0
121.92572 64.0
121.945496 168.0
122.031792 1516.0
122.056679 264.0
122.122047 80.0
122.136787 160.0
122.16098 88.0
122.213783 120.0
122.244591 48.0
122.308411 104.0
122.436111 176.0
122.504395 40.0
122.641006 68.0
122.708435 184.0
122.768875 96.0
122.96743 204.0
122.988106 120.0
123.037476 172.0
123.097679 140.0
123.126389 200.0
123.564056 208.0
123.579536 172.0
123.743324 96.0
123.834114 120.0
123.889488 132.0
124.035736 120.0
124.44706 156.0
124.583084 188.0
124.837219 96.0
125.257866 152.0
125.29351 148.0
125.311333 72.0
125.335838 176.0
125.476257 68.0
125.603363 60.0
126.050995 228.0
126.226463 172.0
126.266716 48.0
126.519394 164.0
126.600166 60.0
126.694237 124.0
126.759216 100.0
126.795067 112.0
126.940781 56.0
127.048439 212.0
127.167366 52.0
127.189812 44.0
127.459305 156.0
127.493019 60.0
127.56044 52.0
127.65937 128.0
127.75383 144.0
127.837082 212.0
127.993507 128.0
128.010406 168.0
128.041946 180.0
128.06279 716.0
128.123032 100.0
128.142624 160.0
128.319107 168.0
128.425079 96.0
128.551422 68.0
128.621384 336.0
128.71846 204.0
128.781693 112.0
128.824615 128.0
128.853989 224.0
128.872055 236.0
128.924026 116.0
128.955673 160.0
128.982788 136.0
129.03447 25004.0
129.098099 208.0
129.136551 76.0
129.154633 52.0
129.16951 48.0
129.18631 148.0
129.240845 76.0
129.29985 44.0
129.351501 240.0
129.378662 68.0
129.621002 160.0
129.732056 48.0
129.802353 64.0
129.902145 136.0
130.038483 2248.0
130.090485 64.0
130.129074 176.0
130.163132 52.0
130.217636 76.0
130.265335 296.0
130.37439 112.0
130.433487 76.0
130.494873 136.0
130.776947 68.0
130.945419 76.0
130.985245 116.0
131.041367 200.0
131.118576 136.0
131.139084 120.0
131.159592 36.0
131.216583 108.0
131.283859 216.0
131.367096 44.0
131.401321 64.0
131.474335 72.0
131.572495 204.0
131.604446 164.0
131.963165 76.0
132.050064 176.0
132.072937 104.0
132.269714 180.0
132.290314 84.0
132.576614 72.0
133.154739 220.0
133.327042 128.0
133.395996 160.0
133.704193 212.0
133.754837 184.0
133.791672 212.0
133.828506 132.0
133.909103 124.0
134.157959 164.0
134.183304 180.0
134.409348 200.0
134.727951 112.0
135.227417 32.0
135.271393 108.0
135.292221 116.0
135.412628 160.0
135.469681 184.0
136.233749 76.0
136.303452 124.0
136.331329 172.0
136.63826 164.0
136.978134 180.0
137.066666 172.0
137.549423 144.0
137.565765 148.0
137.673172 88.0
137.810989 144.0
138.458939 200.0
138.49173 144.0
138.590118 188.0
138.681519 144.0
138.789352 64.0
138.810455 40.0
138.876114 140.0
138.906616 68.0
138.941803 156.0
138.993134 204.0
139.043716 820.0
139.151871 148.0
139.195282 160.0
139.235199 128.0
139.54068 144.0
139.973602 196.0
140.039551 192.0
140.06546 68.0
140.197388 144.0
140.225677 144.0
140.270462 104.0
140.718689 168.0
140.846207 148.0
141.07019 1016.0
141.128433 132.0
141.55571 172.0
141.773636 108.0
142.069977 196.0
142.09375 132.0
142.407089 140.0
142.530609 160.0
142.639938 80.0
142.699371 68.0
143.685364 68.0
143.86673 184.0
144.103165 164.0
144.234604 128.0
144.260895 92.0
144.571823 132.0
144.713058 100.0
145.32663 160.0
145.410614 184.0
145.511124 92.0
145.746811 116.0
145.9944 160.0
146.377014 200.0
146.417953 188.0
146.697449 352.0
146.726379 116.0
146.777008 60.0
146.868652 144.0
147.041794 304.0
147.426361 152.0
147.987534 164.0
148.115891 104.0
148.426102 116.0
148.714783 208.0
148.787598 164.0
148.877441 188.0
149.008606 104.0
149.043839 196.0
149.134964 240.0
149.278412 188.0
149.334641 152.0
149.458405 160.0
149.533844 204.0
149.874771 132.0
149.940567 128.0
150.045746 424.0
150.411285 112.0
150.435699 128.0
150.863205 84.0
150.916992 188.0
151.054169 3076.0
151.09552 100.0
151.129517 188.0
151.208084 84.0
151.371536 224.0
151.479874 112.0
151.587662 92.0
151.668549 112.0
151.79335 128.0
151.802628 116.0
152.063156 9880.0
152.113571 256.0
152.159164 156.0
152.186172 48.0
152.205811 64.0
152.230362 112.0
152.338425 140.0
152.375275 52.0
152.670242 72.0
152.707138 76.0
152.72435 52.0
152.808731 92.0
153.067184 2468.0
153.135376 136.0
153.443405 48.0
153.704849 112.0
153.746796 56.0
154.073807 156.0
154.869232 112.0
154.985672 120.0
155.082291 176.0
155.156677 40.0
155.302292 72.0
155.416367 176.0
155.546143 196.0
155.608215 44.0
155.638 196.0
156.090225 152.0
156.655197 140.0
156.794724 156.0
157.395111 148.0
157.435272 132.0
157.523285 116.0
157.595673 148.0
158.676956 124.0
158.740738 200.0
158.776505 216.0
158.849991 216.0
159.018097 52.0
159.429977 148.0
159.82225 80.0
160.129364 120.0
160.220718 148.0
160.464508 200.0
160.653641 220.0
160.67688 132.0
160.757095 172.0
161.588379 204.0
161.735153 80.0
161.821228 64.0
161.856674 172.0
161.876938 156.0
161.993439 124.0
162.011169 108.0
162.193619 128.0
162.289948 36.0
162.360947 96.0
162.680649 164.0
162.901581 136.0
163.013367 116.0
163.053909 180.0
163.120117 176.0
163.407471 76.0
163.445648 128.0
163.593262 184.0
163.837723 132.0
163.967682 128.0
164.062424 164.0
164.092575 176.0
164.345078 140.0
164.498199 212.0
164.549255 164.0
164.878769 204.0
164.919662 80.0
165.070999 10284.0
165.183029 144.0
165.21373 200.0
165.30072 28.0
165.410767 148.0
165.625854 72.0
165.851334 68.0
166.076508 1984.0
166.200104 56.0
166.374634 56.0
166.528702 160.0
166.562088 108.0
166.631454 96.0
166.718811 168.0
166.939896 104.0
166.968185 56.0
166.99559 128.0
167.040192 192.0
167.087097 8208.0
167.204865 72.0
167.27951 116.0
167.315552 112.0
167.440475 52.0
167.470047 68.0
167.69162 52.0
167.854034 68.0
168.013947 184.0
168.055222 108.0
168.091156 1064.0
168.383057 76.0
168.734482 116.0
168.814636 36.0
169.029343 156.0
169.066116 260.0
169.089767 228.0
169.505783 168.0
169.977722 188.0
170.071152 108.0
170.229507 52.0
170.42952 80.0
170.455505 40.0
171.092728 168.0
171.2724 136.0
171.308868 144.0
171.527756 132.0
171.660721 176.0
171.892883 176.0
172.242722 76.0
172.723679 136.0
172.893738 152.0
173.126724 124.0
173.860748 112.0
174.07077 208.0
174.635788 132.0
174.742065 220.0
174.825211 104.0
174.914688 124.0
175.080566 88.0
175.201721 132.0
175.504807 132.0
176.06308 3316.0
176.143463 232.0
176.296982 196.0
176.354858 40.0
176.440048 120.0
176.471161 192.0
176.636642 224.0
176.785934 188.0
176.996628 228.0
177.069885 3092.0
177.124817 40.0
177.283783 80.0
177.403061 100.0
177.597946 120.0
177.790298 104.0
177.96019 116.0
178.021255 132.0
178.078629 14060.0
178.154205 68.0
178.182388 72.0
178.244385 196.0
178.285355 100.0
178.318802 232.0
178.416046 56.0
178.467667 64.0
178.487946 96.0
178.523499 136.0
178.542114 208.0
178.605942 152.0
178.640533 84.0
178.661804 188.0
178.70079 92.0
178.723007 104.0
178.808151 152.0
179.023788 136.0
179.082047 2064.0
179.140976 44.0
179.167618 44.0
179.284866 116.0
179.324829 56.0
179.383469 56.0
179.440567 152.0
179.492783 64.0
179.554123 200.0
180.042496 48.0
180.076385 168.0
180.094299 132.0
180.266891 80.0
180.33371 104.0
180.376465 48.0
180.475388 228.0
180.571655 136.0
180.635849 72.0
180.726807 104.0
180.932892 36.0
180.982605 148.0
181.06604 600.0
181.479431 184.0
181.557205 60.0
181.667175 212.0
181.742294 144.0
181.940903 168.0
182.072739 276.0
182.298126 204.0
182.402939 156.0
182.467453 164.0
182.60997 220.0
182.94632 204.0
182.986694 112.0
183.752106 120.0
183.930222 200.0
184.402878 96.0
184.44072 164.0
184.462357 116.0
184.635391 160.0
184.965469 176.0
185.369003 36.0
185.439468 48.0
186.049789 176.0
186.827011 204.0
187.684921 124.0
188.042282 160.0
189.225891 72.0
189.634048 104.0
190.050873 48.0
190.256714 212.0
190.295151 68.0
190.641235 68.0
190.998657 184.0
191.348145 184.0
191.458282 144.0
191.571213 96.0
191.937759 88.0
191.981873 100.0
192.075653 176.0
192.147369 120.0
192.694016 132.0
193.067169 172.0
194.076691 476.0
194.924484 136.0
195.082077 560.0
195.2108 108.0
195.411057 164.0
195.514008 52.0
195.692169 172.0
195.803543 88.0
196.094467 132.0
196.24382 80.0
196.41951 132.0
196.57016 224.0
196.639618 176.0
197.064377 228.0
197.436157 216.0
197.469711 132.0
197.827866 180.0
198.531128 140.0
198.811661 184.0
198.831299 68.0
200.079315 216.0
200.120316 192.0
200.166595 128.0
200.687866 136.0
201.29451 160.0
201.350998 116.0
201.8116 120.0
201.845535 224.0
202.01239 120.0
202.827911 128.0
202.972488 184.0
203.054733 124.0
203.310059 76.0
203.699036 216.0
203.798462 92.0
203.977509 100.0
204.011612 156.0
204.275803 168.0
204.355743 212.0
204.609039 160.0
205.070755 612.0
205.549591 196.0
206.074966 164.0
206.206421 68.0
206.306458 48.0
207.036072 120.0
207.084763 152.0
207.199341 212.0
207.285294 156.0
208.057693 196.0
208.412949 96.0
208.470428 80.0
208.542267 92.0
208.838409 208.0
209.036911 164.0
209.107285 200.0
209.319016 224.0
209.356445 148.0
209.607056 160.0
210.102966 192.0
210.403107 104.0
210.590805 144.0
210.833481 196.0
211.220901 124.0
211.814301 120.0
212.05188 172.0
212.405609 44.0
212.960007 152.0
213.221481 208.0
213.291229 232.0
213.765289 116.0
214.047653 132.0
214.895828 128.0
215.532333 128.0
215.880188 128.0
216.720276 104.0
217.157059 32.0
217.429901 176.0
217.459259 116.0
218.114243 156.0
218.472992 200.0
218.652481 156.0
218.846756 120.0
219.114777 64.0
219.135391 104.0
219.778152 100.0
219.798798 104.0
219.902084 64.0
220.005402 152.0
220.439575 140.0
220.927414 112.0
221.064636 160.0
221.431381 184.0
221.501694 116.0
221.715012 140.0
221.741684 44.0
222.070786 184.0
222.100449 168.0
222.136032 116.0
222.176193 164.0
222.355896 164.0
222.403091 188.0
222.422501 180.0
222.447617 208.0
222.489166 96.0
222.542618 84.0
222.617996 236.0
222.663559 148.0
222.758621 216.0
222.778641 208.0
222.800995 164.0
222.840454 172.0
222.869324 88.0
222.896072 104.0
222.922821 140.0
222.95253 160.0
222.976303 180.0
223.013458 344.0
223.033142 328.0
223.077286 95552.0
223.157288 228.0
223.20314 224.0
223.239075 72.0
223.261703 116.0
223.300598 252.0
223.32547 128.0
223.366241 116.0
223.3909 52.0
223.416702 60.0
223.446487 32.0
223.457321 68.0
223.467804 84.0
223.475494 92.0
223.486618 72.0
223.526749 124.0
223.56633 200.0
223.608734 80.0
223.639542 84.0
223.684784 264.0
223.75943 60.0
223.810623 60.0
223.844955 36.0
223.949188 72.0
223.971741 56.0
224.000778 212.0
224.080276 10488.0
224.163696 36.0
224.19931 80.0
224.266739 88.0
224.29184 92.0
224.319443 92.0
224.417053 36.0
224.467743 88.0
224.539307 112.0
224.603485 68.0
224.661606 48.0
224.824829 68.0
224.853317 64.0
224.933533 124.0
225.083862 1400.0
225.23175 64.0
225.264603 72.0
225.304474 116.0
225.419968 48.0
225.449844 112.0
225.482727 36.0
225.530548 140.0
225.578369 100.0
225.633591 148.0
225.66806 120.0
225.68988 104.0
225.725067 116.0
225.769714 164.0
225.796631 140.0
225.865433 116.0
225.91423 76.0
225.964142 100.0
226.023987 76.0
226.149673 148.0
226.188583 44.0
226.213776 48.0
226.281113 88.0
226.410141 48.0
226.553909 44.0
226.615036 80.0
226.655777 116.0
226.708267 140.0
226.736557 88.0
226.844589 56.0
226.871567 44.0
226.949524 64.0
227.153458 44.0
227.712616 48.0
228.102341 64.0
228.400009 72.0
229.246017 44.0
229.426849 44.0
230.70079 64.0
232.70636 84.0
232.934113 64.0
233.578537 72.0
233.703262 44.0
233.764114 80.0
234.059387 32.0
234.650467 72.0
234.687057 104.0
235.593475 52.0
236.314987 100.0
236.501648 36.0
236.633286 28.0
237.574127 60.0
238.415421 80.0
241.406754 80.0
241.504639 68.0
241.913086 92.0
242.991547 84.0
247.172897 52.0
247.341888 80.0
248.056076 76.0
253.63858 144.0
253.733368 208.0
259.135803 136.0
261.17746 128.0
265.644806 72.0
267.718414 88.0
271.712646 40.0
281.273254 60.0
284.080719 100.0
286.993195 104.0
289.304047 124.0
299.972748 64.0
305.791779 120.0
307.485596 52.0
309.726746 52.0
315.345795 112.0
320.120911 52.0
321.122314 92.0
329.645081 32.0
344.490448 48.0
348.255646 20.0
353.540375 48.0
379.336884 32.0
383.690826 84.0
385.099487 96.0
386.178223 72.0
390.696991 48.0
392.867615 100.0
394.929565 80.0
397.10791 112.0
410.739441 112.0
413.818787 88.0
421.702362 76.0
436.964294 72.0
439.130371 48.0
444.543823 80.0
446.265991 68.0
454.251953 84.0
469.413879 76.0
470.764526 76.0
484.745819 88.0
496.050659 40.0
500.3909 108.0
502.24469 68.0
506.723877 108.0
509.074219 84.0
510.121063 76.0
510.485229 76.0
522.489441 152.0
535.323608 28.0
544.809875 116.0
547.922119 136.0
555.589111 116.0
565.261902 128.0
575.151855 40.0
591.872498 188.0
593.612 92.0
598.753479 120.0
600.942078 60.0
608.901428 56.0
628.904053 52.0
641.806824 64.0
642.497742 68.0
647.243591 216.0
649.671204 92.0
655.640442 56.0
666.519592 232.0
681.02063 112.0
691.924255 52.0
695.294617 184.0
699.920532 52.0
700.736877 120.0
715.433167 88.0
730.75 160.0
732.855164 84.0
745.94635 48.0
747.131836 92.0
747.561646 36.0
756.961548 120.0
759.893921 116.0
765.450745 80.0
778.645325 48.0
782.643494 80.0
795.771484 172.0
815.338501 68.0
818.916992 64.0
858.068909 156.0
862.990662 176.0
877.63385 208.0
896.495483 148.0
912.615112 56.0
924.758301 228.0
928.920898 176.0
931.901672 40.0
932.39386 192.0
937.450867 124.0
942.961548 92.0
952.059082 124.0
953.637939 76.0
958.548828 132.0
964.553711 168.0
970.199158 216.0
972.159119 140.0
974.381958 96.0
985.740356 44.0
987.259399 204.0
1005.383057 192.0
1007.8078 176.0
1008.136414 224.0
1012.678711 136.0
1020.725464 176.0
1028.676392 164.0
1032.407593 148.0
1035.191284 132.0
1037.921021 188.0
1041.790894 44.0
1044.50354 160.0
1048.089355 236.0
1048.862793 160.0
1049.488037 116.0
1049.623413 176.0
1050.82312 168.0
1051.965332 184.0
1053.34082 64.0
1062.60437 152.0
1062.883423 172.0
1066.364136 108.0
1070.345337 56.0
1071.126831 84.0
1071.191895 176.0
1071.928101 152.0
1077.375977 180.0
1079.003296 92.0
1083.361694 152.0
1091.440674 48.0
1092.802124 164.0
1093.164062 144.0
1094.401489 164.0
1103.863403 232.0
1105.173096 124.0
1111.679932 180.0
1111.985107 172.0
1113.087158 156.0
1116.017334 68.0
1117.280884 112.0
1118.338989 188.0
1121.349365 100.0
1124.043457 128.0
1124.78418 180.0
1125.191406 204.0
1130.277588 56.0
1131.381958 76.0
1132.895386 164.0
1133.210205 188.0
1143.228394 196.0
1143.699463 76.0
1145.328857 164.0
1147.31665 176.0
1148.753052 136.0
1150.28479 232.0
1153.087769 176.0
1155.968628 108.0
1156.537109 148.0
1156.665649 180.0
1161.361206 108.0
1162.623047 204.0
1164.388184 76.0
1165.223633 164.0
1166.399292 252.0
1168.51416 180.0
1172.633789 152.0
1172.851929 196.0
1174.276855 72.0
1175.845947 116.0
1176.931396 136.0
1177.689331 172.0
1181.052124 108.0
1182.981689 132.0
1183.645752 284.0
1184.885498 164.0
1185.13208 108.0
1185.557007 132.0
1186.790771 88.0
1189.967407 128.0
1191.299683 100.0
1191.512573 168.0
1193.80835 116.0
1194.633667 152.0
1198.38562 96.0
1204.476929 196.0
1205.195435 132.0
1205.782837 164.0
1207.995361 188.0
1209.123047 140.0
1214.152588 148.0
1216.102173 76.0
1220.895752 136.0
1222.064331 192.0
1225.002197 160.0
1225.434082 96.0
1226.800049 220.0
1231.621704 152.0
1232.019775 136.0
1232.145508 216.0
1234.521973 184.0
1237.383667 156.0
1238.74231 148.0
1238.924438 120.0
1239.274658 204.0
1243.383789 128.0
1247.802002 172.0
1251.312622 116.0
1251.81958 160.0
1252.868896 188.0
1253.411499 180.0
1253.552368 136.0
1253.947021 72.0
1254.218994 184.0
1254.962036 104.0
1255.448608 188.0
1255.540283 164.0
1256.026978 140.0
1256.901733 228.0
1261.810425 172.0
1262.666016 352.0
1264.859253 144.0
1267.848022 144.0
1268.046509 152.0
1268.918335 136.0
1269.237427 192.0
1269.762207 164.0
1272.330688 140.0
1275.463379 172.0
1276.010742 88.0
1276.430176 136.0
1277.817139 180.0
1280.379639 240.0
1284.763062 40.0
1285.098389 92.0
1285.447998 104.0
1285.612183 124.0
1286.896973 136.0
1290.18335 188.0
1290.297729 136.0
1292.414673 72.0
1292.550659 192.0
1293.123169 172.0
1296.145142 72.0
1296.37439 176.0
1298.991211 132.0
1300.490845 140.0
1305.577271 136.0
1306.390015 192.0
1306.879272 100.0
1307.656372 188.0
1308.865845 204.0
1309.42749 132.0
1309.888428 92.0
1311.243042 168.0
1312.504517 168.0
1315.606812 132.0
1318.076782 72.0
1320.266968 204.0
1323.125 136.0
1323.385742 116.0
1323.87085 224.0
1324.312622 148.0
1325.39917 156.0
1325.515137 200.0
1325.732544 180.0
1325.949951 176.0
1326.558838 200.0
1327.776855 216.0
1328.828369 144.0
1329.198608 160.0
1329.663086 92.0
1330.192871 164.0
1330.432495 92.0
1330.962402 204.0
1332.640259 148.0
1333.94104 156.0
1334.486328 124.0
1335.024414 136.0
1335.097046 44.0
1336.605591 188.0
1337.54895 112.0
1337.90564 36.0
1339.325562 136.0
1341.511475 184.0
1341.569824 104.0
1342.094727 176.0
1342.940674 156.0
1343.852417 116.0
1345.38501 40.0
1346.03479 164.0
1349.256836 136.0
1350.543823 196.0
1352.768188 156.0
1353.309937 192.0
1354.957764 168.0
1355.331421 128.0
1358.425171 168.0
1359.371704 208.0
1362.234985 108.0
1364.365967 120.0
1364.990967 180.0
1365.866089 180.0
1366.675293 160.0
1369.082275 196.0
1372.014771 196.0
1372.958618 196.0
1373.142944 120.0
1375.238281 152.0
1378.339844 220.0
1379.736694 164.0
1380.0177 112.0
1381.230469 144.0
1382.643555 160.0
1383.087646 168.0
1385.546021 200.0
1386.716797 108.0
1387.57666 196.0
1388.562866 132.0
1390.373047 184.0
1390.959351 136.0
1392.644775 36.0
1395.890625 200.0
1396.122925 216.0
1396.308838 136.0
1396.42041 132.0
1396.836914 148.0
1397.997559 132.0
1398.28772 208.0
1400.022339 84.0
1400.651123 132.0
1400.796875 52.0
1402.406372 156.0
1403.196533 80.0
1403.666138 248.0
1404.956421 136.0
1406.008545 112.0
1406.157715 188.0
1406.948975 104.0
1407.792725 168.0
1408.322632 200.0
1408.987671 160.0
1409.548096 104.0
1409.630249 212.0
1409.944092 140.0
1410.743896 128.0
1412.433838 124.0
1412.531006 184.0
1412.680664 176.0
1415.232544 172.0
1417.187378 148.0
1419.331055 192.0
1420.500977 100.0
1420.666016 164.0
1423.946045 180.0
1425.313232 176.0
1427.831421 88.0
1429.245605 160.0
1429.727295 88.0
1430.690674 164.0
1430.893921 116.0
1431.23938 140.0
1431.993286 172.0
1432.24939 204.0
1433.650635 144.0
1435.331665 216.0
1435.934937 188.0
1438.341675 140.0
1440.049194 124.0
1440.614624 152.0
1440.95459 292.0
1441.453247 164.0
1441.657227 276.0
1442.065308 80.0
1443.350464 196.0
1445.294312 132.0
1445.55249 136.0
1445.725586 212.0
1446.876099 140.0
1447.29248 144.0
1448.148193 164.0
1449.405762 88.0
1451.429443 172.0
1453.925171 120.0
1456.195068 160.0
1456.498901 184.0
1456.559692 100.0
1456.741943 168.0
1456.992676 144.0
1457.326904 96.0
1458.64917 96.0
1459.964478 136.0
1460.125122 172.0
1460.983765 160.0
1461.181519 124.0
1461.615112 184.0
1462.802368 168.0
1463.609375 132.0
1463.898682 152.0
1464.447021 96.0
1464.629883 156.0
1464.73645 184.0
1464.850708 108.0
1465.536377 156.0
1466.892822 132.0
1467.632324 220.0
1467.960205 116.0
1468.616089 128.0
1470.355591 120.0
1470.553955 180.0
1471.966309 172.0
1472.630615 136.0
1473.325806 132.0
1474.166138 100.0
1476.06958 200.0
1478.348999 212.0
1479.091431 140.0
1479.742065 208.0
1480.002441 124.0
1481.112793 184.0
1481.35791 176.0
1482.6604 224.0
1483.702881 192.0
1484.009521 148.0
1484.155151 144.0
1487.50769 164.0
1488.705322 152.0
1489.050903 192.0
1489.819092 72.0
1490.264648 192.0
1490.656494 88.0
1491.340454 180.0
1492.10144 240.0
1492.201416 220.0
1495.155029 140.0
1496.217285 168.0
1496.640747 208.0
1498.897461 152.0
1500.855225 96.0
1501.233154 200.0
1501.880981 164.0
