>compound MLS002207168-01!Deoxyrhapontin from rhubarb root30197-14-9
>formula C21H24O8
>ionization [M+H]+
>parentmass 405.15439418009055
#inchi InChI=1S/C21H24O8/c1-27-15-6-4-12(5-7-15)2-3-13-8-14(23)10-16(9-13)28-21-20(26)19(25)18(24)17(11-22)29-21/h2-10,17-26H,11H2,1H3/b3-2+
#inchikey MFMQRDLLSRLUJY
#Ion_Source LC-ESI
#Instrument qTof
#Compound_Source NIH Pharmacologically Active Library
#PI Dorrestein
#Data_Collector VP/LMS
#Scan -1
#Precursor_MZ 405.157
#ExactMass 404.147
#Charge 1
#CAS_Number N/A
#Pubmed_ID N/A
#Smiles COc1ccc(/C=C/c2cc(O)cc(OC3OC(CO)C(O)C(O)C3O)c2)cc1
#INCHI_AUX N/A
#Library_Class 1
#SpectrumID CCMSLIB00000085693
#IonMode Positive
#UpdateWorkflowName UPDATE-SINGLE-ANNOTATED-GOLD
#LibraryQualityString Gold
#TaskID d252d724072548979f1f6f1ced849daf
##Scan# 1664
#SpectrumFile p4-E04_GE4_01_18376.mzXML
#LibraryName Pharm_Active_Library.mgf
#MQScore -1
#Organism Pharm_Active_Library
#TIC_Query 0
#RT_Query -1
#MZErrorPPM -1
#SharedPeaks 0
#MassDiff 0
#LibMZ -1
#SpecMZ 405.157
#SpecCharge 0
#internalFilename spec-00000.mgf

>collision 10
44.982857 40.0
45.065659 180.0
45.321224 220.0
46.063881 160.0
46.0882 68.0
46.132801 136.0
46.196358 152.0
46.61396 176.0
47.294518 92.0
47.413677 212.0
47.817463 144.0
48.043449 212.0
48.2672 144.0
48.382038 152.0
49.365784 236.0
49.416138 140.0
49.75391 160.0
50.097057 160.0
50.462589 76.0
50.852154 236.0
51.452801 148.0
53.692509 200.0
54.312664 240.0
54.657913 188.0
55.288044 188.0
55.34726 64.0
57.192574 224.0
57.574028 188.0
57.941597 128.0
58.454815 112.0
58.47612 172.0
58.549198 156.0
59.100277 132.0
59.952541 68.0
60.603104 168.0
60.784523 220.0
61.020618 204.0
61.202663 84.0
61.215122 236.0
62.40406 260.0
62.453102 128.0
63.327538 144.0
63.41785 96.0
64.249527 216.0
64.886055 156.0
65.533775 156.0
66.296486 188.0
66.570648 144.0
67.579666 192.0
67.918785 88.0
68.941231 128.0
69.162857 124.0
69.954666 180.0
70.24295 80.0
70.33139 240.0
70.745956 132.0
70.772743 44.0
70.920174 164.0
71.208763 120.0
71.612427 148.0
72.113541 148.0
72.375755 84.0
73.059753 180.0
73.277672 180.0
73.364594 136.0
73.707657 152.0
73.75209 32.0
73.842712 164.0
74.250328 160.0
74.948273 188.0
74.982742 168.0
75.229401 128.0
75.282928 156.0
76.983093 208.0
77.408035 236.0
77.895615 168.0
78.212135 164.0
79.653282 208.0
80.545723 112.0
80.824623 92.0
82.358162 248.0
82.535271 180.0
83.403671 140.0
85.062302 112.0
85.391205 140.0
85.766815 180.0
86.036148 140.0
86.283707 188.0
86.91658 192.0
87.800797 48.0
89.203232 208.0
89.223907 140.0
90.113495 212.0
91.056549 192.0
91.111183 176.0
91.638969 196.0
92.052895 192.0
92.123566 112.0
94.038025 136.0
94.105591 204.0
94.223404 172.0
94.331627 164.0
95.240433 172.0
95.568985 196.0
96.122375 160.0
96.698891 172.0
97.143684 220.0
98.50396 120.0
98.610657 148.0
99.979134 184.0
100.507217 196.0
100.553116 116.0
101.768234 80.0
103.057327 196.0
103.70694 200.0
103.83873 136.0
103.98481 124.0
104.047737 176.0
104.143173 36.0
105.068993 604.0
105.839951 88.0
106.075562 108.0
106.340164 180.0
106.512642 208.0
107.002708 184.0
107.024734 140.0
107.049324 4604.0
107.158615 152.0
107.317322 36.0
107.507095 64.0
107.723892 152.0
108.050163 536.0
108.073296 156.0
108.259598 88.0
108.728127 124.0
108.871376 176.0
109.014717 216.0
109.030006 324.0
109.061958 192.0
109.42865 128.0
109.762039 108.0
110.038528 180.0
110.060425 208.0
110.271423 112.0
110.562134 184.0
111.697243 180.0
114.216591 156.0
114.646675 164.0
114.674377 220.0
114.938828 184.0
114.968697 176.0
116.572708 224.0
116.733932 216.0
116.89312 140.0
116.985664 120.0
117.045952 188.0
117.201042 156.0
117.384262 188.0
118.035126 320.0
118.300362 228.0
118.345833 208.0
119.048775 156.0
119.696434 124.0
120.056 152.0
120.073448 172.0
121.030464 180.0
121.064583 1292.0
122.039948 148.0
122.066528 232.0
122.209312 136.0
123.041733 684.0
124.714951 160.0
124.937325 156.0
125.057091 204.0
126.430084 224.0
127.0373 36.0
128.062317 64.0
128.199753 308.0
129.105026 200.0
131.339935 208.0
131.527039 124.0
132.487488 156.0
133.061752 664.0
133.865631 120.0
133.987701 176.0
134.033783 184.0
134.070908 1248.0
134.232025 196.0
134.372726 60.0
134.619705 80.0
134.846115 48.0
135.042969 3892.0
135.075851 168.0
135.149063 52.0
135.466248 64.0
135.60759 40.0
135.642349 164.0
136.046967 740.0
136.115646 156.0
136.699127 104.0
136.910965 100.0
136.931931 36.0
137.054916 288.0
138.253342 152.0
138.613983 140.0
141.067764 744.0
141.407089 40.0
141.591751 56.0
142.042099 180.0
142.069641 176.0
142.533554 136.0
143.061554 140.0
143.08017 176.0
143.087082 144.0
143.402191 148.0
144.056 224.0
144.613144 116.0
144.711288 136.0
145.064484 196.0
146.057602 208.0
146.396973 132.0
146.560776 208.0
146.60173 140.0
147.07811 272.0
147.968903 148.0
148.126312 200.0
148.78421 140.0
149.058014 1284.0
149.28891 80.0
149.403229 56.0
149.588181 208.0
150.062912 132.0
151.028519 212.0
151.204025 116.0
152.059387 152.0
153.066269 324.0
154.084366 432.0
154.98912 156.0
155.085587 160.0
155.094116 152.0
156.083771 120.0
157.070023 228.0
157.936783 52.0
158.06897 396.0
158.500092 188.0
158.520126 52.0
159.076782 388.0
160.081085 140.0
161.060486 524.0
161.690796 164.0
162.062881 288.0
162.445877 144.0
162.770752 172.0
163.253571 156.0
164.060715 132.0
165.067978 1304.0
165.133194 76.0
166.073059 464.0
166.378555 100.0
167.031296 64.0
167.084671 368.0
167.280899 88.0
168.056015 236.0
168.079865 204.0
168.862625 144.0
169.06778 188.0
169.091599 208.0
169.574631 184.0
169.852081 28.0
170.085617 148.0
170.732559 168.0
170.927673 72.0
171.042191 140.0
171.082993 248.0
172.087585 156.0
172.60495 136.0
173.010498 212.0
173.060684 500.0
173.097122 184.0
173.172852 180.0
173.238327 180.0
174.093399 84.0
174.303558 88.0
174.440231 28.0
174.913727 208.0
175.077301 124.0
177.044449 264.0
177.073593 180.0
178.825928 60.0
179.081604 140.0
181.061249 760.0
182.01799 120.0
182.070526 676.0
182.111984 280.0
183.078644 1148.0
183.384659 176.0
183.624619 232.0
183.813461 64.0
184.083908 168.0
184.261673 36.0
185.055664 264.0
185.08934 140.0
185.108292 112.0
185.284348 136.0
185.688248 188.0
186.06543 392.0
186.198486 28.0
186.350601 56.0
187.069443 152.0
187.103973 160.0
187.545288 156.0
191.634094 180.0
193.025253 112.0
193.061661 696.0
194.066635 292.0
195.072449 120.0
197.061768 184.0
197.095078 604.0
197.889175 156.0
198.062805 100.0
198.10083 136.0
199.074814 216.0
200.080353 304.0
200.143845 116.0
201.094406 220.0
202.108429 216.0
202.402817 36.0
203.409286 112.0
204.06839 152.0
205.059036 112.0
207.077026 188.0
207.431473 212.0
209.054245 132.0
210.066925 1056.0
210.140579 108.0
211.007034 92.0
211.074295 1324.0
212.080475 928.0
213.047348 184.0
213.087662 220.0
213.730591 68.0
213.873199 72.0
215.114334 164.0
216.099869 160.0
217.885391 232.0
219.062149 136.0
219.474762 44.0
219.934982 92.0
223.074921 104.0
223.265213 144.0
223.416916 168.0
224.070969 168.0
224.158295 116.0
225.090469 884.0
226.094727 144.0
226.115555 288.0
226.824265 204.0
227.069489 300.0
227.361145 76.0
228.030899 60.0
228.075836 1084.0
228.166168 140.0
229.08287 132.0
230.08226 144.0
231.049377 172.0
231.345947 172.0
232.051849 92.0
233.235809 160.0
234.694077 144.0
236.166077 136.0
238.453369 188.0
238.754654 92.0
239.216187 92.0
239.551849 160.0
241.088425 120.0
241.787354 180.0
241.923553 116.0
242.088501 488.0
242.217728 148.0
242.313766 64.0
242.484207 156.0
242.611298 88.0
242.71051 132.0
242.750824 72.0
242.840759 148.0
242.933823 176.0
243.06102 176.0
243.099716 12436.0
243.143036 232.0
243.22551 32.0
243.284485 64.0
243.324844 92.0
243.344894 48.0
243.43663 40.0
243.486328 76.0
243.557755 100.0
243.585709 48.0
243.607468 48.0
243.734848 72.0
243.759705 36.0
243.955521 172.0
243.999039 148.0
244.051895 36.0
244.103897 2040.0
244.142075 140.0
244.328705 52.0
244.49881 96.0
244.674164 56.0
244.702179 32.0
245.016739 44.0
245.066589 80.0
245.107803 124.0
245.294098 56.0
245.552902 116.0
245.94603 100.0
246.06778 60.0
247.925827 76.0
248.531052 116.0
250.083511 80.0
251.085175 152.0
252.544601 56.0
254.33168 108.0
255.097214 92.0
256.921997 176.0
258.110138 136.0
262.270905 48.0
263.106415 116.0
265.072968 156.0
267.108643 108.0
268.029999 48.0
268.157104 64.0
281.105682 212.0
283.111481 48.0
285.110931 136.0
285.174805 108.0
291.127808 160.0
293.690643 36.0
295.083923 80.0
313.493408 36.0
315.098907 116.0
318.24408 112.0
323.10199 120.0
333.222473 116.0
334.884918 136.0
342.128113 80.0
344.73587 76.0
347.171783 100.0
360.612946 72.0
365.638336 52.0
371.185333 92.0
380.709473 88.0
384.243866 84.0
386.866241 40.0
403.19519 116.0
403.263153 160.0
422.062775 64.0
440.797485 84.0
477.6586 84.0
492.651306 56.0
497.86911 36.0
653.218018 160.0
760.90448 208.0
765.534302 164.0
854.131836 248.0
855.336365 188.0
925.421082 32.0
958.732239 124.0
1002.476746 160.0
1003.396973 204.0
1024.06189 212.0
1033.522949 160.0
1034.412598 160.0
1081.38916 56.0
1110.399414 56.0
1129.355347 156.0
1154.286499 148.0
1164.703369 188.0
1168.455933 152.0
1175.951782 176.0
1180.159912 176.0
1184.218018 164.0
1210.208252 124.0
1212.023071 176.0
1213.880737 168.0
1219.497314 180.0
1226.192871 196.0
1230.650513 140.0
1233.528809 168.0
1237.376587 180.0
1251.96106 160.0
1254.17334 152.0
1255.548218 120.0
1260.362671 180.0
1267.92041 204.0
1278.70874 188.0
1281.471802 128.0
1291.001221 176.0
1291.344482 152.0
1291.995483 132.0
1298.52832 100.0
1308.884033 84.0
1310.973145 52.0
1311.614624 80.0
1311.672241 144.0
1313.705811 192.0
1318.594238 132.0
1325.389526 164.0
1325.44751 116.0
1331.374268 224.0
1337.110474 176.0
1340.824829 180.0
1345.763428 80.0
1347.984009 152.0
1353.287109 152.0
1354.004761 196.0
1354.605347 224.0
1357.991821 140.0
1374.48584 192.0
1393.374146 200.0
1405.085449 72.0
1411.194824 200.0
1415.332642 176.0
1417.602417 152.0
1428.068115 220.0
1441.638794 152.0
1463.005859 76.0
1473.286133 176.0
1478.500977 68.0
1480.87439 128.0
1482.605835 148.0
1483.464355 144.0
1486.394165 136.0
1489.357666 208.0
1490.5177 176.0
1494.031494 124.0
1498.543091 136.0
1499.144165 208.0
1500.377441 172.0
