>compound NCGC00160311-01!2-Methoxy-1-methyl-3-(1-methyl-2,5-dioxo-2,5-dihydro-1H-pyrrol-3-yl)-1H-benzo[f]indole-4,9-dione
>formula C19H14N2O5
>ionization [M+H]+
>parentmass 351.098
#inchi InChI=1S/C19H14N2O5/c1-20-12(22)8-11(18(20)25)13-14-15(21(2)19(13)26-3)17(24)10-7-5-4-6-9(10)16(14)23/h4-8H,1-3H3
#inchikey RPWYCEBUPDNVLU
#Ion_Source LC-ESI
#Instrument qTOF
#Compound_Source Prestwick Phytochem Lib
#PI Dorrestein
#Data_Collector VVP/LMS
#Scan -1
#Precursor_MZ 351.098
#ExactMass 350.09
#Charge 1
#CAS_Number N/A
#Pubmed_ID N/A
#Smiles COC1=C(C2=CC(=O)N(C)C2=O)C3=C(N1C)C(=O)C4=C(C=CC=C4)C3=O
#INCHI_AUX N/A
#Library_Class 1
#SpectrumID CCMSLIB00000078702
#IonMode Positive
#UpdateWorkflowName UPDATE-SINGLE-ANNOTATED-GOLD
#LibraryQualityString Gold
#TaskID 67c915c6594c435cadc1fe2b5358144d
##Scan# 2245
#SpectrumFile p1-D02_GD2_01_17910.mzXML
#LibraryName phytochem_lib.mgf
#MQScore -1
#Organism phytochem_lib
#TIC_Query 0
#RT_Query -1
#MZErrorPPM -1
#SharedPeaks 0
#MassDiff 0
#LibMZ -1
#SpecMZ 351.098
#SpecCharge 0
#internalFilename spec-00000.mgf

>collision 10
95.135384 128.0
95.316002 220.0
96.005096 168.0
96.415054 200.0
97.884346 160.0
98.483864 168.0
100.135994 200.0
100.448921 128.0
101.28244 108.0
104.022774 204.0
104.099922 152.0
104.242119 132.0
104.323418 44.0
104.368141 56.0
105.034073 136.0
107.08783 192.0
108.115959 136.0
109.734062 180.0
114.047539 112.0
114.530525 140.0
115.029472 140.0
115.499565 184.0
116.92849 212.0
118.048111 56.0
118.067574 192.0
118.426834 60.0
118.480988 136.0
121.204422 120.0
121.621094 108.0
123.500542 200.0
124.054108 172.0
125.425606 144.0
126.323242 104.0
127.046806 152.0
127.579025 120.0
127.608253 156.0
127.794922 188.0
128.031281 160.0
129.033112 164.0
130.502258 128.0
130.882233 60.0
130.980148 192.0
131.954575 92.0
132.002579 196.0
134.061676 176.0
134.509109 172.0
134.693832 160.0
134.890244 140.0
137.73204 116.0
137.778763 216.0
138.375122 164.0
139.053741 152.0
140.346359 116.0
140.568069 72.0
140.960052 188.0
142.26268 144.0
143.070938 160.0
143.428238 64.0
145.317429 148.0
145.694351 112.0
145.747208 224.0
146.057327 152.0
147.385666 148.0
149.118317 112.0
150.292053 92.0
151.882187 172.0
151.906723 176.0
152.063751 80.0
152.085846 104.0
152.422287 196.0
153.069519 188.0
153.539871 68.0
154.473495 60.0
154.696198 164.0
155.081284 328.0
155.290878 212.0
156.025879 232.0
156.160141 48.0
157.049301 204.0
158.171188 140.0
158.208725 92.0
158.687241 200.0
160.495148 192.0
162.049393 124.0
162.138077 156.0
162.911942 116.0
164.82019 120.0
165.070572 344.0
165.393036 160.0
166.066727 132.0
167.070496 380.0
167.352722 200.0
168.054596 368.0
168.076019 260.0
168.132782 84.0
169.06311 216.0
169.340118 188.0
169.36084 160.0
170.058289 252.0
171.063675 184.0
171.361084 164.0
171.517441 120.0
173.443832 208.0
174.052368 208.0
175.963959 128.0
179.5728 196.0
179.791565 112.0
180.049484 216.0
180.085022 332.0
180.25621 176.0
180.946274 96.0
181.061508 292.0
181.192657 36.0
181.661804 76.0
182.058456 184.0
182.080505 212.0
182.099304 136.0
183.044449 188.0
183.097076 200.0
185.054764 128.0
187.047363 108.0
187.545807 184.0
187.987625 204.0
188.470932 132.0
189.247711 152.0
189.384628 168.0
190.484528 172.0
191.595886 168.0
192.075531 84.0
193.046951 344.0
193.084595 288.0
194.057907 336.0
194.975769 140.0
195.066269 660.0
195.088791 184.0
195.884155 56.0
196.072968 264.0
196.536514 72.0
197.049301 368.0
198.023682 48.0
198.055954 180.0
198.940567 144.0
199.059448 360.0
199.255493 144.0
199.74704 44.0
200.050293 628.0
201.000732 148.0
201.540024 124.0
202.680298 100.0
202.935394 140.0
203.048813 184.0
204.059692 156.0
205.161438 108.0
206.058456 276.0
206.086121 124.0
207.092316 140.0
208.03569 188.0
208.075836 192.0
209.057465 464.0
210.055725 620.0
210.089951 192.0
210.134384 104.0
210.425873 112.0
211.032593 132.0
211.06163 556.0
211.220566 148.0
211.614136 48.0
212.086319 52.0
214.189972 56.0
214.254059 152.0
217.206512 192.0
218.855164 144.0
220.073227 172.0
221.048935 456.0
221.084335 340.0
221.326508 208.0
221.436081 48.0
221.999146 108.0
222.054611 2304.0
222.242386 52.0
222.340302 76.0
222.467926 88.0
222.987732 152.0
223.062378 3048.0
223.142303 32.0
223.282059 96.0
223.335587 140.0
223.436722 52.0
223.502182 52.0
223.793869 72.0
224.03212 104.0
224.069489 456.0
224.94162 64.0
225.069016 348.0
225.17749 48.0
225.571899 76.0
226.037949 168.0
227.266937 208.0
228.176956 40.0
229.369049 180.0
230.509827 144.0
232.03833 124.0
233.079361 180.0
234.016159 192.0
234.052704 204.0
234.960953 168.0
235.08757 168.0
235.776199 96.0
236.045212 196.0
236.074081 100.0
236.091599 164.0
237.038879 128.0
237.071472 252.0
238.049225 184.0
238.086807 784.0
238.482407 84.0
239.076874 344.0
239.100571 176.0
240.055557 72.0
241.027802 176.0
241.086594 92.0
241.411179 212.0
241.742172 92.0
242.039337 120.0
242.284012 116.0
247.050613 184.0
247.53212 92.0
248.027115 208.0
248.072205 272.0
248.707748 116.0
249.039383 544.0
249.070816 292.0
250.049438 1608.0
250.348862 116.0
250.748962 48.0
250.796234 44.0
250.856125 140.0
251.057831 2164.0
251.253464 48.0
251.363892 96.0
251.884811 72.0
252.06282 380.0
252.418915 64.0
253.026398 132.0
253.079041 184.0
254.084885 148.0
255.052017 300.0
256.055634 388.0
256.154358 64.0
258.917114 112.0
260.405212 44.0
261.987762 88.0
262.887299 244.0
263.074738 160.0
263.688202 92.0
264.065308 156.0
265.062469 416.0
266.076324 1628.0
266.348236 68.0
266.773926 136.0
267.084625 712.0
268.060333 344.0
268.786652 80.0
268.904907 84.0
269.953735 68.0
271.029694 144.0
271.961029 40.0
272.075928 136.0
274.596405 108.0
275.338959 132.0
277.037628 584.0
277.108643 152.0
278.047241 148.0
279.05481 416.0
279.077698 292.0
280.08609 556.0
281.001831 136.0
281.032166 176.0
281.093567 576.0
282.093262 156.0
282.535278 80.0
283.033966 152.0
283.445953 92.0
285.752594 92.0
289.407837 36.0
292.053253 276.0
293.051697 284.0
294.078308 204.0
295.11026 108.0
301.186035 104.0
304.021515 176.0
304.052765 136.0
305.014832 168.0
305.094788 136.0
307.061127 436.0
307.066559 440.0
308.076965 1116.0
308.731415 100.0
308.832825 84.0
309.076233 292.0
310.074127 140.0
310.727936 68.0
311.812927 76.0
312.231293 108.0
320.06958 128.0
323.09256 148.0
327.842834 164.0
328.001404 60.0
329.60376 136.0
332.936371 160.0
333.009003 44.0
335.066376 312.0
335.62912 68.0
335.833344 128.0
336.074615 808.0
337.074677 284.0
337.14035 48.0
337.856995 104.0
341.819458 56.0
349.188629 216.0
351.101532 308.0
353.34024 60.0
360.299042 32.0
362.770172 20.0
363.578033 96.0
366.277466 60.0
378.652924 60.0
391.26944 184.0
414.983307 124.0
437.402893 136.0
492.048615 76.0
499.324432 84.0
529.850098 124.0
584.354065 88.0
796.58728 92.0
906.920105 40.0
968.881287 40.0
1001.218384 96.0
1014.708801 76.0
1131.358276 88.0
1249.782349 20.0
1257.971558 56.0
1279.62207 168.0
1353.014893 148.0
1448.555786 192.0
1455.05481 184.0
1496.008423 128.0
