>compound MLS001148663-01!MORANTEL TARTRATE SALT
>formula C12H16N2S
>ionization [M+H]+
>parentmass 221.111969
#inchi InChI=1S/C12H16N2S/c1-10-6-9-15-11(10)4-5-12-13-7-3-8-14(12)2/h4-6,9H,3,7-8H2,1-2H3/b5-4+
#inchikey NVEPPWDVLBMNMB
#origInchi InChI=1S/C12H16N2S.C4H6O6/c1-10-6-9-15-11(10)4-5-12-13-7-3-8-14(12)2;5-1(3(7)8)2(6)4(9)10/h4-6,9H,3,7-8H2,1-2H3;1-2,5-6H,(H,7,8)(H,9,10)/b5-4+;
#Ion_Source LC-ESI
#Instrument qTof
#Compound_Source NIH Pharmacologically Active Library
#PI Dorrestein
#Data_Collector VP/LMS
#Scan -1
#Precursor_MZ 221.113
#ExactMass 220.103
#Charge 1
#CAS_Number N/A
#Pubmed_ID N/A
#Smiles CN1CCCN=C1/C=C/c2sccc2C.OC(C(O)C(=O)O)C(=O)O
#INCHI_AUX N/A
#Library_Class 1
#SpectrumID CCMSLIB00000084758
#IonMode Positive
#UpdateWorkflowName UPDATE-SINGLE-ANNOTATED-GOLD
#LibraryQualityString Gold
#TaskID d252d724072548979f1f6f1ced849daf
##Scan# 1320
#SpectrumFile p3-A04_GA4_01_18226.mzXML
#LibraryName Pharm_Active_Library.mgf
#MQScore -1
#Organism Pharm_Active_Library
#TIC_Query 0
#RT_Query -1
#MZErrorPPM -1
#SharedPeaks 0
#MassDiff 0
#LibMZ -1
#SpecMZ 221.113
#SpecCharge 0
#internalFilename spec-00000.mgf

>collision 10
44.952415 132.0
44.997799 60.0
45.513527 208.0
45.600613 172.0
45.709549 68.0
45.748581 156.0
45.887344 84.0
46.058735 192.0
46.10062 136.0
46.211502 116.0
46.344193 216.0
46.528648 52.0
46.664513 196.0
47.061008 148.0
47.219528 144.0
47.477005 120.0
47.577171 252.0
47.614246 92.0
47.786076 108.0
47.853516 136.0
48.002331 264.0
48.134804 176.0
48.201111 196.0
48.509754 164.0
48.629482 164.0
48.815208 176.0
48.985008 124.0
49.064445 116.0
49.244457 124.0
49.34111 220.0
49.364647 184.0
49.427593 120.0
49.444389 220.0
49.681194 220.0
49.740131 176.0
49.778042 100.0
49.83844 144.0
50.225597 200.0
50.32156 196.0
50.403484 192.0
50.438816 132.0
50.68224 148.0
50.829708 160.0
50.892166 184.0
51.207867 136.0
51.376068 76.0
51.727615 132.0
51.863697 224.0
52.129211 108.0
52.284527 164.0
52.673824 152.0
53.081966 196.0
53.277912 120.0
53.321507 184.0
53.341854 92.0
53.442204 264.0
53.532452 152.0
53.68697 132.0
54.018482 168.0
54.371601 108.0
54.381874 192.0
54.434727 148.0
55.001556 192.0
55.017792 136.0
55.384808 148.0
55.405266 168.0
55.652954 148.0
55.690079 160.0
55.725731 256.0
56.042652 148.0
56.084377 88.0
56.094814 172.0
56.682182 128.0
56.759396 192.0
57.182274 196.0
57.421829 160.0
57.461048 96.0
57.770756 148.0
58.041862 164.0
58.078259 196.0
58.146538 176.0
58.421566 188.0
58.44743 208.0
58.566177 72.0
58.771984 148.0
58.807087 68.0
59.103561 84.0
59.155598 240.0
59.236759 152.0
59.37624 128.0
59.491322 212.0
59.502068 220.0
59.946594 180.0
60.102337 180.0
60.258282 192.0
60.381947 220.0
60.397411 52.0
60.553741 192.0
61.030155 212.0
61.438213 136.0
61.477024 160.0
61.672447 192.0
61.902428 196.0
61.925919 152.0
62.008957 164.0
62.070095 220.0
62.366814 136.0
62.511505 220.0
62.862919 172.0
63.080879 192.0
63.114079 184.0
63.125149 68.0
63.212151 208.0
63.372078 116.0
63.551243 192.0
63.735432 124.0
63.894428 144.0
64.048843 172.0
64.082298 184.0
64.27523 100.0
64.36142 72.0
64.377396 124.0
64.473244 148.0
64.524391 196.0
64.645958 192.0
64.677971 228.0
64.852562 136.0
64.908669 204.0
64.932724 208.0
65.120506 108.0
65.271568 52.0
65.284439 160.0
65.387398 160.0
65.45018 144.0
65.961609 244.0
66.157349 180.0
66.207542 224.0
66.317711 152.0
66.603287 228.0
67.187691 40.0
67.298676 140.0
67.527458 132.0
67.751709 188.0
67.948448 240.0
68.245728 220.0
68.405304 144.0
68.446465 168.0
68.667297 112.0
68.680489 212.0
68.734932 156.0
68.779488 144.0
68.890129 164.0
69.00251 112.0
69.131523 164.0
69.685356 236.0
69.751831 128.0
69.771774 136.0
69.846611 232.0
70.144676 184.0
70.238052 132.0
70.648994 96.0
70.674088 176.0
71.019188 164.0
71.203812 148.0
71.573776 220.0
71.588936 148.0
72.262428 136.0
72.34874 144.0
72.48085 196.0
72.611382 148.0
72.828636 180.0
73.005386 196.0
73.059814 152.0
73.282845 136.0
73.871841 148.0
73.89579 136.0
74.250381 184.0
74.300125 144.0
74.380775 224.0
75.110367 144.0
75.220802 108.0
75.263962 120.0
75.682404 36.0
75.744751 44.0
76.152359 112.0
76.16626 152.0
76.533211 128.0
76.646431 124.0
76.81205 148.0
77.009293 108.0
77.525398 164.0
77.660393 112.0
77.744606 208.0
77.983459 160.0
78.312477 216.0
78.361801 204.0
78.3759 224.0
78.732231 172.0
79.038048 236.0
79.06813 100.0
79.156647 104.0
79.348007 68.0
79.690552 192.0
79.717201 168.0
79.852318 180.0
79.998222 68.0
80.010681 128.0
80.051636 140.0
80.178123 140.0
80.265472 244.0
80.693993 192.0
80.731544 156.0
81.029709 164.0
81.426895 108.0
81.495155 212.0
81.804489 60.0
81.952171 200.0
82.224464 172.0
82.374329 180.0
82.621994 172.0
82.645515 184.0
82.728767 64.0
82.781273 144.0
82.806625 144.0
82.83017 244.0
82.893585 152.0
82.944328 152.0
82.991463 160.0
83.26548 216.0
83.412651 152.0
83.514481 48.0
83.610909 112.0
83.767494 144.0
83.818504 132.0
84.351425 164.0
84.772377 136.0
84.970406 176.0
85.128258 112.0
85.255013 196.0
85.534576 204.0
85.571396 204.0
85.866226 208.0
86.078453 160.0
86.16526 188.0
86.195793 144.0
86.2743 216.0
86.390808 184.0
86.542564 124.0
86.816811 168.0
86.898643 240.0
87.061775 104.0
87.199257 80.0
87.28849 216.0
87.989067 200.0
88.680244 148.0
89.073349 136.0
89.131592 144.0
89.274452 132.0
89.417435 180.0
89.507797 212.0
89.713158 136.0
89.750862 148.0
90.054695 184.0
90.101921 212.0
90.145378 124.0
90.177505 352.0
90.205856 120.0
90.273926 156.0
90.34201 176.0
90.362823 216.0
90.504776 64.0
90.807983 140.0
90.832642 196.0
91.047882 276.0
91.140198 152.0
91.180099 196.0
91.495857 140.0
91.592979 220.0
92.24749 104.0
92.29911 144.0
92.385178 196.0
92.415787 228.0
92.624458 88.0
92.666603 248.0
92.833366 128.0
93.029068 168.0
93.059784 204.0
93.119316 116.0
93.15773 152.0
93.224983 164.0
93.26342 192.0
93.342239 100.0
93.636673 204.0
93.769615 212.0
93.808167 52.0
94.068581 260.0
94.103333 204.0
94.184441 152.0
94.277176 144.0
94.327431 136.0
94.395096 64.0
94.819061 188.0
95.059242 188.0
95.306137 64.0
95.563866 216.0
95.687347 172.0
96.13176 76.0
96.176643 48.0
96.416878 188.0
96.444237 64.0
96.704376 144.0
96.755272 180.0
96.964859 180.0
97.01194 532.0
97.164139 160.0
97.335632 156.0
97.353302 208.0
97.872429 188.0
97.915756 160.0
98.079285 164.0
98.17984 184.0
98.321884 140.0
98.481804 156.0
98.79808 164.0
98.821815 196.0
99.005905 156.0
99.055428 112.0
99.092072 212.0
99.396431 156.0
99.811577 196.0
100.21563 160.0
100.652451 132.0
100.770294 68.0
100.85984 124.0
100.904205 200.0
100.990425 172.0
101.775764 164.0
101.994743 120.0
102.673248 184.0
102.913383 152.0
103.056511 640.0
103.147728 92.0
103.434967 160.0
103.649643 120.0
103.771255 72.0
103.805725 228.0
103.880768 104.0
104.050804 380.0
104.069504 188.0
104.1548 76.0
104.199493 60.0
104.252319 132.0
104.284836 180.0
104.484116 172.0
104.581795 148.0
104.63472 88.0
105.055557 300.0
105.068085 100.0
105.07132 164.0
105.321945 120.0
105.35054 212.0
105.544701 212.0
105.762947 188.0
105.816826 160.0
105.831154 212.0
105.865967 168.0
105.936989 148.0
106.06633 844.0
106.103645 104.0
106.481209 60.0
106.577759 80.0
106.719772 172.0
106.760704 204.0
106.803894 212.0
107.064812 176.0
107.533279 152.0
107.582817 76.0
107.628235 192.0
107.719109 132.0
107.822418 140.0
108.002296 112.0
108.070564 160.0
108.250641 160.0
108.333488 188.0
108.381142 156.0
108.437096 204.0
108.524155 136.0
108.661041 200.0
108.908073 80.0
109.012314 732.0
109.075272 168.0
109.17202 196.0
109.2677 112.0
109.53833 36.0
109.919861 136.0
110.019142 176.0
110.085968 188.0
110.460976 160.0
110.475616 144.0
110.553032 168.0
110.609543 156.0
110.663971 92.0
110.702164 168.0
110.852486 156.0
110.982445 136.0
111.027061 5584.0
111.090561 296.0
111.148895 180.0
111.299278 204.0
111.435806 60.0
111.477829 176.0
111.845879 172.0
111.989059 212.0
112.030182 320.0
112.067001 144.0
112.095406 108.0
112.123894 196.0
112.199776 128.0
112.385376 160.0
112.543678 68.0
112.951553 140.0
113.021187 412.0
113.046761 84.0
113.13192 156.0
113.224586 108.0
113.873566 152.0
113.943665 152.0
114.157013 192.0
114.385994 144.0
114.500969 80.0
114.577652 140.0
114.601089 140.0
114.76947 48.0
114.816383 144.0
114.940109 148.0
115.482735 148.0
115.913742 268.0
115.947327 40.0
116.049889 328.0
116.112404 36.0
116.369904 40.0
116.389229 168.0
116.417145 88.0
116.705086 44.0
116.842728 216.0
116.936852 148.0
117.058067 2708.0
117.116119 40.0
117.331604 116.0
118.068176 572.0
118.130638 200.0
118.43158 124.0
118.719757 128.0
119.001846 108.0
119.062645 192.0
119.371231 184.0
119.638847 204.0
120.082138 308.0
120.275368 136.0
120.659836 48.0
120.692635 176.0
120.773552 168.0
121.014618 120.0
121.075035 504.0
121.62809 168.0
122.018768 2028.0
122.045502 104.0
122.082718 220.0
122.102676 124.0
122.250069 60.0
122.297577 68.0
122.417374 184.0
122.624458 92.0
122.919968 212.0
122.986816 96.0
123.027702 15688.0
123.090042 284.0
123.134918 68.0
123.160606 128.0
123.257812 104.0
123.335426 100.0
123.369789 96.0
123.414749 168.0
123.436859 72.0
123.482018 124.0
123.509842 52.0
123.708992 40.0
123.757698 152.0
123.830772 52.0
123.981422 92.0
124.031006 1212.0
124.087822 88.0
124.10334 220.0
124.240845 124.0
124.444405 112.0
124.826027 308.0
124.87883 208.0
124.927292 72.0
124.978462 188.0
125.027008 196.0
125.065254 80.0
125.110817 196.0
125.16098 148.0
125.223 268.0
125.316895 164.0
125.45507 184.0
125.753967 132.0
125.785217 144.0
125.919083 88.0
126.211281 152.0
126.377441 80.0
126.585609 192.0
127.049568 48.0
127.101173 148.0
127.134827 136.0
128.061096 212.0
128.221054 156.0
128.266129 60.0
129.178406 144.0
129.796692 160.0
129.910095 220.0
130.066788 644.0
130.166565 56.0
130.983032 160.0
131.070541 672.0
131.190399 72.0
131.521149 184.0
131.870605 140.0
131.980331 52.0
132.080536 164.0
132.511337 228.0
132.963074 140.0
133.010056 468.0
133.073303 184.0
133.093918 184.0
133.139847 156.0
134.02124 528.0
134.048782 168.0
134.085556 260.0
134.160934 252.0
134.362076 172.0
134.569794 148.0
134.944092 152.0
134.979431 180.0
135.025146 792.0
135.099701 112.0
135.446259 72.0
135.849594 156.0
136.017426 400.0
136.101135 824.0
136.667389 32.0
136.697632 28.0
137.007309 240.0
137.0439 552.0
137.102829 136.0
137.87529 128.0
138.03653 908.0
138.113831 176.0
139.039536 184.0
139.056885 192.0
139.47374 156.0
139.887741 148.0
140.033722 140.0
140.158569 84.0
140.611343 136.0
140.771881 228.0
141.045929 152.0
141.109756 160.0
141.476456 148.0
141.993011 116.0
142.014343 180.0
142.643585 172.0
143.05986 28.0
143.126526 96.0
143.200348 172.0
143.638916 124.0
143.844131 256.0
143.896652 40.0
144.079498 372.0
144.23349 204.0
144.331512 68.0
144.494141 220.0
144.992203 140.0
145.07901 428.0
145.116852 184.0
146.085587 204.0
146.54451 64.0
146.621613 256.0
146.83136 40.0
146.956802 100.0
147.022186 164.0
147.091888 696.0
147.224731 236.0
147.275452 108.0
148.024429 588.0
148.051804 96.0
148.083282 216.0
148.111557 208.0
148.231064 64.0
148.340118 128.0
148.941895 60.0
149.030243 5332.0
149.070145 188.0
149.107498 408.0
149.257843 52.0
149.342957 168.0
149.43782 76.0
149.476761 56.0
149.732361 148.0
149.946762 96.0
149.983322 188.0
150.038193 9940.0
150.110092 164.0
150.172043 100.0
150.263763 48.0
150.283279 100.0
150.311661 88.0
150.415054 260.0
150.471207 52.0
150.579681 76.0
150.727661 224.0
150.778976 104.0
151.039795 1212.0
151.175156 140.0
151.284149 168.0
151.368546 56.0
151.512634 72.0
151.589005 68.0
151.821884 92.0
151.888107 88.0
152.033752 616.0
152.05838 316.0
152.06778 328.0
152.172775 124.0
152.629776 64.0
153.063629 400.0
153.343689 96.0
153.496521 40.0
153.94693 168.0
154.063217 452.0
154.449814 212.0
154.536407 96.0
154.58342 160.0
155.06633 120.0
155.530136 76.0
155.736221 208.0
155.9673 140.0
156.993042 160.0
157.087128 432.0
157.387573 192.0
157.799133 188.0
158.042175 160.0
158.088654 464.0
159.067184 112.0
159.093384 820.0
159.944443 76.0
160.014923 120.0
160.101105 320.0
161.018463 172.0
161.108337 676.0
161.144821 168.0
161.35965 112.0
161.493668 164.0
162.019058 180.0
162.036743 304.0
162.112946 256.0
162.768387 80.0
162.844574 208.0
162.943649 200.0
163.041672 548.0
163.075775 192.0
163.124069 120.0
163.251205 164.0
163.57431 168.0
163.808594 180.0
163.907944 80.0
163.928329 112.0
164.025177 132.0
164.054153 14156.0
164.145004 52.0
164.17305 44.0
164.264877 32.0
164.594849 68.0
165.057159 1120.0
165.227951 160.0
166.050476 552.0
166.620056 236.0
167.071365 180.0
168.07756 224.0
168.9366 196.0
171.091599 124.0
172.101425 160.0
172.44278 60.0
172.521118 136.0
172.680695 136.0
173.023483 176.0
173.108612 2180.0
173.31337 200.0
174.022369 124.0
174.112335 620.0
174.185196 72.0
174.56366 168.0
175.032043 232.0
175.250656 48.0
175.311264 84.0
175.559067 52.0
176.052979 356.0
176.090805 156.0
176.130051 532.0
176.189896 52.0
176.240097 80.0
176.26123 88.0
176.477966 184.0
177.048904 680.0
177.136932 364.0
178.059265 132.0
178.068619 328.0
178.567581 156.0
178.689941 100.0
179.064667 324.0
179.177155 68.0
179.371689 112.0
179.462326 96.0
179.795761 160.0
180.043747 144.0
180.067245 152.0
180.085938 256.0
180.137527 60.0
180.819336 164.0
181.076355 144.0
181.757263 72.0
181.920975 212.0
183.767166 148.0
183.858917 172.0
185.107834 140.0
185.175537 164.0
185.638962 132.0
186.116531 176.0
187.12326 2580.0
187.465714 136.0
187.653946 144.0
187.683792 48.0
188.13121 2764.0
188.177628 172.0
188.311432 36.0
189.137344 440.0
189.249405 60.0
189.635651 160.0
190.066208 152.0
190.140884 452.0
190.294006 176.0
190.849014 180.0
191.06694 544.0
191.159836 104.0
191.333237 68.0
191.622421 212.0
192.038666 140.0
192.075012 316.0
192.193146 100.0
192.695648 188.0
192.919495 104.0
193.08255 412.0
193.115829 44.0
193.428482 148.0
194.082306 132.0
194.620575 216.0
195.078979 156.0
196.256622 164.0
197.98912 176.0
199.124954 88.0
200.585236 64.0
201.852875 108.0
203.133011 72.0
203.467865 176.0
203.493423 212.0
204.070175 96.0
204.619278 160.0
204.94397 140.0
204.96962 48.0
205.080811 1524.0
205.137772 64.0
206.086868 1156.0
206.213852 112.0
206.268158 48.0
206.293884 40.0
206.611313 76.0
206.71431 92.0
206.963348 76.0
207.084747 204.0
207.14949 108.0
208.075775 176.0
208.68486 172.0
209.280441 164.0
213.223251 124.0
214.366928 164.0
214.635101 148.0
216.396957 220.0
217.634247 196.0
218.007294 64.0
218.104279 140.0
218.580704 156.0
218.686646 120.0
219.095215 204.0
219.564621 172.0
219.591156 184.0
219.732742 144.0
220.113632 176.0
220.258209 224.0
220.352737 48.0
220.373428 40.0
220.397064 176.0
220.429565 128.0
220.534515 164.0
220.666016 116.0
220.781342 244.0
220.881897 208.0
220.92627 196.0
220.949936 204.0
221.01503 108.0
221.062759 220.0
221.111969 26140.0
221.223984 236.0
221.254761 32.0
221.27713 60.0
221.363815 48.0
221.429459 60.0
221.475159 28.0
221.51239 76.0
221.536102 88.0
221.556839 88.0
221.59697 24.0
221.687195 64.0
221.721069 84.0
221.752396 64.0
221.826508 88.0
222.035919 184.0
222.115112 2748.0
222.256531 100.0
222.280273 80.0
222.544434 44.0
222.612732 68.0
222.935471 72.0
223.108002 748.0
223.248672 100.0
223.332687 48.0
223.703888 136.0
223.870697 200.0
224.07019 52.0
224.097992 132.0
224.228104 56.0
225.126068 76.0
225.251511 36.0
226.849442 40.0
227.074326 132.0
227.306458 116.0
229.531235 80.0
235.372437 68.0
235.680939 84.0
238.061005 88.0
244.628143 100.0
245.045456 60.0
248.876892 44.0
251.486603 68.0
255.606461 32.0
258.974487 84.0
259.192322 132.0
260.266846 68.0
265.371246 116.0
298.267761 40.0
300.77536 44.0
304.744019 40.0
306.790375 44.0
315.924591 52.0
320.283661 92.0
323.325592 64.0
325.638 68.0
326.274017 128.0
342.644897 40.0
350.824005 44.0
354.677948 56.0
360.708069 48.0
379.541473 40.0
381.26889 104.0
396.849335 68.0
399.025055 100.0
400.11911 44.0
404.762573 44.0
526.683228 144.0
531.880188 64.0
577.517456 44.0
584.386963 36.0
649.789185 80.0
651.627075 72.0
777.399475 188.0
840.17041 140.0
895.124817 152.0
898.993591 132.0
912.999756 108.0
945.230652 32.0
948.789124 88.0
950.420593 164.0
967.226624 224.0
994.741455 228.0
997.719116 88.0
997.769409 124.0
1004.791504 68.0
1007.664062 176.0
1018.071106 196.0
1025.661255 196.0
1032.377808 52.0
1034.425171 176.0
1051.277344 192.0
1076.399414 140.0
1082.808105 120.0
1088.763062 184.0
1092.424072 164.0
1098.101807 72.0
1099.018799 124.0
1103.311768 92.0
1109.415405 128.0
1111.74353 248.0
1112.420532 188.0
1119.28833 180.0
1123.734009 128.0
1124.488037 72.0
1125.48938 64.0
1134.508057 120.0
1136.010254 152.0
1145.570068 196.0
1153.444214 164.0
1157.63208 176.0
1165.174561 92.0
1168.145264 128.0
1176.008423 172.0
1178.16626 184.0
1178.494141 152.0
1178.651367 92.0
1183.987061 152.0
1189.156372 172.0
1192.569946 128.0
1196.573486 184.0
1198.088501 52.0
1201.487305 124.0
1206.390381 116.0
1209.565552 204.0
1216.268311 132.0
1217.28894 116.0
1217.35144 184.0
1218.052856 144.0
1219.373047 200.0
1221.931885 268.0
1225.824097 152.0
1226.082031 252.0
1232.411133 212.0
1240.276978 200.0
1243.48938 132.0
1244.998779 184.0
1246.530151 220.0
1250.27832 204.0
1253.052612 136.0
1260.94165 140.0
1264.930908 176.0
1266.106201 140.0
1266.616211 148.0
1267.763916 152.0
1276.751343 164.0
1281.912476 172.0
1285.057007 204.0
1291.142944 48.0
1291.286011 136.0
1292.370361 156.0
1294.0625 192.0
1298.096436 120.0
1304.759521 152.0
1307.118652 200.0
1308.219849 156.0
1309.27832 132.0
1311.0 120.0
1311.115356 168.0
1311.345947 184.0
1312.78064 212.0
1314.345947 96.0
1318.917358 116.0
1320.479126 108.0
1321.072266 140.0
1326.111816 176.0
1326.423584 196.0
1329.934204 136.0
1335.0271 112.0
1335.383423 188.0
1336.976685 172.0
1337.377075 184.0
1340.064087 152.0
1349.80835 200.0
1349.874146 208.0
1350.149048 220.0
1352.046875 192.0
1353.086304 140.0
1354.433716 160.0
1360.578857 128.0
1360.688965 220.0
1361.760986 200.0
1362.414795 64.0
1366.877686 152.0
1368.43811 140.0
1369.04187 136.0
1369.89624 180.0
1372.71167 200.0
1372.873901 164.0
1373.722046 188.0
1376.415894 92.0
1385.705811 184.0
1387.55127 240.0
1389.256958 68.0
1389.472046 128.0
1392.745728 64.0
1397.652344 116.0
1399.05896 148.0
1401.293213 64.0
1403.782715 152.0
1407.700439 40.0
1411.062744 172.0
1411.892822 172.0
1412.782837 88.0
1425.889771 168.0
1427.062378 104.0
1427.784302 112.0
1428.987793 172.0
1429.59729 88.0
1430.763916 156.0
1434.033081 192.0
1437.026855 136.0
1437.64563 44.0
1438.981567 152.0
1442.630493 192.0
1445.050659 192.0
1446.503662 196.0
1447.677124 152.0
1452.072632 200.0
1452.269897 164.0
1453.72644 104.0
1453.91626 144.0
1454.50061 128.0
1454.637207 36.0
1454.751099 140.0
1456.824219 160.0
1458.161621 160.0
1458.518799 204.0
1459.393066 164.0
1460.320801 204.0
1461.728149 132.0
1462.352173 148.0
1462.451172 144.0
1463.989014 88.0
1464.659302 248.0
1465.161987 124.0
1467.372192 172.0
1467.433228 124.0
1467.608521 156.0
1468.447388 232.0
1469.793091 180.0
1472.04187 136.0
1473.561768 100.0
1474.421631 240.0
1481.158203 172.0
1483.242432 240.0
1483.978394 96.0
1484.239014 236.0
1486.91626 148.0
1489.496094 200.0
1489.665161 172.0
1490.763794 172.0
1494.09314 164.0
1494.377808 32.0
1497.919067 160.0
1500.624023 164.0
1502.212646 144.0
1503.015015 192.0
1504.713135 220.0
1504.937012 128.0
1505.160889 192.0
