>compound MLS001332643-01!Benoxinate hydrochloride5987-82-6
>formula C17H28N2O3
>ionization [M+H]+
>parentmass 309.216
#inchi InChI=1S/C17H28N2O3/c1-4-7-11-21-16-13-14(8-9-15(16)18)17(20)22-12-10-19(5-2)6-3/h8-9,13H,4-7,10-12,18H2,1-3H3
#inchikey CMHHMUWAYWTMGS
#Ion_Source LC-ESI
#Instrument qTof
#Compound_Source NIH Pharmacologically Active Library
#PI Dorrestein
#Data_Collector VP/LMS
#Scan -1
#Precursor_MZ 309.216
#ExactMass 308.21
#Charge 1
#CAS_Number N/A
#Pubmed_ID N/A
#Smiles CCCCOc1cc(ccc1N)C(=O)OCCN(CC)CC
#INCHI_AUX N/A
#Library_Class 1
#SpectrumID CCMSLIB00000085270
#IonMode Positive
#UpdateWorkflowName UPDATE-SINGLE-ANNOTATED-GOLD
#LibraryQualityString Gold
#TaskID d252d724072548979f1f6f1ced849daf
##Scan# 1641
#SpectrumFile p3-G08_GG8_01_18301.mzXML
#LibraryName Pharm_Active_Library.mgf
#MQScore -1
#Organism Pharm_Active_Library
#TIC_Query 0
#RT_Query -1
#MZErrorPPM -1
#SharedPeaks 0
#MassDiff 0
#LibMZ -1
#SpecMZ 309.216
#SpecCharge 0
#internalFilename spec-00000.mgf

>collision 10
44.907337 132.0
44.927349 108.0
45.033932 176.0
45.173172 140.0
45.241425 200.0
45.272224 160.0
45.347256 164.0
45.415642 176.0
45.434422 208.0
45.449181 60.0
45.497505 188.0
45.591534 208.0
45.668175 168.0
45.72065 192.0
45.770462 80.0
45.813564 188.0
45.858036 204.0
45.951088 176.0
46.010475 176.0
46.021278 256.0
46.064499 172.0
46.100628 184.0
46.114235 352.0
46.225403 180.0
46.303928 84.0
46.31612 196.0
46.359478 156.0
46.462536 188.0
46.516823 232.0
46.538544 196.0
46.568424 144.0
46.717957 52.0
46.769672 192.0
46.802349 72.0
46.814602 164.0
46.873184 76.0
46.908546 216.0
47.005466 172.0
47.113335 208.0
47.132465 36.0
47.25827 168.0
47.293854 204.0
47.328079 352.0
47.339035 120.0
47.37191 92.0
47.406166 180.0
47.433578 80.0
47.483189 180.0
47.499405 188.0
47.517239 156.0
47.526844 200.0
47.544685 180.0
47.624321 216.0
47.636688 60.0
47.649052 132.0
47.668289 196.0
47.701279 88.0
47.779671 148.0
47.86639 84.0
47.906334 152.0
47.969727 76.0
48.006958 132.0
48.026268 240.0
48.081459 180.0
48.092239 188.0
48.114285 36.0
48.182583 140.0
48.197468 76.0
48.21405 156.0
48.290096 140.0
48.309464 388.0
48.349594 124.0
48.432671 92.0
48.464539 108.0
48.554649 100.0
48.576843 204.0
48.646233 156.0
48.687893 164.0
48.697613 164.0
48.783772 152.0
48.803238 56.0
48.83395 236.0
48.858875 48.0
48.871395 96.0
48.908974 224.0
48.925259 212.0
48.94268 192.0
49.019009 204.0
49.063614 152.0
49.099869 240.0
49.113819 152.0
49.140324 152.0
49.254807 152.0
49.282749 136.0
49.326077 188.0
49.376419 124.0
49.391464 364.0
49.429634 208.0
49.460697 212.0
49.491749 244.0
49.523388 160.0
49.542999 200.0
49.648071 180.0
49.722492 64.0
49.750568 120.0
49.785671 96.0
49.826103 128.0
49.848892 132.0
49.864353 140.0
49.881222 204.0
49.916374 188.0
49.985306 136.0
50.011875 164.0
50.064144 204.0
50.117676 164.0
50.198029 120.0
50.270611 240.0
50.350452 156.0
50.361752 112.0
50.395657 132.0
50.498173 156.0
50.575272 180.0
50.602467 172.0
50.712673 160.0
50.729683 172.0
50.743862 176.0
50.763714 212.0
50.878654 208.0
50.895691 212.0
50.926937 164.0
51.026493 76.0
51.070293 188.0
51.121727 196.0
51.13311 176.0
51.148731 144.0
51.172974 80.0
51.362526 156.0
51.399796 228.0
51.410789 160.0
51.431019 144.0
51.448151 184.0
51.473854 224.0
51.578156 160.0
51.59388 176.0
51.694012 216.0
51.726933 180.0
51.76416 108.0
51.828621 256.0
51.87162 128.0
51.9548 136.0
52.015938 100.0
52.042355 216.0
52.100315 204.0
52.238682 200.0
52.249336 196.0
52.279819 108.0
52.299706 160.0
52.386108 276.0
52.401958 148.0
52.461048 132.0
52.481236 184.0
52.514404 176.0
52.543259 180.0
52.599545 192.0
52.616867 248.0
52.635639 160.0
52.652969 136.0
52.668858 88.0
52.710758 112.0
52.780148 148.0
52.816303 60.0
52.833664 152.0
52.877079 224.0
52.965405 172.0
53.039494 188.0
53.074108 156.0
53.087158 212.0
53.096886 176.0
53.135498 200.0
53.168404 188.0
53.187275 204.0
53.209053 184.0
53.267143 184.0
53.347076 116.0
53.466354 128.0
53.494011 172.0
53.549347 52.0
53.56974 188.0
53.58749 152.0
53.686825 232.0
53.775352 100.0
53.79871 232.0
53.816231 180.0
53.860729 176.0
53.938396 200.0
54.013535 124.0
54.032555 132.0
54.054504 156.0
54.140881 252.0
54.167248 168.0
54.196548 144.0
54.208271 192.0
54.275707 188.0
54.346119 148.0
54.384277 128.0
54.409233 264.0
54.487827 240.0
54.559093 140.0
54.641457 212.0
54.719467 208.0
54.751335 212.0
54.810795 148.0
54.841743 160.0
54.859432 128.0
54.875652 172.0
54.891872 144.0
54.92432 56.0
54.935871 212.0
55.001057 200.0
55.082275 140.0
55.163555 180.0
55.182774 144.0
55.196083 124.0
55.219746 136.0
55.238976 180.0
55.2817 160.0
55.321854 176.0
55.3722 64.0
55.403309 388.0
55.415161 124.0
55.487789 48.0
55.529312 192.0
55.6614 216.0
55.759453 44.0
55.789185 160.0
55.912651 120.0
56.004864 172.0
56.085129 256.0
56.107796 112.0
56.173416 188.0
56.271919 132.0
56.289841 180.0
56.352577 208.0
56.37051 228.0
56.409374 180.0
56.506588 200.0
56.517059 156.0
56.535019 200.0
56.545494 196.0
56.569447 48.0
56.612869 204.0
56.672207 400.0
56.686279 172.0
56.710258 160.0
56.746754 244.0
56.818233 196.0
56.828735 144.0
56.942833 116.0
56.997551 208.0
57.01495 156.0
57.128742 184.0
57.172218 212.0
57.189426 108.0
57.218029 140.0
57.261703 228.0
57.34156 192.0
57.385277 64.0
57.541286 304.0
57.619228 200.0
57.656666 260.0
57.669102 168.0
57.72504 160.0
57.797653 412.0
57.814301 108.0
57.830952 112.0
57.84306 104.0
57.855171 168.0
57.865768 152.0
58.011219 168.0
58.024864 40.0
58.112835 168.0
58.157848 152.0
58.178776 180.0
58.249477 216.0
58.360428 144.0
58.395409 236.0
58.48214 168.0
58.545887 272.0
58.587215 244.0
58.698486 100.0
58.798901 196.0
58.858719 156.0
58.869411 176.0
58.970249 200.0
58.997765 220.0
59.103302 224.0
59.127789 132.0
59.256428 148.0
59.284008 40.0
59.323864 236.0
59.334595 320.0
59.360664 32.0
59.500298 172.0
59.557899 132.0
59.60014 108.0
59.617043 164.0
59.644711 148.0
59.684685 156.0
59.756981 184.0
59.775448 52.0
59.798531 132.0
59.826321 220.0
59.949471 200.0
60.045059 156.0
60.145355 136.0
60.173145 160.0
60.273132 208.0
60.307549 132.0
60.33329 172.0
60.386406 156.0
60.435913 156.0
60.493179 272.0
60.539635 132.0
60.612709 188.0
60.67828 188.0
60.691685 136.0
60.711662 128.0
60.807858 192.0
60.86042 196.0
60.876171 128.0
60.939861 76.0
60.960064 132.0
60.981823 196.0
61.033127 200.0
61.048676 28.0
61.101566 156.0
61.156033 160.0
61.254799 196.0
61.318024 196.0
61.392864 88.0
61.425617 168.0
61.522377 188.0
61.541111 148.0
61.605148 352.0
61.641087 172.0
61.666096 160.0
61.703789 176.0
61.72636 160.0
61.750744 116.0
61.797459 132.0
61.81311 336.0
61.863197 68.0
61.938366 168.0
61.996338 144.0
62.055908 148.0
62.112526 40.0
62.145317 60.0
62.209023 244.0
62.242641 144.0
62.258343 200.0
62.296043 172.0
62.33886 348.0
62.358898 120.0
62.420216 180.0
62.468975 140.0
62.564976 200.0
62.606239 176.0
62.620094 164.0
62.640572 132.0
62.661053 220.0
62.683113 124.0
62.717789 208.0
62.761932 240.0
62.826599 104.0
62.837646 88.0
62.891304 228.0
62.918392 200.0
62.944984 224.0
63.071381 228.0
63.201069 116.0
63.218479 176.0
63.302383 104.0
63.334305 232.0
63.368916 100.0
63.389515 112.0
63.405365 144.0
63.46402 200.0
63.478291 136.0
63.519531 148.0
63.56237 56.0
63.581413 136.0
63.633801 172.0
63.659676 176.0
63.679855 140.0
63.703297 148.0
63.75135 204.0
63.762478 148.0
63.805397 48.0
63.843563 220.0
63.904488 416.0
63.967674 36.0
64.013847 196.0
64.086113 188.0
64.195526 152.0
64.230614 60.0
64.249763 172.0
64.335945 144.0
64.371788 240.0
64.462135 256.0
64.48291 196.0
64.572449 168.0
64.609238 208.0
64.655647 116.0
64.681259 176.0
64.71328 92.0
64.748512 152.0
64.817398 112.0
64.849449 180.0
64.902359 44.0
64.915184 140.0
64.931221 80.0
65.24115 204.0
65.257225 112.0
65.270088 140.0
65.323166 136.0
65.358566 132.0
65.394012 156.0
65.443306 292.0
65.458366 152.0
65.540527 76.0
65.61628 116.0
65.632408 228.0
65.686493 152.0
65.719513 140.0
65.827667 148.0
65.999977 200.0
66.032928 164.0
66.105728 196.0
66.143768 136.0
66.162384 256.0
66.246605 136.0
66.269287 184.0
66.329132 160.0
66.358437 168.0
66.385818 156.0
66.408707 144.0
66.554771 128.0
66.58725 216.0
66.631111 100.0
66.683113 148.0
66.743271 188.0
66.775795 132.0
66.790436 152.0
66.871796 172.0
66.897842 172.0
67.054222 172.0
67.075409 92.0
67.09008 140.0
67.153679 172.0
67.174889 172.0
67.190552 244.0
67.20752 164.0
67.249954 140.0
67.264641 164.0
67.385498 144.0
67.399261 160.0
67.413277 148.0
67.436043 164.0
67.481934 164.0
67.522423 164.0
67.526459 124.0
67.533211 192.0
67.652618 228.0
67.704491 164.0
67.831482 72.0
67.860168 160.0
67.917572 116.0
68.068565 84.0
68.109627 88.0
68.198364 156.0
68.250977 140.0
68.270706 64.0
68.339798 220.0
68.38588 144.0
68.406502 236.0
68.448441 144.0
68.471497 200.0
68.48468 192.0
68.64785 188.0
68.665985 144.0
68.684135 156.0
68.697884 168.0
68.728676 220.0
68.741882 220.0
68.807907 80.0
68.832512 180.0
68.903702 144.0
68.941711 176.0
68.965088 220.0
68.994606 204.0
69.131905 156.0
69.174934 136.0
69.196457 152.0
69.227921 124.0
69.254242 184.0
69.290871 160.0
69.413528 204.0
69.43177 32.0
69.508087 120.0
69.553276 124.0
69.640907 116.0
69.684906 108.0
69.691231 152.0
69.70903 168.0
69.725647 200.0
69.778847 160.0
69.818756 112.0
69.849831 176.0
69.866997 152.0
69.886963 184.0
69.90596 208.0
69.920242 112.0
69.990166 56.0
70.052361 200.0
70.155121 200.0
70.17012 188.0
70.181099 152.0
70.203476 132.0
70.231827 164.0
70.33696 200.0
70.440491 152.0
70.465553 224.0
70.524048 120.0
70.542435 148.0
70.682549 192.0
70.698517 140.0
70.831947 96.0
70.844551 176.0
70.87262 188.0
70.920753 144.0
70.954285 148.0
71.083443 208.0
71.231201 176.0
71.4077 216.0
71.454803 104.0
71.480042 196.0
71.500237 136.0
71.535583 144.0
71.559158 200.0
71.596207 136.0
71.62989 192.0
71.643372 200.0
71.668648 236.0
71.698982 180.0
71.710777 116.0
71.727631 172.0
71.870995 68.0
71.900032 276.0
71.928375 80.0
71.975655 184.0
71.989159 64.0
72.038147 136.0
72.10067 160.0
72.112495 152.0
72.134476 160.0
72.173042 192.0
72.230865 116.0
72.259628 68.0
72.288391 108.0
72.326759 252.0
72.39505 200.0
72.530594 140.0
72.544159 140.0
72.571289 176.0
72.649307 132.0
72.695122 144.0
72.734161 220.0
72.747742 160.0
72.864929 156.0
72.88192 168.0
72.90741 132.0
73.023026 84.0
73.147247 168.0
73.163269 220.0
73.241508 168.0
73.285202 156.0
73.33609 172.0
73.423286 164.0
73.472755 168.0
73.513702 136.0
73.561501 100.0
73.720352 228.0
73.771629 136.0
73.806259 188.0
73.867401 188.0
73.881081 72.0
73.896484 184.0
73.944397 132.0
74.206505 164.0
74.273712 172.0
74.316284 44.0
74.369484 156.0
74.407249 208.0
74.495399 196.0
74.537796 208.0
74.556702 112.0
74.587639 176.0
74.613426 60.0
74.66938 224.0
74.709549 212.0
74.776855 132.0
74.795784 152.0
74.83194 128.0
74.899109 216.0
75.011116 152.0
75.124939 156.0
75.138741 56.0
75.1698 148.0
75.195908 220.0
75.24057 160.0
75.263016 196.0
75.309647 120.0
75.323471 224.0
75.380219 432.0
75.465187 104.0
75.487 120.0
75.513611 208.0
75.639931 212.0
75.703995 160.0
75.748749 220.0
76.014313 164.0
76.028198 140.0
76.163628 168.0
76.27832 188.0
76.333954 192.0
76.353569 168.0
76.394836 108.0
76.450363 204.0
76.487068 132.0
76.546265 160.0
76.723999 108.0
76.738815 152.0
76.805885 176.0
76.843811 184.0
76.874008 216.0
76.88607 180.0
76.912407 128.0
76.950813 100.0
76.977005 28.0
76.99971 76.0
77.046875 212.0
77.084412 116.0
77.129868 188.0
77.237434 172.0
77.255577 204.0
77.285095 180.0
77.363434 192.0
77.60347 72.0
77.666603 156.0
77.691162 188.0
77.719238 132.0
77.791199 144.0
77.835091 200.0
77.940491 152.0
77.956306 192.0
78.030136 164.0
78.092598 172.0
78.149742 108.0
78.184937 164.0
78.237747 148.0
78.274719 100.0
78.332619 184.0
78.429764 152.0
78.496765 108.0
78.775642 196.0
78.852142 192.0
78.906425 72.0
79.016754 152.0
79.042633 112.0
79.125824 192.0
79.182495 220.0
79.281708 80.0
79.373894 168.0
79.483879 148.0
79.501625 192.0
79.552086 168.0
79.608147 136.0
79.647827 108.0
79.693413 132.0
79.730728 172.0
79.794724 44.0
79.84211 204.0
79.900818 228.0
79.935249 188.0
79.949486 192.0
79.970848 128.0
80.020691 104.0
80.134689 52.0
80.218452 184.0
80.29335 240.0
80.346863 136.0
80.403969 132.0
80.434311 100.0
80.472267 200.0
80.541451 132.0
80.591476 156.0
80.666542 184.0
80.70945 164.0
80.757744 152.0
80.779205 228.0
80.81678 160.0
80.861519 200.0
80.959991 184.0
80.986855 172.0
81.031647 220.0
81.088989 192.0
81.105125 52.0
81.131767 144.0
81.20195 168.0
81.237823 72.0
81.25425 244.0
81.268326 184.0
81.320328 152.0
81.368843 164.0
81.420921 116.0
81.535904 104.0
81.570061 124.0
81.613213 180.0
81.679756 184.0
81.731934 136.0
81.749924 200.0
81.88353 212.0
81.915581 208.0
81.948006 168.0
82.088615 156.0
82.133705 272.0
82.220314 180.0
82.262878 220.0
82.290466 144.0
82.4533 168.0
82.480415 180.0
82.520187 120.0
82.589409 188.0
82.727539 204.0
82.749344 148.0
82.840538 152.0
82.936539 168.0
82.954704 248.0
82.972839 68.0
83.063515 216.0
83.089317 108.0
83.180283 116.0
83.198822 260.0
83.230492 148.0
83.272263 40.0
83.494003 180.0
83.641388 128.0
83.686905 104.0
83.726967 196.0
83.745178 256.0
83.765221 128.0
83.903725 168.0
83.967552 76.0
83.980316 132.0
84.108047 172.0
84.190216 140.0
84.225327 232.0
84.268768 180.0
84.311478 160.0
84.374771 176.0
84.412849 204.0
84.464386 116.0
84.590652 140.0
84.612625 160.0
84.640091 144.0
84.689537 120.0
84.74633 112.0
84.852638 140.0
84.896652 192.0
84.922005 160.0
84.935593 172.0
85.032082 108.0
85.177483 184.0
85.210548 184.0
85.228928 148.0
85.311638 60.0
85.352081 128.0
85.385185 144.0
85.398064 172.0
85.425659 176.0
85.576576 184.0
85.811043 192.0
85.836395 172.0
85.876968 188.0
85.977913 220.0
85.985168 156.0
86.01458 160.0
86.062851 124.0
86.103996 156.0
86.246269 176.0
86.267738 216.0
86.324112 200.0
86.351669 236.0
86.427521 116.0
86.48304 72.0
86.508957 172.0
86.614517 188.0
86.633041 188.0
86.696037 144.0
86.709015 112.0
86.731255 136.0
86.75721 200.0
86.777603 240.0
86.80542 192.0
86.890747 160.0
86.946419 120.0
87.009529 140.0
87.049774 220.0
87.073219 176.0
87.133972 204.0
87.15255 168.0
87.184494 212.0
87.202728 132.0
87.264076 76.0
87.379501 144.0
87.405449 224.0
87.515274 100.0
87.56369 172.0
87.720215 208.0
87.733269 152.0
87.94532 232.0
87.980469 192.0
88.024345 164.0
88.167679 172.0
88.231758 228.0
88.25045 148.0
88.300949 152.0
88.330872 84.0
88.448769 116.0
88.473106 128.0
88.541412 132.0
88.651054 176.0
88.727905 56.0
88.756035 60.0
88.840439 144.0
88.861076 152.0
88.874207 188.0
88.893761 132.0
88.962212 176.0
89.037537 184.0
89.050682 132.0
89.115379 200.0
89.21981 188.0
89.266815 128.0
89.413559 100.0
89.453094 120.0
89.488861 160.0
89.545357 256.0
89.567635 184.0
89.626366 84.0
89.713074 212.0
89.811134 124.0
89.829994 52.0
89.856407 216.0
89.879051 200.0
89.89415 172.0
89.946999 152.0
90.030075 128.0
90.055573 120.0
90.094299 100.0
90.145317 176.0
90.167709 200.0
90.19635 228.0
90.224709 80.0
90.254959 152.0
90.268196 140.0
90.307915 180.0
90.355209 160.0
90.430901 36.0
90.457405 72.0
90.514206 136.0
90.59565 148.0
90.680923 80.0
90.720734 76.0
90.785202 152.0
90.857285 180.0
90.929398 148.0
91.054298 388.0
91.098633 192.0
91.137459 136.0
91.227631 188.0
91.268448 172.0
91.363441 204.0
91.376953 168.0
91.633621 188.0
91.674934 92.0
91.707336 216.0
91.722588 204.0
91.882782 144.0
91.898048 148.0
92.045029 156.0
92.058395 68.0
92.094688 132.0
92.111877 72.0
92.204552 184.0
92.28389 188.0
92.331696 80.0
92.412041 168.0
92.488594 56.0
92.580498 212.0
92.703392 136.0
92.850731 148.0
92.864159 196.0
92.879509 44.0
92.892937 216.0
93.025352 80.0
93.048386 136.0
93.098312 176.0
93.178993 88.0
93.228699 188.0
93.313538 168.0
93.334686 160.0
93.384689 152.0
93.487434 244.0
93.656097 256.0
93.683067 128.0
93.71582 52.0
93.895103 468.0
93.908607 180.0
93.922112 136.0
93.968407 220.0
94.022446 236.0
94.066269 364.0
94.071213 256.0
94.144073 164.0
94.23481 136.0
94.362434 136.0
94.408546 132.0
94.710785 100.0
94.732742 168.0
94.877449 160.0
94.912346 32.0
94.947258 128.0
94.978287 192.0
95.008507 152.0
95.107788 168.0
95.12043 192.0
95.209267 64.0
95.292801 168.0
95.323891 124.0
95.37442 228.0
95.483307 108.0
95.533882 64.0
95.555283 172.0
95.576469 176.0
95.607826 96.0
95.627518 168.0
95.685692 132.0
95.734375 188.0
95.761635 200.0
95.792809 148.0
95.852043 168.0
95.890114 188.0
95.931168 180.0
95.974068 116.0
95.999413 232.0
96.014389 236.0
96.02243 160.0
96.028694 200.0
96.045952 200.0
96.108658 96.0
96.149643 148.0
96.192581 144.0
96.243347 124.0
96.309746 212.0
96.370148 192.0
96.39962 96.0
96.460213 156.0
96.624496 196.0
96.640152 148.0
96.669502 52.0
96.711662 108.0
96.747795 192.0
96.762611 268.0
96.937798 160.0
96.966499 180.0
97.047569 164.0
97.098557 140.0
97.118172 256.0
97.143677 244.0
97.165253 108.0
97.235901 240.0
97.251602 112.0
97.318352 136.0
97.337166 156.0
97.367447 172.0
97.481392 108.0
97.648506 236.0
97.683914 132.0
97.837418 132.0
97.971344 128.0
97.994987 188.0
98.038338 220.0
98.067902 176.0
98.095314 332.0
98.152679 184.0
98.188179 172.0
98.21579 144.0
98.25296 152.0
98.296684 120.0
98.336159 220.0
98.411179 136.0
98.43882 164.0
98.54747 188.0
98.573158 216.0
98.643684 252.0
98.711533 164.0
98.753067 116.0
98.807144 144.0
98.836159 100.0
98.891579 160.0
99.02578 164.0
99.046028 48.0
99.104294 260.0
99.145096 148.0
99.289825 172.0
99.337433 180.0
99.373146 200.0
99.389015 144.0
99.410851 120.0
99.44062 196.0
99.458481 172.0
99.539886 132.0
99.599472 64.0
99.687935 160.0
99.756462 180.0
99.788269 168.0
99.802185 180.0
99.838737 212.0
99.873787 180.0
99.891396 192.0
99.919151 184.0
99.956688 204.0
99.997154 152.0
100.025017 176.0
100.048454 188.0
100.061974 192.0
100.092209 204.0
100.111855 33116.0
100.159859 168.0
100.201782 164.0
100.245834 76.0
100.27401 156.0
100.299919 56.0
100.347404 100.0
100.381775 72.0
100.399612 100.0
100.436951 64.0
100.469429 264.0
100.541878 328.0
100.577194 68.0
100.615295 48.0
100.645073 52.0
100.659058 164.0
100.675034 220.0
100.693008 264.0
100.716972 156.0
100.778908 200.0
100.811836 136.0
100.905586 148.0
100.921654 204.0
100.950821 36.0
100.964821 40.0
100.986824 64.0
101.021629 40.0
101.054153 140.0
101.082855 152.0
101.114151 1564.0
101.205315 184.0
101.267593 236.0
101.291084 320.0
101.31913 144.0
101.357201 116.0
101.381248 96.0
101.395279 172.0
101.45575 144.0
101.607841 244.0
101.621887 52.0
101.666039 180.0
101.758377 204.0
101.802551 108.0
101.816612 84.0
101.846886 112.0
101.874863 148.0
101.905304 292.0
101.937416 316.0
102.0457 168.0
102.089943 176.0
102.116089 128.0
102.166374 96.0
102.234795 128.0
102.252907 148.0
102.437317 232.0
102.587288 148.0
102.607452 72.0
102.65181 148.0
102.671982 204.0
102.780914 156.0
102.800797 160.0
102.833389 204.0
102.853577 180.0
103.000984 136.0
103.051498 168.0
103.065643 176.0
103.126266 132.0
103.150528 200.0
103.184898 48.0
103.203094 68.0
103.348953 108.0
103.375038 136.0
103.403374 176.0
103.470177 68.0
103.551178 136.0
103.597771 168.0
103.654503 80.0
103.776123 44.0
103.864471 228.0
103.89782 148.0
103.985077 104.0
104.00132 80.0
104.052071 172.0
104.188148 64.0
104.262733 204.0
104.268867 144.0
104.397514 132.0
104.438194 188.0
104.502083 200.0
104.531784 128.0
104.57045 84.0
104.596916 52.0
104.625412 196.0
104.645775 172.0
104.686684 228.0
104.749641 176.0
104.806694 224.0
104.827072 48.0
104.843376 148.0
104.920128 92.0
104.951416 48.0
104.984047 168.0
105.055992 176.0
105.066841 88.0
105.072517 140.0
105.100327 188.0
105.136185 260.0
105.153389 180.0
105.273842 148.0
105.349419 164.0
105.369217 348.0
105.420242 224.0
105.504745 184.0
105.57222 224.0
105.58654 156.0
105.637787 224.0
105.699059 300.0
105.733849 184.0
105.832108 148.0
105.926323 164.0
105.997009 132.0
106.028236 420.0
106.047218 176.0
106.064651 1136.0
106.10955 184.0
106.158936 172.0
106.231773 88.0
106.297432 148.0
106.328217 176.0
106.379539 224.0
106.406227 128.0
106.4272 148.0
106.451401 184.0
106.609589 144.0
106.69075 124.0
106.829605 156.0
106.856346 160.0
106.911911 100.0
106.981895 200.0
107.00248 240.0
107.039291 500.0
107.07209 1016.0
107.115753 44.0
107.164299 160.0
107.187866 120.0
107.243515 172.0
107.280167 240.0
107.299171 164.0
107.317734 52.0
107.503273 148.0
107.641701 204.0
107.686073 196.0
107.707794 56.0
107.72226 140.0
107.747047 144.0
107.782173 52.0
107.796638 184.0
107.824959 376.0
107.848312 116.0
107.906372 216.0
107.962029 276.0
108.044044 17772.0
108.110985 32.0
108.142998 204.0
108.164803 44.0
108.199997 136.0
108.250648 216.0
108.359474 100.0
108.407135 180.0
108.47139 52.0
108.622772 112.0
108.675728 76.0
108.756615 176.0
108.806267 208.0
108.838623 292.0
108.871849 204.0
108.924103 204.0
108.998573 192.0
109.045593 1076.0
109.079636 76.0
109.149345 196.0
109.239761 212.0
109.327148 160.0
109.368782 120.0
109.404846 184.0
109.43763 160.0
109.471558 176.0
109.514534 120.0
109.570457 204.0
109.664558 148.0
109.68541 252.0
109.73127 148.0
109.787575 88.0
109.820946 140.0
109.862892 184.0
109.88562 140.0
109.906487 88.0
109.929436 84.0
109.973267 168.0
110.063225 184.0
110.094368 180.0
110.138229 88.0
110.184189 64.0
110.276138 180.0
110.326309 140.0
110.357666 128.0
110.416222 72.0
110.525009 192.0
110.558495 144.0
110.59198 92.0
110.612915 168.0
110.664909 164.0
110.696663 64.0
110.757401 36.0
110.80349 68.0
111.027245 164.0
111.052956 64.0
111.159958 196.0
111.187241 100.0
111.355209 136.0
111.512794 372.0
111.533813 72.0
111.580063 112.0
111.693626 200.0
111.714668 208.0
111.790413 116.0
111.887245 68.0
111.9104 176.0
111.958839 208.0
112.000961 140.0
112.03569 500.0
112.095772 140.0
112.135818 112.0
112.150574 96.0
112.346687 76.0
112.602737 176.0
112.687241 148.0
112.730988 120.0
112.773254 180.0
112.81765 160.0
112.857819 236.0
112.900116 232.0
112.974709 204.0
113.008003 128.0
113.073608 92.0
113.168869 132.0
113.242989 156.0
113.296059 152.0
113.327728 164.0
113.378593 176.0
113.427345 108.0
113.575783 132.0
113.609482 156.0
113.660645 188.0
113.679741 116.0
113.771019 164.0
113.796494 196.0
113.819855 200.0
113.852768 120.0
113.88781 124.0
113.914444 172.0
114.080597 172.0
114.159866 176.0
114.181129 108.0
114.210915 164.0
114.289627 124.0
114.421379 196.0
114.512039 180.0
114.594116 192.0
114.640999 188.0
114.867012 152.0
114.933151 44.0
114.998688 204.0
115.046036 176.0
115.19577 172.0
115.268112 172.0
115.281906 216.0
115.34108 128.0
115.388115 176.0
115.445854 128.0
115.57634 148.0
115.623421 184.0
115.719757 136.0
115.766869 164.0
115.792564 100.0
115.912537 208.0
115.942543 228.0
115.9897 148.0
116.102921 144.0
116.167686 236.0
116.281418 56.0
116.382317 192.0
116.493935 132.0
116.532677 160.0
116.560608 260.0
116.575653 68.0
116.600525 204.0
116.827225 176.0
116.997246 124.0
117.038536 208.0
117.059044 360.0
117.188942 196.0
117.279457 92.0
117.335503 176.0
117.378632 120.0
117.469307 188.0
117.501579 168.0
117.520996 228.0
117.659134 136.0
117.978889 172.0
118.06971 176.0
118.184364 192.0
118.236298 288.0
118.301239 156.0
118.403008 196.0
118.543831 212.0
118.734711 184.0
118.797516 212.0
118.86261 180.0
118.936401 220.0
118.953773 160.0
118.975479 228.0
119.048233 600.0
119.107948 196.0
119.127502 180.0
119.213455 168.0
119.22963 164.0
119.244843 196.0
119.318756 148.0
119.396286 208.0
119.486229 64.0
119.508453 204.0
119.60157 56.0
119.622986 124.0
119.649033 204.0
119.675461 208.0
119.806274 232.0
119.830238 128.0
119.920876 208.0
119.969727 120.0
120.043861 208.0
120.224937 108.0
120.288231 132.0
120.395226 204.0
120.417847 132.0
120.462936 136.0
120.512489 188.0
120.639954 160.0
120.867424 176.0
120.889313 136.0
120.915573 164.0
120.959618 196.0
121.003136 184.0
121.049118 32.0
121.077591 136.0
121.143303 192.0
121.167404 184.0
121.345253 84.0
121.429802 160.0
121.511627 88.0
121.546188 160.0
121.592827 124.0
121.622032 208.0
121.66526 120.0
121.711372 104.0
121.884911 52.0
121.915672 156.0
122.007996 180.0
122.059196 348.0
122.181747 188.0
122.223549 184.0
122.282974 200.0
122.315987 212.0
122.365646 196.0
122.408463 128.0
122.479225 248.0
122.507584 104.0
122.602333 44.0
122.699318 164.0
122.727982 216.0
122.769882 148.0
122.911072 128.0
122.937553 196.0
123.034386 152.0
123.074417 164.0
123.096504 156.0
123.118912 136.0
123.301964 136.0
123.348381 188.0
123.379333 208.0
123.430183 176.0
123.483261 200.0
123.582817 144.0
123.634514 188.0
123.666916 228.0
123.702988 176.0
123.724472 72.0
123.757683 176.0
123.782036 116.0
123.83519 112.0
123.908295 120.0
123.976486 176.0
124.038094 880.0
124.174316 184.0
124.318527 80.0
124.334061 112.0
124.39621 188.0
124.421486 228.0
124.460602 64.0
124.498352 128.0
124.522781 164.0
124.573875 176.0
124.609421 84.0
124.631638 60.0
124.891418 156.0
124.982971 148.0
125.01413 136.0
125.04306 368.0
125.141014 72.0
125.156601 160.0
125.216728 212.0
125.236778 60.0
125.259048 116.0
125.345947 192.0
125.397202 184.0
125.439552 120.0
125.555504 164.0
125.586731 180.0
125.625435 148.0
125.689354 104.0
125.771935 160.0
125.82328 160.0
125.959511 320.0
125.98632 148.0
126.022614 244.0
126.054344 300.0
126.129341 180.0
126.174057 156.0
126.31942 160.0
126.344032 172.0
126.422348 96.0
126.525314 172.0
126.652962 160.0
126.711212 160.0
126.877068 132.0
126.980217 176.0
127.022079 184.0
127.063217 132.0
127.17318 168.0
127.271965 200.0
127.330353 184.0
127.382011 136.0
127.420204 180.0
127.456161 128.0
127.752953 64.0
127.812515 160.0
127.914978 140.0
127.952805 100.0
127.971542 228.0
128.043411 208.0
128.061615 164.0
128.164978 184.0
128.338547 108.0
128.386917 188.0
128.445404 212.0
128.454926 80.0
128.461136 180.0
128.48967 96.0
128.530289 232.0
128.573166 160.0
128.717651 196.0
128.7854 32.0
128.8116 308.0
129.054337 180.0
129.097305 100.0
129.199097 176.0
129.266968 172.0
129.29866 180.0
129.516022 48.0
129.552505 176.0
129.595322 192.0
129.622452 176.0
129.7892 172.0
129.822006 84.0
129.846954 152.0
129.915009 188.0
130.01712 152.0
130.064514 172.0
130.081223 200.0
130.164673 148.0
130.382767 132.0
130.43277 140.0
130.512344 136.0
130.789917 216.0
130.827927 228.0
130.833969 160.0
130.841568 180.0
130.974365 176.0
130.997131 148.0
131.013092 96.0
131.075027 332.0
131.199966 104.0
131.250137 408.0
131.298019 80.0
131.371017 44.0
131.47142 168.0
131.491959 144.0
131.571854 64.0
131.660904 132.0
131.912247 148.0
132.019714 156.0
132.035721 132.0
132.063171 120.0
132.257675 128.0
132.282852 52.0
132.333221 116.0
132.477509 144.0
132.505005 120.0
132.537079 160.0
132.608124 152.0
132.805313 184.0
132.828262 136.0
132.846603 144.0
132.945282 188.0
133.149612 188.0
133.204727 180.0
133.282852 280.0
133.319626 156.0
133.437683 164.0
133.466751 76.0
133.524246 244.0
133.60936 176.0
133.705353 216.0
133.729019 124.0
133.764908 232.0
133.816498 188.0
133.931641 136.0
133.97081 172.0
133.989243 60.0
134.005371 64.0
134.057556 592.0
134.178238 128.0
134.26355 216.0
134.280243 152.0
134.344284 204.0
134.401962 100.0
134.471207 76.0
134.487366 156.0
134.568161 176.0
134.598175 100.0
134.617905 224.0
134.662399 208.0
134.727524 168.0
134.773743 224.0
134.819946 132.0
135.030075 2040.0
135.06572 312.0
135.090485 212.0
135.173782 184.0
135.19693 136.0
135.245529 64.0
135.276566 148.0
135.291824 164.0
135.324615 152.0
135.361298 168.0
135.444672 92.0
135.49321 228.0
135.501343 216.0
135.509216 112.0
135.516861 200.0
135.546616 168.0
135.616608 204.0
135.648178 156.0
135.707642 240.0
135.724136 180.0
135.762329 168.0
135.784683 180.0
135.813065 136.0
135.828873 172.0
135.87326 348.0
135.888412 188.0
135.933304 284.0
135.966812 328.0
135.984543 592.0
136.039352 160472.0
136.111832 104.0
136.151825 144.0
136.187225 136.0
136.211533 96.0
136.240143 96.0
136.255188 96.0
136.28685 108.0
136.31456 236.0
136.332428 244.0
136.376205 36.0
136.398773 204.0
136.421402 1696.0
136.453125 180.0
136.488815 104.0
136.555084 168.0
136.587128 88.0
136.609314 84.0
136.638443 168.0
136.665375 112.0
136.694061 208.0
136.709213 64.0
136.72522 88.0
136.740417 340.0
136.761292 176.0
136.800995 72.0
136.842575 96.0
136.852921 152.0
136.858749 88.0
136.896332 28.0
136.926605 44.0
136.960236 172.0
136.983734 84.0
137.007538 204.0
137.042084 15152.0
137.08905 80.0
137.135971 104.0
137.20285 80.0
137.273865 68.0
137.339111 164.0
137.367157 104.0
137.397491 56.0
137.466385 68.0
137.488495 88.0
137.525833 68.0
137.546844 48.0
137.581863 132.0
137.603577 80.0
137.649582 92.0
137.720993 208.0
137.83548 76.0
137.866837 84.0
137.883194 52.0
137.918015 188.0
137.929443 112.0
137.937698 164.0
137.957397 172.0
137.972778 164.0
138.000198 80.0
138.015366 156.0
138.044571 968.0
138.092026 128.0
138.131439 124.0
138.16098 76.0
138.203293 96.0
138.241135 356.0
138.25882 132.0
138.275772 80.0
138.311234 132.0
138.33699 64.0
138.601654 64.0
138.710999 80.0
138.734314 80.0
138.78215 108.0
138.807938 56.0
138.83374 64.0
138.858536 84.0
138.896103 116.0
138.971191 108.0
139.031967 196.0
139.051941 156.0
139.115311 152.0
139.246811 84.0
139.376022 176.0
139.502945 48.0
139.667557 92.0
140.033234 136.0
140.077148 52.0
140.103073 68.0
140.190247 120.0
140.223251 48.0
140.242096 124.0
140.283051 108.0
140.602585 120.0
140.810745 112.0
140.96904 168.0
141.018661 136.0
141.038559 180.0
141.087219 136.0
141.125046 176.0
141.155792 36.0
141.510727 112.0
141.567566 164.0
141.598358 168.0
141.650467 264.0
141.773682 80.0
141.887451 108.0
141.911163 164.0
142.611511 100.0
142.632904 180.0
142.71611 112.0
142.763672 72.0
142.942093 164.0
143.29451 180.0
143.358841 112.0
143.542404 164.0
143.59726 80.0
143.940918 208.0
144.000626 184.0
144.017349 116.0
144.148758 56.0
144.189392 80.0
144.332825 108.0
144.406967 36.0
144.485901 184.0
144.619919 76.0
144.636673 172.0
144.813858 224.0
144.93605 144.0
144.98877 104.0
145.02298 280.0
145.058289 148.0
145.137405 108.0
145.15419 60.0
145.341293 256.0
145.382095 148.0
145.448517 232.0
145.538132 160.0
145.665421 76.0
145.75589 128.0
145.785553 72.0
145.90094 160.0
145.985092 152.0
146.08725 144.0
146.204025 172.0
146.237717 116.0
146.384583 188.0
146.49057 128.0
146.543564 144.0
146.589355 80.0
146.632736 44.0
146.71228 144.0
146.777374 60.0
146.820786 44.0
146.967941 212.0
147.286636 92.0
147.586319 180.0
147.808868 252.0
147.971039 88.0
148.09108 140.0
148.281113 72.0
148.375656 156.0
148.540573 136.0
148.654602 168.0
148.705566 104.0
148.894958 124.0
149.043137 164.0
149.120911 176.0
149.142792 76.0
149.295959 88.0
149.507629 156.0
150.054382 176.0
150.253281 28.0
150.282562 216.0
150.385056 200.0
150.421677 268.0
150.458298 212.0
150.642548 188.0
150.722092 176.0
150.807617 188.0
150.904739 88.0
151.022797 56.0
151.068985 164.0
151.306671 148.0
151.429108 120.0
151.446259 76.0
151.581009 168.0
151.71582 208.0
151.782028 232.0
151.858047 88.0
151.907822 216.0
152.035782 236.0
152.069427 704.0
152.137802 68.0
152.548065 148.0
152.823532 212.0
152.939194 152.0
153.04129 312.0
153.069687 172.0
153.335754 180.0
153.7341 80.0
154.236694 136.0
154.276245 288.0
154.533463 116.0
154.681961 332.0
155.165054 92.0
155.527252 128.0
156.016647 188.0
156.153412 160.0
156.317612 268.0
156.337524 180.0
156.591476 160.0
156.721024 216.0
156.81572 92.0
156.917923 44.0
156.957825 128.0
157.015182 176.0
157.040131 220.0
157.134918 120.0
157.309616 104.0
157.342072 56.0
157.36705 124.0
157.402008 156.0
157.711807 112.0
157.851822 160.0
157.966873 80.0
158.019409 172.0
158.342331 164.0
158.46759 144.0
158.517715 144.0
158.633011 48.0
158.969391 176.0
159.079544 140.0
159.157379 148.0
159.217651 184.0
159.778214 44.0
160.050049 188.0
160.070206 172.0
160.128128 232.0
160.427994 212.0
160.735703 72.0
161.052673 140.0
161.071503 52.0
161.106873 160.0
161.187729 140.0
161.587234 148.0
162.010056 112.0
162.093658 188.0
162.565353 156.0
162.946243 124.0
163.030106 160.0
163.065689 64.0
163.538773 264.0
163.559143 152.0
163.597336 156.0
163.737381 164.0
163.839279 164.0
163.895325 108.0
164.022766 152.0
164.064041 216.0
164.105286 1016.0
164.688766 148.0
165.015869 224.0
165.038879 76.0
165.084915 44.0
165.123276 216.0
165.17955 144.0
165.274216 164.0
165.532761 180.0
165.59935 28.0
166.045334 184.0
166.119003 188.0
166.153061 88.0
166.205978 148.0
166.378922 196.0
166.471359 216.0
166.933929 72.0
167.041962 180.0
167.106277 136.0
167.256775 88.0
167.285889 208.0
167.448669 220.0
167.590363 168.0
167.659927 148.0
167.737259 236.0
167.920334 128.0
168.224823 196.0
168.390091 144.0
168.550262 140.0
169.015717 160.0
169.134766 212.0
169.2202 120.0
169.502548 152.0
169.567337 188.0
169.60318 116.0
169.831818 188.0
170.280853 168.0
170.348389 132.0
170.730484 76.0
170.799744 236.0
170.929764 152.0
171.131226 120.0
171.165085 176.0
171.321365 228.0
171.798447 116.0
171.850632 56.0
171.983734 28.0
172.153442 116.0
172.37027 192.0
172.503571 160.0
172.524475 148.0
172.974442 140.0
173.094879 128.0
173.22847 48.0
173.561325 172.0
173.637375 268.0
173.681961 88.0
173.758041 116.0
174.03627 240.0
174.206985 148.0
174.27005 56.0
174.45665 176.0
174.480316 220.0
174.535522 140.0
174.58812 180.0
174.961777 120.0
174.980209 176.0
175.069733 208.0
175.114517 192.0
175.164566 200.0
175.222519 128.0
175.275223 184.0
175.633774 132.0
175.831665 132.0
175.959702 296.0
175.997986 120.0
176.103622 52.0
176.333496 128.0
176.537079 124.0
176.679916 184.0
176.793686 172.0
176.841339 148.0
177.318085 116.0
177.402908 140.0
177.449036 192.0
177.591187 232.0
177.662811 112.0
177.739761 192.0
177.856537 80.0
177.909637 148.0
178.185852 176.0
178.30011 64.0
178.473892 140.0
178.481598 192.0
178.646606 232.0
178.712296 124.0
178.820328 128.0
178.8853 96.0
178.970505 92.0
179.057312 9432.0
179.129562 72.0
179.351471 204.0
179.431458 40.0
179.450119 196.0
179.506119 76.0
179.671646 196.0
179.74086 152.0
179.839615 152.0
179.860962 144.0
179.882324 96.0
179.960922 272.0
179.997772 232.0
180.020782 56.0
180.06427 15004.0
180.136017 124.0
180.189453 136.0
180.210831 56.0
180.344452 60.0
180.440689 112.0
180.510208 72.0
180.528931 96.0
180.547653 32.0
180.582413 80.0
180.768204 36.0
180.791107 68.0
180.820816 120.0
180.960205 48.0
181.0681 1604.0
181.10704 172.0
181.189072 188.0
181.264633 144.0
181.302643 88.0
181.353561 72.0
181.387833 224.0
181.428619 140.0
181.458115 32.0
181.476883 200.0
181.619019 36.0
181.675354 192.0
181.828308 40.0
181.871246 96.0
182.071548 168.0
182.105637 260.0
182.271698 116.0
182.556381 72.0
182.685486 200.0
182.747375 156.0
182.916931 36.0
183.124268 192.0
183.337112 124.0
183.374847 156.0
183.458405 148.0
183.579742 108.0
184.47348 152.0
184.51944 120.0
184.608673 240.0
184.635727 32.0
185.079544 148.0
185.195999 148.0
185.431732 144.0
185.532028 56.0
185.746262 140.0
185.76796 168.0
185.816803 140.0
185.898209 208.0
186.150681 96.0
186.240311 104.0
186.267471 104.0
186.411469 92.0
186.512039 116.0
186.705078 196.0
186.800278 152.0
186.833038 188.0
187.164993 140.0
187.292999 212.0
187.421051 200.0
187.510971 120.0
187.549133 180.0
187.750519 112.0
187.840912 80.0
188.034653 120.0
188.426392 184.0
188.799652 188.0
188.837936 48.0
188.889908 196.0
189.201889 192.0
189.590622 180.0
189.621002 144.0
189.645676 192.0
189.769043 188.0
190.002182 132.0
190.076263 152.0
190.12291 132.0
190.284866 84.0
190.309586 172.0
190.353516 80.0
190.446899 180.0
190.485352 72.0
190.570526 196.0
190.61998 176.0
190.677704 124.0
190.768417 188.0
190.826141 88.0
190.944397 124.0
190.969147 300.0
191.28656 184.0
191.303345 116.0
191.343658 132.0
191.40123 188.0
191.49762 104.0
191.525177 288.0
191.563736 268.0
191.586349 76.0
191.621597 136.0
191.668427 88.0
191.70932 124.0
191.766129 152.0
191.786942 300.0
191.821808 68.0
191.89595 332.0
191.927551 208.0
191.946854 144.0
192.005539 432.0
192.011932 60.0
192.060852 380.0
192.101807 129528.0
192.168701 92.0
192.21257 120.0
192.253647 52.0
192.290207 96.0
192.301361 108.0
192.342896 208.0
192.370468 172.0
192.398529 216.0
192.445068 180.0
192.482849 168.0
192.525345 148.0
192.555466 640.0
192.583008 84.0
192.611069 216.0
192.64415 104.0
192.679169 52.0
192.712555 88.0
192.762543 196.0
192.809311 88.0
192.844803 80.0
192.866013 52.0
192.897156 128.0
192.924286 76.0
192.949173 140.0
192.974045 120.0
193.020142 72.0
193.103867 11512.0
193.183395 168.0
193.246964 60.0
193.325363 132.0
193.373657 80.0
193.385941 36.0
193.39325 76.0
193.449921 144.0
193.472595 84.0
193.511108 40.0
193.566849 52.0
193.625854 112.0
193.674225 80.0
193.805588 124.0
193.909744 84.0
193.954559 48.0
194.056671 72.0
194.106812 1548.0
194.17868 116.0
194.200729 76.0
194.239716 48.0
194.259125 96.0
194.287521 68.0
194.308075 112.0
194.327911 76.0
194.354156 80.0
194.380722 184.0
194.421066 100.0
194.443192 88.0
194.472061 100.0
194.479614 112.0
194.521912 140.0
194.537643 232.0
194.563171 144.0
194.635941 88.0
194.654205 236.0
194.689819 120.0
194.725464 72.0
194.767136 96.0
194.829895 168.0
194.950516 64.0
195.028336 28.0
195.050568 60.0
195.111725 328.0
195.203491 196.0
195.350403 132.0
195.371414 108.0
195.459412 48.0
195.54718 164.0
195.676529 72.0
195.857544 168.0
195.890793 124.0
195.98291 48.0
196.026489 88.0
196.090607 180.0
196.417847 160.0
196.437378 108.0
197.384201 72.0
197.577209 60.0
197.652756 68.0
198.187592 88.0
199.166718 80.0
199.478638 48.0
201.304443 64.0
201.651627 36.0
202.104431 132.0
202.152542 148.0
202.342194 72.0
203.237869 104.0
203.82283 144.0
204.033157 208.0
204.280579 108.0
204.34317 96.0
205.029449 68.0
205.611267 68.0
205.645523 56.0
205.956757 84.0
206.554199 196.0
206.857529 152.0
206.969193 164.0
207.143906 72.0
207.244171 68.0
207.398941 44.0
207.981232 128.0
208.41777 52.0
208.981354 112.0
209.185699 108.0
209.611969 44.0
209.663849 84.0
209.949265 180.0
210.125107 192.0
210.367661 112.0
210.564011 76.0
211.298813 168.0
211.338776 64.0
211.778824 44.0
214.982849 108.0
216.005508 188.0
217.36499 64.0
217.862259 232.0
218.593338 124.0
218.663971 92.0
218.94368 72.0
219.017303 48.0
219.085068 112.0
219.831055 208.0
220.067215 144.0
220.664062 76.0
221.931335 64.0
222.299179 76.0
222.426804 292.0
223.163589 188.0
224.858658 68.0
226.329514 68.0
227.267731 160.0
227.823181 92.0
228.207901 136.0
228.523727 124.0
229.047562 52.0
229.162048 120.0
229.484573 88.0
232.048584 140.0
232.282501 156.0
232.482361 76.0
232.764694 128.0
233.135315 144.0
233.554901 120.0
233.725266 192.0
233.85614 112.0
234.517105 92.0
234.546677 80.0
234.745773 48.0
234.91658 96.0
234.95929 52.0
235.069138 76.0
235.130173 160.0
235.154587 80.0
235.227844 116.0
235.438538 172.0
235.562698 148.0
235.734863 184.0
235.814331 120.0
235.942719 156.0
235.976898 176.0
236.0616 164.0
236.127441 30052.0
236.19043 68.0
236.211853 64.0
236.317398 56.0
236.386246 132.0
236.422974 68.0
236.468887 76.0
236.52092 40.0
236.560715 36.0
236.620575 36.0
236.683182 84.0
236.756683 52.0
236.808746 148.0
236.876343 60.0
236.919022 52.0
236.968048 144.0
237.130112 2928.0
237.223785 72.0
237.424805 32.0
237.679428 84.0
237.733322 64.0
237.83287 48.0
238.132828 760.0
238.204437 52.0
238.315033 52.0
238.408615 88.0
238.437958 80.0
238.478989 120.0
238.656235 76.0
238.74234 92.0
238.785782 96.0
238.809998 136.0
238.831528 88.0
238.880234 48.0
238.903473 72.0
238.960739 196.0
240.285614 56.0
240.828934 68.0
241.641983 48.0
242.131088 68.0
242.617599 64.0
244.341309 76.0
244.901657 124.0
246.105453 56.0
247.080643 176.0
247.678574 104.0
247.791367 96.0
247.850891 80.0
248.578415 80.0
248.8358 136.0
248.961411 92.0
249.332138 52.0
251.161499 140.0
252.541855 72.0
252.652588 56.0
255.816681 64.0
257.89975 84.0
258.53302 72.0
259.099792 116.0
259.211945 88.0
261.196136 160.0
263.246033 120.0
266.361877 56.0
267.750763 136.0
267.84198 56.0
271.148682 72.0
271.515869 80.0
276.75238 96.0
277.209503 36.0
279.707184 40.0
280.7901 80.0
280.960236 124.0
281.133759 40.0
282.778107 148.0
284.333252 60.0
285.45871 44.0
292.639374 88.0
295.215729 56.0
295.345703 40.0
306.309509 96.0
308.179535 64.0
309.123657 144.0
312.196838 80.0
312.478241 76.0
314.787079 128.0
315.988892 72.0
317.703674 44.0
318.374542 80.0
318.882629 108.0
324.784973 64.0
328.11145 100.0
333.814514 84.0
334.727905 112.0
340.954529 84.0
343.262787 116.0
346.593445 104.0
347.342377 124.0
355.423676 68.0
363.863647 88.0
365.486633 68.0
372.225983 56.0
372.429535 32.0
373.709747 48.0
375.477936 56.0
377.165283 52.0
390.53653 96.0
392.154846 112.0
393.69751 56.0
396.617493 100.0
397.037781 64.0
409.367249 80.0
411.863861 128.0
414.680084 84.0
421.088409 68.0
424.39917 56.0
425.387939 60.0
429.082367 64.0
431.274475 84.0
441.080505 80.0
450.248901 56.0
452.041412 52.0
467.322632 104.0
470.909393 116.0
472.980591 72.0
487.162415 120.0
488.49884 136.0
516.358032 96.0
519.05719 116.0
524.285156 76.0
527.105469 36.0
532.318665 128.0
547.832458 120.0
554.922546 108.0
561.737305 60.0
571.306946 44.0
574.498901 68.0
604.932922 132.0
622.640259 92.0
630.352295 52.0
634.075745 164.0
634.787659 36.0
638.871277 92.0
654.608093 52.0
687.010925 176.0
697.300659 52.0
705.603333 204.0
710.651001 140.0
715.791138 156.0
719.966858 116.0
734.529053 244.0
735.975464 104.0
737.823303 164.0
742.230774 32.0
747.010376 112.0
762.81488 232.0
777.474548 252.0
781.297546 188.0
783.084412 104.0
784.193237 64.0
788.150024 108.0
789.240051 180.0
794.258179 40.0
797.734253 240.0
800.772888 44.0
802.029419 204.0
814.256897 152.0
814.824951 56.0
824.346619 128.0
825.970398 188.0
830.61615 172.0
833.130615 212.0
835.976868 132.0
836.097717 180.0
836.333679 204.0
841.031494 172.0
841.412537 108.0
842.972107 176.0
844.920715 156.0
845.071167 160.0
849.874695 204.0
852.174072 140.0
856.863647 168.0
858.530823 260.0
862.998108 196.0
869.483032 164.0
873.172791 168.0
873.43158 184.0
875.326721 204.0
876.404724 136.0
877.872559 80.0
887.309937 132.0
888.780945 40.0
894.885498 212.0
899.076172 116.0
901.853516 48.0
907.397034 148.0
907.756836 140.0
908.128662 168.0
908.518616 196.0
908.680603 180.0
912.795227 232.0
915.424988 164.0
917.16626 136.0
917.521912 188.0
917.744995 72.0
919.512573 140.0
922.03717 164.0
922.369629 72.0
923.990417 212.0
924.898193 220.0
925.776123 60.0
933.002991 104.0
933.562378 124.0
934.553955 144.0
936.465576 96.0
937.135681 148.0
939.330505 44.0
940.184753 216.0
940.868408 152.0
941.442383 152.0
942.095947 176.0
946.009949 188.0
947.081604 124.0
950.177429 160.0
950.496521 168.0
951.435608 148.0
953.198486 164.0
955.522766 148.0
962.839905 96.0
962.907837 176.0
964.557678 152.0
964.712219 100.0
964.780212 184.0
965.367615 156.0
970.619019 188.0
971.785156 244.0
972.449158 104.0
978.174133 152.0
978.329773 100.0
978.56012 180.0
979.027161 64.0
979.880554 92.0
979.97406 172.0
983.984558 132.0
985.158752 132.0
992.318665 172.0
992.8078 164.0
993.202942 260.0
994.250732 176.0
996.052795 192.0
997.806213 144.0
998.529358 128.0
1000.794922 140.0
1001.103455 132.0
1001.487671 108.0
1004.040344 100.0
1006.375244 204.0
1006.545776 196.0
1007.783813 148.0
1009.496887 196.0
1012.02179 192.0
1015.469299 128.0
1016.915955 96.0
1017.722229 112.0
1018.827332 196.0
1021.471985 64.0
1023.572327 180.0
1024.234741 172.0
1024.648804 144.0
1025.846924 52.0
1026.386475 240.0
1027.358398 164.0
1028.275757 176.0
1029.043335 164.0
1029.656372 228.0
1029.950195 172.0
1033.453735 108.0
1036.463257 168.0
1037.168213 196.0
1037.629883 144.0
1040.240967 192.0
1041.512451 184.0
1041.962158 168.0
1042.559692 108.0
1042.977539 232.0
1043.479004 196.0
1044.212036 188.0
1044.919678 180.0
1045.711182 180.0
1045.96875 156.0
1046.8573 200.0
1047.147095 176.0
1049.537964 116.0
1050.731201 60.0
1052.964844 176.0
1053.759399 108.0
1053.953247 196.0
1055.524048 140.0
1057.60083 152.0
1059.601929 144.0
1060.411987 220.0
1061.87085 196.0
1062.032959 156.0
1062.766113 176.0
1067.625244 80.0
1067.878784 160.0
1068.640015 212.0
1069.147583 136.0
1069.297241 116.0
1073.408203 140.0
1074.438721 220.0
1075.580811 128.0
1076.455688 208.0
1076.762695 132.0
1077.089233 144.0
1078.579102 176.0
1078.775269 128.0
1079.533691 204.0
1080.279419 156.0
1081.064575 160.0
1081.974365 108.0
1082.706299 188.0
1082.86499 220.0
1083.651123 100.0
1083.926392 44.0
1087.822388 148.0
1088.984619 156.0
1089.720337 196.0
1090.265869 204.0
1090.692993 116.0
1091.863403 224.0
1093.205566 156.0
1093.34375 164.0
1095.378418 148.0
1096.841309 200.0
1097.619263 132.0
1097.737915 176.0
1097.988647 176.0
1098.173218 212.0
1098.404175 180.0
1100.938721 160.0
1101.936157 148.0
1102.312866 196.0
1103.410034 196.0
1103.48938 204.0
1104.547607 168.0
1104.660034 184.0
1104.931274 204.0
1105.540039 124.0
1106.06958 168.0
1106.248291 148.0
1106.374146 156.0
1106.559448 48.0
1107.93042 308.0
1109.017212 160.0
1109.30896 140.0
1109.753174 156.0
1110.675049 188.0
1110.774536 196.0
1111.298584 196.0
1112.639404 184.0
1113.708496 196.0
1114.778198 148.0
1115.502686 152.0
1115.742065 128.0
1117.112061 160.0
1119.39502 156.0
1119.474976 160.0
1120.506348 176.0
1120.787354 204.0
1121.060547 180.0
1123.040649 132.0
1123.874634 128.0
1123.947998 116.0
1124.161621 192.0
1124.521973 212.0
1124.708862 160.0
1124.862427 156.0
1124.975952 192.0
1125.710327 184.0
1127.139893 176.0
1127.574341 160.0
1128.035522 60.0
1128.189331 228.0
1128.650635 184.0
1131.106079 148.0
1131.902832 144.0
1132.355713 228.0
1134.355103 40.0
1134.717041 196.0
1134.770752 136.0
1135.14624 152.0
1137.494629 180.0
1138.166016 240.0
1138.354004 92.0
1138.864502 200.0
1140.517456 208.0
1141.875732 124.0
1142.460938 156.0
1142.992432 280.0
1143.214478 148.0
1143.382812 232.0
1145.025635 128.0
1147.512207 232.0
1147.613403 56.0
1147.910034 176.0
1149.252441 200.0
1149.321655 172.0
1150.352539 168.0
1152.797607 228.0
1153.067993 172.0
1156.050537 140.0
1156.646118 160.0
1158.034302 252.0
1158.198608 240.0
1159.633301 64.0
1160.040039 132.0
1160.406128 84.0
1162.549683 156.0
1162.814453 148.0
1163.371094 180.0
1163.778442 184.0
1164.022827 76.0
1166.054199 156.0
1166.638794 48.0
1169.033081 116.0
1169.10791 108.0
1169.720581 184.0
1170.523926 232.0
1171.531982 180.0
1171.779907 200.0
1172.036255 164.0
1172.138428 188.0
1172.424683 172.0
1173.0177 188.0
1173.488037 76.0
1174.217773 164.0
1175.384399 92.0
1175.671021 120.0
1175.759766 112.0
1176.060059 232.0
1177.200195 144.0
1177.814941 184.0
1178.563843 220.0
1179.078979 140.0
1179.41394 144.0
1179.543823 128.0
1180.993408 80.0
1181.273926 160.0
1181.335449 240.0
1181.889648 136.0
1182.245605 204.0
1184.032471 172.0
1184.27417 200.0
1185.423218 220.0
1185.882446 136.0
1186.012573 164.0
1187.747437 164.0
1188.577637 152.0
1189.023682 188.0
1189.181641 152.0
1190.898193 136.0
1191.049316 144.0
1191.15918 208.0
1191.406494 176.0
1193.564697 124.0
1194.630859 164.0
1194.968018 108.0
1195.146851 124.0
1198.720825 188.0
1198.92749 192.0
1199.637451 176.0
1200.554565 180.0
1201.030518 160.0
1201.216675 240.0
1202.686523 168.0
1203.383789 92.0
1203.853394 136.0
1203.929321 204.0
1204.433594 200.0
1205.12439 280.0
1206.824829 164.0
1207.115234 180.0
1208.934692 124.0
1209.301514 164.0
1210.312256 172.0
1211.183105 88.0
1211.3927 136.0
1211.496704 212.0
1212.362793 188.0
1212.515259 76.0
1213.152954 124.0
1213.464966 168.0
1214.345703 136.0
1215.317017 128.0
1217.337036 180.0
1217.628662 196.0
1217.725952 188.0
1218.33728 96.0
1218.59436 168.0
1219.497803 172.0
1221.31958 168.0
1221.458618 180.0
1221.542114 100.0
1222.495361 156.0
1222.578857 104.0
1224.208008 60.0
1224.291504 136.0
1225.796265 164.0
1226.130859 64.0
1226.409668 124.0
1226.813965 144.0
1227.071899 52.0
1228.9552 116.0
1229.004028 60.0
1229.387817 180.0
1230.428589 192.0
1230.609375 216.0
1231.468384 160.0
1232.712036 168.0
1232.949585 168.0
1233.005493 92.0
1233.775635 124.0
1233.822632 180.0
1234.054199 68.0
1234.477539 196.0
1235.229126 100.0
1235.453003 128.0
1235.508911 144.0
1236.075684 188.0
1237.580688 144.0
1238.36499 164.0
1238.7854 132.0
1240.046631 224.0
1240.130737 188.0
1240.235962 212.0
1240.29895 168.0
1240.56543 140.0
1240.915894 84.0
1241.084229 76.0
1242.332642 168.0
1242.388794 80.0
1245.737549 204.0
1245.885132 176.0
1246.714233 148.0
1247.058594 200.0
1247.410156 164.0
1248.092041 172.0
1248.141357 120.0
1248.281982 164.0
1248.886841 132.0
1249.196289 192.0
1250.477051 84.0
1250.786743 224.0
1250.835938 184.0
1252.751465 208.0
1252.843018 136.0
1253.026245 108.0
1253.540649 180.0
1253.82251 136.0
1255.451172 104.0
1257.800659 76.0
1257.857178 216.0
1258.068115 204.0
1258.196045 160.0
1260.428101 192.0
1260.844971 216.0
1261.424683 204.0
1261.975464 232.0
1262.181152 32.0
1263.447266 144.0
1263.624146 204.0
1263.822266 96.0
1264.473267 88.0
1264.92627 204.0
1265.074951 168.0
1266.795898 204.0
1267.065063 172.0
1267.554077 176.0
1269.106445 164.0
1269.375854 208.0
1269.61792 188.0
1269.680786 156.0
1269.943237 204.0
1270.042603 204.0
1270.326294 184.0
1270.794556 192.0
1271.29126 84.0
1271.901733 96.0
1271.998779 160.0
1272.235352 184.0
1272.547729 148.0
1272.87439 152.0
1272.987305 200.0
1273.229492 92.0
1275.19043 92.0
1275.439209 92.0
1275.545898 172.0
1277.152954 88.0
1277.515747 256.0
1278.29126 160.0
1278.88208 128.0
1279.423096 212.0
1279.50769 176.0
1280.199219 136.0
1280.555298 236.0
1281.410156 200.0
1281.94458 260.0
1282.046631 148.0
1282.151245 56.0
1282.279541 176.0
1283.277588 248.0
1283.983643 172.0
1284.290283 124.0
1284.661255 148.0
1286.145508 140.0
1286.331177 176.0
1287.977539 196.0
1288.037842 232.0
1288.373657 88.0
1288.759521 168.0
1289.466919 168.0
1289.817261 116.0
1290.289062 128.0
1290.432007 196.0
1291.390381 176.0
1292.377563 172.0
1292.663818 116.0
1293.207764 104.0
1294.825928 124.0
1295.41333 120.0
1296.2229 232.0
1297.040039 108.0
1297.520264 124.0
1298.502808 128.0
1298.581665 208.0
1298.875732 204.0
1299.069458 188.0
1300.016602 192.0
1300.526123 96.0
1300.971191 124.0
1301.315796 164.0
1301.437866 164.0
1302.290894 152.0
1302.472168 256.0
1302.622925 200.0
1302.831299 208.0
1304.045776 152.0
1304.225464 108.0
1304.477051 280.0
1304.592041 128.0
1304.721436 200.0
1305.217651 208.0
1305.713867 84.0
1305.800171 188.0
1306.670532 180.0
1306.828857 152.0
1306.994385 192.0
1307.116699 220.0
1308.095581 116.0
1308.556641 228.0
1308.959595 128.0
1309.139648 176.0
1309.456543 168.0
1309.960693 164.0
1310.292114 184.0
1310.919067 160.0
1311.106445 124.0
1311.870483 152.0
1311.978638 168.0
1312.086792 140.0
1312.771729 132.0
1313.11792 188.0
1313.980347 108.0
1314.257812 152.0
1314.950562 132.0
1315.376465 124.0
1315.860229 184.0
1316.105713 164.0
1316.640137 184.0
1316.784546 212.0
1318.236694 168.0
1318.626953 160.0
1320.883057 140.0
1321.013184 172.0
1321.18689 136.0
1321.548584 124.0
1322.127563 176.0
1323.133667 208.0
1323.42334 224.0
1323.995483 136.0
1325.697998 52.0
1326.002319 200.0
1326.538696 164.0
1326.950806 196.0
1327.184082 160.0
1327.452271 112.0
1327.546631 156.0
1327.83667 152.0
1327.938232 120.0
1328.518555 40.0
1328.823242 192.0
1328.917969 172.0
1328.978638 168.0
1329.186157 148.0
1329.85376 188.0
1330.035278 148.0
1330.376465 140.0
1330.57251 200.0
1331.044434 192.0
1331.262329 116.0
1331.574585 172.0
1332.155762 172.0
1332.417236 228.0
1333.296509 204.0
1333.550903 240.0
1334.546875 184.0
1334.830444 176.0
1335.412354 176.0
1336.2323 180.0
1336.372559 152.0
1336.452637 256.0
1336.794678 220.0
1336.855347 152.0
1337.486084 192.0
1338.192261 124.0
1338.97876 152.0
1339.784058 108.0
1340.020508 204.0
1340.140869 144.0
1340.370239 144.0
1340.421265 180.0
1341.20105 124.0
1341.302612 156.0
1341.376099 208.0
1341.572876 208.0
1342.185303 136.0
1342.411377 136.0
1342.5354 100.0
1343.293945 172.0
1343.644165 64.0
1345.132935 152.0
1346.147827 180.0
1346.483765 144.0
1346.615234 180.0
1346.870972 140.0
1347.161255 136.0
1347.280029 64.0
1347.477295 116.0
1347.638062 84.0
1348.113037 224.0
1348.244629 220.0
1348.558838 160.0
1350.233398 172.0
1351.425659 168.0
1351.790527 144.0
1351.893921 128.0
1352.237915 132.0
1352.940674 112.0
1353.218872 168.0
1353.42395 80.0
1353.526489 176.0
1353.782715 172.0
1355.80481 160.0
1355.856079 68.0
1356.024658 72.0
1356.706421 144.0
1357.168335 200.0
1358.56189 172.0
1358.921387 108.0
1359.559814 144.0
1359.780029 156.0
1359.970825 160.0
1360.066284 160.0
1360.528809 148.0
1361.358521 156.0
1361.53479 152.0
1361.755127 100.0
1361.806519 144.0
1362.313354 160.0
1363.408203 256.0
1363.885986 228.0
1364.165283 160.0
1364.929932 128.0
1365.150635 212.0
1366.835205 160.0
1368.844849 180.0
1369.316284 136.0
1369.979248 168.0
1370.605469 116.0
1371.136108 76.0
1371.202026 204.0
1373.236694 232.0
1373.488159 84.0
1373.919556 236.0
1374.262817 72.0
1374.543213 176.0
1374.653931 184.0
1376.108154 136.0
1376.366577 164.0
1376.898315 48.0
1376.979614 228.0
1377.097778 192.0
1378.006348 80.0
1378.523682 160.0
1379.078003 180.0
1379.22583 172.0
1379.51416 156.0
1379.950317 124.0
1380.490112 60.0
1380.985596 160.0
1381.362915 64.0
1381.651489 160.0
1381.784668 148.0
1382.807129 180.0
1383.116699 172.0
1383.871826 192.0
1384.071777 460.0
1385.086426 252.0
1385.190186 64.0
1385.76062 144.0
1386.03479 120.0
1386.887085 160.0
1386.976074 140.0
1387.083008 196.0
1387.494995 240.0
1387.613647 152.0
1387.865723 132.0
1388.110474 20.0
1388.533203 128.0
1388.681519 192.0
1389.117432 184.0
1390.566162 320.0
1390.722046 44.0
1391.575073 172.0
1394.369019 152.0
1394.985962 156.0
1395.722046 188.0
1395.903809 176.0
1396.212769 172.0
1396.294678 164.0
1398.288574 132.0
1398.712891 80.0
1399.266724 316.0
1399.61377 148.0
1400.336182 92.0
1400.693726 144.0
1401.24939 140.0
1401.356812 124.0
1401.945435 204.0
1402.221191 140.0
1402.735596 148.0
1403.247803 216.0
1404.150269 204.0
1405.077271 152.0
1405.204102 136.0
1406.696777 136.0
1407.20874 140.0
1407.338867 60.0
1407.480713 176.0
1407.55542 112.0
1407.749634 80.0
1408.063232 136.0
1408.459106 200.0
1408.705688 148.0
1409.132935 184.0
1410.035767 124.0
1410.194458 84.0
1410.267456 148.0
1410.566284 204.0
1411.598267 208.0
1411.717896 128.0
1411.815063 104.0
1412.433594 176.0
1412.630371 124.0
1413.184082 168.0
1413.82019 112.0
1415.010376 184.0
1415.070312 176.0
1416.830322 208.0
1416.942749 100.0
1417.931885 168.0
1418.164307 132.0
1418.749023 200.0
1419.101318 112.0
1419.89624 164.0
1420.188843 144.0
1420.511353 120.0
1421.156616 168.0
1421.494263 184.0
1421.651855 92.0
1421.764404 200.0
1421.974609 140.0
1422.342407 152.0
1423.273315 160.0
1423.333496 104.0
1423.896729 156.0
1424.039429 96.0
1424.970947 204.0
1425.151245 212.0
1427.368774 140.0
1428.480591 140.0
1428.880615 176.0
1429.086426 104.0
1429.850098 144.0
1431.364624 104.0
1432.057495 188.0
1432.253296 208.0
1432.336182 136.0
1432.908813 184.0
1433.030396 192.0
1433.134766 176.0
1434.076904 144.0
1434.7677 260.0
1434.823975 208.0
1434.981445 124.0
1436.012451 152.0
1436.214722 188.0
1437.085938 188.0
1437.817871 148.0
1437.961304 48.0
1438.082031 180.0
1438.338745 240.0
1438.532104 180.0
1438.686035 132.0
1439.675171 188.0
1439.87146 156.0
1440.098145 64.0
1440.959351 140.0
1441.510986 228.0
1441.956787 200.0
1442.516235 136.0
1442.644653 200.0
1443.060547 168.0
1443.340332 192.0
1443.461304 180.0
1443.536987 140.0
1443.854614 124.0
1444.452148 168.0
1445.910156 180.0
1446.843628 116.0
1447.032837 124.0
1447.244873 84.0
1447.297852 164.0
1447.429932 220.0
1447.562866 156.0
1448.047607 272.0
1448.22937 148.0
1448.615723 76.0
1448.676392 140.0
1448.971802 100.0
1449.040039 164.0
1449.282471 244.0
1450.502686 192.0
1451.624878 72.0
1452.246704 260.0
1452.49707 172.0
1452.944702 160.0
1453.322021 176.0
1453.566772 216.0
1454.181641 128.0
1454.325806 100.0
1454.993896 180.0
1455.199463 260.0
1455.411499 116.0
1455.851929 156.0
1456.057007 144.0
1456.178467 196.0
1456.315186 136.0
1456.48999 176.0
1456.695068 168.0
1456.869751 164.0
1457.074951 164.0
1457.34082 184.0
1457.469971 164.0
1458.37439 200.0
1458.65564 192.0
1460.206909 220.0
1460.708862 164.0
1460.959961 168.0
1461.203369 60.0
1461.401245 244.0
1461.697998 168.0
1461.865356 128.0
1461.932617 148.0
1462.413452 64.0
1462.557983 148.0
1462.664551 68.0
1463.395508 156.0
1463.456421 152.0
1463.524902 164.0
1463.593384 136.0
1463.898071 144.0
1464.210327 152.0
1464.385498 56.0
1464.850098 60.0
1464.972046 68.0
1466.168335 192.0
1466.252197 220.0
1466.694214 72.0
1466.755249 116.0
1466.808594 180.0
1467.304199 172.0
1467.456665 184.0
1467.677734 188.0
1468.638672 92.0
1469.104004 144.0
1469.187988 144.0
1469.393921 180.0
1469.737305 140.0
1470.012085 128.0
1470.164673 140.0
1470.3479 72.0
1470.752441 168.0
1470.950806 188.0
1471.697754 164.0
1471.928101 224.0
1472.798828 76.0
1472.852295 132.0
1473.249512 180.0
1473.585693 36.0
1473.700317 136.0
1473.799683 128.0
1473.967773 208.0
1474.418701 248.0
1474.85437 220.0
1474.968994 204.0
1475.381836 152.0
1476.329956 156.0
1476.635864 160.0
1476.697144 60.0
1477.217285 176.0
1477.439087 184.0
1477.50708 176.0
1477.951782 136.0
1478.074219 148.0
1478.196655 164.0
1478.577026 148.0
1478.640503 192.0
1478.755371 160.0
1479.204102 140.0
1479.582031 176.0
1480.738403 156.0
1480.914551 272.0
1481.121338 204.0
1481.581055 140.0
1481.672974 156.0
1481.833862 192.0
1482.109741 140.0
1482.408569 220.0
1482.906738 164.0
1482.965454 176.0
1483.159668 164.0
1483.320679 128.0
1485.564087 168.0
1485.974243 200.0
1486.373291 128.0
1486.491943 256.0
1486.649536 164.0
1486.856689 92.0
1487.372192 184.0
1488.35376 156.0
1488.829834 92.0
1488.906616 200.0
1489.352173 96.0
1489.498047 120.0
1489.605591 152.0
1489.705566 204.0
1490.128052 216.0
1490.343262 184.0
1490.458496 196.0
1491.42688 124.0
1491.657471 144.0
1491.726685 176.0
1491.86499 204.0
1491.949585 160.0
1492.234131 144.0
1493.105957 180.0
1493.533813 172.0
1493.926147 128.0
1494.033447 156.0
1494.364624 248.0
1494.426147 260.0
1494.61084 140.0
1494.826294 176.0
1495.411255 120.0
1495.488281 180.0
1495.649902 112.0
1495.773071 128.0
1495.849976 232.0
1496.119507 216.0
1496.350464 164.0
1496.511719 204.0
1497.082031 172.0
1497.235962 140.0
1497.470215 248.0
1497.567261 160.0
1497.69043 68.0
1498.098755 144.0
1498.39917 148.0
1498.661133 172.0
1498.761353 188.0
1499.1698 160.0
1500.295166 136.0
1500.580444 176.0
1501.428711 232.0
1501.559814 180.0
1501.829712 168.0
1502.747803 128.0
1504.144775 164.0
1504.36084 204.0
1505.225586 76.0
