>compound MLS001049137-01!(E)-1-(2,4-dimethoxyphenyl)-3-(4-methoxyphenyl)prop-2-en-1-one
>formula C18H18O4
>ionization [M+H]+
>parentmass 299.127014
#inchi InChI=1S/C18H18O4/c1-20-14-7-4-13(5-8-14)6-11-17(19)16-10-9-15(21-2)12-18(16)22-3/h4-12H,1-3H3/b11-6+
#inchikey HVAKUYCEWDPRCA
#Ion_Source LC-ESI
#Instrument qTof
#Compound_Source NIH Natural Product Library
#PI Dorrestein
#Data_Collector VVP/LMS
#Scan -1
#Precursor_MZ 299.128
#ExactMass 298.121
#Charge 1
#CAS_Number N/A
#Pubmed_ID N/A
#Smiles COc1ccc(/C=C/C(=O)c2ccc(OC)cc2OC)cc1
#INCHI_AUX N/A
#Library_Class 1
#SpectrumID CCMSLIB00000080045
#IonMode Positive
#UpdateWorkflowName UPDATE-SINGLE-ANNOTATED-GOLD
#LibraryQualityString Gold
#TaskID b1d8e8f6646f4e71acdff9ca3d919d08
##Scan# 2341
#SpectrumFile p2-D03_GD3_01_18015.mzXML
#LibraryName NIH_Natural_Products_Library.mgf
#MQScore -1
#Organism NIH_Natural_Products_Library
#TIC_Query 0
#RT_Query -1
#MZErrorPPM -1
#SharedPeaks 0
#MassDiff 0
#LibMZ -1
#SpecMZ 299.128
#SpecCharge 0
#internalFilename spec-00000.mgf

>collision 10
94.951546 104.0
95.000038 172.0
95.318443 148.0
95.458405 132.0
95.584839 168.0
95.761993 216.0
95.908119 120.0
96.042664 160.0
96.10704 180.0
96.26339 176.0
96.370621 160.0
96.663918 132.0
97.275406 64.0
97.314667 92.0
97.410896 168.0
97.493416 48.0
97.88488 112.0
97.898666 156.0
98.227806 188.0
98.423187 156.0
98.683998 84.0
99.03228 52.0
99.490334 136.0
99.748573 164.0
99.774414 160.0
99.796288 168.0
99.869865 152.0
100.467453 140.0
100.80088 128.0
100.890816 144.0
101.15287 208.0
101.565643 180.0
101.804474 172.0
101.858704 144.0
101.884819 88.0
102.017456 172.0
102.049622 248.0
102.303108 196.0
102.532722 196.0
102.546837 176.0
102.655701 136.0
102.685951 120.0
102.744446 168.0
102.853416 172.0
102.875618 176.0
103.055946 228.0
103.42543 96.0
103.676575 120.0
103.83876 56.0
103.885406 156.0
103.990921 172.0
104.033546 40.0
104.056053 212.0
104.198044 164.0
104.317947 180.0
104.971489 188.0
105.035515 608.0
105.072838 312.0
105.202042 204.0
105.318436 184.0
105.422623 124.0
105.502342 208.0
105.572998 244.0
105.616852 196.0
105.674133 176.0
105.702774 208.0
105.731422 228.0
105.776451 168.0
106.034698 192.0
106.545456 168.0
106.6297 48.0
106.679031 80.0
106.810631 52.0
106.843544 172.0
106.979324 176.0
107.012909 1844.0
107.048401 532.0
107.210052 60.0
107.304871 84.0
107.80851 36.0
107.924263 152.0
108.017769 184.0
108.052498 208.0
108.153893 176.0
108.23394 144.0
108.383766 140.0
108.618034 124.0
108.632553 168.0
108.773659 68.0
108.792343 192.0
108.811028 224.0
108.910698 124.0
109.065018 2256.0
109.112267 64.0
109.182968 60.0
109.332748 184.0
109.728516 160.0
109.745193 208.0
110.068718 188.0
110.436409 136.0
110.499168 48.0
110.626823 60.0
111.037506 328.0
111.285118 152.0
111.31691 196.0
111.354416 180.0
111.411125 116.0
111.440102 136.0
111.66967 172.0
111.827469 72.0
111.903252 136.0
112.035927 172.0
112.497757 144.0
113.095963 184.0
113.555725 228.0
113.657555 32.0
113.973923 120.0
114.25457 252.0
115.226723 140.0
115.254501 108.0
115.427635 256.0
115.543137 220.0
115.934967 220.0
116.295273 208.0
116.959427 172.0
117.064926 64.0
117.735588 156.0
118.042297 1700.0
118.193863 68.0
118.297752 28.0
118.517517 176.0
118.57933 208.0
118.668205 200.0
118.965424 164.0
119.049942 356.0
119.289093 60.0
119.545738 188.0
119.634972 156.0
120.01532 188.0
120.062027 180.0
120.988472 200.0
121.010361 236.0
121.028984 168.0
121.065575 516.0
121.168053 204.0
121.531998 176.0
121.606613 232.0
121.701004 208.0
121.751511 192.0
121.82399 96.0
122.036667 7132.0
122.064941 152.0
122.075844 240.0
122.221924 160.0
122.279144 48.0
122.294548 112.0
122.398018 180.0
122.437653 72.0
122.620506 36.0
122.642548 208.0
122.774834 108.0
122.949112 168.0
122.993256 188.0
123.039627 520.0
123.236176 172.0
123.282578 108.0
123.426254 36.0
123.623131 92.0
123.862236 120.0
123.960602 100.0
124.042397 184.0
124.079407 224.0
124.574287 144.0
125.059402 188.0
125.228233 172.0
125.602684 168.0
126.875076 92.0
126.893013 148.0
127.144356 152.0
127.319344 184.0
127.494576 104.0
127.514801 192.0
128.055634 208.0
128.255295 88.0
128.397324 112.0
128.771973 144.0
128.81488 72.0
129.336609 164.0
129.37796 100.0
129.810715 216.0
129.915054 236.0
130.121567 168.0
130.173782 140.0
130.516907 212.0
130.906006 232.0
131.0495 72.0
131.266037 212.0
131.421143 160.0
131.962448 240.0
132.557571 168.0
132.619446 160.0
132.658401 200.0
133.02742 88.0
133.065033 5040.0
133.788635 120.0
133.878433 40.0
133.93602 208.0
134.007431 164.0
134.070526 592.0
134.544785 112.0
134.660248 68.0
134.678726 176.0
135.044571 3352.0
135.073578 160.0
135.150314 40.0
135.344742 148.0
135.411911 60.0
135.546265 180.0
135.673737 44.0
135.752579 216.0
136.047195 540.0
136.237656 48.0
136.456116 60.0
136.602631 40.0
136.644501 80.0
136.96109 132.0
137.060287 868.0
137.089233 72.0
137.184784 56.0
137.593857 184.0
138.069702 164.0
138.284943 244.0
138.99971 176.0
139.100616 184.0
139.483505 164.0
139.659851 56.0
139.991684 208.0
141.326248 220.0
142.727127 176.0
142.760422 144.0
143.353165 192.0
143.57486 132.0
143.717987 196.0
143.985352 256.0
144.085663 228.0
144.147781 192.0
145.277863 160.0
145.657135 216.0
146.546082 244.0
146.83168 104.0
146.969177 208.0
147.103668 216.0
147.845642 148.0
148.057465 192.0
148.78923 152.0
149.272736 188.0
149.394348 160.0
149.64502 136.0
149.691269 152.0
149.815491 116.0
149.937317 148.0
150.031296 5648.0
150.381195 100.0
150.830612 32.0
150.93573 156.0
151.035309 316.0
151.118088 152.0
151.138748 80.0
151.662827 144.0
151.689789 164.0
151.790298 88.0
151.964447 132.0
152.138702 124.0
152.256561 164.0
153.435181 124.0
153.731155 136.0
154.393219 120.0
154.744583 120.0
155.081482 184.0
155.671921 176.0
156.213745 132.0
157.784836 172.0
158.580841 148.0
158.994659 208.0
159.228134 200.0
160.173828 104.0
160.440948 28.0
160.564499 172.0
161.059769 4712.0
161.092712 204.0
161.177917 168.0
161.423111 56.0
161.645706 48.0
162.066818 1028.0
162.135818 156.0
162.17247 144.0
162.382904 192.0
162.592422 144.0
162.761017 204.0
162.954041 112.0
163.060776 120.0
163.077896 280.0
163.180237 96.0
163.393875 136.0
163.556732 120.0
163.617828 172.0
163.742599 100.0
163.959152 116.0
163.979538 144.0
164.015213 148.0
164.06366 112.0
164.306992 48.0
164.487106 64.0
164.510086 196.0
164.553482 80.0
164.573914 164.0
164.612213 168.0
164.632629 72.0
164.673492 168.0
164.701599 120.0
164.745026 220.0
164.770218 148.0
164.806335 48.0
164.858307 236.0
164.992767 148.0
165.003052 128.0
165.056015 68324.0
165.129791 60.0
165.163528 144.0
165.182144 52.0
165.214615 92.0
165.268402 156.0
165.289597 100.0
165.333099 52.0
165.389404 64.0
165.424377 96.0
165.457123 132.0
165.47522 92.0
165.519958 52.0
165.571976 64.0
165.588303 64.0
165.630081 104.0
165.668503 48.0
165.815643 180.0
165.886322 64.0
165.917084 44.0
165.973526 248.0
166.02478 184.0
166.058624 5836.0
166.086853 196.0
166.135071 32.0
166.158157 48.0
166.264893 76.0
166.312119 44.0
166.357468 48.0
166.399399 100.0
166.437912 48.0
166.569534 96.0
166.697357 40.0
166.746185 132.0
166.81424 48.0
166.909592 120.0
166.944138 36.0
166.990417 68.0
167.021286 64.0
167.059387 476.0
167.110153 132.0
167.121048 72.0
167.13031 116.0
167.161423 136.0
167.187347 76.0
167.214539 148.0
167.226227 80.0
167.23056 120.0
167.249344 164.0
167.322708 92.0
167.397034 132.0
167.466568 112.0
167.706177 180.0
168.041962 776.0
168.232391 124.0
168.294357 104.0
168.312424 80.0
168.333084 40.0
168.418304 88.0
168.89389 48.0
169.040039 172.0
170.0858 92.0
170.254562 72.0
170.535141 188.0
171.078781 180.0
172.07988 140.0
174.145981 28.0
175.016418 140.0
175.327255 48.0
175.60144 124.0
176.049911 460.0
176.237625 52.0
176.414688 40.0
176.446426 124.0
176.655334 68.0
177.05275 136.0
177.524063 48.0
178.07341 136.0
178.730026 44.0
179.07077 64.0
179.366516 112.0
179.795914 36.0
181.049728 140.0
181.073822 208.0
181.929169 176.0
182.079544 116.0
183.511078 120.0
186.434464 128.0
186.872253 64.0
187.068192 224.0
191.07045 420.0
191.146179 120.0
192.070724 184.0
194.071289 116.0
194.620667 40.0
194.71785 60.0
195.0802 88.0
196.053223 152.0
200.864456 116.0
202.096176 112.0
202.991241 164.0
205.023788 152.0
205.066269 188.0
209.066269 264.0
209.105942 160.0
211.078888 140.0
212.085526 188.0
213.098282 240.0
213.333694 164.0
215.063919 92.0
217.103104 56.0
218.071915 164.0
220.639374 44.0
221.060089 196.0
223.083374 184.0
223.611557 184.0
224.083664 172.0
225.094147 156.0
226.064743 296.0
226.103149 176.0
227.113235 124.0
228.028961 92.0
228.552216 68.0
236.087357 108.0
237.085342 108.0
238.096741 364.0
239.103012 120.0
240.080978 256.0
241.078339 264.0
241.565201 32.0
242.088181 184.0
246.305573 60.0
248.082947 136.0
251.067291 204.0
251.110947 156.0
251.997955 80.0
253.047989 76.0
253.083298 212.0
254.087509 136.0
254.471527 44.0
255.105621 184.0
256.09967 168.0
256.794464 108.0
261.475281 196.0
263.978638 92.0
264.214752 48.0
266.997772 160.0
267.097931 136.0
268.074341 244.0
269.079987 228.0
269.200714 132.0
269.795349 56.0
270.086395 92.0
274.147614 60.0
281.120728 152.0
281.18161 64.0
282.28067 120.0
283.097015 268.0
284.03894 148.0
284.100159 796.0
284.303986 132.0
285.113403 172.0
286.112305 128.0
287.15686 72.0
294.604126 48.0
299.127014 384.0
300.135101 120.0
300.141235 184.0
334.266663 72.0
366.467896 52.0
392.151825 116.0
398.336212 72.0
445.040924 104.0
469.644226 40.0
495.95932 96.0
511.859406 40.0
519.320557 84.0
564.643921 92.0
668.758118 92.0
684.256592 76.0
749.436157 64.0
749.888428 72.0
783.519287 164.0
809.859253 92.0
819.915283 96.0
853.057861 188.0
860.292786 148.0
874.966125 152.0
881.347595 224.0
897.348938 180.0
901.240295 256.0
942.681458 164.0
958.808655 40.0
984.429504 136.0
984.847961 172.0
990.289307 208.0
1001.645264 188.0
1034.250977 152.0
1039.724243 136.0
1042.90979 196.0
1053.018555 168.0
1056.534912 108.0
1062.060303 184.0
1062.183472 144.0
1078.297974 108.0
1090.488159 164.0
1090.961426 112.0
1093.868896 172.0
1111.362061 60.0
1118.758911 188.0
1121.030029 124.0
1122.14978 180.0
1136.006348 156.0
1136.267944 284.0
1141.701904 116.0
1142.757935 160.0
1146.252319 184.0
1146.932983 212.0
1150.798462 140.0
1152.034302 224.0
1162.657471 112.0
1162.806885 248.0
1163.17334 156.0
1163.791138 176.0
1166.080322 120.0
1168.235718 232.0
1178.502686 208.0
1186.105713 192.0
1186.523804 188.0
1189.514771 180.0
1195.755615 204.0
1199.723022 176.0
1204.069824 132.0
1209.677246 180.0
1210.023315 160.0
1216.963257 176.0
1222.920654 144.0
1223.930054 32.0
1231.803589 160.0
1232.788696 204.0
1234.130737 152.0
1235.557495 112.0
1235.851318 28.0
1239.891602 208.0
1243.433228 124.0
1243.91748 72.0
1246.712769 196.0
1248.406982 104.0
1254.66626 152.0
1257.727661 148.0
1259.386841 64.0
1259.888428 176.0
1264.569336 196.0
1270.854736 264.0
1273.232666 160.0
1276.949585 48.0
1278.671265 208.0
1280.308594 160.0
1281.697632 136.0
1283.657837 152.0
1290.762573 120.0
1295.328613 116.0
1296.618164 180.0
1299.14209 180.0
1299.852295 128.0
1302.487061 196.0
1303.011475 84.0
1306.620361 192.0
1306.728271 196.0
1309.910156 164.0
1310.962036 148.0
1313.247437 184.0
1317.339966 184.0
1319.450073 204.0
1321.156738 220.0
1328.17749 188.0
1333.752197 208.0
1334.362793 168.0
1336.610229 180.0
1338.990601 92.0
1340.819092 148.0
1341.11792 172.0
1343.823364 104.0
1350.521973 220.0
1352.124146 180.0
1352.914673 208.0
1355.851074 220.0
1358.380249 144.0
1361.566528 184.0
1361.948486 204.0
1365.54248 164.0
1371.735474 176.0
1372.235962 100.0
1372.877441 32.0
1376.441528 180.0
1377.601074 180.0
1380.069336 152.0
1380.269043 228.0
1381.001099 168.0
1383.117188 144.0
1383.931519 176.0
1385.086792 80.0
1386.072021 256.0
1390.959229 188.0
1393.461792 288.0
1398.905396 212.0
1399.031982 152.0
1404.73999 56.0
1405.187622 52.0
1405.307007 248.0
1405.806885 48.0
1406.724854 252.0
1407.02356 116.0
1408.173462 144.0
1408.360107 136.0
1408.442261 80.0
1408.636475 124.0
1408.770996 228.0
1408.860596 204.0
1409.420898 188.0
1411.371704 136.0
1411.925049 124.0
1413.705444 164.0
1415.554443 136.0
1420.020752 80.0
1422.556885 184.0
1423.728149 208.0
1425.929321 192.0
1427.229736 116.0
1427.289917 172.0
1428.801636 132.0
1430.411987 164.0
1431.631592 132.0
1432.904541 156.0
1433.41687 60.0
1437.119019 148.0
1438.084839 160.0
1438.243408 208.0
1438.552856 84.0
1439.292725 88.0
1439.511719 136.0
1440.946777 216.0
1441.233887 60.0
1441.437866 120.0
1452.362061 192.0
1455.230469 164.0
1457.790161 88.0
1467.62439 220.0
1475.067749 172.0
1476.367432 168.0
1476.826294 180.0
1479.328369 216.0
1481.786621 236.0
1482.116089 188.0
1482.169678 212.0
1482.384155 152.0
1483.142944 92.0
1484.185547 132.0
1485.849731 192.0
1486.425171 108.0
1486.693726 160.0
1488.528442 152.0
1492.02417 152.0
1496.879028 224.0
1498.450195 200.0
1499.282349 220.0
1500.099365 172.0
