>compound MLS002154094-01!Meptazinol hydrochloride59263-76-2
>formula C15H23NO
>ionization [M+H]+
>parentmass 234.183975
#inchi InChI=1S/C15H23NO/c1-3-15(9-4-5-10-16(2)12-15)13-7-6-8-14(17)11-13/h6-8,11,17H,3-5,9-10,12H2,1-2H3
#inchikey JLICHNCFTLFZJN
#origInchi InChI=1S/C15H23NO.ClH/c1-3-15(9-4-5-10-16(2)12-15)13-7-6-8-14(17)11-13;/h6-8,11,17H,3-5,9-10,12H2,1-2H3;1H
#Ion_Source LC-ESI
#Instrument qTof
#Compound_Source NIH Pharmacologically Active Library
#PI Dorrestein
#Data_Collector VP/LMS
#Scan -1
#Precursor_MZ 234.188
#ExactMass 233.178
#Charge 1
#CAS_Number N/A
#Pubmed_ID N/A
#Smiles CCC1(CCCCN(C)C1)c2cccc(O)c2.Cl
#INCHI_AUX N/A
#Library_Class 1
#SpectrumID CCMSLIB00000085774
#IonMode Positive
#UpdateWorkflowName UPDATE-SINGLE-ANNOTATED-GOLD
#LibraryQualityString Gold
#TaskID d252d724072548979f1f6f1ced849daf
##Scan# 1320
#SpectrumFile p4-F04_GF4_01_18388.mzXML
#LibraryName Pharm_Active_Library.mgf
#MQScore -1
#Organism Pharm_Active_Library
#TIC_Query 0
#RT_Query -1
#MZErrorPPM -1
#SharedPeaks 0
#MassDiff 0
#LibMZ -1
#SpecMZ 234.188
#SpecCharge 0
#internalFilename spec-00000.mgf

>collision 10
44.902615 172.0
44.939552 192.0
44.982677 124.0
45.025406 140.0
45.065479 164.0
45.120277 172.0
45.144348 200.0
45.195179 248.0
45.204548 188.0
45.275501 52.0
45.298271 160.0
45.366615 48.0
45.401478 136.0
45.524948 168.0
45.53569 156.0
45.5639 128.0
45.590775 160.0
45.633171 200.0
45.643204 204.0
45.694317 164.0
45.803364 112.0
45.816833 204.0
45.853218 96.0
45.888115 216.0
45.939514 128.0
45.966499 96.0
46.002941 196.0
46.031296 188.0
46.048473 228.0
46.069115 200.0
46.07925 148.0
46.098671 160.0
46.138039 68.0
46.190781 136.0
46.243553 148.0
46.312607 132.0
46.328865 200.0
46.355965 156.0
46.392559 168.0
46.438663 84.0
46.491577 112.0
46.510578 52.0
46.533657 116.0
46.566185 168.0
46.608364 200.0
46.621952 212.0
46.632416 172.0
46.655182 216.0
46.713055 148.0
46.722576 180.0
46.771568 184.0
46.860088 256.0
46.937782 100.0
46.980064 180.0
47.055061 124.0
47.131618 184.0
47.143917 176.0
47.172619 180.0
47.201332 232.0
47.266991 192.0
47.323112 200.0
47.403931 172.0
47.458763 196.0
47.549305 240.0
47.648174 104.0
47.664661 80.0
47.69215 216.0
47.748524 144.0
47.891373 168.0
47.924385 176.0
47.956429 208.0
48.019852 88.0
48.171692 140.0
48.188271 144.0
48.214523 108.0
48.226963 128.0
48.293335 208.0
48.406822 160.0
48.471928 48.0
48.491329 252.0
48.580074 112.0
48.685566 136.0
48.78978 104.0
48.799515 64.0
48.823154 160.0
48.896889 136.0
48.953972 200.0
49.018051 144.0
49.065441 80.0
49.097515 172.0
49.133781 132.0
49.158897 36.0
49.17704 184.0
49.20496 160.0
49.358662 184.0
49.425804 316.0
49.439796 140.0
49.485992 112.0
49.504196 212.0
49.562592 184.0
49.59277 164.0
49.635921 108.0
49.645741 192.0
49.669113 132.0
49.679722 212.0
49.831028 176.0
49.840866 180.0
49.895962 180.0
49.91396 160.0
50.023705 96.0
50.044823 144.0
50.078621 72.0
50.109615 56.0
50.182907 180.0
50.270363 40.0
50.295769 84.0
50.376259 192.0
50.3918 68.0
50.401691 160.0
50.415821 124.0
50.476704 184.0
50.499237 176.0
50.512989 172.0
50.598297 128.0
50.662025 164.0
50.687012 164.0
50.741394 132.0
50.942921 204.0
50.957127 196.0
51.002605 56.0
51.02393 252.0
51.0737 180.0
51.087925 164.0
51.100216 144.0
51.174744 192.0
51.194679 112.0
51.24596 240.0
51.40995 152.0
51.421368 296.0
51.457054 364.0
51.524181 140.0
51.567051 160.0
51.581345 200.0
51.624237 176.0
51.654274 196.0
51.675735 72.0
51.791695 220.0
51.810318 156.0
51.820347 148.0
51.838974 48.0
51.886276 160.0
51.896313 172.0
51.907784 156.0
51.937901 156.0
51.986683 188.0
52.026875 128.0
52.072826 40.0
52.113873 140.0
52.12635 156.0
52.189228 172.0
52.269783 248.0
52.289928 104.0
52.327358 240.0
52.442604 220.0
52.506042 184.0
52.559422 60.0
52.617157 92.0
52.628708 160.0
52.654701 164.0
52.669144 168.0
52.716824 180.0
52.761631 136.0
52.794888 156.0
52.823818 332.0
52.94685 104.0
52.979588 160.0
53.046829 124.0
53.12804 136.0
53.144226 180.0
53.173023 248.0
53.232548 172.0
53.314953 188.0
53.360416 184.0
53.418591 136.0
53.564354 212.0
53.632648 148.0
53.725979 120.0
53.842754 160.0
53.852978 188.0
53.937729 192.0
54.044491 108.0
54.117676 212.0
54.138176 160.0
54.23341 168.0
54.438812 196.0
54.552734 156.0
54.590179 124.0
54.868923 184.0
54.906815 256.0
54.967651 168.0
54.986485 140.0
55.042004 224.0
55.082462 128.0
55.129742 204.0
55.150654 188.0
55.193306 148.0
55.242115 120.0
55.265785 140.0
55.276146 136.0
55.38126 168.0
55.404964 148.0
55.459793 60.0
55.553215 164.0
55.622959 96.0
55.643745 192.0
55.689781 148.0
55.71439 172.0
55.743267 152.0
55.762585 84.0
55.816105 136.0
55.848 144.0
55.985752 104.0
56.04385 148.0
56.084087 148.0
56.116886 200.0
56.151184 176.0
56.203865 192.0
56.222797 100.0
56.248173 216.0
56.308411 116.0
56.337772 160.0
56.394558 160.0
56.421276 192.0
56.445389 116.0
56.466324 56.0
56.490257 212.0
56.538139 232.0
56.565079 152.0
56.607002 40.0
56.623478 156.0
56.683403 136.0
56.726868 76.0
56.774849 176.0
56.785347 164.0
56.897892 144.0
56.991615 180.0
57.013554 132.0
57.10611 188.0
57.203075 160.0
57.261299 120.0
57.290421 108.0
57.302471 112.0
57.346176 76.0
57.453239 164.0
57.494434 160.0
57.516621 172.0
57.5891 128.0
57.616241 184.0
57.655861 192.0
57.667698 212.0
57.752342 108.0
57.961269 340.0
57.984001 100.0
58.014885 192.0
58.081039 208.0
58.149319 180.0
58.167534 68.0
58.246498 144.0
58.298157 148.0
58.354401 384.0
58.400021 80.0
58.454792 112.0
58.482185 232.0
58.567249 176.0
58.610115 68.0
58.629162 88.0
58.713776 92.0
58.787006 88.0
58.800739 220.0
58.846539 116.0
58.864861 180.0
59.06266 220.0
59.159958 160.0
59.187515 72.0
59.244186 124.0
59.26717 184.0
59.358913 188.0
59.386749 156.0
59.43277 156.0
59.495857 196.0
59.511055 160.0
59.544838 108.0
59.577454 188.0
59.590046 140.0
59.623192 148.0
59.65086 96.0
59.69545 100.0
59.74313 184.0
59.829315 180.0
59.850868 168.0
59.864727 156.0
59.888538 156.0
59.985439 232.0
60.066288 228.0
60.117554 92.0
60.219452 184.0
60.347717 104.0
60.404942 128.0
60.511726 136.0
60.551987 92.0
60.567478 188.0
60.586067 196.0
60.596912 228.0
60.713173 88.0
60.810917 100.0
60.821781 52.0
60.838856 84.0
60.891109 228.0
60.960011 220.0
61.029961 148.0
61.081284 232.0
61.183994 160.0
61.202679 172.0
61.254074 152.0
61.271759 132.0
61.30592 160.0
61.364727 136.0
61.403709 148.0
61.423988 188.0
61.655075 76.0
61.718929 184.0
61.762959 208.0
61.802837 204.0
61.833366 168.0
61.930286 176.0
62.024025 216.0
62.095016 184.0
62.135803 208.0
62.148357 228.0
62.165615 176.0
62.283371 128.0
62.314182 176.0
62.416962 304.0
62.475155 156.0
62.660934 152.0
62.788616 140.0
62.809124 208.0
62.821743 188.0
62.892754 184.0
62.925903 208.0
62.948009 128.0
62.993816 72.0
63.079151 168.0
63.115513 208.0
63.173367 192.0
63.188271 52.0
63.224667 208.0
63.367184 188.0
63.400459 112.0
63.416309 152.0
63.454357 196.0
63.530949 204.0
63.622639 172.0
63.835445 48.0
63.868843 204.0
64.000938 160.0
64.058273 200.0
64.147514 176.0
64.183266 272.0
64.194801 176.0
64.286278 196.0
64.33416 188.0
64.353325 168.0
64.372482 168.0
64.408875 236.0
64.468338 168.0
64.479523 168.0
64.545769 188.0
64.643028 184.0
64.714676 148.0
64.757919 176.0
64.786751 168.0
64.799568 160.0
64.813988 220.0
64.849243 144.0
64.918182 152.0
65.059387 52.0
65.176445 204.0
65.215202 224.0
65.233444 240.0
65.263435 160.0
65.314896 192.0
65.448479 160.0
65.471024 108.0
65.503235 112.0
65.514511 144.0
65.559631 212.0
65.632172 164.0
65.70314 36.0
65.73455 128.0
65.808052 188.0
65.832268 140.0
65.898842 132.0
65.914658 132.0
66.003563 168.0
66.048851 148.0
66.060173 136.0
66.134605 112.0
66.14994 192.0
66.171844 132.0
66.205849 196.0
66.239632 228.0
66.267403 144.0
66.3452 136.0
66.377625 136.0
66.47496 156.0
66.569115 164.0
66.58535 156.0
66.648712 80.0
66.681213 208.0
66.733231 172.0
66.856857 56.0
66.873138 168.0
66.915291 192.0
66.951286 96.0
66.985489 172.0
67.000153 176.0
67.052299 52.0
67.106094 152.0
67.140335 176.0
67.226799 64.0
67.262711 152.0
67.370491 140.0
67.496346 244.0
67.533958 148.0
67.553589 148.0
67.650139 64.0
67.701927 216.0
67.708313 136.0
67.771339 200.0
67.797554 324.0
67.850014 168.0
67.876244 140.0
67.997643 200.0
68.03376 140.0
68.063309 140.0
68.214462 216.0
68.244057 160.0
68.285172 92.0
68.347687 124.0
68.372368 112.0
68.459625 80.0
68.607918 92.0
68.631004 164.0
68.645844 68.0
68.670578 168.0
68.683777 160.0
68.718422 188.0
68.791039 168.0
68.971092 340.0
68.995895 144.0
69.014084 168.0
69.070312 104.0
69.10183 160.0
69.133186 188.0
69.162971 268.0
69.223831 132.0
69.409828 208.0
69.476173 172.0
69.534256 176.0
69.603981 136.0
69.657127 208.0
69.71196 212.0
69.943146 152.0
69.979767 148.0
70.022713 188.0
70.041389 216.0
70.081375 60.0
70.093033 280.0
70.211395 136.0
70.293144 156.0
70.363251 148.0
70.455833 192.0
70.500221 104.0
70.531975 160.0
70.552032 164.0
70.600349 188.0
70.657402 148.0
70.672455 224.0
70.684174 172.0
70.837128 168.0
70.87674 140.0
70.978996 168.0
70.997437 120.0
71.079643 180.0
71.133347 156.0
71.195473 80.0
71.264954 144.0
71.281593 316.0
71.297958 132.0
71.442566 176.0
71.472847 128.0
71.685028 164.0
71.805748 112.0
71.860977 172.0
71.8992 100.0
72.095108 104.0
72.130333 148.0
72.22361 168.0
72.245598 168.0
72.281128 208.0
72.309898 128.0
72.325134 184.0
72.384392 132.0
72.416565 128.0
72.448753 192.0
72.525009 156.0
72.604698 148.0
72.64032 192.0
72.655586 140.0
72.684425 144.0
72.699699 128.0
72.871208 120.0
72.949387 240.0
72.966385 176.0
73.078644 120.0
73.092255 96.0
73.177361 148.0
73.308525 60.0
73.339203 140.0
73.37159 208.0
73.452621 148.0
73.490982 176.0
73.519989 160.0
73.550713 96.0
73.67025 208.0
73.783043 188.0
73.819427 144.0
73.9524 200.0
74.007179 124.0
74.051704 140.0
74.133942 172.0
74.181938 204.0
74.322571 164.0
74.351105 268.0
74.42041 160.0
74.502014 188.0
74.5355 68.0
74.630035 188.0
74.66787 140.0
74.700554 72.0
74.747009 160.0
74.843399 152.0
74.939857 48.0
74.979492 152.0
74.998451 128.0
75.128494 224.0
75.231331 168.0
75.252052 148.0
75.284859 68.0
75.319405 200.0
75.350502 148.0
75.452469 168.0
75.575272 180.0
75.62719 132.0
75.654884 192.0
75.680862 180.0
75.727615 180.0
75.774391 204.0
75.826378 260.0
75.942543 148.0
75.965172 172.0
76.003265 180.0
76.032768 104.0
76.069214 168.0
76.131721 176.0
76.147354 224.0
76.220322 200.0
76.234222 164.0
76.256813 176.0
76.348961 184.0
76.392448 104.0
76.463783 116.0
76.478508 176.0
76.496857 176.0
76.513908 156.0
76.576958 212.0
76.625732 124.0
76.698929 184.0
76.735535 356.0
76.8367 132.0
76.854141 176.0
76.876831 176.0
76.919273 176.0
77.023201 144.0
77.034653 196.0
77.061928 124.0
77.088135 176.0
77.121346 188.0
77.166794 156.0
77.279854 232.0
77.297981 116.0
77.325989 44.0
77.376755 192.0
77.471321 444.0
77.516876 128.0
77.587486 156.0
77.671165 180.0
77.72731 256.0
77.748367 148.0
77.873024 104.0
77.925728 184.0
77.950432 204.0
78.022392 168.0
78.066345 160.0
78.083939 164.0
78.127914 188.0
78.156059 216.0
78.254631 104.0
78.310982 100.0
78.353264 64.0
78.488983 184.0
78.533073 168.0
78.594818 176.0
78.644234 212.0
78.812004 188.0
78.824371 176.0
78.836746 120.0
78.852654 176.0
79.102058 176.0
79.117592 180.0
79.18882 140.0
79.270317 40.0
79.371361 196.0
79.391556 208.0
79.440529 192.0
79.50618 184.0
79.544312 224.0
79.621582 160.0
79.676598 152.0
80.005783 176.0
80.051956 216.0
80.067986 208.0
80.12677 156.0
80.154938 188.0
80.19471 160.0
80.2444 156.0
80.288979 220.0
80.335464 204.0
80.401382 160.0
80.43351 168.0
80.485283 172.0
80.546005 32.0
80.570465 52.0
80.629982 212.0
80.642494 152.0
80.699699 32.0
80.751564 136.0
80.774811 128.0
80.937683 124.0
81.008492 224.0
81.104294 200.0
81.152702 176.0
81.186768 184.0
81.254539 164.0
81.299797 200.0
81.353645 116.0
81.402122 288.0
81.419991 80.0
81.438042 148.0
81.508102 164.0
81.545845 240.0
81.639336 192.0
81.795868 180.0
81.893105 112.0
81.959763 108.0
81.994003 208.0
82.021042 184.0
82.096161 192.0
82.145462 164.0
82.203201 176.0
82.223053 184.0
82.304291 272.0
82.342216 132.0
82.365692 168.0
82.463264 184.0
82.483147 152.0
82.551857 148.0
82.626015 172.0
82.64592 140.0
82.66301 144.0
82.718315 248.0
82.812469 152.0
82.841454 136.0
82.901245 164.0
82.917557 164.0
82.950188 244.0
82.964684 140.0
83.041237 112.0
83.107971 112.0
83.332756 160.0
83.387634 236.0
83.502182 140.0
83.522186 136.0
83.544022 208.0
83.629738 172.0
83.645927 176.0
83.678696 168.0
83.72422 208.0
83.771866 152.0
83.815308 176.0
83.838997 80.0
83.875885 232.0
83.970261 96.0
83.988503 112.0
84.052361 152.0
84.117485 164.0
84.141792 100.0
84.185623 268.0
84.38662 172.0
84.403076 52.0
84.467094 184.0
84.580544 164.0
84.629974 164.0
84.675064 180.0
84.778351 72.0
84.81134 152.0
84.840897 164.0
84.892014 88.0
84.904854 180.0
84.969055 168.0
85.033279 168.0
85.150787 172.0
85.200386 124.0
85.216919 160.0
85.264694 104.0
85.325356 156.0
85.373169 172.0
85.474144 184.0
85.509308 84.0
85.573738 368.0
85.695305 156.0
85.810585 168.0
85.903633 144.0
85.953453 336.0
86.06974 60.0
86.084518 116.0
86.104828 160.0
86.132538 112.0
86.252647 136.0
86.28186 204.0
86.369141 192.0
86.396889 132.0
86.413544 52.0
86.441299 152.0
86.615334 108.0
86.711685 140.0
86.785835 160.0
86.809944 140.0
86.873009 148.0
86.919586 112.0
86.96022 316.0
87.075333 296.0
87.175659 148.0
87.214684 156.0
87.23391 180.0
87.255585 164.0
87.31881 184.0
87.365311 120.0
87.462082 212.0
87.530968 136.0
87.570076 68.0
87.629684 164.0
87.650185 36.0
87.674408 196.0
87.687454 124.0
87.706093 160.0
87.721008 148.0
87.782539 156.0
87.804916 172.0
87.829163 68.0
87.879532 140.0
87.896324 100.0
87.976585 140.0
88.101707 136.0
88.127869 72.0
88.252876 200.0
88.307335 120.0
88.333519 48.0
88.406494 124.0
88.518814 240.0
88.533798 192.0
88.618088 152.0
88.663063 144.0
88.694931 196.0
88.7118 36.0
88.781174 184.0
88.813057 128.0
88.92939 140.0
88.968811 100.0
89.036415 40.0
89.292976 204.0
89.320229 168.0
89.357857 160.0
89.435013 176.0
89.527596 160.0
89.591743 208.0
89.666687 136.0
89.73455 76.0
89.784386 308.0
89.834503 120.0
89.902946 204.0
90.119591 104.0
90.13282 168.0
90.16494 100.0
90.23867 100.0
90.276489 80.0
90.362633 184.0
90.39756 112.0
90.749886 176.0
90.778328 248.0
90.844711 268.0
90.913025 184.0
90.946404 204.0
91.018341 152.0
91.034523 72.0
91.054024 2216.0
91.123795 212.0
91.177002 164.0
91.224525 48.0
91.247337 172.0
91.268257 68.0
91.389122 184.0
91.544174 120.0
91.58989 96.0
91.621155 164.0
91.677528 156.0
91.799416 188.0
91.849388 204.0
91.868202 216.0
91.885376 188.0
91.942619 252.0
92.05648 192.0
92.072441 204.0
92.096581 364.0
92.150764 132.0
92.217651 180.0
92.250145 236.0
92.273087 140.0
92.288383 144.0
92.306366 168.0
92.422279 264.0
92.452896 208.0
92.489258 144.0
92.573502 172.0
92.593269 112.0
92.636711 64.0
92.680779 236.0
92.709518 196.0
92.738266 132.0
92.814957 248.0
92.828377 204.0
92.973518 220.0
93.071739 336.0
93.091286 192.0
93.354561 104.0
93.373795 204.0
93.393028 64.0
93.525795 104.0
93.6465 180.0
93.654747 124.0
93.659225 176.0
93.743431 160.0
93.762215 188.0
93.788551 156.0
93.888023 160.0
93.911163 176.0
93.951675 252.0
94.003204 244.0
94.036583 184.0
94.055885 192.0
94.069397 212.0
94.189117 116.0
94.262535 124.0
94.326317 160.0
94.39592 116.0
94.461685 140.0
94.494614 192.0
94.519722 92.0
94.680908 200.0
94.755714 200.0
94.773392 152.0
94.819901 192.0
94.862541 188.0
94.887741 172.0
94.932343 204.0
95.044853 180.0
95.085411 752.0
95.138603 160.0
95.188499 168.0
95.318649 180.0
95.369179 144.0
95.596733 192.0
95.622574 244.0
95.65123 136.0
95.696007 192.0
95.754433 68.0
95.84404 188.0
95.910309 92.0
95.978539 92.0
95.999992 204.0
96.01268 156.0
96.0429 156.0
96.082474 348.0
96.101425 64.0
96.143196 168.0
96.163872 204.0
96.185349 84.0
96.310318 180.0
96.40818 180.0
96.521736 112.0
96.564415 116.0
96.587883 140.0
96.603531 152.0
96.707245 188.0
96.73465 168.0
96.811012 208.0
96.865852 68.0
96.908371 148.0
96.930733 176.0
96.995186 144.0
97.051193 100.0
97.089302 128.0
97.114799 152.0
97.134415 260.0
97.173645 144.0
97.242332 52.0
97.35463 220.0
97.393524 56.0
97.52124 156.0
97.82608 144.0
97.914742 176.0
97.962021 60.0
98.032951 256.0
98.078278 156.0
98.095444 680.0
98.168976 220.0
98.204475 64.0
98.232628 176.0
98.302498 164.0
98.320885 80.0
98.393921 220.0
98.444641 204.0
98.47538 208.0
98.490685 160.0
98.55983 120.0
98.585899 168.0
98.656677 152.0
98.743683 52.0
98.761482 140.0
98.981163 280.0
98.997009 192.0
99.09803 176.0
99.113884 168.0
99.246689 152.0
99.276436 168.0
99.385536 200.0
99.63932 176.0
99.657562 204.0
99.858345 56.0
100.026474 128.0
100.043404 140.0
100.077255 164.0
100.119072 76.0
100.158905 108.0
100.260521 156.0
100.35421 148.0
100.404221 208.0
100.463905 160.0
100.529755 160.0
100.543724 148.0
100.823326 148.0
100.847305 136.0
100.901283 140.0
101.1008 188.0
101.189392 192.0
101.215416 160.0
101.309555 160.0
101.375679 168.0
101.399727 220.0
101.51461 248.0
101.534058 148.0
101.588211 164.0
101.626335 148.0
101.662453 160.0
101.703331 120.0
101.865242 152.0
101.906296 176.0
102.045097 664.0
102.068237 48.0
102.13662 84.0
102.26754 188.0
102.424469 44.0
102.659035 148.0
102.710701 220.0
102.797462 144.0
102.875191 176.0
103.02562 160.0
103.053619 6404.0
103.130699 264.0
103.167412 76.0
103.202919 72.0
103.266174 120.0
103.292465 124.0
103.309662 104.0
103.421394 120.0
103.494446 128.0
103.517128 76.0
103.535355 168.0
103.550079 208.0
103.592072 124.0
103.658936 144.0
103.707573 104.0
103.855591 212.0
103.871819 144.0
103.96109 120.0
103.997627 232.0
104.011833 40.0
104.059975 496.0
104.114845 60.0
104.208832 192.0
104.385674 112.0
104.442619 140.0
104.505325 160.0
104.644089 208.0
104.756104 132.0
104.78463 196.0
104.803787 148.0
104.855148 132.0
104.88652 216.0
104.943604 136.0
104.991478 168.0
105.00695 192.0
105.032677 1100.0
105.069069 14632.0
105.11087 184.0
105.135353 184.0
105.154343 92.0
105.182304 184.0
105.220726 84.0
105.306854 152.0
105.372223 44.0
105.446114 128.0
105.497772 56.0
105.525642 64.0
105.543358 232.0
105.574593 128.0
105.625725 148.0
105.658455 168.0
105.689148 220.0
105.708519 212.0
105.728027 76.0
105.76078 72.0
105.830383 204.0
105.922546 172.0
105.957375 168.0
105.973763 172.0
106.010643 72.0
106.041039 212.0
106.071007 1324.0
106.102882 84.0
106.145859 196.0
106.250549 84.0
106.282013 120.0
106.303902 128.0
106.324425 160.0
106.346054 156.0
106.365471 40.0
106.392311 108.0
106.412689 208.0
106.449654 156.0
106.485756 220.0
106.517433 108.0
106.540031 104.0
106.673889 548.0
106.712669 60.0
106.741455 144.0
106.774155 160.0
106.782013 144.0
106.795387 180.0
106.813438 200.0
106.831749 188.0
106.855339 120.0
106.883102 132.0
106.904434 212.0
106.918671 140.0
106.943443 180.0
106.961571 252.0
106.992729 228.0
107.024117 448.0
107.049095 95944.0
107.078011 288.0
107.122795 152.0
107.148697 80.0
107.166595 240.0
107.193077 144.0
107.205414 52.0
107.23349 72.0
107.240738 96.0
107.259499 52.0
107.276779 204.0
107.308121 80.0
107.324203 112.0
107.361816 248.0
107.387108 984.0
107.406693 68.0
107.423973 64.0
107.447189 144.0
107.465225 204.0
107.485092 48.0
107.531715 108.0
107.55677 108.0
107.584167 132.0
107.616493 140.0
107.622581 92.0
107.649101 80.0
107.672958 36.0
107.689476 44.0
107.743774 120.0
107.77005 40.0
107.802422 96.0
107.821709 80.0
107.842377 56.0
107.859085 48.0
107.873833 92.0
107.901291 88.0
107.96051 108.0
108.009865 148.0
108.052406 11304.0
108.089493 232.0
108.122665 124.0
108.172134 220.0
108.196968 104.0
108.245804 60.0
108.272728 72.0
108.311653 96.0
108.334869 36.0
108.355591 100.0
108.394958 88.0
108.41568 168.0
108.432259 180.0
108.458138 208.0
108.498589 40.0
108.515175 104.0
108.544205 80.0
108.629242 92.0
108.648132 76.0
108.672813 68.0
108.688644 144.0
108.711906 100.0
108.727966 188.0
108.755013 148.0
108.806389 56.0
108.824333 132.0
108.842659 160.0
108.862999 92.0
108.882477 52.0
108.916389 184.0
108.955948 108.0
109.025826 124.0
109.055862 496.0
109.10125 840.0
109.122551 180.0
109.175514 84.0
109.192154 64.0
109.209297 148.0
109.235832 56.0
109.250397 72.0
109.292007 172.0
109.376923 100.0
109.418968 88.0
109.437714 60.0
109.523094 68.0
109.579346 76.0
109.687714 36.0
109.733582 36.0
109.758598 120.0
109.796135 68.0
109.816994 236.0
109.873314 180.0
109.887924 204.0
109.91922 124.0
109.979744 172.0
110.015228 176.0
110.0382 48.0
110.052811 156.0
110.092491 320.0
110.330696 88.0
110.39621 136.0
110.518929 224.0
110.646606 184.0
110.843498 64.0
110.95668 80.0
110.981842 212.0
111.059441 44.0
111.102104 188.0
111.120277 36.0
111.244102 76.0
111.307083 152.0
111.321785 136.0
111.384796 156.0
111.737976 232.0
111.933731 52.0
111.967422 92.0
112.026405 212.0
112.108688 156.0
112.363724 176.0
112.427025 60.0
112.456573 128.0
112.517792 168.0
112.614929 124.0
112.726906 52.0
112.849823 192.0
113.018715 156.0
113.17112 136.0
113.264305 244.0
113.715942 140.0
113.866684 44.0
114.043037 56.0
114.121696 164.0
114.215271 160.0
115.053413 3864.0
115.144585 64.0
115.169548 64.0
115.271858 132.0
115.31337 44.0
115.477699 56.0
115.578552 80.0
115.772461 144.0
115.867607 60.0
116.030487 68.0
116.059532 680.0
116.094818 188.0
116.167747 128.0
116.253571 164.0
116.290054 268.0
116.311523 164.0
116.380219 188.0
116.436058 200.0
116.463974 196.0
116.494049 56.0
116.595039 68.0
116.674576 60.0
116.739548 92.0
116.799301 132.0
116.986519 48.0
117.06945 1672.0
117.163116 144.0
117.208359 128.0
117.240685 144.0
117.268707 64.0
117.370026 120.0
117.402954 164.0
117.488655 52.0
117.574875 188.0
117.682899 128.0
117.922691 84.0
118.039497 144.0
118.074471 420.0
118.115135 100.0
118.217773 164.0
118.351036 152.0
118.459328 168.0
118.487488 116.0
118.630524 164.0
118.775864 188.0
118.82354 64.0
118.840897 188.0
118.927704 56.0
118.988487 212.0
119.048584 1520.0
119.084961 2648.0
119.10656 152.0
119.125313 148.0
119.203529 56.0
119.40136 160.0
119.689529 96.0
119.858528 176.0
119.902107 44.0
120.055191 428.0
120.089325 792.0
120.159424 124.0
120.264168 100.0
120.521873 52.0
120.659569 264.0
120.76799 152.0
120.827972 112.0
121.009636 168.0
121.063812 8720.0
121.10482 176.0
121.162949 36.0
121.222527 176.0
121.46907 88.0
121.902397 56.0
121.966133 72.0
122.06636 732.0
122.208046 152.0
122.313683 224.0
122.419373 76.0
122.705826 124.0
122.732285 60.0
122.791824 236.0
122.999237 60.0
123.043388 76.0
123.066887 172.0
123.127296 196.0
123.461014 176.0
123.518524 140.0
123.857201 160.0
124.071022 140.0
124.09655 216.0
124.387177 68.0
124.413818 92.0
124.602592 112.0
124.820419 132.0
125.160881 136.0
125.270012 112.0
125.466125 140.0
125.481735 72.0
125.516785 172.0
125.586548 156.0
125.85881 140.0
125.968254 48.0
126.044579 232.0
126.126587 1664.0
126.168556 216.0
126.382912 204.0
126.475853 148.0
126.755814 260.0
126.908234 72.0
126.925713 176.0
126.957565 184.0
127.052437 1004.0
127.122711 124.0
127.12854 76.0
127.135826 140.0
127.19989 160.0
127.235809 164.0
127.536835 100.0
127.591476 156.0
127.696472 240.0
127.811203 120.0
127.944 208.0
128.061478 4232.0
128.139938 52.0
128.272903 100.0
128.311234 72.0
128.376633 48.0
128.396927 252.0
128.44429 32.0
128.482635 144.0
128.557098 184.0
128.620987 104.0
128.669968 160.0
128.744476 32.0
128.898087 196.0
129.02919 40.0
129.067307 1220.0
129.447784 80.0
129.488556 136.0
129.66301 60.0
129.708344 200.0
129.751419 148.0
129.824356 120.0
129.901093 40.0
129.939285 72.0
129.959045 132.0
130.007736 84.0
130.041779 180.0
130.075272 368.0
130.201904 176.0
130.24614 184.0
130.296112 100.0
130.321106 92.0
130.384735 88.0
130.430191 128.0
130.496124 144.0
130.51886 32.0
130.596191 180.0
130.919373 36.0
130.947723 304.0
131.048889 5852.0
131.084946 720.0
131.293961 120.0
131.334183 60.0
131.388931 116.0
131.482483 68.0
131.521286 160.0
131.589783 144.0
131.646866 144.0
131.719955 72.0
132.056 7276.0
132.087494 132.0
132.113144 176.0
132.14975 96.0
132.170349 64.0
132.275635 48.0
132.3237 48.0
132.355759 128.0
132.380951 168.0
132.444321 72.0
132.474854 136.0
132.500061 96.0
132.532135 144.0
132.550461 80.0
132.575668 140.0
132.628387 152.0
132.695572 212.0
132.726974 80.0
132.761368 200.0
132.80954 140.0
132.869186 140.0
132.993103 44.0
133.028061 192.0
133.063843 31580.0
133.099457 1228.0
133.135452 72.0
133.168335 88.0
133.203003 152.0
133.289368 92.0
133.376694 68.0
133.392792 32.0
133.408875 80.0
133.45787 116.0
133.613556 84.0
133.701004 148.0
133.788849 48.0
133.809189 60.0
133.82991 40.0
133.915131 72.0
133.941208 92.0
133.984238 52.0
134.040039 164.0
134.06665 3056.0
134.105484 240.0
134.136337 92.0
134.283905 44.0
134.320801 60.0
134.45694 40.0
134.622513 112.0
134.646255 116.0
134.70401 44.0
134.821838 128.0
134.936188 180.0
135.039169 44.0
135.079407 2112.0
135.166412 144.0
135.18956 72.0
135.245102 88.0
135.270569 104.0
135.300659 68.0
135.4095 124.0
135.469711 248.0
135.710754 124.0
135.817429 52.0
135.845276 144.0
136.081161 288.0
136.186493 40.0
136.53978 56.0
136.679367 40.0
136.704956 120.0
137.261719 204.0
137.289703 144.0
137.443665 172.0
137.85466 76.0
138.12587 88.0
138.542557 52.0
138.90593 204.0
138.962234 116.0
139.046707 148.0
139.175827 168.0
139.495346 68.0
139.556473 76.0
139.7117 192.0
139.794052 204.0
139.859955 96.0
140.060104 128.0
140.144989 688.0
140.175552 168.0
140.291046 244.0
140.335846 144.0
140.371216 164.0
141.068832 484.0
141.137436 140.0
141.21669 188.0
141.30896 28.0
141.417816 48.0
141.450958 208.0
141.656982 168.0
141.936646 152.0
142.07402 384.0
142.221344 192.0
142.27356 112.0
142.328171 36.0
142.489685 128.0
142.722626 112.0
142.881973 152.0
142.965256 180.0
143.049698 160.0
143.085297 808.0
143.594223 200.0
144.054962 1324.0
144.085846 368.0
144.482849 196.0
144.525909 76.0
144.583344 132.0
144.719788 52.0
144.817978 116.0
144.887451 184.0
144.942551 160.0
144.959335 140.0
145.024048 180.0
145.064377 5528.0
145.104187 132.0
145.172684 84.0
145.227844 112.0
145.304611 116.0
145.350204 248.0
145.459549 164.0
145.48941 196.0
145.808884 220.0
145.984131 228.0
146.015656 164.0
146.037964 136.0
146.071274 7652.0
146.136505 140.0
146.16481 176.0
146.200378 72.0
146.207138 68.0
146.383865 80.0
146.46817 168.0
146.563553 164.0
146.839355 112.0
147.041824 404.0
147.079269 16384.0
147.189285 68.0
147.343872 48.0
147.402466 80.0
147.433273 72.0
147.566223 40.0
147.638763 84.0
147.655701 52.0
147.675049 28.0
147.793594 120.0
147.87587 44.0
147.922745 152.0
148.011444 132.0
148.082733 1396.0
148.106766 188.0
148.125275 48.0
148.24884 44.0
148.273071 116.0
148.362762 44.0
148.467026 56.0
148.484009 116.0
148.571335 52.0
148.988907 32.0
149.032333 156.0
149.09375 304.0
149.166306 100.0
149.202774 60.0
149.304901 100.0
149.640717 228.0
149.928146 104.0
149.95253 68.0
150.08786 240.0
150.586899 136.0
151.061096 144.0
151.078232 100.0
151.795883 112.0
151.935684 92.0
152.252335 140.0
152.355499 72.0
152.424301 132.0
152.640625 160.0
153.066971 416.0
153.645569 208.0
155.05954 1092.0
155.186432 32.0
155.546158 48.0
155.628098 96.0
155.841705 68.0
156.06044 144.0
156.105194 120.0
156.421173 144.0
156.966812 108.0
157.064087 340.0
157.094009 128.0
157.218765 172.0
157.678314 60.0
158.07309 240.0
158.141022 112.0
158.363861 28.0
158.434006 52.0
158.717224 100.0
158.992767 172.0
159.035843 188.0
159.079681 1268.0
159.121185 108.0
159.339691 60.0
159.696655 56.0
160.087082 456.0
160.253845 208.0
160.492462 48.0
160.63623 164.0
160.749771 120.0
160.911316 136.0
160.98201 220.0
161.045151 152.0
161.095032 13424.0
161.15126 48.0
161.213074 60.0
161.277618 52.0
161.414597 44.0
161.515305 64.0
161.656982 116.0
161.821518 76.0
161.879761 136.0
161.910156 120.0
162.097672 1704.0
162.182373 108.0
162.373947 88.0
162.391708 128.0
162.43483 100.0
162.533768 108.0
162.688599 72.0
162.746994 152.0
163.099594 312.0
163.176392 144.0
163.32196 148.0
163.410385 108.0
163.494354 160.0
163.532532 168.0
163.606354 164.0
164.057281 64.0
164.098068 112.0
164.133774 84.0
164.21283 92.0
165.908203 136.0
166.04155 76.0
166.072327 136.0
167.68187 104.0
168.004196 40.0
168.391388 152.0
169.074341 212.0
169.115356 172.0
169.773438 228.0
169.900543 136.0
170.437988 220.0
171.103851 212.0
171.140305 192.0
172.09462 168.0
172.214752 100.0
172.716614 124.0
173.09021 176.0
173.14325 60.0
173.620239 232.0
174.097595 176.0
174.973145 208.0
175.108765 700.0
175.136765 368.0
175.381821 44.0
175.43718 120.0
175.529465 88.0
175.822296 128.0
175.872437 148.0
176.088943 112.0
176.11496 188.0
176.826996 136.0
177.126358 456.0
177.282135 44.0
177.478302 164.0
178.059464 104.0
178.128525 160.0
178.537857 164.0
180.423065 96.0
181.333191 96.0
181.646912 44.0
184.623215 40.0
184.663788 52.0
184.801758 168.0
186.861115 64.0
187.111511 152.0
188.450684 52.0
189.148071 256.0
189.668533 108.0
189.791901 92.0
190.9673 164.0
192.135483 116.0
193.738785 160.0
194.393143 172.0
195.073639 176.0
195.933578 96.0
196.100769 36.0
201.113174 104.0
201.330566 204.0
202.122101 152.0
202.543945 180.0
203.140503 680.0
203.812119 156.0
204.139023 108.0
204.545883 96.0
204.662613 144.0
205.013 200.0
205.05574 80.0
205.29808 44.0
205.777466 120.0
206.137375 180.0
207.184616 168.0
207.436798 188.0
211.336411 168.0
212.791428 144.0
213.206818 140.0
213.793182 32.0
214.936615 156.0
215.047516 148.0
215.336578 56.0
215.701828 112.0
221.173248 92.0
223.791718 84.0
225.19931 124.0
225.877838 220.0
228.493835 76.0
228.797806 156.0
230.764954 64.0
231.176346 144.0
231.270157 128.0
232.160919 176.0
232.339874 188.0
232.840729 88.0
232.913635 68.0
232.956161 128.0
233.105042 108.0
233.270233 136.0
233.348206 92.0
233.381653 168.0
233.475922 140.0
233.598038 136.0
233.643219 76.0
233.723022 228.0
233.828842 80.0
233.868408 68.0
233.938416 64.0
233.959732 124.0
234.067703 164.0
234.183975 28616.0
234.266724 144.0
234.277481 116.0
234.285278 116.0
234.337387 64.0
234.411331 144.0
234.450134 140.0
234.49585 40.0
234.68486 32.0
234.758041 60.0
234.892242 96.0
234.979553 52.0
235.038696 168.0
235.106552 128.0
235.130249 120.0
235.186295 3820.0
235.258453 60.0
235.405014 60.0
235.46608 56.0
235.505798 96.0
235.582153 60.0
235.650848 64.0
235.71048 68.0
235.777725 40.0
235.890808 92.0
236.120132 52.0
236.185608 528.0
236.291443 100.0
236.315918 44.0
236.340393 68.0
236.564941 164.0
236.609741 112.0
236.65567 44.0
236.677094 80.0
236.778152 104.0
236.833298 128.0
236.882309 96.0
236.937439 124.0
237.090652 40.0
237.602737 80.0
237.811417 72.0
238.198303 84.0
238.219818 140.0
238.471786 80.0
238.650085 68.0
239.071518 84.0
239.410156 84.0
239.53952 56.0
240.029572 72.0
241.199692 88.0
241.341904 88.0
242.502823 96.0
242.586517 56.0
243.884064 84.0
247.409103 56.0
248.863876 100.0
249.65889 68.0
250.297714 60.0
250.619003 80.0
251.940994 84.0
255.307266 68.0
255.768616 64.0
260.135254 96.0
276.112946 68.0
276.639069 132.0
279.313721 80.0
284.32901 52.0
285.034241 32.0
286.251984 104.0
286.578735 84.0
290.602356 64.0
291.339111 64.0
299.22934 92.0
300.049316 100.0
303.517334 72.0
307.584442 76.0
317.989532 108.0
331.257416 160.0
335.053802 72.0
338.424957 68.0
339.179657 64.0
340.012268 72.0
343.050537 56.0
345.835785 104.0
345.924622 112.0
346.869232 88.0
349.275482 68.0
350.519012 136.0
367.469238 80.0
368.977875 60.0
372.649628 32.0
380.462982 36.0
383.247772 88.0
388.816467 32.0
398.034607 44.0
401.995483 44.0
404.197327 96.0
406.931 60.0
409.911591 40.0
430.572205 84.0
435.015167 68.0
438.459229 120.0
451.114899 40.0
453.998383 88.0
458.837372 108.0
463.239227 72.0
465.40509 84.0
506.100586 68.0
511.470032 56.0
513.312744 40.0
537.389526 108.0
541.29541 48.0
548.687988 60.0
555.004761 144.0
556.445251 160.0
556.830322 80.0
557.431641 68.0
558.607056 28.0
564.247437 72.0
579.372742 52.0
595.542908 72.0
596.621704 72.0
599.132935 64.0
618.298645 40.0
622.388489 92.0
627.952271 100.0
654.10498 56.0
660.964478 52.0
668.893982 72.0
686.437561 140.0
687.308716 184.0
701.332642 36.0
710.53949 48.0
726.609558 184.0
730.025818 224.0
744.167236 152.0
746.830139 68.0
765.361206 208.0
770.059814 44.0
783.339294 60.0
785.312561 84.0
787.925049 184.0
788.39447 108.0
795.193665 160.0
795.86731 104.0
798.604187 180.0
803.155396 200.0
805.351135 148.0
814.908203 160.0
815.47644 192.0
818.474548 164.0
821.700684 60.0
823.367493 56.0
830.126282 36.0
835.416321 188.0
836.394592 200.0
843.71521 64.0
851.270935 184.0
856.499634 248.0
860.295898 164.0
867.010864 180.0
877.810303 128.0
879.515381 56.0
879.721985 160.0
881.57074 80.0
882.89502 184.0
888.148621 72.0
890.813904 176.0
892.151062 116.0
892.662415 200.0
893.358276 136.0
894.643738 164.0
894.95929 160.0
895.495239 184.0
895.942017 248.0
897.104126 88.0
899.902283 244.0
900.003784 168.0
904.194397 148.0
906.23645 164.0
910.183289 152.0
913.158081 236.0
914.812866 136.0
917.445496 204.0
923.006348 64.0
924.815247 184.0
927.844177 184.0
929.80957 220.0
931.916748 196.0
933.697876 252.0
935.505066 196.0
935.7547 120.0
938.472168 164.0
938.746521 196.0
939.136902 204.0
939.917786 220.0
940.32666 164.0
942.286865 176.0
942.384644 192.0
942.83075 148.0
942.995728 172.0
946.727783 216.0
948.130737 200.0
949.013489 164.0
949.430481 124.0
949.786194 128.0
949.902771 184.0
951.76239 188.0
952.038757 140.0
952.179993 204.0
953.046204 184.0
953.11377 84.0
955.865173 200.0
957.592407 96.0
958.313171 152.0
958.417908 180.0
959.23761 88.0
960.082336 168.0
960.452454 160.0
961.865479 196.0
962.538452 40.0
963.656494 120.0
965.690308 104.0
968.580994 160.0
970.830872 188.0
971.364258 188.0
972.766724 120.0
973.319275 172.0
973.518005 140.0
973.766418 272.0
974.400085 168.0
974.95929 140.0
979.451538 176.0
981.021912 44.0
985.86554 128.0
986.82196 188.0
986.921997 136.0
988.529602 256.0
989.46228 152.0
989.631287 120.0
990.019531 100.0
990.52063 172.0
990.683472 128.0
991.284973 172.0
991.667297 208.0
991.773865 220.0
993.429321 148.0
993.793213 84.0
993.874817 224.0
996.015686 164.0
997.869568 152.0
1000.836365 140.0
1002.143311 160.0
1002.937317 180.0
1003.466919 44.0
1004.980652 128.0
1007.291382 168.0
1007.733582 156.0
1008.454041 160.0
1008.978699 164.0
1009.729675 132.0
1014.207703 168.0
1015.387024 132.0
1016.395691 120.0
1016.69397 156.0
1016.941467 152.0
1019.037109 200.0
1019.958618 148.0
1020.448181 148.0
1025.592041 136.0
1026.414429 160.0
1027.383911 136.0
1027.683716 160.0
1028.162354 160.0
1030.282349 152.0
1030.614502 104.0
1030.870117 176.0
1031.528442 164.0
1032.129517 84.0
1032.730591 184.0
1034.772095 168.0
1035.290771 148.0
1035.361206 88.0
1035.924805 60.0
1038.078491 160.0
1040.478271 152.0
1040.536011 148.0
1041.435059 224.0
1041.525024 148.0
1042.218872 104.0
1043.253662 144.0
1043.806519 148.0
1045.5177 236.0
1047.275513 148.0
1047.951904 168.0
1048.177368 224.0
1048.364258 140.0
1050.221191 100.0
1051.491943 160.0
1052.35083 184.0
1052.867432 136.0
1054.017334 160.0
1055.801514 248.0
1056.098999 228.0
1056.374023 252.0
1058.247559 160.0
1059.549438 136.0
1060.061279 112.0
1063.862183 204.0
1065.303955 136.0
1065.401367 144.0
1065.498779 180.0
1065.544312 216.0
1066.090088 84.0
1066.246094 124.0
1067.156128 164.0
1067.273193 236.0
1067.83252 120.0
1070.038452 136.0
1070.494263 124.0
1072.89209 228.0
1073.570312 124.0
1074.105103 184.0
1074.379028 76.0
1074.548706 164.0
1074.920654 260.0
1075.103394 180.0
1075.286133 160.0
1076.415527 168.0
1076.559204 120.0
1076.957642 96.0
1078.06897 200.0
1079.748535 164.0
1080.952271 196.0
1082.96875 140.0
1083.67627 184.0
1087.578247 224.0
1087.775146 224.0
1087.958984 180.0
1088.077148 192.0
1089.12793 188.0
1089.352173 176.0
1089.699463 152.0
1089.824219 164.0
1090.856079 200.0
1091.244019 224.0
1091.322876 176.0
1091.572754 140.0
1092.460693 176.0
1092.533081 204.0
1092.960693 188.0
1093.237183 212.0
1093.526733 172.0
1093.63208 164.0
1094.145508 152.0
1095.541748 184.0
1095.726196 48.0
1096.437866 196.0
1096.866211 196.0
1097.044189 224.0
1098.066284 256.0
1098.171875 256.0
1098.626953 188.0
1099.003052 220.0
1099.402954 208.0
1100.131714 148.0
1101.326904 120.0
1101.657227 172.0
1103.302734 124.0
1103.421753 176.0
1105.353149 144.0
1106.147461 192.0
1107.034668 184.0
1108.17395 248.0
1109.499512 172.0
1111.151001 136.0
1111.48938 144.0
1112.259277 60.0
1113.208618 44.0
1114.072144 124.0
1115.301514 164.0
1116.06604 188.0
1116.578125 184.0
1118.13501 184.0
1118.407837 252.0
1118.640869 152.0
1118.827271 184.0
1118.960449 40.0
1119.233398 184.0
1119.759521 104.0
1120.119141 224.0
1120.165771 208.0
1120.996704 216.0
1121.178589 220.0
1121.958496 152.0
1122.885376 104.0
1123.305664 56.0
1124.006104 244.0
1124.600098 128.0
1124.960571 152.0
1125.414551 72.0
1125.995605 112.0
1126.636841 176.0
1126.770508 236.0
1127.345093 268.0
1128.334351 212.0
1128.54834 72.0
1128.869263 244.0
1128.969604 176.0
1129.103394 88.0
1129.471313 172.0
1129.859253 172.0
1130.100098 108.0
1130.434692 40.0
1130.789429 112.0
1130.869751 144.0
1131.639526 80.0
1132.222168 152.0
1132.516846 168.0
1133.327515 100.0
1133.622314 156.0
1134.694824 172.0
1134.855713 220.0
1135.808105 184.0
1136.485718 172.0
1136.854736 160.0
1137.458862 116.0
1138.472656 184.0
1138.680908 124.0
1140.461426 92.0
1140.763916 176.0
1140.87146 220.0
1141.839722 168.0
1141.960815 184.0
1142.209717 136.0
1142.384644 136.0
1142.599854 232.0
1143.097778 244.0
1143.158325 192.0
1143.363159 132.0
1144.00647 208.0
1145.299316 140.0
1148.130127 52.0
1148.312256 164.0
1148.696777 156.0
1149.668335 128.0
1150.431152 272.0
1150.734863 204.0
1151.585815 192.0
1151.633057 120.0
1152.018066 216.0
1152.227539 140.0
1152.349121 188.0
1153.255371 176.0
1153.829346 184.0
1154.45813 172.0
1155.500366 112.0
1156.111206 116.0
1156.257812 76.0
1156.650391 152.0
1156.880493 176.0
1159.346069 144.0
1159.461304 148.0
1159.793335 156.0
1160.084839 180.0
1160.132324 168.0
1160.559448 104.0
1161.569946 180.0
1161.624268 192.0
1161.732788 224.0
1162.899902 136.0
1163.015259 136.0
1163.178223 148.0
1163.551636 28.0
1164.767212 156.0
1165.467041 188.0
1166.2146 184.0
1166.425293 164.0
1166.567993 120.0
1166.69043 112.0
1167.241089 168.0
1167.819214 172.0
1168.138916 112.0
1168.424683 136.0
1169.799316 132.0
1169.867432 172.0
1170.05127 100.0
1170.289551 264.0
1170.432495 168.0
1171.03186 200.0
1172.067383 168.0
1172.789795 176.0
1174.064819 32.0
1174.112549 176.0
1174.862793 80.0
1175.101562 180.0
1175.306274 104.0
1176.528076 124.0
1176.589478 136.0
1176.862549 200.0
1177.079956 164.0
1177.374756 148.0
1178.044189 152.0
1178.119263 32.0
1178.434082 196.0
1179.30835 264.0
1179.568115 168.0
1180.689453 188.0
1182.8927 160.0
1183.940186 36.0
1184.940308 136.0
1185.180176 52.0
1185.440552 196.0
1185.646118 212.0
1185.824341 172.0
1185.927124 160.0
1186.023071 128.0
1186.640137 72.0
1186.900635 116.0
1187.072144 180.0
1187.557861 192.0
1189.685181 204.0
1189.754883 140.0
1190.139404 140.0
1190.242432 160.0
1190.633911 160.0
1190.75061 164.0
1191.265747 140.0
1192.207153 148.0
1192.37207 136.0
1192.798218 216.0
1193.107544 172.0
1193.815796 144.0
1193.891479 220.0
1194.682495 164.0
1194.868286 172.0
1195.164062 196.0
1195.25354 136.0
1195.308594 64.0
1195.976196 156.0
1196.086304 212.0
1196.740356 148.0
1196.864258 188.0
1196.92627 72.0
1197.463501 236.0
1197.814697 96.0
1197.911133 148.0
1198.248779 152.0
1198.704102 232.0
1198.868896 164.0
1198.930908 204.0
1202.075684 220.0
1202.579468 168.0
1202.841797 172.0
1204.058838 148.0
1204.333252 208.0
1205.100098 112.0
1205.397217 236.0
1205.507812 188.0
1205.625244 196.0
1205.73584 220.0
1206.454712 212.0
1206.814209 180.0
1206.938721 128.0
1207.000977 164.0
1207.19458 100.0
1208.218262 236.0
1208.446655 164.0
1210.149292 244.0
1210.329346 260.0
1211.29187 164.0
1213.898071 180.0
1214.060181 168.0
1214.286377 152.0
1214.508423 160.0
1214.855225 76.0
1214.952393 96.0
1215.098022 92.0
1215.188232 168.0
1216.13208 132.0
1216.881836 68.0
1217.457275 160.0
1217.485352 140.0
1217.64563 204.0
1218.771118 148.0
1219.528564 184.0
1219.809204 232.0
1220.077759 52.0
1220.415894 216.0
1220.564453 264.0
1220.703491 156.0
1220.842651 68.0
1221.642456 72.0
1221.990356 144.0
1222.901978 112.0
1223.166504 72.0
1223.340576 200.0
1223.521606 116.0
1223.598145 96.0
1223.994995 176.0
1224.398926 152.0
1224.977051 76.0
1226.133789 156.0
1226.496216 156.0
1226.654053 220.0
1227.381592 292.0
1227.793091 80.0
1227.841919 400.0
1228.385864 72.0
1228.755615 84.0
1228.90918 88.0
1229.209229 108.0
1229.320923 160.0
1229.446533 196.0
1229.530273 132.0
1230.577393 148.0
1230.877563 88.0
1231.422363 200.0
1231.680786 156.0
1231.743652 228.0
1233.043213 204.0
1233.259888 168.0
1234.070923 40.0
1234.322632 160.0
1234.609375 104.0
1236.19043 244.0
1236.526367 176.0
1236.897339 224.0
1237.05835 80.0
1237.457397 124.0
1238.130859 132.0
1238.297729 172.0
1238.367676 104.0
1238.745117 204.0
1238.921143 172.0
1239.222412 196.0
1239.355469 204.0
1239.453613 228.0
1240.106323 204.0
1240.406738 140.0
1240.502808 204.0
1240.904541 160.0
1241.388428 164.0
1241.486572 132.0
1241.556641 120.0
1242.194946 164.0
1242.251099 160.0
1242.51062 100.0
1242.657959 128.0
1242.770264 104.0
1242.889526 132.0
1243.282593 160.0
1244.159912 140.0
1245.367798 156.0
1245.473145 100.0
1245.810303 164.0
1246.0 144.0
1246.526978 196.0
1246.60437 188.0
1246.772949 92.0
1247.243896 184.0
1247.454834 164.0
1247.693848 184.0
1248.593872 212.0
1248.657227 180.0
1249.41687 192.0
1249.810913 168.0
1250.380981 184.0
1250.535767 148.0
1250.760986 164.0
1251.387573 200.0
1251.493164 144.0
1251.655151 104.0
1252.098755 108.0
1252.18335 240.0
1253.022827 168.0
1253.23999 160.0
1253.332886 176.0
1255.12207 232.0
1255.363525 192.0
1255.862549 216.0
1256.081177 148.0
1256.925415 140.0
1257.54895 100.0
1258.036011 132.0
1258.389038 168.0
1258.791504 164.0
1260.147705 152.0
1260.614014 156.0
1261.193604 136.0
1261.4198 188.0
1261.554077 36.0
1261.886353 212.0
1262.720825 112.0
1263.357422 104.0
1263.406982 164.0
1263.732422 196.0
1263.852783 196.0
1264.454224 140.0
1264.829346 144.0
1264.992188 152.0
1265.055908 140.0
1265.93396 224.0
1265.990601 196.0
1266.911377 180.0
1267.123901 212.0
1267.449829 156.0
1268.11438 156.0
1268.18689 128.0
1268.640625 72.0
1269.0802 160.0
1269.505615 116.0
1269.562378 108.0
1269.739624 196.0
1269.789307 152.0
1269.863281 200.0
1269.916992 140.0
1271.350098 156.0
1273.039795 112.0
1273.338013 144.0
1273.487183 164.0
1273.963135 192.0
1274.225952 76.0
1274.296997 208.0
1274.531494 128.0
1275.583374 168.0
1276.137939 144.0
1276.585083 176.0
1276.827759 220.0
1277.126465 200.0
1277.667114 176.0
1278.855469 164.0
1279.076172 156.0
1279.82373 176.0
1280.215332 124.0
1280.6427 192.0
1280.735229 148.0
1281.262451 156.0
1281.433472 196.0
1281.76123 152.0
1282.42395 176.0
1282.516602 160.0
1282.616455 52.0
1283.557495 140.0
1284.313477 92.0
1286.48999 112.0
1286.554199 176.0
1286.727173 180.0
1287.468262 124.0
1287.675293 68.0
1287.911011 116.0
1287.996704 152.0
1288.168213 180.0
1288.518311 192.0
1289.054199 132.0
1289.154175 184.0
1289.432983 240.0
1291.234619 300.0
1291.685303 136.0
1291.735352 180.0
1292.128784 140.0
1292.694092 156.0
1293.094849 132.0
1293.295288 148.0
1293.989746 240.0
1294.927856 96.0
1295.006592 72.0
1295.078247 248.0
1295.536621 252.0
1295.844727 148.0
1295.916382 168.0
1296.375 192.0
1296.62793 208.0
1296.738159 168.0
1296.898193 136.0
1296.969849 112.0
1298.181519 124.0
1298.353638 200.0
1298.554443 160.0
1299.279053 140.0
1299.824341 124.0
1300.28772 168.0
1300.513306 168.0
1301.346069 200.0
1301.583008 128.0
1301.970825 132.0
1302.128784 212.0
1302.969238 64.0
1303.105713 160.0
1303.378784 156.0
1303.565674 152.0
1303.716553 76.0
1304.665405 160.0
1305.046387 104.0
1305.147095 212.0
1305.513794 88.0
1305.811523 216.0
1306.060425 212.0
1306.240234 124.0
1307.348389 128.0
1307.801758 176.0
1308.262451 160.0
1308.464111 28.0
1308.716064 268.0
1309.4198 216.0
1309.962036 132.0
1310.14209 220.0
1310.610474 260.0
1310.718506 204.0
1312.116821 132.0
1312.325928 188.0
1312.462891 148.0
1312.80188 176.0
1313.458252 180.0
1313.768433 232.0
1314.410522 44.0
1314.626465 136.0
1314.858032 196.0
1315.079834 164.0
1315.724243 156.0
1316.099609 140.0
1316.460693 180.0
1316.611328 168.0
1317.298584 124.0
1317.385254 168.0
1318.122192 188.0
1318.418579 124.0
1318.483521 60.0
1318.613647 152.0
1318.685913 196.0
1319.625732 152.0
1319.763062 220.0
1319.828125 144.0
1320.262939 204.0
1320.558594 136.0
1320.674316 184.0
1321.072144 80.0
1321.504761 136.0
1322.490479 200.0
1323.728516 208.0
1323.959839 184.0
1324.206543 180.0
1324.416504 200.0
1324.923584 40.0
1325.38916 180.0
1325.563232 164.0
1327.213989 84.0
1327.678101 168.0
1327.895752 156.0
1327.953735 148.0
1328.13501 156.0
1329.425781 196.0
1331.27771 180.0
1331.34314 160.0
1331.444824 92.0
1331.633545 152.0
1332.251099 184.0
1332.541626 60.0
1332.621582 168.0
1332.694214 272.0
1332.832275 88.0
1333.522705 192.0
1333.588135 60.0
1333.755249 260.0
1333.958862 196.0
1334.169678 176.0
1334.474976 188.0
1334.598633 80.0
1335.565918 208.0
1335.856812 176.0
1336.933716 172.0
1337.00647 192.0
1337.47229 248.0
1337.814453 240.0
1338.739136 164.0
1339.235352 164.0
1340.101318 240.0
1340.239746 204.0
1340.757202 120.0
1341.019531 232.0
1341.121826 168.0
1341.471558 204.0
1341.675659 96.0
1341.91626 188.0
1342.251709 156.0
1343.309204 228.0
1343.725098 164.0
1343.918213 208.0
1344.695679 156.0
1344.841553 180.0
1345.221191 192.0
1345.389038 120.0
1345.505859 156.0
1345.849121 172.0
1345.951294 160.0
1346.469849 132.0
1347.141846 212.0
1347.258667 76.0
1347.404785 168.0
1347.835938 80.0
1347.967407 220.0
1348.223267 188.0
1348.296265 132.0
1348.515503 180.0
1349.209961 232.0
1349.385498 148.0
1349.648682 180.0
1349.80957 248.0
1350.072876 128.0
1350.274902 160.0
1350.533569 48.0
1350.985718 184.0
1351.301758 56.0
1351.418823 92.0
1351.682251 52.0
1351.748047 96.0
1352.758179 212.0
1353.021729 172.0
1353.142822 200.0
1353.234009 184.0
1353.695312 128.0
1353.921997 164.0
1354.09082 160.0
1354.171753 160.0
1354.28125 176.0
1354.457031 204.0
1355.116455 152.0
1355.680664 184.0
1356.230347 168.0
1356.325562 208.0
1356.706787 200.0
1356.788574 188.0
1357.058716 224.0
1357.129883 204.0
1357.278687 80.0
1357.630737 184.0
1357.821411 124.0
1357.909424 156.0
1358.100098 180.0
1358.25415 208.0
1358.342163 240.0
1358.738281 172.0
1359.16394 160.0
1359.244629 92.0
1359.567505 156.0
1360.786011 180.0
1360.859497 148.0
1361.057739 160.0
1361.483643 152.0
1362.203491 116.0
1362.673706 136.0
1362.845459 136.0
1363.107178 144.0
1363.797974 156.0
1363.88623 208.0
1364.12146 192.0
1364.415527 80.0
1364.783203 140.0
1365.51123 244.0
1365.577393 200.0
1366.018799 164.0
1366.173218 124.0
1366.43811 128.0
1366.938477 200.0
1367.232788 212.0
1367.762695 212.0
1367.990967 208.0
1368.057251 228.0
1368.130859 108.0
1368.307495 168.0
1368.668335 64.0
1370.016113 136.0
1370.804565 164.0
1371.72583 44.0
1371.826538 248.0
1372.013428 152.0
1373.067871 164.0
1373.244873 44.0
1373.834961 44.0
1373.960449 172.0
1374.558105 188.0
1374.735107 176.0
1374.927002 100.0
1375.05249 176.0
1375.133667 140.0
1375.22229 168.0
1375.753784 184.0
1375.901367 220.0
1376.381348 304.0
1376.73584 176.0
1377.962036 184.0
1379.698853 156.0
1380.031616 172.0
1380.65271 124.0
1380.807983 200.0
1380.970703 148.0
1381.518188 64.0
1381.7771 180.0
1382.065674 168.0
1382.391235 32.0
1383.042603 148.0
1383.309082 112.0
1383.997559 140.0
1384.056885 208.0
1384.203613 160.0
1384.530762 196.0
1384.708496 200.0
1384.827026 176.0
1384.98999 140.0
1385.071411 160.0
1385.308472 184.0
1385.590088 180.0
1386.212402 148.0
1388.050903 228.0
1388.258545 136.0
1389.37854 152.0
1389.519531 72.0
1390.328369 160.0
1390.454468 120.0
1390.944458 124.0
1391.189331 156.0
1391.300781 72.0
1391.657104 116.0
1392.065552 140.0
1393.053345 124.0
1393.387695 60.0
1393.745361 184.0
1393.840942 124.0
1394.167969 196.0
1394.643555 152.0
1395.007812 164.0
1395.156494 192.0
1395.595215 140.0
1396.331421 168.0
1397.157104 212.0
1398.712402 268.0
1399.010254 192.0
1399.702637 132.0
1399.985596 168.0
1400.432495 164.0
1400.484619 60.0
1400.737915 152.0
1400.812378 132.0
1400.953979 164.0
1401.430786 156.0
1401.83313 108.0
1402.362305 140.0
1402.682861 104.0
1403.279175 180.0
1403.808716 68.0
1404.181519 228.0
1404.679443 156.0
1404.860352 160.0
1405.278198 172.0
1405.919922 140.0
1405.972168 156.0
1406.300537 172.0
1407.024658 172.0
1407.166504 216.0
1407.412964 152.0
1407.554443 172.0
1407.80127 144.0
1408.010376 176.0
1408.062622 104.0
1408.316528 212.0
1408.667603 176.0
1408.914185 40.0
1409.026245 132.0
1409.123413 52.0
1409.272827 160.0
1409.377441 48.0
1409.526855 200.0
1410.005127 128.0
1410.199463 224.0
1410.482056 140.0
1410.939575 72.0
1411.260986 88.0
1412.038818 132.0
1412.734375 208.0
1412.84668 160.0
1413.071045 132.0
1413.123413 184.0
1413.228149 232.0
1414.328369 280.0
1415.181763 184.0
1415.241699 212.0
1415.369019 204.0
1415.616089 148.0
1415.878174 176.0
1417.046753 164.0
1417.369019 184.0
1418.380737 172.0
1418.913086 116.0
1419.062988 116.0
1419.137939 128.0
1419.355469 120.0
1419.6698 168.0
1420.292969 164.0
1420.705444 204.0
1421.15564 60.0
1421.256592 196.0
1421.53833 176.0
1421.786011 216.0
1421.876099 100.0
1421.996216 180.0
1422.31897 228.0
1422.386475 124.0
1422.656738 196.0
1423.182251 148.0
1423.309937 220.0
1423.631714 180.0
1426.0896 160.0
1426.645874 168.0
1426.713623 224.0
1426.785156 172.0
1426.939087 200.0
1427.676025 176.0
1427.916748 144.0
1429.27832 148.0
1429.458984 120.0
1429.726929 256.0
1429.805176 224.0
1430.243286 188.0
1430.557861 72.0
1430.746094 60.0
1431.200195 112.0
1431.446289 144.0
1431.928345 136.0
1432.131714 100.0
1432.756958 152.0
1432.839844 120.0
1433.239136 212.0
1434.249023 120.0
1436.209473 224.0
1436.428223 216.0
1436.639526 152.0
1437.024292 216.0
1437.152588 140.0
1437.544922 164.0
1438.058105 156.0
1438.148682 140.0
1438.344971 160.0
1438.420532 80.0
1438.986694 160.0
1439.137695 148.0
1439.258545 88.0
1439.386841 144.0
1439.446289 200.0
1439.602905 200.0
1439.991089 172.0
1440.618042 132.0
1440.824463 256.0
1441.033813 180.0
1441.486938 160.0
1442.068848 136.0
1442.182251 148.0
1442.372925 212.0
1442.620605 148.0
1442.673584 44.0
1443.822876 224.0
1443.928833 224.0
1443.995361 252.0
1444.07251 124.0
1444.503662 192.0
1445.290527 172.0
1445.578003 196.0
1446.357666 108.0
1447.356934 100.0
1447.887085 140.0
1448.4552 176.0
1448.635376 228.0
1448.773315 148.0
1448.949219 128.0
1449.076416 68.0
1449.735596 128.0
1450.114624 136.0
1450.516357 180.0
1450.715942 168.0
1450.940796 136.0
1451.691528 148.0
1452.358887 68.0
1452.525879 84.0
1452.916504 232.0
1453.07959 180.0
1453.178223 196.0
1453.322388 168.0
1453.383179 152.0
1453.451416 144.0
1453.512085 188.0
1453.625977 116.0
1453.891602 124.0
1453.944702 124.0
1454.058594 220.0
1454.202759 88.0
1454.726562 160.0
1455.28833 160.0
1455.743896 160.0
1455.964233 216.0
1456.453735 152.0
1456.571777 192.0
1456.796875 152.0
1457.013062 208.0
1457.323975 136.0
1457.787476 180.0
1457.910645 220.0
1457.984131 124.0
1458.251099 160.0
1458.31189 136.0
1459.344971 196.0
1459.718384 236.0
1459.946533 144.0
1460.04541 188.0
1460.227905 192.0
1461.015503 148.0
1462.609497 220.0
1462.746582 212.0
1462.830322 68.0
1462.952026 36.0
1463.18811 148.0
1463.751587 160.0
1464.406494 60.0
1464.855957 180.0
1465.274902 128.0
1465.89209 68.0
1466.349365 192.0
1466.448486 52.0
1467.462402 168.0
1469.117432 180.0
1469.468384 176.0
1469.62854 196.0
1470.0177 148.0
1471.239014 164.0
1471.58252 252.0
1472.178223 168.0
1472.919067 144.0
1473.346802 224.0
1473.721191 232.0
1473.835815 40.0
1473.904541 168.0
1474.034546 172.0
1474.408936 116.0
1474.737671 136.0
1475.165649 204.0
1475.433228 136.0
1475.677979 148.0
1476.029663 100.0
1476.281982 68.0
1476.404419 112.0
1476.955078 228.0
1477.71106 180.0
1478.332275 184.0
1478.477661 172.0
1478.691895 140.0
1479.656494 160.0
1479.725342 196.0
1479.828735 176.0
1480.054688 164.0
1480.330322 124.0
1480.4375 172.0
1480.583008 184.0
1480.828125 84.0
1481.042603 128.0
1481.21875 196.0
1481.272339 292.0
1481.476074 164.0
1482.283691 160.0
1483.0271 192.0
1483.694092 164.0
1484.085083 176.0
1484.399536 96.0
1484.483887 184.0
1484.844238 228.0
1485.388916 136.0
1485.879883 152.0
1486.762329 124.0
1486.908081 180.0
1487.161377 176.0
1487.384033 176.0
1487.952148 364.0
1488.412842 184.0
1488.581787 200.0
1488.781372 172.0
1488.835205 152.0
1489.311401 68.0
1490.094971 136.0
1490.217896 196.0
1490.663574 180.0
1491.078613 84.0
1491.293823 124.0
1491.562744 100.0
1491.731934 120.0
1491.831909 76.0
1491.920044 228.0
1492.05481 140.0
1492.154785 88.0
1492.277832 148.0
1492.516113 204.0
1492.692993 324.0
1493.454346 96.0
1493.746704 128.0
1493.831299 136.0
1494.046753 148.0
1494.276123 172.0
1494.616089 216.0
1494.739258 160.0
1495.196777 148.0
1496.232422 116.0
1496.540405 212.0
1496.748291 192.0
1496.809937 180.0
1497.087158 112.0
1497.657104 92.0
1498.202759 220.0
1498.674072 172.0
1498.812744 60.0
1498.87439 144.0
1499.144043 192.0
1499.398438 140.0
1499.487671 160.0
1499.771606 180.0
1500.163818 148.0
1500.562378 184.0
1501.294922 140.0
1501.480103 156.0
1501.733765 180.0
1501.904297 192.0
1502.066284 220.0
1502.374878 148.0
1502.544556 184.0
1502.706543 148.0
1503.154175 72.0
1503.401123 180.0
1503.532227 188.0
1503.686646 156.0
1504.412231 124.0
1504.605225 204.0
1504.751953 164.0
1504.883179 256.0
1504.96814 88.0
1505.184326 68.0
