>compound Iloperidone
>formula C24H27FN2O4 
>ionization [M+H]+
>parentmass 427.202362
#inchi InChI=1S/C24H27FN2O4/c1-16(28)18-4-7-21(23(14-18)29-2)30-13-3-10-27-11-8-17(9-12-27)24-20-6-5-19(25)15-22(20)31-26-24/h4-7,14-15,17H,3,8-13H2,1-2H3
#inchikey XMXHEBAFVSFQEX
#Ion_Source LC-ESI
#Instrument qTof
#Compound_Source Isolated
#PI Sirenas
#Data_Collector Ed Esquenazi 
#Scan -1
#Precursor_MZ 427.204
#ExactMass 0.0
#Charge 1
#CAS_Number N/A
#Pubmed_ID N/A
#Smiles N/A
#INCHI_AUX N/A
#Library_Class 3
#SpectrumID CCMSLIB00000004706
#IonMode Positive
#UpdateWorkflowName UPDATE-SINGLE-ANNOTATED-BRONZE
#LibraryQualityString Bronze
#TaskID d19310cd93df49b68e9fcbec27720eb5
##Scan# 3
#SpectrumFile Iloperidone.mgf
#LibraryName fda_library.mgf
#MQScore -1
#Organism fda_library
#TIC_Query 0
#RT_Query -1
#MZErrorPPM -1
#SharedPeaks 0
#MassDiff 0
#LibMZ -1
#SpecMZ 427.204
#SpecCharge 0
#internalFilename spec-00000.mgf

>collision 10
100.283264 4.683712
100.457573 3.387769
100.775085 2.336539
101.039848 39.632851
101.096634 7.50329
101.1465 6.488313
101.176399 2.963542
102.498016 5.227904
103.052536 70.339813
103.315857 4.704167
103.473274 5.666667
104.585953 9.349601
104.699539 2.381944
104.742348 2.740036
105.033875 120.487999
105.069969 486.604614
105.110748 11.70304
105.177078 3.360119
105.191368 14.72321
105.215836 7.578241
105.329208 4.6875
105.346405 2.19391
105.451668 2.540064
105.493332 7.180555
105.545784 7.706667
105.591675 3.667438
105.613388 6.407461
105.780815 4.940025
106.06427 691.341125
106.236366 6.400833
106.275246 5.004808
106.296768 2.668056
106.315308 4.611111
106.492905 3.973485
106.533478 7.270833
106.5877 12.36722
106.612633 3.834105
106.680901 5.37037
106.720421 1.5
106.731216 6.360577
106.857735 4.316886
107.048042 69.966957
107.073227 1148.912964
107.083504 172.612595
107.116112 4.66886
107.126915 2.183333
107.141319 3.035201
107.151466 9.388888
107.171227 2.407408
107.252953 11.53912
107.269852 8.833867
107.297455 8.732791
107.335861 6.435381
107.38987 10.16821
107.434685 13.86908
107.458313 34.452999
107.479744 4.080357
107.501717 3.525
107.515732 18.72541
107.535774 18.284639
107.570358 3.645833
107.601746 13.06667
107.627319 7.773359
107.671776 10.84167
107.794098 5.667385
107.812141 4.526175
107.881134 16.140301
108.018219 31.694241
108.080841 11555.929688
108.12352 69.860443
108.140312 86.343117
108.165894 15.05972
108.176384 2.501389
108.183083 3.607253
108.192787 16.562599
108.214378 4.837121
108.220444 4.530682
108.227989 14.00972
108.241699 29.15723
108.26696 37.5182
108.278519 10.23878
108.285095 25.544081
108.313385 16.22226
108.325432 5.871142
108.337555 19.244631
108.358566 19.082861
108.372765 9.004487
108.396812 7.636143
108.405296 8.386905
108.433708 19.340521
108.470573 6.342593
108.496361 8.822885
108.505394 2.169643
108.516685 13.77927
108.532333 10.61667
108.539421 8.667008
108.558144 15.6942
108.589516 34.86216
108.604782 13.68486
108.631088 7.047348
108.655434 8.64109
108.677963 8.602083
108.688072 2.334167
108.702499 14.25936
108.723473 7.245098
108.746155 7.129808
108.771584 5.546997
108.897926 6.044271
108.96862 6.188844
109.044159 78.506721
109.066071 563.813599
109.218246 4.120098
109.244507 3.9375
109.4039 7.568182
109.419289 5.414216
109.450943 11.3402
109.492279 5.647059
109.501976 3.874167
109.640205 7.426136
109.669586 4.308712
109.683533 7.036599
109.701187 4.083333
109.716896 2.355978
109.749672 2.566667
109.797081 6.078241
109.826241 7.228535
109.888512 9.903735
109.924706 7.230469
109.972633 5.544271
109.986717 4.500443
110.044991 11.67008
110.096313 2674.092041
110.157928 2.986742
110.17289 6.541274
110.212059 5.234722
110.267822 7.851894
110.289803 7.833965
110.296967 3.715278
110.312767 8.767262
110.322853 4.898148
110.392067 4.847756
110.418701 10.19435
110.435493 6.122024
110.482559 12.72321
110.49086 11.17376
110.540688 9.778409
110.552925 5.530935
110.591858 6.833929
110.618805 5.411574
110.688728 5.400833
110.941307 7.564103
111.022194 94.594994
111.282066 5.622874
111.33345 4.703703
111.505394 4.538462
111.568497 1.666667
111.61982 7.401515
111.690796 11.97083
111.822189 6.422222
112.054588 42.511108
112.111526 738.473877
112.151825 3.50463
112.383003 9.444776
112.393044 2.863971
112.426476 6.953224
112.457443 4.609068
112.47197 2.568056
112.496422 4.512112
112.513435 2.633333
112.529373 3.5125
112.696129 11.50694
113.039871 20.67272
113.072784 4.433928
113.08757 3.224856
113.980919 4.558624
113.992058 2.503205
114.048264 39.232761
114.582352 23.994209
114.769669 3.420259
115.053802 217.851395
115.130081 7.993421
115.21611 3.501389
116.111504 5.793651
117.069313 99.216652
118.299805 2.393382
118.610458 13.11621
119.047401 187.860001
119.085213 65.914398
119.159142 3.375
119.536682 14.82172
120.035057 25.34543
120.055237 18.06123
120.080399 464.14621
120.235947 10.89334
120.279129 4.377717
120.336395 2.347222
120.676445 1.347756
120.721664 8.549593
120.764343 2.834722
120.968979 1.979167
121.069565 36.31369
121.087334 300.72641
121.123993 2.166667
121.169983 3.580128
121.178047 8.834723
121.30722 6.651209
121.369087 4.814815
121.484154 3.222222
121.54248 5.372024
121.614433 3.527412
121.829506 3.170455
121.844864 3.177083
122.037468 124.761803
122.057655 121.129601
122.096031 2414.375977
122.144577 5.370833
122.167648 7.744473
122.205116 11.55511
122.213913 11.89951
122.233025 2.854167
122.288605 6.352431
122.302467 7.043403
122.3862 12.67926
122.402237 4.2075
122.421707 6.011905
122.456207 2.355978
122.622513 12.6088
122.691391 6.502083
122.733452 2.854167
122.784012 12.54545
122.876183 3.190104
123.043877 48.561371
123.078545 145.686096
123.104027 129.381699
123.238747 4.682449
123.254395 4.38447
123.277031 7.148148
123.308502 16.75029
123.352043 9.223958
123.358719 4.300595
123.370277 5.167438
123.385262 4.259339
123.401627 17.493429
123.412804 3.840833
123.428261 3.040833
123.439003 8.559232
123.451447 7.671875
123.463341 14.85744
123.473625 7.333333
123.489334 5.594697
123.50827 48.83334
123.519806 36.707722
123.584839 7.645833
123.599747 21.2677
123.621666 6.370833
123.650536 21.47488
123.679611 3.852623
123.69101 13.04248
123.705521 7.76861
123.720726 16.400459
123.742905 4.574846
123.760078 11.29647
123.78022 4.180743
123.830101 4.1875
123.838287 1.880208
123.923241 4.130401
123.980087 5.160326
124.027618 21.58135
124.050888 416.533112
124.082298 5.500672
124.112221 24588.699219
124.172348 14.3995
124.199821 6.129902
124.224701 43.916111
124.240089 24.90724
124.275978 19.54118
124.294891 63.573311
124.318123 17.41861
124.337608 31.245449
124.347382 37.06879
124.355087 4.3675
124.363487 6.839254
124.370148 15.26615
124.389984 7.092949
124.405327 82.679626
124.419144 9.647685
124.436172 23.882401
124.450638 46.650349
124.471115 42.75351
124.507614 17.177959
124.537254 17.79517
124.569801 16.700359
124.576813 9.740036
124.590523 4.433333
124.606583 4.222994
124.63739 51.71381
124.666618 35.66507
124.695663 11.20387
124.729095 30.259621
124.761391 10.00141
124.782845 17.004511
124.812408 8.486819
124.860435 9.296006
124.924538 8.673913
124.992371 13.07222
125.006416 15.36905
125.060776 1.334722
125.089188 16.741619
125.168449 50.377491
125.209633 9.84554
125.250366 10.81012
125.269844 17.500731
125.283112 29.09115
125.307701 4.796297
125.320854 18.390249
125.352646 7.553635
125.365463 18.71133
125.42704 20.571289
125.438713 7.011905
125.505379 16.52371
125.524109 6.67647
125.531723 19.341841
125.546394 17.632669
125.563148 5.85307
125.613785 3.544384
125.62352 12.31374
125.715446 7.47405
125.746559 8.733334
125.767258 13.79434
125.805672 4.171297
125.846199 11.52288
125.9636 13.92037
126.02224 9.909274
126.102112 1.720238
126.125916 1064.915039
126.179832 6.179167
126.222816 9.346154
126.254105 9.812968
126.347923 5.088768
126.356506 4.111883
126.379913 5.629902
126.397583 16.18446
126.520683 5.225
126.625282 6.890752
126.689171 8.0
126.708389 5.2625
126.997887 6.333333
127.020851 4.566667
127.050903 17.5375
127.091995 5.513355
127.225449 5.0075
127.453339 5.183435
127.819031 5.297861
127.865784 2.338542
128.245682 1.820076
128.764282 3.004167
129.05545 45.424492
129.068863 74.960716
129.264999 3.928571
129.428619 3.005682
130.066071 64.1745
130.443512 2.860119
130.495682 1.592803
131.143753 2.367424
132.285629 7.725
132.30304 6.333929
132.393417 20.533529
133.044083 224.077896
133.064056 463.646515
133.086639 120.291298
133.203491 4.875
133.227097 20.3759
133.264069 8.409483
133.301178 5.440104
133.36821 6.201666
133.436905 13.7406
133.469421 7.530682
133.484711 2.500992
133.512848 3.835227
133.529083 3.828305
133.601349 4.142045
133.633957 2.632675
133.65358 7.670343
133.842682 3.837694
134.031693 8.238521
134.095779 1202.587036
134.18219 3.266667
134.230835 9.338889
134.297852 2.381944
134.362823 2.983333
134.370438 5.442345
134.388565 11.19428
134.401352 25.780029
134.416672 8.061403
134.617615 10.34637
134.69783 6.043403
135.059479 478.0867
135.104004 1139.472046
135.164749 24.48711
135.210571 3.607143
135.230347 12.26581
135.258118 13.82493
135.333435 5.629808
135.356201 3.905357
135.37645 7.010714
135.388504 5.506945
135.441803 5.817581
135.460526 2.875
135.523209 8.321506
135.549286 8.023809
135.578613 13.18716
135.639496 4.034091
135.748901 4.469445
135.857346 8.932017
136.004257 6.857568
136.028503 4.797068
136.047897 20.022699
136.111328 679.677917
136.215775 9.173913
136.24025 4.669643
136.25267 7.898026
136.304916 17.551279
136.319122 4.177399
136.332382 4.685606
136.367935 13.9511
136.410156 9.522435
136.47966 5.280996
136.499985 5.402369
136.517105 8.518678
136.535538 5.755482
136.597549 4.66821
136.699173 8.881667
136.709015 5.648809
136.890823 6.858208
137.023361 60.555431
137.035202 112.817101
137.05954 4016.24707
137.092651 42.186699
137.120926 3.701389
137.134369 23.1646
137.178238 19.512739
137.207855 8.273334
137.242523 5.045455
137.271255 31.969891
137.280624 10.87906
137.293976 4.833333
137.318176 3.260031
137.331238 6.129902
137.379395 5.365079
137.387482 7.197304
137.409988 19.090481
137.420609 6.018518
137.428268 2.667339
137.438873 7.761438
137.448654 5.820153
137.461182 15.28943
137.500229 10.95342
137.508057 5.8125
137.546997 11.72439
137.564926 4.916667
137.573486 9.522178
137.664917 3.847222
137.816055 5.88587
137.854401 10.0851
138.034729 1493.870972
138.090714 25.500059
138.242493 4.266667
138.260757 5.672222
138.347336 5.076389
138.437439 4.688725
138.454056 5.036599
138.720032 1.847756
138.785034 7.870833
138.810181 2.5
139.166763 3.354167
139.306564 3.356771
139.557159 9.692708
139.676117 15.35366
140.04953 394.339813
140.106201 131.137405
140.156738 3.880682
140.219604 8.023116
140.363831 3.335938
140.413162 3.066667
140.443283 4.056548
140.475174 4.142045
140.545364 4.667892
140.639648 5.666667
140.829956 10.2442
141.804123 17.27083
142.063843 178.106598
142.126572 37.864861
142.216385 2.504167
142.80159 11.14005
144.06871 10.58882
144.25235 4.009804
145.04335 50.050251
145.328171 2.501389
146.054108 61.01902
146.155533 8.273504
146.235123 7.025
146.685944 1.671296
147.044556 1109.584961
147.078796 111.858704
147.158173 2.6875
147.183548 2.841486
147.238586 2.786706
147.387741 2.260417
147.539642 6.906746
147.597412 3.864583
147.699387 3.387769
148.066971 5.467129
148.338074 3.509868
148.396484 2.630208
148.910568 2.524801
149.023422 169.276505
149.059875 129.071793
149.073288 39.185539
149.110168 1.514423
149.12291 4.006049
149.14415 4.833742
149.223969 4.371795
149.263321 8.125
149.335403 1.347756
149.386429 6.399193
149.594849 5.566431
149.629013 3.109601
149.786377 2.168056
150.03479 480.726715
150.069427 239.104294
150.097382 4.339799
150.115005 26.84882
150.130295 44.170731
150.152832 5.839285
150.182632 13.18632
150.191406 4.048611
150.220978 6.075617
150.300766 15.4937
150.370255 7.442331
150.434341 3.984543
150.447571 2.850379
150.517075 3.504167
150.605286 3.840278
150.664749 7.033602
150.742844 7.532341
150.822861 2.672619
151.043381 322.281799
151.075394 1022.348999
151.122894 140.879593
151.216553 2.734722
151.349518 5.629902
151.387878 5.390752
151.444199 9.361309
151.455765 8.0
151.464325 5.34058
151.490219 6.277039
151.513168 3.504167
151.575668 2.381944
151.669907 4.669271
151.811325 2.170455
151.965714 4.481482
152.047348 127.721001
152.168945 2.568056
153.056732 91.051018
153.211914 2.6675
153.456863 4.854167
154.064896 40.987869
155.927338 7.384615
156.079468 120.728104
156.322601 8.253472
156.362915 6.721491
157.04924 14.36095
157.060852 26.889469
157.194794 7.834723
158.060883 11.05682
158.096603 6.25926
158.979416 2.503205
159.05957 123.8955
159.090805 15.07337
159.127197 3.373775
159.269043 3.003205
159.809525 3.170833
161.060776 171.303696
161.070633 34.189308
161.094955 40.93824
161.136032 3.335938
161.224365 4.381547
161.23761 4.174167
161.256027 9.160018
161.308655 12.32568
161.883438 4.69853
161.962189 2.648284
162.007172 2.674819
162.047379 1969.448975
162.06955 694.371582
162.111542 15.90139
162.15332 6.082237
162.168289 15.0448
162.18634 6.669872
162.215271 22.91486
162.273285 21.80275
162.291672 3.2
162.309326 9.364703
162.348297 2.860119
162.371826 11.44773
162.397095 4.667572
162.41037 4.217803
162.42366 2.370833
162.43988 3.953373
162.490173 3.581317
162.513977 2.340278
162.620575 18.433531
162.680634 4.048611
162.70311 7.526042
162.800858 8.740011
162.8293 3.12963
163.05545 1207.269043
163.11055 9.265782
163.138275 4.173611
163.253815 5.0625
163.290512 3.704167
163.335083 10.16793
163.36496 6.667857
163.391266 5.449253
163.403976 16.09355
163.431671 2.520833
163.478043 7.018763
163.4944 9.1875
163.551773 4.183712
163.569611 7.514002
163.649704 6.842105
163.756485 7.166667
164.049973 3427.753906
164.126572 7.857073
164.144028 5.884779
164.158325 22.183371
164.182495 7.836111
164.19313 4.607143
164.246567 6.886905
164.277771 3.541667
164.295609 4.668334
164.310471 15.0131
164.320877 9.446759
164.34726 19.001051
164.365295 10.84722
164.389038 15.6777
164.450745 6.530556
164.491867 6.673077
164.558685 5.840278
164.571716 5.926809
164.623901 13.89522
164.705215 7.234167
164.938644 10.39421
164.969681 4.648148
165.012085 4.0625
165.090042 557.393921
165.178452 3.911859
165.198822 4.056548
165.216812 7.666667
165.245773 6.374281
165.256714 5.136364
165.266907 1.270833
165.322815 5.001894
165.47406 3.2
165.686279 21.545509
165.721161 3.693453
165.782242 8.55787
165.869492 10.25393
166.002609 38.590801
166.064972 222.487793
166.120224 37.511822
166.155853 2.500718
166.267975 2.500992
166.321823 2.53125
167.068512 87.326263
167.476868 3.852083
167.846237 2.000906
168.077637 34.46048
168.085785 38.337631
168.211594 2.942935
168.621567 3.685606
169.062836 29.407459
170.030899 7.683435
170.058487 47.9403
171.097427 16.100599
172.054611 62.38789
172.075958 15.59524
172.110016 27.247601
172.260284 3.703704
172.667282 5.449253
173.037033 6.180555
173.073227 11.90152
173.09668 6.168056
173.334869 5.044445
173.408249 4.511082
173.499878 2.027412
174.027725 6.486742
174.070358 307.270508
174.106735 18.873119
174.118637 12.36294
174.254852 3.983553
174.354523 5.426282
174.436066 8.580106
174.768402 3.640152
175.053085 276.73349
175.074234 493.587097
175.13504 2.842262
175.203598 12.03444
175.268158 2.675
175.305099 8.786859
175.586655 7.071428
175.983917 4.020833
176.010864 4.335938
176.020355 3.835227
176.051422 405.061615
176.08194 239.093506
176.103821 21.188391
176.126282 1.168561
176.16272 12.49125
176.201782 4.387821
176.227859 1.679167
176.27211 35.635109
176.370743 11.20947
176.412247 3.270833
176.444336 3.986413
176.682266 3.826993
176.731613 5.76923
176.918808 18.24914
176.941498 12.23503
176.959763 4.9675
177.015808 30.6814
177.032089 32.259918
177.058197 2672.626953
177.153793 11.40476
177.177673 3.927083
177.21022 3.568055
177.220734 44.144711
177.234329 13.78394
177.252853 17.817301
177.273148 5.170833
177.294205 7.275735
177.314819 11.09083
177.351151 11.96568
177.385178 3.62004
177.457581 8.990277
177.470047 2.708333
177.525803 6.429167
177.576111 7.833333
177.59288 3.887769
177.612457 11.76667
177.625504 6.87037
177.660233 43.845188
178.065552 2253.954102
178.121048 29.646311
178.130722 23.16637
178.180115 9.742045
178.196228 2.546875
178.284119 2.68109
178.306686 3.568055
178.326447 4.168561
178.356415 7.09753
178.372604 3.0
178.387939 4.9
178.416687 9.073106
178.484131 2.4
178.530609 4.460022
178.549927 10.78815
178.573334 15.52106
178.596573 26.900311
178.679688 10.7631
178.694046 4.720395
178.719635 6.446509
178.739838 3.5
178.781891 5.693452
178.83577 15.3156
178.855133 9.815104
179.069458 1220.297974
179.108444 17.65341
179.154007 4.081317
179.186798 14.49223
179.261505 6.344298
179.289093 5.833742
179.32576 8.748547
179.393616 10.67647
179.498764 2.340833
179.523651 4.013889
179.540665 4.086925
179.671265 5.333841
179.713959 2.666667
179.769196 4.734797
180.273315 4.0
180.670639 9.508828
180.703293 3.333333
181.084381 45.50378
181.691391 5.002083
182.119888 17.019119
183.059387 8.854167
184.075455 52.43063
185.062149 61.97176
185.106735 16.01524
185.699051 2.335227
185.713501 6.721491
185.746521 3.874167
186.040741 14.42595
186.069595 75.670914
186.089767 16.505989
186.111908 11.84959
186.320709 6.875
186.407242 3.409091
186.802383 4.948994
186.890625 8.54023
187.053925 208.861893
187.238358 18.759371
187.581223 10.33333
187.63266 7.317581
187.719513 6.633796
188.050156 499.000092
188.085373 255.210007
188.107025 22.82424
188.138977 21.506941
188.148651 9.510417
188.205917 3.864268
188.345886 10.04355
188.440002 7.763441
188.501938 39.137138
188.742722 2.820076
188.783844 45.77692
188.817413 8.105629
188.881546 46.49361
188.893799 7.360998
188.932114 76.215652
188.945709 7.916667
188.965576 38.262192
188.98439 56.164829
189.017807 21.476931
189.029831 5.566123
189.058487 273.627502
189.112762 56.25333
189.140594 9.019608
189.150681 38.619579
189.17923 28.518
189.203079 23.565229
189.218109 6.745098
189.23555 54.968109
189.246735 32.81155
189.268936 19.85684
189.315369 19.468611
189.361771 13.31873
189.382339 5.061237
189.392654 9.429762
189.407715 10.56338
189.537567 8.609994
189.600906 10.50824
189.752472 2.69391
189.793762 3.5
190.033127 173.396698
190.066238 45745.078125
190.286758 17.452459
190.327408 20.549721
190.359222 9.91557
190.409103 21.43191
190.431671 24.57947
190.460602 12.83443
190.48497 55.714191
190.549332 78.730186
190.579086 11.97146
190.591187 26.976259
190.602264 7.886687
190.617355 18.25157
190.632767 29.13452
190.660858 48.823101
190.690948 84.924362
190.703568 22.54178
190.734863 26.15053
190.755585 3.140322
190.795517 40.59164
190.832321 18.513929
190.862976 43.380501
190.901184 26.886749
190.946487 28.08391
190.998718 5.365079
191.013611 4.854167
191.120728 41.148899
191.153061 15.84698
191.279556 8.041103
191.299835 40.014111
191.31575 7.794769
191.383911 19.33786
191.441986 26.134319
191.455658 11.63501
191.505966 11.02734
191.526352 10.56481
191.582291 14.11408
191.71582 10.5162
191.881409 24.74614
191.927155 14.05255
191.970444 9.697601
192.024292 13.12852
192.137604 5.541667
192.20932 9.347222
192.25029 22.134121
192.266968 12.85189
192.308624 6.051445
192.334625 2.942402
192.361694 4.5
192.602768 9.916667
192.645279 4.685606
192.665787 2.864583
192.71582 9.360897
192.815369 7.841667
192.965302 4.504167
193.100647 15.12915
193.122391 5.520833
193.201462 4.840278
193.240433 3.286706
193.300354 3.246711
193.356064 16.708139
193.695923 3.001894
193.773178 4.000563
194.527206 5.961538
194.636139 5.668651
194.898331 3.508929
195.520477 5.53858
196.079605 7.256299
196.145004 2.815476
197.061447 15.70817
197.665634 7.302778
198.083984 25.14826
199.058121 6.114329
199.084763 27.31855
200.065659 9.209523
200.082779 62.495972
200.114899 3.003788
200.48967 4.870833
200.528641 2.604167
200.914856 2.942402
201.059235 156.209305
201.071747 95.993156
201.125 3.199597
201.325836 6.62037
201.384293 13.27546
201.524857 4.381547
201.870712 6.186869
201.929993 4.467262
202.065903 626.491272
202.103287 4.834722
202.318283 4.583333
202.499725 3.370471
202.672745 7.530682
202.761429 2.844363
202.782715 17.877769
203.024033 3.355392
203.071854 433.574188
203.09465 54.253929
203.120712 3.5625
203.148865 2.833333
203.212433 8.168269
203.271957 2.509868
203.373672 9.846154
203.425751 7.862938
203.450592 4.1875
203.484253 3.932598
203.644302 5.526785
203.728668 2.604167
203.793976 8.631127
203.912384 4.280242
204.008545 1.540064
204.081451 3487.789062
204.144943 31.340281
204.180618 6.102083
204.195724 2.546875
204.322617 5.421875
204.339844 12.09648
204.354935 18.943159
204.384506 7.16821
204.424301 3.211111
204.448746 11.28106
204.509171 23.23967
204.523849 18.69652
204.539322 17.92308
204.558624 3.173132
204.583313 11.71771
204.692398 4.602083
204.747894 7.763441
204.787704 7.29819
204.812622 5.05819
204.923386 4.340278
205.205978 7.66449
205.260788 5.66711
205.276382 6.735577
205.398483 3.241071
205.420319 5.835145
205.480408 7.135803
205.52533 12.52377
205.614822 3.921569
205.808701 2.966009
205.894272 5.500379
206.09729 485.92981
206.226852 9.748902
206.283813 7.22338
206.59668 3.421875
206.938889 3.3375
207.080383 15.28656
207.52562 3.555556
207.895859 2.695513
208.129135 9.201652
208.221878 5.640351
210.077179 13.63575
211.082581 18.131519
211.745789 5.21627
213.072296 11.72377
213.335373 3.878788
214.061691 34.730721
214.118729 25.176769
214.857468 12.09184
214.890945 3.181818
214.972549 7.000311
215.03476 2.444444
215.069107 22.69927
215.09285 57.613449
215.779221 5.461436
215.931503 2.866667
216.08139 705.916687
216.121933 13.34248
216.145935 2.64881
216.202484 7.006482
216.230453 6.488313
216.282471 3.734722
216.352234 9.434295
216.433823 5.0
216.464539 2.334239
216.52597 3.36218
216.572342 7.653486
216.638596 3.526786
216.669327 5.359509
216.68573 4.755482
216.955841 14.4925
217.087677 921.893188
217.426422 42.132721
217.566269 5.185956
217.684433 5.344907
217.771698 2.667339
217.987366 5.167201
218.019867 4.945833
218.054276 12.88066
218.115616 61.5247
218.131332 31.66852
218.247589 4.020833
218.285797 49.268421
218.434555 7.02374
218.65361 5.266667
218.707077 2.580357
218.773972 6.020833
218.995255 6.004167
219.052704 43.22253
219.092361 4297.23877
219.165207 33.966702
219.257141 12.3062
219.273438 4.503788
219.323151 9.909169
219.359573 15.96984
219.379257 11.45527
219.437943 8.588443
219.458847 4.911574
219.47435 5.84375
219.493332 4.78125
219.521835 11.09235
219.569519 3.483553
219.582275 10.3952
219.629456 27.480829
219.675568 5.66875
219.693176 8.558712
219.714996 11.42513
219.783051 16.032141
219.805161 11.27351
219.840408 2.566667
219.882767 7.092803
219.964203 4.602083
220.243378 12.20778
220.330444 7.029167
220.383911 7.120992
220.888855 20.181721
221.107147 409.029388
221.2146 3.055556
221.267578 12.5732
221.32338 6.067819
221.644257 4.500508
221.703247 2.942402
221.991409 7.841872
222.069168 1.834722
222.894165 4.836806
223.886063 9.0
224.106033 5.76923
224.694565 7.37037
226.104065 13.99597
226.262085 4.763889
227.109528 17.724079
227.309219 3.819746
228.127182 38.83675
228.262848 5.458333
228.465256 5.679369
228.528351 6.207825
228.67009 3.881944
228.916748 3.080128
229.088043 45.26796
229.127945 44.998241
229.142929 20.421579
229.797668 5.546997
230.095718 62.855518
230.293182 14.23283
231.049774 16.74264
231.087494 130.4254
231.125366 5.486742
231.62587 4.166667
231.645798 6.195652
231.661407 72.019043
231.690842 16.86861
231.718277 19.70833
231.734314 51.004509
231.750717 62.88485
231.766388 25.72291
231.818085 108.878601
231.850189 18.003269
231.869049 60.646629
231.899231 22.8006
231.922577 39.36668
231.954712 74.609169
231.968369 26.58466
231.990463 26.069361
232.012009 38.59594
232.02504 55.199879
232.050293 17.797701
232.063675 8.380682
232.081146 3.86218
232.108612 110.990196
232.140091 10.87083
232.197983 38.145599
232.221786 13.50496
232.252441 11.15737
232.281067 26.181009
232.322479 28.345091
232.340073 13.00141
232.375793 14.10169
232.427551 75.888092
232.454605 21.02273
232.542709 13.41153
232.572357 25.7623
232.595795 5.85335
232.629807 23.241011
232.763046 12.81505
232.795914 14.85929
232.82991 18.207951
232.902908 17.024691
232.983932 12.19254
233.065186 108.159203
233.108719 61306.089844
233.461777 31.42314
233.526108 36.283428
233.552734 7.3375
233.575043 117.060303
233.595947 32.65266
233.623352 86.558907
233.651093 36.769428
233.662735 44.12859
233.691147 86.174217
233.70961 89.796013
233.723297 22.44346
233.765244 13.47801
233.780533 48.26683
233.831116 61.67218
233.851959 34.87241
233.87056 4.060606
233.884598 64.481934
233.900803 56.007488
233.979004 90.058487
234.033798 39.221069
234.046494 5.592803
234.245956 16.241791
234.263397 27.237301
234.297958 27.848579
234.313889 3.693453
234.366425 20.94232
234.422729 21.40019
234.435181 18.190479
234.451401 7.519737
234.493286 3.201389
234.550644 34.510639
234.594604 28.667749
234.640182 14.24242
234.944092 17.845011
234.957428 5.727941
235.011017 12.69437
235.075073 30.54763
235.12207 112.188103
235.161484 10.32353
235.284882 11.17671
235.315689 15.99114
235.343857 15.13676
235.387161 3.09375
235.450363 11.46002
235.501724 8.112655
235.859589 5.339798
235.911102 3.826993
236.049255 2.875
236.228348 2.513889
236.266724 4.815104
236.670593 16.381981
237.057556 11.53064
237.242294 4.628205
237.310852 4.483477
237.412064 2.706731
237.71199 8.573529
238.802689 11.02667
239.183701 4.004167
239.285934 3.0075
239.607132 3.746711
240.137192 10.50667
240.395798 4.83716
240.99527 13.42593
241.016495 5.841872
241.465424 1.854167
241.643402 3.541667
242.097275 93.990494
242.11113 27.25
242.51474 2.875
242.757523 4.132676
242.953888 8.091216
243.542511 12.76042
244.112274 525.376587
244.127502 41.857948
244.344086 2.008929
244.662262 3.979167
244.734909 7.040833
244.778748 16.50082
244.815781 1.928571
245.140457 62.223652
245.295959 5.679167
245.37291 3.681547
245.454788 1.361111
245.4953 5.697601
245.572754 5.428442
245.601837 5.009804
245.656647 5.703703
245.743622 3.508929
245.956345 1.6875
246.14856 271.782288
246.196457 4.8625
246.24559 5.244907
246.289993 4.074405
246.403091 3.265931
246.458588 6.755435
246.489716 9.316667
247.092484 3.182449
247.122238 380.195007
247.247665 18.352791
247.6642 3.167438
248.028488 6.303409
248.154892 9.635833
248.455963 5.697601
249.532486 4.225
250.967834 3.506944
253.850677 23.56587
256.133301 67.956467
256.485596 7.355511
257.66449 3.694257
257.688843 4.200833
258.1492 132.846405
259.122192 538.692017
259.225586 3.185606
259.280884 2.5375
259.349518 17.04217
259.376099 3.833928
259.392548 4.722222
259.488342 30.351999
259.514313 16.069441
259.546844 3.500833
259.560425 24.716299
259.592438 29.509821
259.64798 22.64901
259.679382 38.18972
259.702942 19.66766
259.720398 9.389219
259.745911 61.399849
259.76944 16.949961
259.787018 74.746567
259.809174 49.063629
259.8526 39.31963
259.878662 7.578526
259.907318 12.57551
259.966064 3.279166
260.006561 10.70588
260.03891 45.201
260.166321 14.43014
260.2229 8.53592
260.246735 16.500919
260.266327 22.078621
260.290588 7.333333
260.307007 1.834559
260.332733 9.905357
260.368774 6.031746
260.388306 6.900794
260.432831 7.990162
260.46994 6.362145
260.506439 9.74829
260.548431 2.846154
260.610229 4.5075
260.66861 34.38118
260.728149 10.81092
261.015106 47.810711
261.093231 169.265594
261.139984 32055.519531
261.311554 9.967949
261.330902 26.32645
261.378967 12.14153
261.435364 39.420959
261.500488 41.52298
261.546356 32.936359
261.571075 23.593069
261.601929 10.60264
261.621429 52.654819
261.647125 41.7122
261.666443 33.591709
261.687897 16.56288
261.707336 24.75275
261.765594 14.59402
261.838257 2.320076
261.852966 21.46722
261.876068 56.275631
261.89917 43.75856
261.952332 62.393211
261.985413 13.75393
262.05484 52.146751
262.113129 18.706511
262.182922 33.927341
262.239563 15.77645
262.263763 13.48148
262.274963 13.03141
262.297821 4.354167
262.473236 3.53293
262.511658 23.197411
262.725159 12.36446
262.788391 9.730469
262.809875 3.409091
262.827667 8.004762
262.878174 2.726716
262.925964 9.5
263.04187 3.877717
263.088257 15.3889
263.606628 3.177696
263.708221 3.667262
263.736481 10.16697
263.776031 5.002193
263.84494 1.928571
264.007721 4.002193
264.114441 4.008333
264.200012 10.05128
264.224792 6.072024
264.262512 2.847756
264.347626 6.001984
264.639954 7.935467
264.891144 15.18713
264.963867 5.840278
265.190674 8.927443
265.274963 8.255435
265.30481 2.779166
265.502106 4.711957
266.523376 6.203703
267.05191 3.387769
267.296417 5.946934
267.370361 3.1675
267.713593 8.494103
268.975555 2.670833
269.662018 7.35645
270.146729 48.906639
272.128876 72.096123
272.166656 42.407612
272.577667 6.762236
273.2052 3.0375
273.928436 6.689312
273.960785 2.479167
274.056122 4.898148
274.1427 527.63623
274.225708 2.625
274.3862 8.726808
274.482147 9.434295
274.574402 5.862145
274.596619 10.06522
274.84317 9.714967
274.995392 9.564212
275.181244 42.648151
275.231964 8.863907
275.566772 2.704167
276.118225 21.606689
277.133972 32.51395
277.168579 5.526785
282.488312 9.026175
282.569611 4.690407
286.143951 56.26321
286.377655 6.05
288.158173 562.473328
288.216766 2.833333
288.320435 5.507242
288.418304 12.41762
288.506897 2.560606
288.938416 4.725291
289.067841 6.266666
290.174255 281.051208
290.720001 4.705128
291.587982 3.828305
294.285095 3.100833
295.355438 11.66782
298.137634 45.18298
298.339233 5.350134
298.369232 4.211111
298.579987 6.122685
299.120361 4.677696
299.289368 2.560606
299.933868 4.6875
300.158722 544.147888
300.343536 5.204167
300.409851 2.544384
300.446289 5.510467
300.500641 6.465278
300.687286 6.833627
300.862244 4.011111
301.164185 394.258392
301.36969 5.41875
301.4841 8.502799
301.520355 4.014881
301.659302 3.666667
302.13446 6.668056
303.105865 4.531863
303.668671 3.887769
307.701355 4.127604
317.18689 11.92629
324.053986 5.342105
342.888519 1.520833
346.014069 11.93841
355.182953 31.49902
369.15329 18.346149
379.146149 3.047619
380.841553 3.008929
381.15863 31.023411
383.173523 59.75359
383.444366 4.134167
383.555145 6.214285
384.837158 2.678571
385.193085 150.755402
385.444794 3.894608
385.479248 4.334936
385.670258 7.843137
385.88205 2.851293
393.594086 8.002718
394.306244 16.031719
394.437164 4.300595
394.761902 6.870535
395.174347 17.493521
396.124908 7.242816
396.179535 18.789881
410.171082 4.6875
411.16571 8.494517
411.969513 4.400834
412.174774 80.795662
412.362579 3.109069
412.64093 3.246795
413.074463 3.826993
422.787628 2.816667
423.918671 4.409274
424.433777 5.334877
424.529785 3.12963
424.576874 11.21946
424.617065 4.296297
424.639191 4.074405
424.725006 12.92644
424.754608 3.463542
424.799377 3.080128
424.85675 5.019737
424.957733 4.420139
425.185852 290.174103
425.274017 14.03111
425.630798 2.8375
426.385468 4.019737
426.783661 3.878788
427.202362 2837.816895
427.285614 12.93745
427.347412 4.286706
427.377411 12.05865
427.419739 20.92778
427.445709 29.645781
427.499969 18.75091
427.567352 24.786779
427.617737 10.81359
427.696838 18.755659
427.738037 4.657052
427.762878 24.887199
427.81842 3.05787
427.846954 17.54167
427.976227 17.04948
428.036804 8.71875
428.132507 13.61038
428.171173 16.21456
428.391846 15.80254
428.790344 8.764544
428.86969 5.273438
429.310791 12.375
429.653076 4.351293
429.978119 6.104167
430.669678 3.422149
431.349365 5.87037
435.513855 4.000595
451.998505 4.208333
453.556732 8.694079
482.005493 17.361111
617.898926 3.878788
640.962341 6.946934
943.658569 6.51929
994.123657 3.167659
1115.336426 6.25926
1168.746704 4.44079
1196.849243 37.09964
1334.971191 6.198506
1474.834717 11.43333
1479.454956 7.000286
1594.948975 5.051445
1597.772827 14.93667
