>compound Perindopril Erbumine (Aceon)
>formula C19H32N2O5
>ionization [M+Na]+
>parentmass 391.221588
#inchi InChI=1S/C19H32N2O5/c1-4-8-14(19(25)26-5-2)20-12(3)17(22)21-15-10-7-6-9-13(15)11-16(21)18(23)24/h12-16,20H,4-11H2,1-3H3,(H,23,24)/t12-,13-,14?,15-,16+/m0/s1
#inchikey IPVQLZZIHOAWMC
#origInchi InChI=1S/C19H32N2O5.C4H11N/c1-4-8-14(19(25)26-5-2)20-12(3)17(22)21-15-10-7-6-9-13(15)11-16(21)18(23)24;1-4(2,3)5/h12-16,20H,4-11H2,1-3H3,(H,23,24);5H2,1-3H3/t12-,13-,14?,15-,16+;/m0./s1
#Ion_Source LC-ESI
#Instrument qTof
#Compound_Source Commercial
#PI Dorrestein
#Data_Collector Garg_Neha
#Scan -1
#Precursor_MZ 391.22
#ExactMass 368.231
#Charge 1
#CAS_Number 107133-36-8, 82834-16-0 (free base)
#Pubmed_ID N/A
#Smiles CCCC(N[C@H](C(N1[C@@]2([C@](C[C@@H]1C(=O)O)(CCCC2)[H])[H])=O)C)C(OCC)=O.C(C)(N)(C)C
#INCHI_AUX N/A
#Library_Class 1
#SpectrumID CCMSLIB00000078172
#IonMode Positive
#UpdateWorkflowName UPDATE-SINGLE-ANNOTATED-GOLD
#LibraryQualityString Gold
#TaskID 77f51c88eb8b467eb4a01dd2d0cb90d2
##Scan# 1113
#SpectrumFile Plate3_1_20_GG9_01_16498.mzXML
#LibraryName FDALibrary_2_04302014.mgf
#MQScore -1
#Organism FDALibrary_2_04302014
#TIC_Query 0
#RT_Query -1
#MZErrorPPM -1
#SharedPeaks 0
#MassDiff 0
#LibMZ -1
#SpecMZ 391.22
#SpecCharge 0
#internalFilename spec-00000.mgf

>collision 10
46.81395 160.0
53.287697 184.0
59.65366 156.0
64.746246 168.0
66.84005 144.0
72.84156 204.0
89.655853 152.0
94.218445 184.0
98.097321 168.0
98.467201 192.0
101.30368 168.0
109.098473 140.0
112.272812 180.0
124.113708 296.0
129.743851 176.0
134.352188 224.0
147.081116 124.0
148.841766 184.0
149.024155 188.0
155.733231 156.0
156.138351 184.0
166.082138 324.0
167.095276 176.0
168.033081 164.0
171.964478 164.0
172.1306 992.0
173.130249 168.0
175.645798 180.0
182.323639 204.0
183.179245 164.0
186.189667 168.0
190.08252 184.0
192.099487 1248.0
193.100235 328.0
194.114731 948.0
195.123383 160.0
200.472488 164.0
201.011093 180.0
205.451508 244.0
210.165421 152.0
218.451492 208.0
227.059677 156.0
230.485474 160.0
238.199738 168.0
240.120056 1940.0
241.127029 140.0
242.129776 176.0
247.116089 172.0
259.270081 188.0
272.306702 164.0
278.479736 164.0
284.188232 160.0
294.005096 144.0
301.087616 152.0
305.774933 156.0
307.842255 172.0
318.922791 160.0
327.373444 184.0
328.757751 184.0
329.22345 144.0
332.071686 208.0
332.902771 176.0
336.259369 172.0
337.179443 160.0
355.381744 208.0
356.884125 192.0
369.02124 152.0
375.661438 144.0
383.62674 164.0
388.742645 172.0
389.056641 140.0
389.213593 152.0
389.237732 196.0
389.924713 188.0
390.214996 280.0
390.534149 164.0
390.722961 156.0
390.801636 160.0
390.884277 204.0
390.999664 148.0
391.093231 212.0
391.154083 180.0
391.221588 13852.0
391.898651 172.0
392.222107 3812.0
393.222961 644.0
393.301849 120.0
394.817291 132.0
440.69101 164.0
1823.136597 252.0
1987.122314 208.0
