>compound Eplerenone
>formula C24H30O6 
>ionization [M+H]+
>parentmass 415.211395
#inchi InChI=1S/C24H30O6/c1-21-7-4-14(25)10-13(21)11-15(20(27)28-3)19-16-5-8-23(9-6-18(26)30-23)22(16,2)12-17-24(19,21)29-17/h10,15-17,19H,4-9,11-12H2,1-3H3/t15-,16+,17-,19+,21+,22+,23-,24-/m1/s1
#inchikey JUKPWJGBANNWMW
#Ion_Source LC-ESI
#Instrument qTof
#Compound_Source Isolated
#PI Sirenas
#Data_Collector Ed Esquenazi 
#Scan -1
#Precursor_MZ 415.212
#ExactMass 0.0
#Charge 1
#CAS_Number N/A
#Pubmed_ID N/A
#Smiles N/A
#INCHI_AUX N/A
#Library_Class 3
#SpectrumID CCMSLIB00000004469
#IonMode Positive
#UpdateWorkflowName UPDATE-SINGLE-ANNOTATED-BRONZE
#LibraryQualityString Bronze
#TaskID d19310cd93df49b68e9fcbec27720eb5
##Scan# 1
#SpectrumFile Eplerenone.mgf
#LibraryName fda_library.mgf
#MQScore -1
#Organism fda_library
#TIC_Query 0
#RT_Query -1
#MZErrorPPM -1
#SharedPeaks 0
#MassDiff 0
#LibMZ -1
#SpecMZ 415.212
#SpecCharge 0
#internalFilename spec-00000.mgf

>collision 10
105.073486 39.98851
107.045692 35.106682
109.064926 36.024971
111.042923 326.939209
115.05648 45.628639
117.070305 58.675659
121.064537 962.489807
121.106285 23.193451
125.02269 22.459749
131.082291 23.68799
132.053848 31.613131
134.10257 34.652901
135.081757 87.415649
145.068558 28.66667
147.041214 24.385691
147.078949 66.075607
149.061874 98.861092
153.091843 77.772011
157.097565 91.472618
159.082932 48.260368
159.115997 86.276817
161.060013 42.926071
161.093307 78.710182
162.146912 22.277491
162.211868 63.610371
162.274323 23.64978
162.383804 26.26849
163.042313 35.84536
163.075027 13405.230469
163.130051 170.210999
163.257095 37.877682
163.288666 38.113602
163.317627 30.993521
163.335419 22.510639
163.364944 28.45999
163.403992 22.852711
163.425674 21.35187
163.441208 48.40625
163.479828 29.02634
163.570938 22.462641
163.695496 28.850121
165.229187 35.479172
171.080811 159.656799
173.095322 35.501759
175.109528 108.584801
179.070129 153.256195
179.104218 79.564346
183.11319 28.655849
185.094711 97.512016
189.088928 65.773354
193.083115 76.939651
193.119217 42.666889
195.101456 561.496216
195.137909 32.500721
195.361511 21.89889
199.118896 30.046881
201.125961 198.069595
203.103989 447.427307
205.085999 35.86517
205.122299 44.558819
207.133942 30.06933
215.067657 27.140869
215.104095 23.038429
217.118576 74.312866
219.136353 236.408203
221.093399 23.639709
221.116333 523.659973
223.151794 29.575251
225.129562 22.630211
229.080948 83.646873
229.115814 28.47501
231.099396 267.547699
233.110184 24.76412
235.132568 36.78231
237.125061 95.389137
239.140854 102.9888
243.128021 25.31019
247.125153 39.318699
251.142136 51.91423
253.103561 24.374359
255.137024 37.578892
257.152557 38.624538
259.130768 29.689569
261.124451 60.191002
263.138977 31.89921
265.157806 62.682331
267.132812 78.260986
269.120331 37.94474
271.173676 21.523649
273.13443 26.8512
275.135406 47.351719
277.155121 244.922104
279.135315 33.498039
281.123077 24.152781
283.131165 34.724018
283.164215 51.641129
284.135498 24.745501
287.125214 44.929722
287.143066 28.33078
287.161713 25.67935
287.246857 23.132681
291.138245 35.90469
291.171814 127.419502
292.13208 21.94379
293.149445 57.64946
295.127563 44.074711
295.167175 237.999298
297.144714 26.45863
299.161957 355.572296
301.158417 171.712296
305.155487 80.771538
305.172089 41.493279
309.181152 113.980499
309.189362 48.935139
311.168304 38.604321
311.199829 358.381287
313.176514 31.36648
317.26059 22.28763
319.166534 936.096985
321.183167 46.750439
323.162628 173.520401
329.150696 39.859482
335.159851 39.548359
335.190399 25.734921
337.141083 30.310539
337.179047 2440.705078
337.255859 29.45763
337.534973 28.30014
338.182281 40.943859
339.150421 32.22575
339.193085 44.997421
341.171539 27.278761
347.163239 555.856079
351.194122 110.148003
353.170685 35.34391
355.153534 22.88028
355.188904 1006.750977
356.100616 24.486389
357.168823 108.351601
361.17807 104.677902
365.174347 830.0
369.2034 312.491913
371.184052 139.916199
373.196991 113.847603
379.190308 795.507874
383.18512 1208.777954
396.936005 26.1563
397.200409 2774.760986
397.279938 28.879339
397.526978 28.09976
412.46347 37.82539
412.522766 37.897751
412.59491 46.305038
412.610779 27.81646
412.667297 35.563099
412.720673 69.287697
412.780701 27.487459
412.856506 22.46759
412.894836 44.145439
412.939667 37.404949
413.003418 34.696621
413.299042 35.349041
415.099152 52.28709
415.211395 21316.970703
415.237244 46.5979
415.501434 57.95113
415.571838 74.187286
415.637024 90.303421
415.695923 66.413437
415.755096 49.38522
415.798889 29.498779
415.81955 71.143242
415.848022 37.65184
415.875641 92.640213
415.950409 50.21653
416.002991 86.289093
416.055298 69.972656
416.175751 48.733719
416.415253 39.074421
416.460846 26.50588
416.777008 31.24732
416.830505 36.210461
417.029022 21.488859
