>compound NCGC00017285-04!HAPLAMINE
>formula C15H15NO3
>ionization [M+H]+
>parentmass 258.112213
#inchi InChI=1S/C15H15NO3/c1-15(2)7-6-10-13(19-15)11-8-9(18-3)4-5-12(11)16-14(10)17/h4-8H,1-3H3,(H,16,17)
#inchikey IXRKDGGGFFCRIR
#Ion_Source LC-ESI
#Instrument qTOF
#Compound_Source Prestwick Phytochem Lib
#PI Dorrestein
#Data_Collector VVP/LMS
#Scan -1
#Precursor_MZ 258.113
#ExactMass 257.105
#Charge 1
#CAS_Number N/A
#Pubmed_ID N/A
#Smiles COC1=CC\2=C(NC(=O)C\3=C2OC(C)(C)\C=C3)C=C1
#INCHI_AUX N/A
#Library_Class 1
#SpectrumID CCMSLIB00000078802
#IonMode Positive
#UpdateWorkflowName UPDATE-SINGLE-ANNOTATED-GOLD
#LibraryQualityString Gold
#TaskID 67c915c6594c435cadc1fe2b5358144d
##Scan# 2035
#SpectrumFile p1-D04_GD4_01_17912.mzXML
#LibraryName phytochem_lib.mgf
#MQScore -1
#Organism phytochem_lib
#TIC_Query 0
#RT_Query -1
#MZErrorPPM -1
#SharedPeaks 0
#MassDiff 0
#LibMZ -1
#SpecMZ 258.113
#SpecCharge 0
#internalFilename spec-00000.mgf

>collision 10
94.976372 144.0
94.997711 212.0
95.050438 864.0
95.112198 140.0
95.170433 172.0
95.187912 192.0
95.228691 76.0
95.257828 28.0
95.279198 156.0
95.308022 124.0
95.331657 200.0
95.353035 152.0
95.521408 236.0
95.57666 168.0
95.607796 152.0
95.691498 216.0
95.763542 192.0
96.034454 36.0
96.057861 196.0
96.094933 152.0
96.108589 152.0
96.133957 192.0
96.165176 152.0
96.434708 92.0
96.575478 180.0
96.624382 76.0
96.649811 120.0
96.686996 152.0
96.704605 148.0
96.826553 196.0
96.851456 208.0
96.887802 180.0
96.925896 152.0
96.974884 76.0
97.008209 104.0
97.025848 128.0
97.061142 164.0
97.222664 224.0
97.345665 136.0
97.361374 188.0
97.579483 140.0
97.823418 84.0
97.850983 180.0
97.945503 120.0
98.038101 100.0
98.087372 200.0
98.251854 168.0
98.29248 144.0
98.310242 224.0
98.333923 180.0
98.483971 100.0
98.557068 252.0
98.570892 64.0
98.64402 48.0
98.729034 212.0
98.901161 72.0
98.988266 132.0
99.012032 72.0
99.1408 156.0
99.180717 140.0
99.208191 164.0
99.269653 140.0
99.301384 136.0
99.358902 108.0
99.428352 112.0
99.557388 196.0
99.571289 220.0
99.634857 148.0
99.688499 192.0
99.718307 216.0
99.863449 188.0
99.927101 164.0
99.962914 168.0
100.025482 192.0
100.114204 156.0
100.15802 68.0
100.187897 160.0
100.217781 168.0
100.272812 156.0
100.297493 108.0
100.3573 136.0
100.387207 100.0
100.415131 176.0
100.445045 136.0
100.536827 168.0
100.590714 124.0
100.78643 200.0
100.824394 184.0
100.992332 132.0
101.039207 220.0
101.158409 172.0
101.178429 220.0
101.206459 180.0
101.276802 156.0
101.300583 180.0
101.316612 144.0
101.377853 136.0
101.420807 212.0
101.496986 160.0
101.653442 144.0
102.043106 192.0
102.085335 128.0
102.111473 148.0
102.23455 164.0
102.256332 120.0
102.27243 160.0
102.337532 188.0
102.429482 196.0
102.445305 164.0
102.473801 176.0
102.53022 192.0
102.750008 128.0
102.812553 176.0
102.850906 104.0
102.865036 144.0
102.885216 152.0
102.947807 136.0
103.030624 184.0
103.051353 220.0
103.091232 184.0
103.113464 216.0
103.234764 172.0
103.26712 108.0
103.309593 68.0
103.433945 248.0
103.747009 180.0
103.768295 216.0
103.81189 112.0
103.915337 148.0
104.000565 144.0
104.020859 176.0
104.048943 536.0
104.106133 132.0
104.181282 184.0
104.232468 164.0
104.270683 72.0
104.339798 164.0
104.506569 52.0
104.592033 172.0
104.62365 332.0
104.783455 160.0
104.858849 100.0
104.986084 228.0
105.053719 364.0
105.067802 164.0
105.240311 200.0
105.259979 164.0
105.358765 88.0
105.383278 160.0
105.495125 176.0
105.606094 136.0
105.634735 84.0
105.66951 72.0
105.692017 192.0
105.769783 156.0
105.786156 172.0
106.026924 160.0
106.064644 240.0
106.093437 68.0
106.134438 224.0
106.169296 232.0
106.204163 196.0
106.271858 156.0
106.306068 208.0
106.34549 204.0
106.376518 164.0
106.405266 144.0
106.528481 160.0
106.567513 140.0
106.592171 216.0
106.637375 184.0
106.717545 204.0
106.744278 136.0
106.943832 228.0
106.976341 216.0
107.047806 756.0
107.12709 212.0
107.15387 152.0
107.168289 216.0
107.269272 168.0
107.30014 156.0
107.3703 104.0
107.44043 132.0
107.522964 196.0
107.551857 44.0
107.599335 64.0
107.853416 140.0
107.905098 252.0
108.022972 356.0
108.045074 448.0
108.077019 228.0
108.198875 160.0
108.28791 208.0
108.343834 120.0
108.401848 88.0
108.441223 220.0
108.648582 184.0
108.772972 212.0
108.800072 160.0
108.841599 40.0
108.895592 128.0
108.928825 200.0
108.949593 144.0
108.966217 132.0
109.065613 1236.0
109.093491 320.0
109.12001 68.0
109.171989 136.0
109.357147 120.0
109.431671 180.0
109.450829 88.0
109.550797 136.0
109.615379 168.0
109.686386 224.0
109.74044 216.0
109.857231 172.0
110.088898 136.0
110.184982 160.0
110.322906 124.0
110.425362 228.0
110.580185 148.0
110.607391 208.0
110.645073 44.0
110.686943 60.0
110.780579 164.0
110.862907 208.0
110.90493 152.0
110.953033 188.0
111.031456 184.0
111.095634 144.0
111.244629 352.0
111.313911 204.0
111.358009 132.0
111.389519 96.0
111.496666 144.0
111.57444 116.0
111.683784 136.0
111.723755 184.0
111.856323 192.0
111.940536 84.0
112.018463 220.0
112.043739 152.0
112.062706 188.0
112.128021 192.0
112.182823 116.0
112.315674 100.0
112.376846 196.0
112.562592 52.0
112.661858 156.0
112.693542 160.0
112.754822 104.0
112.778069 60.0
112.949341 92.0
112.981064 212.0
113.025497 184.0
113.041168 164.0
113.086868 148.0
113.14402 136.0
113.216919 112.0
113.245659 124.0
113.35582 172.0
113.398201 172.0
113.444832 100.0
113.531769 60.0
113.561455 200.0
113.64843 48.0
113.690872 116.0
113.714211 40.0
113.765152 208.0
113.888313 160.0
113.932922 128.0
114.049789 220.0
114.098679 152.0
114.187256 208.0
114.279457 148.0
114.400764 136.0
114.456116 144.0
114.669144 148.0
114.684059 328.0
115.053368 496.0
115.159851 140.0
115.290169 60.0
115.315819 164.0
115.337189 160.0
115.397697 164.0
115.47403 64.0
115.523224 176.0
115.561729 104.0
115.630203 192.0
115.7061 184.0
115.7351 128.0
115.752228 200.0
115.780067 124.0
115.902161 140.0
115.921448 80.0
115.960022 68.0
116.047585 520.0
116.088654 188.0
116.105804 200.0
116.211441 228.0
116.305336 192.0
116.42556 168.0
116.451332 132.0
116.575935 208.0
116.597015 168.0
116.646858 108.0
116.709206 184.0
116.82534 140.0
116.846855 160.0
116.879128 48.0
116.993195 140.0
117.024818 180.0
117.056816 2708.0
117.149368 180.0
117.167625 316.0
117.19133 188.0
117.208565 116.0
117.262436 220.0
117.312012 200.0
117.331192 196.0
117.359444 92.0
117.488846 148.0
117.512856 156.0
117.631271 160.0
117.769455 140.0
117.855797 124.0
117.877266 164.0
118.01149 172.0
118.030624 408.0
118.038101 348.0
118.062378 376.0
118.097984 92.0
118.12394 148.0
118.325195 124.0
118.374992 180.0
118.707367 128.0
118.756409 184.0
118.854034 112.0
118.916962 236.0
118.960373 56.0
118.988594 36.0
119.036873 664.0
119.155823 188.0
119.203621 140.0
119.255783 220.0
119.320992 68.0
119.416672 188.0
119.462349 176.0
119.525436 72.0
119.629906 180.0
119.675621 224.0
119.697395 76.0
119.780159 208.0
119.854225 160.0
119.886909 56.0
120.045219 2964.0
120.078758 148.0
120.094902 192.0
120.170372 132.0
120.218048 184.0
120.235832 148.0
120.328354 228.0
120.371178 204.0
120.504417 76.0
120.663956 116.0
120.768921 80.0
120.897995 188.0
120.913315 148.0
121.056694 316.0
121.228401 164.0
121.285645 192.0
121.336067 228.0
121.410614 148.0
121.452286 140.0
121.487381 64.0
121.638794 176.0
121.658546 176.0
121.7332 136.0
121.95948 128.0
121.990257 128.0
122.021828 188.0
122.060158 16904.0
122.117783 132.0
122.136757 64.0
122.156105 76.0
122.180702 192.0
122.20578 32.0
122.243179 52.0
122.262985 44.0
122.324615 68.0
122.397263 44.0
122.412956 160.0
122.427895 224.0
122.461128 76.0
122.489761 168.0
122.543732 72.0
122.619759 56.0
122.791718 148.0
122.827011 76.0
122.855682 104.0
122.913048 52.0
122.985878 156.0
123.016777 180.0
123.06562 1296.0
123.151466 140.0
123.169136 84.0
123.217735 196.0
123.250877 104.0
123.326012 180.0
123.348114 152.0
123.43557 180.0
123.496262 40.0
123.538284 184.0
123.571472 180.0
123.75074 164.0
123.775093 196.0
123.956139 120.0
124.038734 172.0
124.067551 152.0
124.211685 140.0
124.233871 104.0
124.335938 104.0
124.362518 180.0
124.486893 212.0
124.573509 76.0
124.589058 96.0
124.613495 80.0
124.631271 164.0
124.649048 168.0
124.673492 128.0
124.722382 336.0
124.820206 152.0
124.935852 60.0
124.975899 132.0
125.015953 172.0
125.127243 80.0
125.234131 156.0
125.347748 136.0
125.427628 196.0
125.480408 208.0
125.500946 180.0
125.505325 132.0
125.557289 104.0
125.630898 160.0
125.764778 84.0
125.782631 148.0
125.979134 232.0
126.052864 156.0
126.14003 84.0
126.263 120.0
126.289833 116.0
126.410645 168.0
126.612114 36.0
126.632271 164.0
126.764442 164.0
126.878754 132.0
126.89592 152.0
126.91687 64.0
127.006622 164.0
127.044197 504.0
127.246361 224.0
127.347725 68.0
127.53421 192.0
127.54995 164.0
127.592659 172.0
127.678101 124.0
127.693184 48.0
127.954865 172.0
127.997643 100.0
128.054047 228.0
128.080566 376.0
128.110245 208.0
128.209061 136.0
128.253113 100.0
128.428635 160.0
128.486725 140.0
128.588272 100.0
128.7892 172.0
128.818573 32.0
128.960922 172.0
128.979004 132.0
129.012909 184.0
129.040039 116.0
129.066833 160.0
129.105606 172.0
129.153107 140.0
129.196091 168.0
129.234543 192.0
129.295639 188.0
129.341919 148.0
129.517517 136.0
129.587738 152.0
129.611847 88.0
129.648926 120.0
129.682922 176.0
129.769058 136.0
129.784927 212.0
129.864304 192.0
129.925537 152.0
130.016296 156.0
130.036102 176.0
130.06488 932.0
130.10936 152.0
130.243332 208.0
130.320572 164.0
130.585617 188.0
130.889206 152.0
131.016571 256.0
131.043854 212.0
131.070419 328.0
131.094208 176.0
131.126114 116.0
131.205902 64.0
131.240097 116.0
131.612 232.0
131.648544 144.0
131.723907 144.0
131.822144 192.0
131.873016 184.0
131.95015 108.0
132.04393 1276.0
132.079407 180.0
132.142258 104.0
132.240646 100.0
132.339081 136.0
132.52977 204.0
132.69191 148.0
132.886856 124.0
132.905212 48.0
132.948807 160.0
132.97406 144.0
133.008484 132.0
133.052734 1512.0
133.194473 232.0
133.437714 160.0
133.50473 180.0
133.707184 252.0
133.785446 116.0
133.826874 124.0
133.953537 32.0
134.022018 232.0
134.060059 348.0
134.094391 184.0
134.126358 264.0
134.260086 136.0
134.329269 180.0
134.43309 168.0
134.596985 232.0
134.654709 44.0
134.724014 192.0
134.809494 168.0
134.844162 220.0
134.874207 272.0
134.925064 116.0
134.992111 144.0
135.012619 328.0
135.042175 2048.0
135.064606 152.0
135.149399 68.0
135.290573 156.0
135.357727 92.0
135.431824 100.0
135.512909 140.0
135.600967 192.0
135.624146 96.0
135.716873 108.0
135.842102 156.0
135.867615 152.0
135.88385 172.0
135.941864 196.0
135.983643 156.0
136.04631 136.0
136.07605 1456.0
136.134537 176.0
136.171692 144.0
136.248352 124.0
136.271912 112.0
136.31308 148.0
136.634262 40.0
136.722672 152.0
136.818787 144.0
136.853668 160.0
137.030029 220.0
137.064285 212.0
137.068008 148.0
137.228134 168.0
137.342407 184.0
137.372726 92.0
137.405396 108.0
137.428726 104.0
137.487061 200.0
137.536072 32.0
137.57341 176.0
137.620102 80.0
137.762558 196.0
137.973511 212.0
138.036011 156.0
138.103836 120.0
138.206757 76.0
138.248886 160.0
138.356552 240.0
138.38739 276.0
138.504074 216.0
138.607147 152.0
138.679794 184.0
138.782944 48.0
138.906784 244.0
138.989349 208.0
139.04837 108.0
139.184174 92.0
139.506042 184.0
139.628296 76.0
139.727097 216.0
140.04689 716.0
140.073135 140.0
140.106125 44.0
140.124969 192.0
140.160309 212.0
140.242783 132.0
140.287567 72.0
140.322937 112.0
140.344162 160.0
140.370087 64.0
140.396027 92.0
140.433762 148.0
140.530487 224.0
140.61528 192.0
140.700409 96.0
140.719299 92.0
140.785416 184.0
140.976761 124.0
140.995667 208.0
141.029205 204.0
141.066025 772.0
141.172958 120.0
141.20134 204.0
141.236816 120.0
141.284119 60.0
141.438873 212.0
141.4879 188.0
141.537369 160.0
141.652573 136.0
141.845352 208.0
142.030304 188.0
142.063263 792.0
142.118073 160.0
142.167908 116.0
142.203506 152.0
142.329315 44.0
142.357803 140.0
142.443314 120.0
142.488449 160.0
142.849197 220.0
142.904495 176.0
142.987793 200.0
143.040237 376.0
143.077026 372.0
143.130615 112.0
143.225876 124.0
143.252075 52.0
143.316406 108.0
143.402191 44.0
143.521378 216.0
143.58577 128.0
143.609619 156.0
143.626312 148.0
143.6931 160.0
143.903122 116.0
143.927002 232.0
144.017746 144.0
144.04512 644.0
144.080811 952.0
144.125244 80.0
144.15535 160.0
144.292557 172.0
144.321243 168.0
144.378632 232.0
144.699265 168.0
144.725601 128.0
144.972321 116.0
145.053268 3488.0
145.084763 508.0
145.142517 132.0
145.238434 184.0
145.255234 104.0
145.294998 220.0
145.370392 184.0
145.413589 92.0
145.454391 152.0
145.471191 112.0
145.497589 60.0
145.600845 224.0
145.629669 112.0
145.64888 108.0
145.766602 116.0
145.80986 248.0
145.944473 68.0
145.975723 164.0
146.011795 120.0
146.059235 1088.0
146.225922 124.0
146.500412 180.0
146.548584 56.0
146.596786 40.0
146.693192 52.0
146.727371 200.0
146.832611 116.0
146.857147 228.0
146.881271 156.0
146.900558 60.0
146.941574 116.0
146.970535 188.0
147.034683 144.0
147.066666 484.0
147.197418 184.0
147.250549 156.0
147.286774 168.0
147.530838 196.0
147.557434 168.0
147.632385 192.0
147.654144 168.0
147.794449 144.0
147.818649 168.0
147.850098 176.0
147.913025 56.0
147.932404 224.0
147.968704 116.0
148.037903 640.0
148.074661 560.0
148.164871 152.0
148.198792 168.0
148.21817 216.0
148.23999 160.0
148.499374 44.0
148.826981 208.0
148.921692 160.0
148.941116 60.0
149.046448 824.0
149.140549 160.0
149.169525 152.0
149.18811 168.0
149.242462 164.0
149.383514 80.0
149.699905 232.0
149.7267 160.0
149.775406 100.0
149.816818 240.0
149.833878 180.0
149.860672 88.0
150.054489 4420.0
150.126358 56.0
150.182449 148.0
150.231232 164.0
150.297104 44.0
150.327179 136.0
150.645309 204.0
150.704865 188.0
151.033752 216.0
151.055283 536.0
151.078918 192.0
151.120499 96.0
151.154755 132.0
151.189011 108.0
151.208588 172.0
151.240417 32.0
151.259995 152.0
151.324905 224.0
151.412949 144.0
151.534271 148.0
151.607773 40.0
151.659241 92.0
152.056259 836.0
152.244583 124.0
152.353012 208.0
152.375778 144.0
152.751892 200.0
152.872452 96.0
152.94136 56.0
152.96106 180.0
153.06279 316.0
153.145721 56.0
153.308319 96.0
153.510452 152.0
153.581985 36.0
153.606644 164.0
153.699402 60.0
153.794174 180.0
153.883041 60.0
153.975082 216.0
154.018799 180.0
154.025986 176.0
154.064407 2496.0
154.127563 112.0
154.159683 172.0
154.179901 176.0
154.21405 128.0
154.261017 96.0
154.300568 140.0
154.403885 132.0
154.741516 136.0
154.827606 156.0
154.857315 204.0
155.039337 788.0
155.070618 1176.0
155.206741 124.0
155.259216 196.0
155.288605 196.0
155.417557 200.0
155.434937 68.0
155.631317 132.0
155.67572 120.0
155.698059 140.0
155.876923 156.0
156.051346 224.0
156.07814 684.0
156.157837 136.0
156.267288 184.0
156.391708 140.0
156.491287 64.0
156.558517 224.0
156.747833 104.0
156.840042 84.0
156.969681 216.0
157.051926 1144.0
157.086792 676.0
157.205841 160.0
157.31897 44.0
157.344727 248.0
157.385895 168.0
157.438812 52.0
157.57074 176.0
157.728256 132.0
157.773621 220.0
157.826126 164.0
157.861603 84.0
157.946167 92.0
158.003693 56.0
158.059753 5372.0
158.098785 276.0
158.118805 64.0
158.371674 88.0
158.554565 168.0
158.609695 80.0
158.747589 164.0
158.818314 100.0
158.933212 136.0
159.008484 108.0
159.032822 236.0
159.066452 588.0
159.103745 416.0
159.174179 220.0
159.236954 168.0
159.523453 180.0
159.626465 60.0
159.694366 124.0
159.779892 128.0
159.837769 176.0
159.870483 228.0
159.895645 180.0
159.92836 148.0
160.038544 1004.0
160.07518 7668.0
160.102859 336.0
160.144897 48.0
160.185196 32.0
160.233047 132.0
160.291 156.0
160.311462 172.0
160.343918 52.0
160.366608 48.0
160.444748 128.0
160.500214 172.0
160.543076 232.0
160.931671 48.0
160.982162 212.0
161.046753 2188.0
161.080231 840.0
161.108459 80.0
161.169083 136.0
161.226288 176.0
161.245483 132.0
161.262589 240.0
161.366226 128.0
161.401627 208.0
161.593842 100.0
161.652039 148.0
161.773773 128.0
161.803909 180.0
161.841888 60.0
161.879868 144.0
161.935577 44.0
162.000168 184.0
162.055313 4312.0
162.086899 276.0
162.120514 132.0
162.157104 264.0
162.23204 180.0
162.315704 88.0
162.361343 128.0
162.396851 148.0
162.589676 140.0
162.632004 164.0
162.650589 56.0
162.675964 148.0
162.813065 28.0
162.846085 312.0
163.024673 196.0
163.063309 320.0
163.089249 148.0
163.280685 160.0
163.313736 104.0
163.350174 172.0
163.379883 116.0
163.407867 200.0
163.440933 164.0
163.537643 176.0
163.55545 176.0
163.705673 156.0
164.056641 180.0
164.177109 72.0
164.282059 172.0
164.486267 112.0
164.549637 128.0
164.642685 200.0
164.966049 128.0
165.04274 124.0
165.068497 384.0
165.214096 124.0
165.293411 152.0
165.449539 88.0
165.731247 160.0
165.838348 212.0
166.00296 108.0
166.028595 184.0
166.067017 288.0
166.110672 212.0
166.272995 180.0
166.361603 192.0
166.403229 208.0
166.439163 204.0
166.618958 144.0
166.657486 116.0
166.790909 148.0
166.860535 160.0
166.927383 160.0
167.001968 184.0
167.038834 360.0
167.073853 1008.0
167.135727 68.0
167.153748 80.0
167.230942 120.0
167.256683 164.0
167.573425 160.0
167.648148 148.0
167.67392 80.0
167.748672 196.0
168.043854 140.0
168.080246 3796.0
168.148453 56.0
168.21814 112.0
168.24913 32.0
168.285263 252.0
168.378235 40.0
168.525467 128.0
168.794281 64.0
168.838242 44.0
168.926178 28.0
168.967575 168.0
169.052414 1016.0
169.088287 4020.0
169.118317 116.0
169.166824 168.0
169.184952 152.0
169.236725 156.0
169.267807 204.0
169.460602 212.0
169.487976 88.0
169.557938 116.0
169.633911 180.0
169.819046 180.0
169.86647 140.0
169.884644 160.0
170.059067 6544.0
170.095352 644.0
170.131165 92.0
170.19487 112.0
170.260986 52.0
170.320724 216.0
170.406448 60.0
170.473999 104.0
170.54158 188.0
170.620346 224.0
170.676758 196.0
170.713165 36.0
170.742554 164.0
170.848404 196.0
171.033096 180.0
171.066681 1076.0
171.103897 648.0
171.139114 140.0
171.16333 256.0
171.181549 204.0
171.22583 80.0
171.267502 36.0
171.319595 44.0
171.343033 140.0
171.387329 44.0
171.422501 152.0
171.45314 124.0
171.48114 96.0
171.541092 176.0
171.62973 164.0
171.64798 76.0
171.73143 156.0
171.749695 184.0
171.767944 136.0
171.840988 168.0
171.987122 180.0
172.038452 2288.0
172.073761 2744.0
172.180984 64.0
172.209061 68.0
172.22995 96.0
172.274246 184.0
172.389313 48.0
172.428513 108.0
172.472946 44.0
172.525223 400.0
172.611511 112.0
172.674271 144.0
172.713501 156.0
172.807678 128.0
172.84169 176.0
172.865234 128.0
172.88356 176.0
172.971741 156.0
173.046951 12548.0
173.082642 1824.0
173.119156 44.0
173.137482 140.0
173.278931 44.0
173.339188 164.0
173.393646 144.0
173.412567 232.0
173.628632 156.0
173.714111 160.0
173.758698 100.0
173.805923 172.0
173.962936 92.0
174.051804 2296.0
174.088562 848.0
174.12619 112.0
174.155075 96.0
174.260147 96.0
174.283798 104.0
174.402054 80.0
174.42308 80.0
174.448303 228.0
174.536133 244.0
174.704453 68.0
174.783371 116.0
174.851791 72.0
174.97551 100.0
175.061798 488.0
175.093414 144.0
175.169464 224.0
175.212524 164.0
175.265228 80.0
175.283661 60.0
175.312653 100.0
175.360092 52.0
175.515625 48.0
175.716064 100.0
175.795227 96.0
176.034653 2392.0
176.070694 4144.0
176.119949 148.0
176.238831 124.0
176.273544 116.0
176.294327 80.0
176.370956 180.0
176.392883 164.0
176.55867 172.0
176.817245 184.0
176.87616 112.0
176.934402 216.0
177.01384 160.0
177.042328 148.0
177.075241 508.0
177.159729 192.0
177.199234 152.0
177.323776 104.0
177.344986 44.0
177.470337 180.0
177.562393 128.0
177.787888 248.0
177.819733 172.0
177.859543 328.0
177.944489 180.0
177.988693 228.0
178.048447 1064.0
178.206924 280.0
178.334976 140.0
178.396118 132.0
178.505112 160.0
178.667358 40.0
178.712296 108.0
178.827011 88.0
178.933487 44.0
179.070969 1468.0
179.458344 68.0
179.527664 212.0
179.583679 160.0
179.697632 172.0
179.791779 68.0
179.918472 168.0
179.935913 224.0
180.080795 688.0
180.204666 76.0
180.277802 140.0
180.30719 48.0
180.459549 180.0
180.622681 172.0
180.657455 204.0
180.745743 184.0
181.055496 572.0
181.088776 692.0
181.359009 104.0
181.385818 104.0
181.495728 148.0
181.541306 116.0
181.691513 180.0
181.914246 180.0
181.948807 192.0
182.008209 176.0
182.059021 2196.0
182.097641 560.0
182.147858 208.0
182.196625 52.0
182.246567 216.0
182.30571 176.0
182.549728 152.0
182.575195 140.0
182.626297 144.0
182.717758 148.0
182.741974 180.0
182.809235 136.0
182.928665 172.0
183.035172 680.0
183.067169 1604.0
183.109344 212.0
183.374771 248.0
183.444855 148.0
183.469116 72.0
183.512253 68.0
183.638992 152.0
183.674057 140.0
183.695633 76.0
183.763077 108.0
183.838638 156.0
183.865616 152.0
183.970337 200.0
184.014084 160.0
184.049835 192.0
184.07518 1816.0
184.116974 148.0
184.272339 160.0
184.35141 72.0
184.438187 160.0
184.495987 136.0
184.538208 208.0
184.627441 84.0
184.92775 176.0
184.973755 144.0
185.046432 2556.0
185.076569 336.0
185.096527 536.0
185.125381 216.0
185.312271 172.0
185.344788 104.0
185.415237 184.0
185.507401 56.0
185.58873 144.0
185.623978 116.0
185.68364 64.0
185.797562 180.0
185.944077 156.0
185.96579 52.0
185.998291 140.0
186.05397 5720.0
186.090622 436.0
186.137634 120.0
186.218292 148.0
186.250885 104.0
186.361206 184.0
186.443787 120.0
186.534485 168.0
186.67485 160.0
186.749191 140.0
186.821716 116.0
187.06218 1684.0
187.098953 1744.0
187.229996 164.0
187.295349 64.0
187.456085 28.0
187.499695 112.0
187.635986 164.0
187.900528 324.0
187.98381 84.0
188.032394 324.0
188.06987 10092.0
188.105057 868.0
188.146133 116.0
188.176163 48.0
188.214386 84.0
188.288391 80.0
188.323624 44.0
188.419235 48.0
188.473526 64.0
188.501205 84.0
188.531265 136.0
188.561325 152.0
188.592255 176.0
188.624176 208.0
188.670654 64.0
188.735138 48.0
188.763611 184.0
188.847397 88.0
188.922241 32.0
188.9496 52.0
188.976959 264.0
188.998856 60.0
189.041077 516.0
189.071106 664.0
189.09462 196.0
189.154846 124.0
189.22876 192.0
189.338287 80.0
189.36293 144.0
189.43689 136.0
189.469757 120.0
189.614975 160.0
189.634171 72.0
189.68898 88.0
189.730103 52.0
189.782196 144.0
189.968689 192.0
190.065948 932.0
190.123276 152.0
190.204666 120.0
190.243103 92.0
190.347427 60.0
190.427063 120.0
190.473755 204.0
190.501221 44.0
190.520462 40.0
190.646851 212.0
190.877747 136.0
190.942429 208.0
191.068954 480.0
191.10054 224.0
191.119797 160.0
191.147324 108.0
191.348236 48.0
191.406052 156.0
191.485916 68.0
191.609879 224.0
191.667725 68.0
192.064087 2952.0
192.213684 48.0
192.276138 120.0
192.395844 120.0
192.462097 116.0
192.500763 180.0
192.691345 112.0
192.818451 76.0
192.868195 68.0
192.926254 140.0
193.025787 144.0
193.065155 320.0
193.122574 152.0
193.147461 148.0
193.230453 204.0
193.262726 240.0
193.322876 148.0
193.41243 140.0
193.534897 60.0
193.587509 168.0
193.891022 136.0
193.944901 220.0
194.070847 220.0
194.101562 164.0
194.144516 160.0
194.272095 156.0
194.317871 112.0
194.433029 104.0
194.488525 60.0
194.544449 136.0
194.621536 184.0
194.732864 92.0
194.768967 208.0
194.791183 100.0
194.980118 152.0
195.077591 488.0
195.135788 188.0
195.196945 220.0
195.54747 140.0
195.594788 92.0
195.66716 236.0
195.777161 164.0
195.876022 192.0
195.92894 124.0
196.074341 2888.0
196.143509 40.0
196.165817 44.0
196.185333 216.0
196.221573 44.0
196.344254 52.0
196.374939 124.0
196.424225 232.0
196.514404 208.0
196.542816 176.0
196.57579 236.0
196.600906 152.0
196.698593 164.0
196.827011 184.0
196.921967 176.0
196.947495 140.0
196.971405 160.0
196.997375 200.0
197.083023 22176.0
197.152695 88.0
197.204147 112.0
197.229309 68.0
197.306641 132.0
197.405426 120.0
197.489334 52.0
197.540756 32.0
197.559265 76.0
197.619507 164.0
197.671677 184.0
197.737045 192.0
197.777512 48.0
197.904449 140.0
197.952377 188.0
198.008163 220.0
198.054657 9412.0
198.08783 3924.0
198.166763 44.0
198.256424 36.0
198.293793 80.0
198.601273 56.0
198.626511 144.0
198.675903 172.0
198.749954 224.0
198.853775 100.0
198.901489 64.0
198.963257 172.0
199.061325 3176.0
199.09314 928.0
199.152664 168.0
199.17514 140.0
199.24408 60.0
199.314316 44.0
199.349884 208.0
199.407059 128.0
199.460968 200.0
199.491379 72.0
199.584152 160.0
199.647537 84.0
199.679764 108.0
199.708908 288.0
199.802414 172.0
199.910889 180.0
199.958878 192.0
199.982178 144.0
200.00264 180.0
200.034134 1476.0
200.070206 12860.0
200.105301 312.0
200.152527 72.0
200.2173 100.0
200.318695 120.0
200.357025 216.0
200.414474 228.0
200.455643 124.0
200.480576 300.0
200.500061 140.0
200.532211 92.0
200.65686 116.0
200.690689 168.0
200.716064 48.0
200.889313 148.0
200.949371 156.0
201.04184 5592.0
201.075119 3628.0
201.246521 88.0
201.398117 164.0
201.489395 48.0
201.632843 136.0
201.704163 52.0
201.73526 92.0
201.969955 92.0
202.015213 92.0
202.046524 948.0
202.085953 2240.0
202.123459 1108.0
202.227432 116.0
202.269882 216.0
202.326508 60.0
202.366135 112.0
202.46524 48.0
202.4879 116.0
202.575699 216.0
202.672028 108.0
202.706024 80.0
202.728699 88.0
202.82222 104.0
202.867584 172.0
202.915771 172.0
202.938446 48.0
203.056381 308.0
203.090668 332.0
203.121948 232.0
203.129059 224.0
203.165329 88.0
203.241943 180.0
203.281662 84.0
203.318558 44.0
203.463318 68.0
203.511581 96.0
203.539963 104.0
203.633682 112.0
203.673447 56.0
203.981949 304.0
204.001526 148.0
204.013931 68.0
204.019882 148.0
204.065735 29220.0
204.127136 56.0
204.138901 36.0
204.166275 112.0
204.253296 52.0
204.313034 108.0
204.347168 60.0
204.367828 224.0
204.40976 64.0
204.443909 80.0
204.503677 48.0
204.529297 52.0
204.553497 104.0
204.598694 84.0
204.691574 44.0
204.754211 72.0
204.794083 128.0
204.821075 88.0
204.962173 52.0
205.019409 360.0
205.067245 3156.0
205.158813 40.0
205.181625 96.0
205.247208 48.0
205.289978 184.0
205.40976 60.0
205.441132 44.0
205.629089 124.0
205.697189 224.0
205.834991 176.0
205.937805 48.0
205.989212 108.0
206.067642 532.0
206.117783 124.0
206.137772 36.0
206.189224 92.0
206.297836 88.0
206.345108 104.0
206.385284 196.0
206.441803 56.0
206.4953 192.0
206.543076 120.0
206.589828 148.0
206.631744 152.0
206.678207 180.0
206.709671 68.0
206.769775 208.0
206.801254 80.0
206.930069 152.0
207.02742 84.0
207.06694 1652.0
207.150574 80.0
207.256577 52.0
207.304794 76.0
207.487091 112.0
207.543198 76.0
207.735352 72.0
207.890289 48.0
208.074432 392.0
208.125656 68.0
208.343933 120.0
208.375534 132.0
208.424377 116.0
208.596817 88.0
208.815323 60.0
209.019577 88.0
209.083893 1160.0
209.189377 264.0
209.511902 44.0
209.70784 64.0
209.898102 116.0
209.993271 88.0
210.054199 1444.0
210.089828 556.0
210.250031 72.0
210.452103 60.0
210.475189 44.0
210.564713 64.0
211.058548 628.0
211.10289 280.0
211.123657 108.0
211.397293 100.0
211.418823 172.0
211.452271 56.0
211.527527 128.0
211.597 76.0
211.625946 128.0
211.669388 232.0
211.827438 84.0
211.877914 136.0
212.028595 140.0
212.070557 1308.0
212.107864 1820.0
212.228607 76.0
212.248901 100.0
212.280792 96.0
212.332993 56.0
212.437408 80.0
212.466415 88.0
212.527344 144.0
212.640518 72.0
212.67244 108.0
212.771133 60.0
212.922134 80.0
212.965698 160.0
213.043076 1432.0
213.077484 744.0
213.110779 260.0
213.163239 56.0
213.264954 56.0
213.347733 84.0
213.366699 56.0
213.475815 188.0
213.526627 96.0
213.576065 56.0
213.628418 180.0
213.672058 120.0
213.698242 184.0
213.749161 112.0
213.862701 264.0
213.901947 136.0
213.950027 412.0
213.986374 216.0
214.04837 3724.0
214.084885 2976.0
214.119934 472.0
214.30394 180.0
214.356277 76.0
214.539902 140.0
214.71666 160.0
214.781921 84.0
214.811096 240.0
214.831512 88.0
214.854843 140.0
214.95752 188.0
214.991989 176.0
215.015335 160.0
215.057327 1652.0
215.092957 5916.0
215.166428 136.0
215.200409 128.0
215.2547 60.0
215.374451 44.0
215.473297 176.0
215.529282 104.0
215.560852 144.0
215.596481 68.0
215.687088 116.0
215.748474 120.0
215.839111 68.0
215.885895 68.0
215.906357 80.0
215.935608 64.0
215.993942 184.0
216.018692 296.0
216.065475 30584.0
216.100525 6636.0
216.143753 156.0
216.189758 64.0
216.209717 96.0
216.278 156.0
216.313049 76.0
216.339401 52.0
216.450653 64.0
216.486679 360.0
216.613678 112.0
216.765961 188.0
216.828537 64.0
216.869568 160.0
216.897583 60.0
216.947906 188.0
216.98053 60.0
217.068665 3412.0
217.103134 1012.0
217.139359 200.0
217.196686 64.0
217.217209 72.0
217.260742 80.0
217.312363 60.0
217.34758 152.0
217.530655 116.0
217.641449 132.0
217.704132 60.0
217.826111 72.0
217.867233 168.0
217.914246 80.0
217.946564 52.0
217.993576 84.0
218.075668 1184.0
218.128769 112.0
218.237549 104.0
218.269882 120.0
218.322693 160.0
218.369873 80.0
218.403168 100.0
218.44928 56.0
218.537537 52.0
218.599335 40.0
218.630722 48.0
218.654999 80.0
218.668335 232.0
218.711166 72.0
218.741364 140.0
218.750412 108.0
218.781815 68.0
218.887802 144.0
218.914307 72.0
218.996765 148.0
219.047226 124.0
219.078384 168.0
219.279602 100.0
219.344452 36.0
219.397507 184.0
219.468262 52.0
219.530182 36.0
219.598022 72.0
219.630463 44.0
219.683563 48.0
219.727814 84.0
219.946182 100.0
220.017029 44.0
220.08493 420.0
220.108551 212.0
220.468933 136.0
220.62558 96.0
220.758636 164.0
221.084244 224.0
221.16098 48.0
221.187622 192.0
221.208344 184.0
221.246826 56.0
221.317886 60.0
221.430405 144.0
221.55777 208.0
221.937134 140.0
222.032013 92.0
222.091705 1196.0
222.272293 152.0
222.456314 44.0
222.497192 136.0
222.788895 104.0
222.898834 112.0
223.059387 164.0
223.095901 340.0
223.15741 56.0
223.63179 136.0
224.069687 824.0
224.103241 244.0
224.306519 192.0
224.330368 124.0
224.369125 144.0
224.518204 60.0
224.628555 240.0
224.944855 132.0
225.004562 76.0
225.078247 5104.0
225.138931 32.0
225.29126 160.0
225.458572 40.0
225.488464 344.0
225.679779 192.0
225.838257 192.0
226.038696 148.0
226.084564 1312.0
226.122498 116.0
226.188339 112.0
226.385941 184.0
226.445831 96.0
226.604599 164.0
227.060104 648.0
227.090851 500.0
227.225189 48.0
227.297195 100.0
227.318207 124.0
227.408234 56.0
227.492279 100.0
227.648407 176.0
227.810593 88.0
227.873672 156.0
227.966827 164.0
227.999878 124.0
228.023926 220.0
228.065582 12712.0
228.165192 84.0
228.234344 64.0
228.270432 104.0
228.343842 68.0
228.564423 76.0
228.628403 92.0
228.670822 84.0
228.893295 148.0
228.959549 48.0
229.069946 3456.0
229.119186 40.0
229.173416 92.0
229.200531 104.0
229.327103 184.0
229.583359 44.0
230.079163 2204.0
230.115952 3252.0
230.183136 100.0
230.286545 68.0
230.479874 172.0
230.527679 132.0
230.577744 124.0
230.630981 52.0
230.65213 84.0
230.686554 52.0
230.705475 56.0
230.736771 40.0
230.767014 80.0
230.788177 84.0
230.854691 100.0
230.87587 32.0
230.921234 268.0
230.945419 40.0
231.011612 176.0
231.054138 68.0
231.082352 604.0
231.121796 336.0
231.146576 180.0
231.263107 96.0
231.478058 68.0
231.680984 60.0
231.796112 128.0
231.83551 196.0
232.087097 44.0
232.53302 64.0
232.590683 40.0
232.730331 92.0
233.836838 212.0
233.952499 124.0
234.085983 204.0
234.473343 148.0
234.875793 76.0
235.223648 184.0
235.718399 44.0
236.268738 84.0
236.467636 152.0
236.681915 76.0
237.346817 52.0
238.083649 176.0
238.172516 148.0
238.408905 112.0
238.916229 152.0
239.100845 232.0
239.340958 52.0
239.393295 180.0
239.421021 240.0
239.851227 176.0
239.920166 240.0
239.997238 180.0
240.056854 48.0
240.10173 11756.0
240.22934 92.0
240.260803 96.0
240.328278 180.0
240.365768 184.0
240.483292 84.0
240.549469 84.0
241.009613 48.0
241.103088 1544.0
241.22905 136.0
241.304672 112.0
241.417648 48.0
241.467117 56.0
241.494949 76.0
241.620911 100.0
241.673965 60.0
241.773392 132.0
241.881714 148.0
241.971497 236.0
242.027222 136.0
242.080841 10756.0
242.151093 80.0
242.197556 56.0
242.273773 136.0
242.309586 72.0
242.351669 144.0
242.439209 44.0
242.525986 92.0
242.556976 108.0
242.625183 228.0
242.671066 60.0
242.708893 112.0
242.817413 148.0
242.899643 228.0
243.008102 224.0
243.087646 11028.0
243.192825 40.0
243.400818 92.0
243.44429 80.0
243.503036 104.0
243.555099 168.0
243.656326 60.0
243.712112 144.0
243.740753 136.0
243.851257 52.0
243.953842 148.0
244.025345 72.0
244.090256 1296.0
244.168381 40.0
244.373672 68.0
244.417236 48.0
244.479462 76.0
244.507477 404.0
244.539551 180.0
244.656876 132.0
244.678665 88.0
244.703583 68.0
244.921555 84.0
244.986969 84.0
245.093903 760.0
245.211319 64.0
245.869354 116.0
245.959869 104.0
246.075378 132.0
246.97847 48.0
247.062927 76.0
248.676651 80.0
248.792786 116.0
249.072266 64.0
249.377029 48.0
251.048737 144.0
251.297913 92.0
251.563004 140.0
252.681717 144.0
252.751328 236.0
253.181824 88.0
253.51445 76.0
254.364441 76.0
256.09845 392.0
256.584869 32.0
256.623108 64.0
256.760223 172.0
257.072601 152.0
257.408051 128.0
257.695496 232.0
257.730988 72.0
257.816925 148.0
257.874451 176.0
257.999115 156.0
258.03537 220.0
258.063049 44.0
258.112213 28460.0
258.226135 52.0
258.278442 56.0
258.325287 72.0
258.382874 80.0
258.405273 48.0
258.472443 168.0
258.637054 108.0
258.803741 56.0
258.872589 96.0
258.898193 140.0
258.930206 52.0
259.067963 112.0
259.116455 3572.0
259.17688 28.0
259.308258 52.0
259.474945 48.0
259.507019 36.0
259.648102 36.0
259.747925 64.0
260.000977 80.0
260.117615 672.0
260.178131 84.0
260.29953 52.0
260.427979 124.0
260.514709 80.0
260.61554 84.0
260.694641 204.0
260.740479 136.0
260.797485 120.0
260.834625 100.0
260.9599 144.0
260.965637 208.0
261.022522 128.0
261.122192 124.0
261.160797 40.0
261.39563 64.0
261.843109 52.0
262.220032 80.0
262.874695 48.0
263.010254 32.0
263.901855 104.0
264.89859 112.0
265.663635 68.0
265.975128 88.0
266.069275 104.0
267.005066 100.0
267.535431 52.0
269.786346 68.0
270.195129 48.0
270.61731 72.0
270.80127 112.0
270.993958 52.0
271.193848 56.0
272.927155 144.0
273.70697 100.0
275.289734 36.0
275.86792 60.0
276.05307 140.0
277.145386 56.0
279.163544 64.0
280.318634 48.0
284.546387 76.0
284.710907 64.0
284.844116 164.0
287.080017 60.0
292.865173 72.0
294.399872 104.0
297.821228 108.0
298.979858 96.0
301.462769 80.0
305.968323 80.0
306.664978 56.0
308.525452 48.0
312.812195 116.0
313.523651 116.0
314.190033 48.0
319.621429 56.0
321.959869 92.0
324.941498 172.0
326.723419 88.0
329.745056 60.0
331.008789 60.0
331.185028 60.0
332.780609 156.0
336.994568 32.0
343.640015 108.0
349.096039 96.0
350.249756 108.0
350.514282 88.0
350.924255 108.0
352.858215 48.0
354.411438 40.0
357.919586 96.0
359.197174 96.0
360.137024 72.0
362.296875 136.0
364.687439 84.0
370.426147 92.0
371.618408 80.0
374.008667 56.0
374.644012 124.0
375.326172 116.0
382.146912 92.0
386.96701 44.0
392.775177 72.0
403.52124 92.0
403.79715 76.0
403.917114 80.0
406.850403 56.0
408.908386 64.0
411.350922 68.0
412.538544 84.0
413.193665 124.0
413.808838 96.0
418.168488 108.0
425.333466 88.0
427.160767 48.0
427.445862 72.0
433.694214 52.0
435.295563 92.0
441.362488 72.0
445.562042 88.0
451.894409 88.0
455.540253 100.0
459.379913 60.0
463.167114 48.0
465.152405 52.0
466.21756 112.0
470.153625 68.0
471.086212 96.0
471.20285 92.0
472.521454 108.0
490.972565 80.0
491.594543 56.0
495.299408 92.0
497.547668 112.0
500.312805 104.0
501.319397 68.0
504.144135 124.0
512.909363 116.0
514.759094 92.0
518.006348 104.0
518.332581 84.0
527.493958 108.0
529.5896 48.0
529.933167 56.0
535.242737 108.0
548.791016 64.0
558.230713 48.0
570.675903 100.0
576.792175 56.0
578.097839 52.0
595.288147 60.0
609.099915 36.0
640.372681 84.0
643.822205 124.0
652.57312 96.0
669.252869 36.0
676.304565 112.0
678.666748 116.0
685.606201 28.0
691.020996 112.0
693.115295 48.0
700.375549 100.0
704.442383 72.0
712.797363 116.0
725.15686 52.0
729.859375 80.0
730.703735 48.0
732.46405 116.0
734.177979 144.0
769.820312 80.0
789.984741 60.0
795.796326 96.0
801.555908 48.0
801.826416 68.0
807.975464 60.0
810.200256 72.0
827.210144 140.0
827.622375 108.0
850.932983 76.0
860.101562 52.0
871.115845 212.0
880.492615 40.0
886.479309 76.0
891.362915 48.0
891.570862 76.0
892.266296 128.0
894.604248 200.0
916.506226 84.0
924.525208 112.0
934.482483 160.0
951.927063 144.0
956.236511 148.0
967.414734 192.0
978.632996 188.0
985.031433 80.0
1006.377502 60.0
1012.321228 48.0
1016.498535 156.0
1022.211121 48.0
1025.083008 172.0
1026.848755 196.0
1034.426636 172.0
1044.172852 164.0
1045.362915 188.0
1046.49585 132.0
1053.221802 196.0
1053.712769 148.0
1055.380249 216.0
1061.343506 160.0
1068.9823 164.0
1073.640015 112.0
1083.588379 192.0
1088.632324 208.0
1090.590088 48.0
1091.793213 168.0
1092.312866 136.0
1094.346313 124.0
1095.162842 60.0
1096.177368 192.0
1096.974854 236.0
1108.991577 152.0
1114.732056 52.0
1117.012451 80.0
1118.369873 60.0
1121.720215 220.0
1121.786865 100.0
1124.44812 152.0
1125.38269 112.0
1128.984253 156.0
1133.736572 204.0
1137.184448 128.0
1137.734863 216.0
1138.970337 160.0
1139.030884 60.0
1140.197021 220.0
1141.235107 184.0
1143.313599 136.0
1143.636597 192.0
1146.067627 140.0
1146.653931 176.0
1148.872314 204.0
1149.850586 200.0
1154.038696 128.0
1157.516602 60.0
1160.369019 236.0
1161.209839 196.0
1165.275879 96.0
1166.41748 100.0
1168.702515 196.0
1175.680176 216.0
1178.056152 136.0
1181.898438 128.0
1183.664307 80.0
1184.506714 52.0
1187.289307 76.0
1194.108887 192.0
1195.863403 196.0
1196.255737 140.0
1197.522583 148.0
1199.431152 68.0
1200.272217 48.0
1202.424561 228.0
1203.86731 64.0
1204.88269 260.0
1214.435181 176.0
1216.537598 72.0
1217.322144 208.0
1219.800171 160.0
1220.518555 116.0
1223.858276 180.0
1224.471069 136.0
1226.95166 168.0
1227.286255 116.0
1230.977417 148.0
1236.374146 180.0
1237.739136 116.0
1237.88623 128.0
1240.205078 136.0
1243.115479 100.0
1244.05603 144.0
1245.081177 156.0
1245.713257 136.0
1246.064453 192.0
1247.463013 152.0
1250.966064 180.0
1252.606812 152.0
1253.290161 36.0
1254.932373 164.0
1255.581055 204.0
1256.568604 192.0
1256.829712 216.0
1258.80603 136.0
1260.23291 176.0
1267.279785 128.0
1268.179688 192.0
1269.349487 136.0
1271.527222 88.0
1272.450073 176.0
1277.659302 84.0
1278.840454 272.0
1279.360107 128.0
1280.485107 156.0
1280.535034 108.0
1281.20459 164.0
1282.387451 36.0
1286.203247 120.0
1286.61731 268.0
1289.617432 208.0
1289.831787 156.0
1290.432251 148.0
1292.334717 48.0
1295.083618 64.0
1296.09375 176.0
1297.025391 200.0
1300.99939 116.0
1305.511475 248.0
1306.158813 172.0
1307.187622 232.0
1310.478149 176.0
1310.823975 144.0
1311.472534 148.0
1312.193359 212.0
1312.496216 276.0
1314.349976 144.0
1316.147217 176.0
1316.573975 192.0
1317.447144 168.0
1318.523804 212.0
1320.562622 152.0
1320.938721 160.0
1322.306152 160.0
1322.740479 172.0
1325.775024 152.0
1326.318604 184.0
1329.190552 136.0
1329.567871 184.0
1332.77478 156.0
1333.547729 36.0
1333.678589 140.0
1334.383667 216.0
1334.558105 192.0
1335.750854 120.0
1338.436279 56.0
1341.984619 132.0
1343.756836 144.0
1344.457275 156.0
1344.90979 164.0
1345.968384 140.0
1346.486816 60.0
1346.596436 88.0
1346.852051 192.0
1348.357056 184.0
1349.102661 176.0
1350.075073 112.0
1350.982056 128.0
1353.565552 80.0
1353.616821 44.0
1355.609253 36.0
1355.975708 196.0
1356.092896 36.0
1356.8479 148.0
1358.380615 136.0
1359.503052 104.0
1359.627808 160.0
1359.980103 76.0
1360.053589 92.0
1361.206177 184.0
1361.375 196.0
1361.720215 260.0
1364.277222 244.0
1364.513062 236.0
1364.997681 164.0
1365.795288 44.0
1367.38855 228.0
1367.638794 172.0
1369.148071 168.0
1370.046631 128.0
1370.319214 120.0
1370.392944 168.0
1372.427124 144.0
1373.046509 132.0
1374.027588 204.0
1375.259888 132.0
1375.850464 184.0
1376.389404 144.0
1377.3125 88.0
1383.679443 172.0
1383.731201 172.0
1387.895142 136.0
1390.981323 176.0
1391.033203 44.0
1391.849854 152.0
1391.976074 176.0
1394.137817 160.0
1395.631836 112.0
1396.479614 180.0
1397.88562 176.0
1398.302368 64.0
1402.778809 204.0
1405.784424 256.0
1406.650146 160.0
1408.016479 224.0
1408.315308 164.0
1411.468872 212.0
1411.969971 72.0
1413.638184 68.0
1414.678467 216.0
1414.775757 220.0
1416.737793 88.0
1417.292236 104.0
1417.554443 172.0
1418.783691 136.0
1419.375977 80.0
1421.251099 136.0
1421.581299 100.0
1421.641357 92.0
1422.564453 156.0
1426.139893 52.0
1427.756348 184.0
1429.847656 132.0
1430.261597 92.0
1430.99939 160.0
1432.445312 184.0
1432.867188 108.0
1432.965088 104.0
1434.404419 132.0
1436.281982 128.0
1436.58374 132.0
1437.051392 224.0
1437.511719 152.0
1437.753174 116.0
1438.122925 132.0
1439.081665 192.0
1439.391235 176.0
1439.459229 172.0
1442.005005 192.0
1442.261963 196.0
1442.715576 168.0
1443.335449 156.0
1444.28833 140.0
1444.954102 108.0
1445.218872 176.0
1445.294556 244.0
1445.915283 144.0
1446.838501 192.0
1447.588013 192.0
1447.936401 192.0
1448.042358 156.0
1448.176392 192.0
1448.458984 132.0
1448.62561 184.0
1449.360474 180.0
1450.216431 164.0
1450.755005 132.0
1450.929321 40.0
1452.218384 128.0
1452.80249 152.0
1453.174194 192.0
1453.735718 56.0
1454.084839 160.0
1456.187744 152.0
1457.767944 148.0
1458.216309 188.0
1459.364136 96.0
1459.934448 116.0
1460.025757 196.0
1460.352783 76.0
1460.44397 168.0
1460.839478 144.0
1461.098145 160.0
1461.645996 184.0
1462.026489 52.0
1463.259521 184.0
1463.518433 144.0
1464.569336 160.0
1465.155884 120.0
1465.437744 44.0
1465.597778 204.0
1465.833984 180.0
1467.945435 108.0
1468.075073 156.0
1468.181763 196.0
1469.104736 156.0
1469.356445 160.0
1472.142334 220.0
1472.363892 116.0
1472.730469 88.0
1472.929077 148.0
1473.501953 128.0
1474.426514 200.0
1475.810059 200.0
1478.625122 112.0
1478.747559 48.0
1480.577271 140.0
1480.975464 180.0
1481.856445 268.0
1482.116943 44.0
1483.580811 164.0
1484.148071 184.0
1484.669556 144.0
1485.068359 112.0
1485.505493 152.0
1487.301025 192.0
1489.604614 64.0
1491.018311 184.0
1491.364258 144.0
1491.64856 160.0
1493.547852 228.0
1494.886475 236.0
1495.786865 80.0
1496.910889 152.0
1497.118896 164.0
1497.319092 40.0
1498.120117 204.0
1499.160278 72.0
1500.162231 236.0
1500.724976 148.0
1500.778931 96.0
1501.033447 36.0
1501.434448 68.0
1501.673462 136.0
1501.881714 160.0
1502.568237 88.0
1503.177856 188.0
1503.501953 196.0
