>compound MLS000697642-01!
>formula C19H20O6
>ionization [M+H]+
>parentmass 345.134
#inchi InChI=1S/C19H20O6/c1-22-12-24-15-10-17(21)19(18(11-15)25-13-23-2)16(20)9-8-14-6-4-3-5-7-14/h3-11,21H,12-13H2,1-2H3/b9-8+
#inchikey YINAAZRIIMRSGH
#Ion_Source LC-ESI
#Instrument qTof
#Compound_Source NIH Natural Product Library
#PI Dorrestein
#Data_Collector VVP/LMS
#Scan -1
#Precursor_MZ 345.134
#ExactMass 344.126
#Charge 1
#CAS_Number N/A
#Pubmed_ID N/A
#Smiles COCOc1cc(O)c(C(=O)/C=C/c2ccccc2)c(OCOC)c1
#INCHI_AUX N/A
#Library_Class 1
#SpectrumID CCMSLIB00000080027
#IonMode Positive
#UpdateWorkflowName UPDATE-SINGLE-ANNOTATED-GOLD
#LibraryQualityString Gold
#TaskID b1d8e8f6646f4e71acdff9ca3d919d08
##Scan# 2642
#SpectrumFile p2-B03_GB3_01_17991.mzXML
#LibraryName NIH_Natural_Products_Library.mgf
#MQScore -1
#Organism NIH_Natural_Products_Library
#TIC_Query 0
#RT_Query -1
#MZErrorPPM -1
#SharedPeaks 0
#MassDiff 0
#LibMZ -1
#SpecMZ 345.134
#SpecCharge 0
#internalFilename spec-00000.mgf

>collision 10
95.011734 160.0
95.049667 208.0
95.069939 164.0
95.151466 128.0
95.291306 136.0
95.32045 168.0
95.477913 240.0
95.742584 160.0
95.793228 184.0
96.218361 156.0
96.269135 184.0
96.400017 228.0
96.973434 164.0
97.025749 408.0
97.029167 408.0
97.236252 132.0
97.43261 204.0
97.46994 140.0
97.603607 172.0
98.091866 172.0
98.182564 116.0
98.429237 160.0
99.010628 152.0
99.210754 140.0
99.430931 180.0
99.740776 112.0
99.804398 164.0
99.943626 152.0
100.013283 196.0
100.124779 208.0
100.278008 224.0
100.479591 108.0
100.497543 248.0
100.992981 64.0
101.257179 160.0
101.509682 192.0
101.539764 244.0
101.666161 64.0
101.810699 160.0
101.864616 180.0
102.047089 588.0
102.120209 88.0
102.162445 44.0
102.176529 44.0
102.208725 52.0
102.34761 28.0
102.36171 92.0
102.520851 104.0
102.62365 120.0
102.668015 96.0
102.839508 144.0
102.972282 136.0
103.017197 184.0
103.031342 104.0
103.054939 28968.0
103.106102 60.0
103.12429 84.0
103.191002 92.0
103.215263 40.0
103.390678 28.0
103.486397 128.0
103.512726 52.0
103.569427 68.0
103.599815 64.0
103.632233 172.0
103.770058 56.0
103.79641 120.0
103.826828 152.0
104.059067 3048.0
104.108719 40.0
104.163757 204.0
104.189636 76.0
104.255188 40.0
104.308037 36.0
104.358856 56.0
104.448341 148.0
104.522697 68.0
104.780159 164.0
104.877975 40.0
104.896324 84.0
104.94088 100.0
105.037048 208.0
105.057884 160.0
105.234978 60.0
105.416771 140.0
105.46582 156.0
105.776741 132.0
106.063515 60.0
106.10041 72.0
106.480026 48.0
106.562195 40.0
106.576576 124.0
106.632057 172.0
106.874718 280.0
106.934395 176.0
107.299004 44.0
107.41861 188.0
107.523842 204.0
107.544479 132.0
107.591957 80.0
107.763382 184.0
108.388252 228.0
108.690994 180.0
108.79892 132.0
108.85083 164.0
108.913132 208.0
109.029411 5084.0
109.179169 68.0
109.199966 52.0
109.247803 108.0
109.297211 152.0
109.393478 92.0
109.570496 200.0
109.617546 172.0
109.772675 68.0
110.03183 528.0
110.098221 48.0
110.121193 196.0
110.234009 64.0
110.388702 48.0
110.667 208.0
110.824089 136.0
110.901627 148.0
111.041229 536.0
111.067268 164.0
111.157486 72.0
111.23304 36.0
111.247734 48.0
111.262428 112.0
111.356926 204.0
111.558647 76.0
111.813156 180.0
111.960526 96.0
111.977371 44.0
112.040565 48.0
112.126961 112.0
112.318825 148.0
112.39267 172.0
112.540421 168.0
112.933487 216.0
113.242508 64.0
113.323006 164.0
113.337837 96.0
113.352669 80.0
113.53286 204.0
113.564667 156.0
113.866051 172.0
114.606346 168.0
114.695854 212.0
114.91124 208.0
115.054077 960.0
115.107613 144.0
115.205856 152.0
115.222954 52.0
115.751259 108.0
115.847633 192.0
116.428909 152.0
116.521271 176.0
116.949203 212.0
117.067879 960.0
117.462036 160.0
117.533234 176.0
117.55265 148.0
117.798782 172.0
117.878723 184.0
118.069695 188.0
118.293991 148.0
118.803246 176.0
119.535454 128.0
119.637749 140.0
120.112801 120.0
120.195709 56.0
120.663124 100.0
120.702477 140.0
121.028511 216.0
121.066994 168.0
121.302368 180.0
122.629997 236.0
123.008163 304.0
123.045212 336.0
123.119781 120.0
123.19709 72.0
123.537529 184.0
123.858505 144.0
123.907242 40.0
123.947121 40.0
124.040207 32.0
124.917343 92.0
125.024139 156.0
125.061195 752.0
125.164383 68.0
125.255692 192.0
125.462936 40.0
125.529831 80.0
126.061119 464.0
126.076759 52.0
126.09687 184.0
127.041801 132.0
127.192146 108.0
127.823685 88.0
127.947472 208.0
127.976746 200.0
128.00827 44.0
128.063187 252.0
128.265106 56.0
129.072144 120.0
129.308624 176.0
129.362762 200.0
129.677795 36.0
129.881866 160.0
130.031616 84.0
130.049774 228.0
130.281387 156.0
130.435913 44.0
130.488205 212.0
130.617828 132.0
130.772552 244.0
130.838257 152.0
130.870438 156.0
130.902786 172.0
130.954697 128.0
130.9832 180.0
131.007462 192.0
131.050186 46704.0
131.086838 216.0
131.116455 144.0
131.132416 36.0
131.162048 72.0
131.232422 164.0
131.266922 56.0
131.305679 64.0
131.339905 200.0
131.399216 60.0
131.426971 24.0
131.463303 92.0
131.47908 152.0
131.545273 68.0
131.588638 64.0
131.666275 36.0
131.695969 168.0
131.807907 92.0
131.860474 144.0
131.955032 120.0
132.052856 2436.0
132.202576 68.0
132.247009 88.0
132.350021 96.0
132.541946 76.0
132.583679 68.0
132.732681 68.0
132.911606 136.0
132.93454 60.0
132.972809 100.0
133.005692 64.0
133.05426 460.0
133.088348 112.0
133.233032 196.0
133.364014 96.0
133.559464 84.0
133.651489 148.0
134.654266 176.0
135.007599 276.0
135.086502 92.0
136.006439 172.0
136.236328 40.0
136.282791 176.0
136.319977 228.0
136.803757 212.0
137.023621 820.0
137.206787 148.0
138.033325 524.0
138.075424 176.0
138.262589 96.0
138.702911 116.0
138.855316 196.0
138.97261 160.0
139.096985 196.0
140.553802 112.0
141.07576 152.0
141.177429 156.0
142.075134 152.0
142.504852 28.0
142.830551 116.0
143.049805 312.0
145.487869 148.0
145.84819 96.0
146.976181 244.0
147.407501 64.0
147.424423 56.0
147.971069 180.0
148.276291 188.0
148.467819 164.0
149.024551 572.0
149.067429 92.0
149.181656 60.0
149.982529 160.0
150.194656 156.0
150.441116 108.0
150.634033 100.0
150.868637 216.0
151.037216 844.0
151.100967 64.0
151.544113 192.0
152.008484 280.0
152.041901 228.0
152.555252 96.0
152.589676 100.0
152.926682 112.0
152.970993 144.0
153.055054 5352.0
153.106415 40.0
153.234497 72.0
153.256683 80.0
153.340195 108.0
153.883163 68.0
153.959702 52.0
154.02887 188.0
154.060974 548.0
154.679199 112.0
154.699005 36.0
155.045761 184.0
155.06221 196.0
155.085754 236.0
155.162262 64.0
155.291214 100.0
155.387955 160.0
155.884552 128.0
156.036118 160.0
157.067154 188.0
157.25679 160.0
158.071503 152.0
158.109039 148.0
158.19664 40.0
158.339371 228.0
158.499695 224.0
158.873276 68.0
161.035538 180.0
161.060791 92.0
161.407028 32.0
163.00145 156.0
163.07515 88.0
163.639877 184.0
164.063034 132.0
164.664993 140.0
164.7314 252.0
165.018173 3876.0
165.069931 456.0
165.273407 52.0
165.301559 48.0
165.375763 80.0
165.585724 108.0
165.713806 108.0
166.021866 724.0
166.079758 556.0
166.277939 56.0
166.295914 68.0
166.966476 60.0
167.034637 5560.0
167.081635 156.0
167.146545 92.0
167.230835 64.0
167.303543 28.0
167.401398 136.0
167.648697 84.0
167.787888 36.0
168.03717 920.0
168.611313 68.0
169.035919 212.0
169.063889 76.0
169.708893 48.0
169.737411 104.0
171.041885 308.0
171.084335 308.0
171.119705 156.0
173.036072 128.0
173.057022 100.0
175.313431 92.0
175.922714 28.0
177.022049 816.0
177.051743 168.0
177.656067 76.0
178.019699 168.0
178.07016 204.0
179.036331 316.0
179.05954 144.0
179.080841 148.0
179.20871 56.0
180.039902 160.0
181.052673 328.0
182.070969 132.0
182.753738 144.0
182.837158 108.0
183.030106 696.0
183.071594 280.0
184.098831 196.0
185.062973 516.0
185.861069 224.0
186.064621 184.0
187.076248 368.0
188.286575 144.0
190.071442 168.0
191.038544 108.0
191.084244 172.0
192.052231 144.0
193.065216 284.0
193.998932 88.0
194.057144 156.0
194.40387 120.0
194.970398 68.0
195.028763 164.0
195.081589 152.0
196.039047 172.0
196.543762 100.0
197.043762 884.0
197.420883 52.0
198.059433 184.0
199.02951 140.0
201.417557 96.0
203.073395 204.0
205.708267 68.0
206.088104 144.0
207.441788 116.0
207.671188 224.0
208.084412 128.0
209.051712 216.0
211.079483 416.0
211.21405 116.0
212.083145 184.0
213.078064 172.0
213.548981 76.0
215.055313 148.0
218.048615 120.0
219.016617 104.0
219.208115 72.0
221.061127 160.0
223.070541 156.0
227.074982 348.0
229.016266 116.0
229.086868 152.0
239.07019 492.0
240.073807 124.0
241.00325 124.0
241.046509 168.0
244.852951 144.0
248.159058 36.0
249.88649 84.0
251.070297 176.0
251.294846 104.0
252.084915 92.0
252.501526 128.0
253.088318 160.0
253.609665 108.0
257.079468 92.0
265.093445 144.0
269.078186 132.0
271.099426 156.0
272.333008 72.0
272.516968 44.0
273.161316 152.0
276.136505 140.0
281.088898 176.0
282.085083 52.0
282.13855 80.0
282.285675 144.0
283.096466 152.0
285.215881 36.0
289.348328 100.0
293.844757 72.0
296.090546 156.0
312.082184 48.0
331.053314 172.0
340.634888 88.0
380.494965 80.0
395.406677 80.0
446.546967 48.0
453.615295 84.0
508.140961 32.0
566.650696 84.0
598.185852 108.0
628.322876 84.0
654.97113 156.0
656.673523 172.0
665.43927 60.0
668.044861 60.0
669.18219 64.0
683.405334 20.0
706.876526 76.0
719.31311 80.0
736.549988 120.0
775.682739 168.0
816.447998 196.0
822.287537 160.0
836.088013 236.0
860.118225 172.0
865.350342 132.0
873.337036 72.0
885.092773 220.0
886.544067 136.0
890.625854 156.0
900.513 228.0
904.165894 160.0
906.435486 192.0
914.518921 72.0
917.187195 112.0
917.39209 92.0
919.587708 188.0
920.457031 116.0
928.905823 172.0
933.266296 148.0
938.972107 72.0
942.268311 172.0
942.336792 96.0
943.203308 132.0
946.562073 68.0
948.651245 180.0
954.047241 204.0
958.256775 192.0
970.258911 184.0
971.59845 128.0
977.183655 60.0
978.851807 204.0
980.19104 136.0
980.234619 56.0
984.501465 172.0
987.820312 260.0
993.784363 116.0
994.217346 48.0
996.854858 148.0
1002.518372 176.0
1005.539185 128.0
1009.247314 116.0
1018.348083 172.0
1021.029297 80.0
1024.995239 152.0
1025.167236 236.0
1025.900269 228.0
1026.754639 152.0
1027.851807 152.0
1030.322754 160.0
1034.89563 108.0
1045.133057 124.0
1050.751221 164.0
1056.759766 40.0
1060.14624 76.0
1062.519409 172.0
1062.824341 156.0
1069.173096 40.0
1069.954102 268.0
1070.540161 204.0
1070.937378 200.0
1071.732178 96.0
1072.911865 152.0
1073.53125 144.0
1074.118164 120.0
1074.359619 164.0
1078.793701 172.0
1078.996338 192.0
1079.172852 168.0
1080.526733 212.0
1081.004395 192.0
1087.039551 108.0
1089.770996 212.0
1091.973145 160.0
1092.170532 124.0
1095.850342 124.0
1096.567993 212.0
1096.66748 160.0
1099.4375 180.0
1100.52002 200.0
1104.88208 272.0
1105.252563 60.0
1107.582886 148.0
1108.490479 168.0
1109.862549 152.0
1110.764526 128.0
1119.531006 124.0
1120.463501 156.0
1122.276245 188.0
1127.115479 188.0
1127.930786 164.0
1129.221191 256.0
1129.809814 164.0
1130.853638 204.0
1137.08667 144.0
1137.778076 140.0
1137.939209 144.0
1144.419922 176.0
1146.737915 144.0
1146.940063 40.0
1149.071045 144.0
1149.401611 164.0
1153.866089 140.0
1155.164551 172.0
1155.766602 120.0
1156.341797 288.0
1159.748657 172.0
1162.353516 176.0
1165.034546 160.0
1170.332642 200.0
1170.400757 176.0
1171.892334 168.0
1173.609863 132.0
1174.264526 140.0
1176.031616 40.0
1179.57666 112.0
1182.627319 180.0
1183.969238 220.0
1185.956055 48.0
1187.875977 180.0
1188.857056 168.0
1190.387817 32.0
1191.720459 192.0
1193.17749 176.0
1193.376831 232.0
1194.160767 48.0
1197.932739 252.0
1198.897339 160.0
1200.07605 248.0
1200.41394 200.0
1201.662354 192.0
1202.483521 108.0
1202.62146 172.0
1204.789795 44.0
1206.275513 136.0
1207.582275 208.0
1210.474976 180.0
1211.811768 184.0
1212.428467 84.0
1214.328125 220.0
1217.819214 68.0
1218.625 156.0
1219.243408 188.0
1221.301392 132.0
1222.999146 172.0
1224.147827 148.0
1224.217407 156.0
1228.671265 216.0
1229.124878 224.0
1230.555664 200.0
1232.539307 164.0
1232.874634 196.0
1232.930542 104.0
1236.980225 176.0
1237.792358 204.0
1238.569702 236.0
1239.193237 168.0
1240.615845 116.0
1242.621582 220.0
1243.000488 212.0
1243.905884 176.0
1245.970459 40.0
1246.883911 200.0
1247.60791 172.0
1249.429321 128.0
1249.654419 192.0
1250.28064 180.0
1252.082886 136.0
1255.127075 156.0
1256.671753 176.0
1257.024536 232.0
1257.758545 44.0
1259.552002 136.0
1262.272949 92.0
1262.428589 232.0
1262.746826 148.0
1264.083862 176.0
1264.281982 160.0
1265.641113 152.0
1266.490845 168.0
1272.262939 236.0
1274.947876 252.0
1276.063843 216.0
1276.447754 132.0
1277.77063 168.0
1278.0979 68.0
1280.354492 152.0
1281.536377 228.0
1282.506104 208.0
1282.78418 160.0
1284.138916 200.0
1284.195923 216.0
1285.629883 128.0
1285.713257 208.0
1291.432739 184.0
1293.964233 156.0
1294.630127 200.0
1296.012573 204.0
1297.008789 44.0
1297.854736 96.0
1298.335083 232.0
1300.401367 192.0
1300.638184 184.0
1301.025757 160.0
1301.305786 152.0
1301.509277 108.0
1302.734985 200.0
1303.216309 144.0
1305.092163 152.0
1305.286377 48.0
1305.530884 220.0
1309.481812 156.0
1309.899536 172.0
1311.405518 136.0
1312.991577 232.0
1313.662354 184.0
1315.293213 184.0
1315.596436 88.0
1316.780518 136.0
1317.416138 176.0
1317.488403 180.0
1322.311279 104.0
1323.809814 72.0
1325.2948 168.0
1330.937744 196.0
1331.533203 200.0
1331.765625 32.0
1333.196899 124.0
1333.785522 168.0
1337.910034 136.0
1340.466553 120.0
1340.532104 160.0
1340.641479 172.0
1343.164062 100.0
1343.251587 92.0
1344.455444 116.0
1345.878906 88.0
1346.550659 196.0
1347.200806 132.0
1348.201782 132.0
1351.024048 152.0
1351.119141 200.0
1352.4729 228.0
1353.146362 104.0
1356.420898 160.0
1357.352051 56.0
1358.070679 156.0
1360.697754 76.0
1360.771118 104.0
1360.954712 152.0
1361.564209 180.0
1363.430176 152.0
1364.31958 252.0
1364.733521 148.0
1365.201904 36.0
1367.018311 236.0
1368.844482 180.0
1369.74292 136.0
1370.015503 140.0
1370.604858 108.0
1372.432861 48.0
1372.966187 148.0
1373.493286 208.0
1376.79248 212.0
1378.818115 148.0
1381.043457 148.0
1381.295654 224.0
1381.568726 220.0
1381.701782 148.0
1381.834961 224.0
1382.567505 184.0
1383.500122 56.0
1383.750977 164.0
1385.195923 148.0
1388.957275 152.0
1390.571533 164.0
1390.75708 256.0
1392.316162 164.0
1392.813843 268.0
1394.002441 220.0
1394.753174 176.0
1398.248779 152.0
1398.501831 76.0
1398.836792 152.0
1400.564331 112.0
1400.690918 136.0
1401.331543 224.0
1402.88916 160.0
1404.738525 160.0
1405.193604 48.0
1408.463257 152.0
1409.942627 64.0
1410.136841 120.0
1410.55542 132.0
1411.183472 184.0
1414.123291 168.0
1419.232178 64.0
1422.705811 120.0
1422.773438 132.0
1423.047852 160.0
1424.372925 156.0
1425.033936 112.0
1426.22876 168.0
1426.349121 176.0
1426.67981 132.0
1429.184204 232.0
1429.710938 168.0
1430.840088 128.0
1431.886719 124.0
1432.353638 184.0
1432.481689 192.0
1435.782959 132.0
1436.990845 164.0
1437.080444 164.0
1437.970825 184.0
1438.484131 236.0
1439.895996 128.0
1440.326538 180.0
1440.817505 292.0
1443.099976 184.0
1446.156128 156.0
1447.193237 208.0
1448.056396 176.0
1448.874512 180.0
1449.124512 192.0
1450.412842 176.0
1451.785034 144.0
1452.133911 140.0
1453.195923 216.0
1455.928589 180.0
1456.422241 164.0
1458.336914 108.0
1460.38208 148.0
1461.462402 140.0
1461.766724 192.0
1461.888428 156.0
1462.778931 236.0
1463.136719 280.0
1464.278931 60.0
1464.895874 100.0
1464.972046 140.0
1465.269165 140.0
1465.993042 184.0
1466.229248 156.0
1467.852905 132.0
1468.25708 80.0
1469.019897 44.0
1470.301636 208.0
1470.400879 188.0
1470.706177 136.0
1475.793945 168.0
1477.407593 140.0
1478.930298 196.0
1480.783203 156.0
1483.510986 148.0
1485.704224 204.0
1486.064697 204.0
1486.14917 152.0
1487.100708 176.0
1487.20813 188.0
1487.351196 256.0
1488.590088 212.0
1489.28125 224.0
1489.765137 124.0
1494.531738 204.0
1499.984253 100.0
1500.331055 128.0
1500.554688 56.0
1500.701172 168.0
1500.994141 200.0
1501.055786 148.0
1501.132935 120.0
1501.248657 148.0
1502.305298 180.0
1502.991943 220.0
