>compound MLS001140580-01!2-(2-oxo-4-phenylchromen-7-yl)oxy-N-(pyridin-2-ylmethyl)propanamide
>formula C24H20N2O4
>ionization [M+H]+
>parentmass 401.150635
#inchi InChI=1S/C24H20N2O4/c1-16(24(28)26-15-18-9-5-6-12-25-18)29-19-10-11-20-21(17-7-3-2-4-8-17)14-23(27)30-22(20)13-19/h2-14,16H,15H2,1H3,(H,26,28)
#inchikey WNQNTECUIRKYRA
#Ion_Source LC-ESI
#Instrument qTof
#Compound_Source NIH Natural Product Library
#PI Dorrestein
#Data_Collector VVP/LMS
#Scan -1
#Precursor_MZ 401.15
#ExactMass 400.142
#Charge 1
#CAS_Number N/A
#Pubmed_ID N/A
#Smiles CC(Oc1ccc2c(cc(=O)oc2c1)c3ccccc3)C(=O)NCc4ccccn4
#INCHI_AUX N/A
#Library_Class 1
#SpectrumID CCMSLIB00000080396
#IonMode Positive
#UpdateWorkflowName UPDATE-SINGLE-ANNOTATED-GOLD
#LibraryQualityString Gold
#TaskID b1d8e8f6646f4e71acdff9ca3d919d08
##Scan# 1884
#SpectrumFile p2-C08_GC8_01_18008.mzXML
#LibraryName NIH_Natural_Products_Library.mgf
#MQScore -1
#Organism NIH_Natural_Products_Library
#TIC_Query 0
#RT_Query -1
#MZErrorPPM -1
#SharedPeaks 0
#MassDiff 0
#LibMZ -1
#SpecMZ 401.15
#SpecCharge 0
#internalFilename spec-00000.mgf

>collision 10
94.977226 180.0
94.993179 176.0
95.013924 1548.0
95.068413 376.0
95.083939 228.0
95.107224 164.0
95.144104 112.0
95.167404 104.0
95.182938 172.0
95.212067 168.0
95.283936 140.0
95.299477 156.0
95.318909 152.0
95.340492 76.0
95.381104 104.0
95.427757 184.0
95.482201 140.0
95.505539 164.0
95.536667 140.0
95.570061 120.0
95.63266 168.0
95.684502 224.0
95.741158 192.0
95.758324 192.0
95.807259 64.0
95.82869 148.0
95.850128 72.0
95.865318 148.0
95.887154 172.0
95.968361 176.0
96.019722 164.0
96.13092 100.0
96.269524 196.0
96.291 184.0
96.316391 144.0
96.38282 108.0
96.49118 180.0
96.511818 124.0
96.578308 160.0
96.61628 172.0
96.637955 156.0
96.676132 192.0
96.736809 36.0
96.805336 176.0
96.83667 248.0
96.852333 168.0
96.8778 228.0
96.911728 240.0
96.94162 196.0
96.997337 236.0
97.011055 48.0
97.03463 168.0
97.054192 188.0
97.124451 188.0
97.156174 164.0
97.215034 228.0
97.257347 172.0
97.27195 92.0
97.322998 156.0
97.372086 136.0
97.440842 40.0
97.511818 132.0
97.533936 260.0
97.554825 264.0
97.641037 192.0
97.674858 184.0
97.694443 160.0
97.725922 248.0
97.745598 148.0
97.790863 208.0
97.822357 160.0
97.859756 152.0
97.893234 128.0
97.944435 120.0
97.988625 316.0
98.019302 152.0
98.086121 124.0
98.091164 112.0
98.098854 176.0
98.143478 176.0
98.186867 48.0
98.207794 144.0
98.242088 160.0
98.273659 120.0
98.314484 328.0
98.389748 228.0
98.43354 132.0
98.455261 152.0
98.485748 200.0
98.544151 204.0
98.569832 184.0
98.623192 212.0
98.64296 184.0
98.672615 228.0
98.686455 172.0
98.724022 156.0
98.760422 188.0
98.868439 172.0
98.90406 368.0
98.927155 132.0
98.951004 224.0
98.989189 196.0
99.022858 88.0
99.044647 192.0
99.083145 156.0
99.112 192.0
99.165504 136.0
99.206421 200.0
99.234596 324.0
99.248764 136.0
99.274544 168.0
99.308258 188.0
99.338013 244.0
99.389893 212.0
99.431267 124.0
99.459511 192.0
99.536484 164.0
99.598991 344.0
99.627838 144.0
99.649696 124.0
99.711906 196.0
99.815063 168.0
99.83654 144.0
99.918091 232.0
99.985748 152.0
100.053421 112.0
100.11116 112.0
100.131081 188.0
100.195564 208.0
100.228058 380.0
100.261208 176.0
100.290466 144.0
100.344292 164.0
100.377617 112.0
100.418076 136.0
100.472336 176.0
100.505844 208.0
100.673523 224.0
100.715462 32.0
100.733444 148.0
100.792809 212.0
100.917297 144.0
100.951294 100.0
100.981293 152.0
101.003296 184.0
101.031471 184.0
101.051308 140.0
101.098488 184.0
101.121338 132.0
101.215431 108.0
101.311562 180.0
101.331596 136.0
101.373672 140.0
101.441818 40.0
101.461868 168.0
101.47744 156.0
101.50798 240.0
101.538063 204.0
101.580635 176.0
101.604256 148.0
101.655922 60.0
101.680504 144.0
101.765472 252.0
101.782883 28.0
101.891342 60.0
102.003876 160.0
102.038055 188.0
102.058952 204.0
102.089821 220.0
102.114464 140.0
102.128548 156.0
102.148659 164.0
102.205673 188.0
102.274437 200.0
102.317696 84.0
102.339943 168.0
102.39019 172.0
102.428879 208.0
102.492744 216.0
102.579079 192.0
102.632004 324.0
102.646118 156.0
102.67289 228.0
102.692497 192.0
102.715897 140.0
102.74192 244.0
102.793365 216.0
102.823639 216.0
102.895226 172.0
102.928612 176.0
103.017479 240.0
103.054092 652.0
103.099457 236.0
103.142761 160.0
103.175102 112.0
103.212654 196.0
103.25396 200.0
103.281418 132.0
103.300995 164.0
103.340942 200.0
103.375343 192.0
103.419868 184.0
103.466423 168.0
103.535271 64.0
103.56797 192.0
103.585899 88.0
103.620895 204.0
103.648705 88.0
103.709503 84.0
103.743568 184.0
103.760185 176.0
103.802277 168.0
103.88501 116.0
103.912292 152.0
103.960983 148.0
103.987373 160.0
104.050621 4112.0
104.103088 88.0
104.128723 188.0
104.263573 196.0
104.300766 104.0
104.337181 208.0
104.376541 224.0
104.444527 56.0
104.466049 172.0
104.514786 188.0
104.570671 124.0
104.599167 160.0
104.615456 148.0
104.649071 172.0
104.707077 120.0
104.818893 212.0
104.8395 136.0
104.886238 116.0
104.923065 164.0
104.986275 172.0
105.057655 11756.0
105.106285 208.0
105.120911 196.0
105.151527 152.0
105.173233 132.0
105.196426 60.0
105.220924 56.0
105.239304 292.0
105.303299 188.0
105.369865 164.0
105.417007 192.0
105.438675 60.0
105.501122 156.0
105.585129 128.0
105.601006 212.0
105.623505 204.0
105.637817 32.0
105.680786 128.0
105.706566 140.0
105.729897 172.0
105.772873 192.0
105.793983 192.0
105.811768 280.0
105.905968 124.0
105.922058 220.0
105.986076 152.0
106.01564 240.0
106.065712 15636.0
106.131386 48.0
106.157501 60.0
106.178162 316.0
106.217392 64.0
106.22094 188.0
106.243103 128.0
106.28112 84.0
106.311386 176.0
106.319862 132.0
106.322517 160.0
106.404266 76.0
106.428902 148.0
106.445328 132.0
106.471245 200.0
106.517212 160.0
106.547218 204.0
106.611725 92.0
106.628166 128.0
106.647614 112.0
106.667213 172.0
106.682442 164.0
106.702164 204.0
106.728889 132.0
106.764458 152.0
106.78582 252.0
106.804985 224.0
106.834076 284.0
106.860527 68.0
106.879044 200.0
106.89962 92.0
106.91584 172.0
106.933907 224.0
106.949013 184.0
106.981651 316.0
107.004311 216.0
107.015854 132.0
107.039467 356.0
107.062042 111124.0
107.100708 140.0
107.108589 344.0
107.124565 220.0
107.142883 88.0
107.163635 96.0
107.178841 144.0
107.196587 112.0
107.218079 168.0
107.262436 172.0
107.300606 112.0
107.324287 84.0
107.341843 236.0
107.357765 36.0
107.377022 168.0
107.400078 1484.0
107.448723 212.0
107.47245 48.0
107.520195 320.0
107.55294 60.0
107.577995 220.0
107.605339 132.0
107.623123 40.0
107.637581 64.0
107.668167 64.0
107.694717 48.0
107.723419 192.0
107.752899 120.0
107.803986 36.0
107.825569 124.0
107.853065 188.0
107.862373 84.0
107.865364 128.0
107.893265 84.0
107.94133 112.0
107.964081 48.0
107.986351 156.0
108.041359 452.0
108.065643 10468.0
108.096718 388.0
108.110672 116.0
108.116295 200.0
108.17926 64.0
108.193748 52.0
108.23468 172.0
108.26001 40.0
108.289001 116.0
108.313293 220.0
108.334572 32.0
108.374451 188.0
108.392586 56.0
108.410126 180.0
108.444206 160.0
108.473412 60.0
108.487923 60.0
108.533005 156.0
108.558418 116.0
108.573853 108.0
108.617416 196.0
108.63308 164.0
108.652443 112.0
108.677742 112.0
108.725349 136.0
108.778343 236.0
108.795074 196.0
108.844139 116.0
108.875923 156.0
108.917625 300.0
108.940239 116.0
108.969238 104.0
108.99334 168.0
109.008781 176.0
109.034439 164.0
109.076508 20468.0
109.157021 104.0
109.184441 88.0
109.215958 160.0
109.251015 52.0
109.294662 164.0
109.333771 104.0
109.360336 88.0
109.4347 100.0
109.460266 76.0
109.489418 184.0
109.546478 252.0
109.56649 84.0
109.593811 100.0
109.651924 92.0
109.666512 172.0
109.69986 148.0
109.723953 144.0
109.793228 96.0
109.810539 244.0
109.832001 156.0
109.857613 164.0
109.90007 116.0
109.917458 168.0
109.962677 200.0
109.998161 148.0
110.042 100.0
110.061401 1516.0
110.078735 1100.0
110.111191 88.0
110.13179 44.0
110.17775 80.0
110.196548 92.0
110.279854 88.0
110.298157 200.0
110.339005 264.0
110.370033 132.0
110.4244 40.0
110.441132 112.0
110.455772 204.0
110.531326 248.0
110.583412 68.0
110.618996 96.0
110.637833 144.0
110.690178 172.0
110.704834 72.0
110.770523 164.0
110.788612 68.0
110.869133 112.0
110.937401 40.0
111.018623 312.0
111.048531 228.0
111.067986 160.0
111.107269 40.0
111.216385 68.0
111.386459 136.0
111.401169 172.0
111.445282 212.0
111.478905 56.0
111.560875 108.0
111.581902 224.0
111.600822 64.0
111.671707 124.0
111.787247 176.0
111.893265 208.0
111.933273 80.0
111.962753 128.0
112.03437 208.0
112.061752 180.0
112.106003 160.0
112.129189 208.0
112.149513 224.0
112.192421 148.0
112.211395 84.0
112.450775 180.0
112.479309 176.0
112.49791 128.0
112.540527 292.0
112.613853 72.0
112.646126 108.0
112.688377 108.0
112.730637 164.0
112.762177 156.0
112.93148 64.0
112.979836 200.0
113.024559 140.0
113.071114 36.0
113.107094 160.0
113.142784 200.0
113.193893 200.0
113.215073 152.0
113.318863 208.0
113.354881 160.0
113.431183 44.0
113.554161 200.0
113.611427 112.0
113.655983 184.0
113.689934 96.0
113.714272 128.0
113.732384 232.0
113.84021 152.0
113.931778 200.0
113.961731 48.0
113.980751 160.0
114.052872 140.0
114.231728 128.0
114.286171 88.0
114.487137 88.0
114.550453 104.0
114.566628 212.0
114.65435 164.0
114.808922 184.0
114.870781 144.0
114.975327 72.0
115.039291 404.0
115.055641 1740.0
115.097 80.0
115.114082 192.0
115.169609 216.0
115.188835 168.0
115.312759 124.0
115.39827 28.0
115.565262 208.0
115.635712 52.0
115.772728 44.0
115.900864 176.0
115.969826 256.0
116.055878 232.0
116.090668 120.0
116.122055 144.0
116.222878 60.0
116.33448 108.0
116.394592 80.0
116.411774 32.0
116.578041 200.0
116.593071 132.0
116.663155 172.0
116.701851 128.0
116.764214 48.0
116.792168 148.0
116.83519 84.0
116.936325 212.0
116.977486 132.0
117.033264 372.0
117.057411 384.0
117.087029 172.0
117.130104 408.0
117.169174 148.0
117.203354 44.0
117.218437 160.0
117.270157 184.0
117.32502 168.0
117.340935 168.0
117.393044 160.0
117.44265 132.0
117.465759 192.0
117.528938 232.0
117.587204 104.0
117.705933 132.0
117.725052 136.0
117.740486 144.0
117.779358 136.0
117.803123 116.0
117.852814 260.0
117.896164 128.0
117.950058 188.0
117.97168 236.0
118.004578 292.0
118.066063 3888.0
118.112236 116.0
118.18795 172.0
118.231232 256.0
118.261765 184.0
118.328636 164.0
118.430412 120.0
118.467896 184.0
118.491699 204.0
118.616753 56.0
118.714317 44.0
118.749016 124.0
118.79023 80.0
118.830063 188.0
118.855316 120.0
118.95298 216.0
118.996391 164.0
119.061577 1968.0
119.111488 180.0
119.183182 176.0
119.207085 120.0
119.270111 216.0
119.372292 180.0
119.389687 36.0
119.437538 164.0
119.46154 120.0
119.504974 104.0
119.526733 108.0
119.621971 128.0
119.692162 132.0
119.857704 148.0
119.910004 80.0
119.942703 128.0
120.043533 144.0
120.070686 500.0
120.099693 152.0
120.141571 140.0
120.173859 204.0
120.27861 108.0
120.301933 164.0
120.341919 120.0
120.427086 180.0
120.477325 124.0
120.577835 176.0
120.612808 116.0
120.667458 160.0
120.724312 112.0
120.757111 236.0
120.772423 156.0
120.859932 196.0
121.006195 248.0
121.029854 224.0
121.075905 596.0
121.109497 84.0
121.17083 200.0
121.256653 144.0
121.479935 340.0
121.605011 112.0
121.644516 124.0
121.675247 176.0
121.697205 188.0
121.769669 144.0
121.823944 164.0
122.031166 140.0
122.076973 192.0
122.165321 116.0
122.189034 164.0
122.215469 136.0
122.279739 108.0
122.369987 96.0
122.397644 184.0
122.44706 172.0
122.574829 184.0
122.64402 208.0
122.720306 148.0
122.784683 184.0
122.844246 100.0
122.901169 172.0
122.925438 112.0
123.004242 204.0
123.044624 172.0
123.117493 148.0
123.326706 172.0
123.350418 160.0
123.440125 212.0
123.670143 140.0
123.698982 232.0
123.769829 140.0
123.789757 192.0
123.82962 176.0
123.904236 140.0
124.108833 176.0
124.133224 160.0
124.259651 152.0
124.286278 216.0
124.363945 196.0
124.395027 112.0
124.424202 56.0
124.483833 172.0
124.521584 184.0
124.537132 176.0
124.552681 116.0
124.612663 112.0
124.703766 144.0
124.763786 148.0
124.803802 104.0
124.850502 232.0
124.948372 144.0
125.006218 128.0
125.188759 224.0
125.260025 168.0
125.340233 156.0
125.39817 140.0
125.457191 192.0
125.598839 168.0
125.650146 176.0
125.748329 68.0
125.880241 132.0
125.935875 160.0
126.239815 144.0
126.488159 68.0
126.56427 176.0
126.604576 192.0
126.774834 172.0
126.860001 312.0
126.884666 132.0
127.049438 160.0
127.078308 176.0
127.096916 208.0
127.1875 84.0
127.49189 212.0
127.54689 176.0
127.612083 124.0
127.668297 124.0
127.712105 188.0
127.949554 152.0
127.990082 172.0
128.014847 224.0
128.062057 576.0
128.181549 44.0
128.280716 204.0
128.300995 140.0
128.348343 52.0
128.366379 64.0
128.382172 96.0
128.406982 128.0
128.441925 120.0
128.542328 296.0
128.619064 96.0
128.691299 144.0
128.93074 76.0
129.032074 876.0
129.069687 520.0
129.127426 100.0
129.154572 100.0
129.189178 200.0
129.256378 76.0
129.279007 172.0
129.349167 92.0
129.43544 76.0
129.491806 36.0
129.552963 176.0
129.584686 68.0
129.650406 60.0
129.70932 56.0
129.811356 128.0
129.899796 120.0
129.947296 180.0
129.955872 168.0
130.035934 188.0
130.07222 340.0
130.129013 144.0
130.17897 180.0
130.235748 180.0
130.258453 208.0
130.356155 300.0
130.417206 148.0
130.547104 152.0
130.63353 132.0
130.911194 168.0
130.947632 176.0
130.979523 220.0
131.059616 3028.0
131.09903 176.0
131.14357 180.0
131.177597 156.0
131.266678 172.0
131.284927 88.0
131.303177 136.0
131.371597 176.0
131.469711 64.0
131.572418 128.0
131.627213 116.0
131.650055 144.0
131.67746 144.0
131.695724 144.0
131.745987 148.0
131.789383 144.0
131.842117 156.0
131.871658 196.0
131.924225 148.0
131.974533 56.0
131.99968 64.0
132.060883 608.0
132.111755 140.0
132.212418 48.0
132.457397 96.0
132.50766 188.0
132.534134 168.0
132.633835 148.0
132.652176 72.0
132.709488 132.0
132.747681 128.0
132.824158 180.0
132.867737 216.0
132.984024 256.0
133.052887 5708.0
133.097549 224.0
133.157822 88.0
133.206955 172.0
133.236359 84.0
133.382126 184.0
133.685715 168.0
133.966614 232.0
133.996567 176.0
134.057953 1024.0
134.169403 52.0
134.192459 72.0
134.275482 200.0
134.383896 84.0
134.471588 52.0
134.554688 92.0
134.627121 184.0
134.705673 172.0
134.745621 148.0
134.773697 136.0
134.804138 116.0
134.820312 128.0
134.836487 148.0
134.873474 100.0
134.938675 272.0
134.994858 316.0
135.013809 184.0
135.052795 640.0
135.092896 53616.0
135.166321 136.0
135.194946 44.0
135.213058 256.0
135.238922 36.0
135.316986 80.0
135.352356 80.0
135.389404 100.0
135.407928 36.0
135.426468 60.0
135.451294 72.0
135.498276 36.0
135.543304 208.0
135.573441 100.0
135.613602 192.0
135.66362 216.0
135.732361 60.0
135.749512 140.0
135.781067 56.0
135.849289 164.0
135.87616 32.0
135.910278 80.0
135.992188 52.0
136.015396 132.0
136.033966 124.0
136.052246 136.0
136.068787 180.0
136.096222 4516.0
136.138443 56.0
136.162369 40.0
136.189545 164.0
136.222061 48.0
136.310349 72.0
136.328445 56.0
136.354507 104.0
136.40564 140.0
136.44516 156.0
136.517242 156.0
136.573059 204.0
136.593994 44.0
136.653488 216.0
136.687714 152.0
136.727631 128.0
136.787094 136.0
136.819397 60.0
136.882584 84.0
136.96875 92.0
137.02475 1256.0
137.094955 264.0
137.159821 88.0
137.180649 132.0
137.246078 48.0
137.267487 132.0
137.299622 128.0
137.331573 60.0
137.346359 136.0
137.402344 184.0
137.425674 116.0
137.458328 156.0
137.537689 80.0
137.576691 96.0
137.738495 156.0
137.820251 32.0
137.969833 156.0
138.029388 196.0
138.093765 104.0
138.112473 164.0
138.159256 132.0
138.217758 144.0
138.245834 160.0
138.269241 104.0
138.299667 92.0
138.323074 116.0
138.366852 176.0
138.412033 136.0
138.447159 140.0
138.575989 140.0
138.613098 172.0
138.655655 192.0
138.690811 160.0
138.731033 128.0
138.812729 212.0
138.878387 232.0
138.90889 212.0
139.000381 208.0
139.033234 160.0
139.053894 380.0
139.144485 128.0
139.169388 188.0
139.236649 168.0
139.364334 156.0
139.50769 144.0
139.705231 172.0
139.801697 232.0
139.952347 80.0
140.00885 152.0
140.058319 500.0
140.098358 156.0
140.114853 44.0
140.147842 204.0
140.256241 172.0
140.31282 144.0
140.348175 144.0
140.442505 316.0
140.46846 96.0
140.527435 104.0
140.555756 84.0
140.600784 184.0
140.685562 136.0
140.720963 36.0
140.742218 60.0
140.772202 132.0
140.803619 140.0
140.881561 140.0
140.969482 168.0
141.069824 3524.0
141.151001 36.0
141.179367 124.0
141.238495 184.0
141.278717 272.0
141.340225 96.0
141.375092 208.0
141.402603 56.0
141.475128 80.0
141.678787 148.0
141.761719 132.0
141.815323 220.0
141.982483 196.0
142.039108 228.0
142.072433 520.0
142.104248 120.0
142.207581 140.0
142.342896 104.0
142.373764 160.0
142.461639 100.0
142.546127 172.0
142.585205 76.0
142.784897 144.0
142.818832 196.0
142.868149 220.0
142.906219 124.0
142.949051 52.0
143.010925 156.0
143.048859 212.0
143.084122 176.0
143.127579 32.0
143.172043 148.0
143.210663 148.0
143.295334 348.0
143.325272 200.0
143.363403 200.0
143.401535 184.0
143.533142 212.0
143.723587 220.0
143.869049 104.0
143.934662 292.0
143.952606 212.0
143.978882 64.0
144.007538 84.0
144.050537 104.0
144.067261 172.0
144.189117 72.0
144.263214 36.0
144.296677 228.0
144.344498 176.0
144.375595 156.0
144.513458 192.0
144.538254 100.0
144.580353 216.0
144.605255 140.0
144.748962 152.0
144.813553 100.0
144.883026 140.0
144.986359 192.0
145.028931 764.0
145.047867 188.0
145.076904 7224.0
145.180237 236.0
145.269058 116.0
145.391342 116.0
145.609818 112.0
145.677063 80.0
145.698685 168.0
145.917389 204.0
145.948639 88.0
145.972687 148.0
146.038589 328.0
146.084351 8668.0
146.169937 60.0
146.198807 252.0
146.331192 28.0
146.362396 300.0
146.429245 100.0
146.453232 112.0
146.497147 88.0
146.596146 136.0
146.646759 116.0
146.809738 140.0
147.044708 172.0
147.087814 1392.0
147.116272 160.0
147.196793 156.0
147.317551 140.0
147.346542 112.0
147.406952 156.0
147.454025 108.0
147.496368 172.0
147.648697 68.0
147.701904 188.0
147.755112 144.0
147.827713 136.0
147.897888 148.0
147.985703 116.0
148.028625 152.0
148.050415 136.0
148.17395 84.0
148.210297 220.0
148.246643 160.0
148.336319 180.0
148.367828 32.0
148.5466 152.0
148.573959 180.0
148.590942 44.0
148.666168 52.0
148.688004 116.0
148.709854 180.0
148.738434 180.0
148.777817 164.0
148.955078 68.0
148.97937 136.0
149.040115 144.0
149.072906 420.0
149.142181 136.0
149.190796 48.0
149.47049 128.0
149.514297 220.0
149.553238 84.0
149.636002 280.0
149.657913 212.0
149.840179 192.0
149.962418 164.0
149.991669 56.0
150.008728 96.0
150.031662 176.0
150.084305 64.0
150.196487 108.0
150.574799 44.0
150.850327 188.0
150.925217 180.0
151.055161 184.0
151.200668 108.0
151.315704 164.0
151.347534 176.0
151.372025 124.0
151.413651 124.0
151.445496 140.0
151.492035 168.0
151.528778 176.0
151.59494 136.0
151.639053 32.0
151.661118 164.0
151.695435 152.0
151.724838 180.0
151.751816 228.0
151.822922 132.0
152.06427 1148.0
152.095261 208.0
152.475952 88.0
152.534943 176.0
152.561981 152.0
152.59053 52.0
152.664963 180.0
152.817749 140.0
152.945709 80.0
153.014648 120.0
153.034332 68.0
153.070908 2728.0
153.110672 176.0
153.132843 172.0
153.17717 116.0
153.25354 140.0
153.362198 176.0
153.453186 132.0
153.638153 136.0
153.68158 104.0
153.717102 160.0
153.771393 52.0
153.850388 128.0
153.936798 48.0
153.993591 48.0
154.050415 156.0
154.076233 640.0
154.122055 236.0
154.334625 160.0
154.47934 224.0
154.517639 112.0
154.567123 192.0
154.621567 76.0
154.705734 128.0
154.737915 32.0
154.775055 104.0
154.884018 124.0
154.903839 244.0
155.000458 128.0
155.049194 1208.0
155.086411 480.0
155.176437 160.0
155.203705 68.0
155.501389 112.0
155.593231 204.0
155.642883 92.0
155.868927 44.0
155.948456 108.0
156.023026 188.0
156.049393 132.0
156.087662 136.0
156.261765 268.0
156.293304 136.0
156.505692 188.0
156.739822 56.0
156.767227 148.0
156.834518 132.0
156.951691 188.0
156.996582 184.0
157.063446 508.0
157.096344 156.0
157.1138 184.0
157.171188 96.0
157.223587 100.0
157.321671 204.0
157.368362 176.0
157.453262 180.0
157.502396 120.0
157.628143 188.0
157.875229 128.0
158.063232 72.0
158.143311 56.0
158.200882 148.0
158.278488 120.0
158.331085 184.0
158.411224 228.0
158.452866 200.0
158.539383 136.0
158.772156 184.0
158.965317 100.0
159.044983 684.0
159.301743 132.0
159.560593 132.0
159.595795 32.0
159.623444 212.0
159.892624 100.0
159.925339 52.0
159.991669 160.0
160.018478 160.0
160.04744 176.0
160.07135 44.0
160.185608 220.0
160.232559 120.0
160.280426 120.0
160.306503 160.0
160.353836 152.0
160.414001 104.0
160.461899 144.0
160.482071 180.0
160.557709 176.0
160.585464 168.0
160.67627 136.0
160.782242 156.0
160.815048 116.0
160.873108 48.0
160.989929 148.0
161.024292 164.0
161.070419 868.0
161.113007 36.0
161.145859 156.0
161.216614 120.0
161.277267 168.0
161.353104 40.0
161.418839 48.0
161.469421 120.0
161.557938 224.0
161.611069 116.0
161.649033 212.0
161.681931 104.0
161.73761 164.0
161.843933 140.0
161.901031 160.0
161.947754 112.0
162.028824 164.0
162.076965 156.0
162.107361 216.0
162.196075 156.0
162.279724 156.0
162.34819 96.0
162.374359 100.0
162.421738 112.0
162.457245 136.0
162.502914 160.0
162.535904 128.0
162.569946 164.0
162.609497 52.0
162.726257 160.0
162.871017 164.0
162.911652 192.0
162.929443 100.0
162.953552 136.0
162.987869 116.0
163.039703 1472.0
163.087524 23752.0
163.133682 128.0
163.159561 168.0
163.178848 88.0
163.206467 68.0
163.241058 152.0
163.275116 156.0
163.380402 224.0
163.425201 252.0
163.462708 92.0
163.504089 176.0
163.679733 152.0
163.720474 180.0
163.748489 128.0
163.832352 156.0
163.850021 140.0
163.901337 80.0
163.929764 52.0
163.935791 148.0
163.947311 148.0
163.997833 248.0
164.056305 464.0
164.09494 27120.0
164.179184 128.0
164.206787 156.0
164.216415 128.0
164.226074 104.0
164.25061 108.0
164.276108 36.0
164.296524 216.0
164.341446 72.0
164.353683 180.0
164.375153 196.0
164.403687 152.0
164.485352 76.0
164.515991 52.0
164.537918 224.0
164.615402 132.0
164.639297 136.0
164.692642 44.0
164.748383 72.0
164.789246 84.0
164.814804 132.0
164.845459 100.0
164.869736 168.0
164.901688 160.0
164.932358 140.0
165.01889 160.0
165.070969 42952.0
165.097733 2780.0
165.170349 212.0
165.216202 44.0
165.316605 132.0
165.351059 68.0
165.385529 164.0
165.441406 48.0
165.472122 68.0
165.51004 84.0
165.515198 68.0
165.571671 96.0
165.604111 96.0
165.63089 96.0
165.720551 56.0
165.758987 44.0
165.790985 148.0
165.829788 64.0
165.856384 108.0
165.877884 164.0
165.974304 108.0
165.997375 116.0
166.044037 124.0
166.076843 12216.0
166.183731 92.0
166.246216 32.0
166.289841 40.0
166.343735 92.0
166.365738 112.0
166.374069 64.0
166.383163 100.0
166.428452 220.0
166.656769 216.0
166.685318 132.0
166.904892 160.0
166.983948 120.0
167.006668 92.0
167.053925 300.0
167.085281 4640.0
167.127579 96.0
167.145584 304.0
167.233093 148.0
167.280502 84.0
167.36438 44.0
167.397659 104.0
167.428757 44.0
167.503448 96.0
167.531784 152.0
167.603912 96.0
167.75856 196.0
167.841049 124.0
167.900452 120.0
167.92099 128.0
167.984619 120.0
168.056595 564.0
168.089493 868.0
168.242111 116.0
168.402863 200.0
168.44754 144.0
168.468216 148.0
168.512405 112.0
168.537964 116.0
168.778351 104.0
168.894714 136.0
168.949036 188.0
169.03862 116.0
169.064606 3464.0
169.100708 1008.0
169.187134 36.0
169.267395 132.0
169.308823 44.0
169.368393 104.0
169.4487 100.0
169.640472 152.0
169.796387 136.0
169.881638 88.0
169.920547 52.0
169.972443 52.0
170.068314 560.0
170.09906 132.0
170.17749 60.0
170.38266 88.0
170.400848 144.0
170.520386 132.0
170.616562 160.0
170.663361 156.0
170.703033 168.0
170.73877 120.0
170.772568 44.0
170.803787 212.0
170.845413 56.0
170.863617 52.0
170.887039 192.0
170.949478 148.0
170.97551 100.0
171.046356 852.0
171.081375 296.0
171.105652 148.0
171.139496 112.0
171.256683 76.0
171.381729 160.0
171.564163 156.0
171.671066 112.0
171.72583 52.0
171.908447 124.0
172.055969 108.0
172.488251 76.0
172.61113 56.0
172.673889 184.0
172.747131 112.0
172.953842 120.0
173.053314 176.0
173.186874 160.0
173.218307 132.0
173.378128 40.0
173.417435 180.0
173.540649 240.0
173.59993 72.0
173.716354 40.0
173.795059 116.0
173.943817 88.0
173.970901 48.0
174.039169 124.0
174.146835 104.0
174.378036 148.0
174.427155 244.0
174.559433 212.0
174.609818 124.0
174.880386 148.0
174.914597 124.0
174.968399 292.0
175.080475 192.0
175.114716 152.0
175.196365 176.0
175.225342 76.0
175.28331 84.0
175.338654 44.0
175.362366 176.0
175.415085 184.0
175.46254 76.0
175.505707 168.0
175.610199 152.0
175.668228 132.0
175.734192 112.0
175.794876 152.0
175.818634 56.0
175.881973 168.0
175.953522 156.0
175.977005 56.0
175.998123 156.0
176.061295 420.0
176.156586 140.0
176.309128 60.0
176.616516 96.0
176.687943 160.0
176.714401 104.0
176.748795 44.0
176.833481 172.0
176.852005 68.0
176.899643 136.0
176.973785 148.0
177.070358 2540.0
177.119431 120.0
177.168961 200.0
177.222748 68.0
177.251892 140.0
177.276627 112.0
177.323441 160.0
177.543488 156.0
177.562057 184.0
177.585342 128.0
177.726517 104.0
177.840637 80.0
177.901688 148.0
177.999924 96.0
178.042404 212.0
178.078186 12504.0
178.151306 48.0
178.207092 300.0
178.238983 112.0
178.273819 72.0
178.31871 248.0
178.396027 44.0
178.472885 92.0
178.716568 188.0
178.925186 96.0
178.965668 196.0
179.021042 76.0
179.053146 144.0
179.084351 4956.0
179.134674 180.0
179.316742 92.0
179.380722 248.0
179.400452 188.0
179.447357 80.0
179.530029 72.0
179.578033 168.0
179.682053 124.0
179.775452 48.0
179.914246 120.0
179.967636 44.0
179.988998 96.0
180.058365 388.0
180.089233 1048.0
180.149246 84.0
180.178635 144.0
180.197327 60.0
180.242752 80.0
180.26947 120.0
180.395096 60.0
180.667847 84.0
180.972961 116.0
180.999725 208.0
181.029068 152.0
181.06601 3344.0
181.102203 7116.0
181.15239 36.0
181.195251 44.0
181.275635 72.0
181.314804 104.0
181.334595 136.0
181.393555 60.0
181.433762 80.0
181.45253 36.0
181.49646 168.0
181.578568 52.0
181.677811 184.0
181.738815 140.0
181.88443 36.0
181.991806 108.0
182.069885 672.0
182.103622 1464.0
182.193237 88.0
182.255035 44.0
182.32222 64.0
182.365219 36.0
182.400162 164.0
182.488876 76.0
182.647537 104.0
182.666367 116.0
182.695953 92.0
182.757828 164.0
182.89238 60.0
183.08316 1160.0
183.134201 84.0
183.290955 56.0
183.36911 104.0
183.423019 136.0
183.474228 60.0
183.570267 84.0
183.606354 68.0
183.649506 164.0
183.738525 40.0
184.046204 72.0
184.080917 432.0
184.16716 96.0
184.208252 176.0
184.378464 144.0
184.413605 84.0
184.540649 116.0
184.602844 64.0
184.748901 128.0
184.775955 28.0
184.851715 128.0
184.922073 104.0
184.959961 180.0
185.019516 188.0
185.085968 132.0
185.144073 136.0
185.246994 76.0
185.309296 132.0
185.360779 80.0
185.512558 160.0
185.810867 116.0
185.875992 88.0
185.919403 132.0
185.953583 188.0
186.021103 132.0
186.068451 204.0
186.128418 36.0
186.242477 176.0
186.272369 92.0
186.405182 156.0
186.424515 120.0
186.63382 152.0
186.652847 92.0
186.911255 232.0
186.995621 96.0
187.041016 932.0
187.228577 84.0
187.300568 64.0
187.693008 88.0
187.761169 68.0
187.81572 116.0
187.99852 120.0
188.040298 128.0
188.203247 140.0
188.613022 64.0
188.656754 176.0
188.7005 92.0
189.072647 656.0
189.206635 188.0
189.376404 156.0
189.455841 120.0
189.524338 108.0
189.718918 80.0
189.746338 116.0
189.79808 192.0
189.834076 96.0
189.853271 128.0
190.080399 1744.0
190.141327 180.0
190.219604 200.0
190.59993 288.0
190.635651 156.0
190.654877 64.0
190.723587 112.0
190.935287 104.0
191.0867 7876.0
191.142624 108.0
191.215912 80.0
191.262695 184.0
191.295731 48.0
191.342529 32.0
191.419632 124.0
191.438904 240.0
191.686829 180.0
191.838409 32.0
191.904572 92.0
192.055389 136.0
192.091919 1856.0
192.122452 224.0
192.155548 32.0
192.232803 136.0
192.260406 132.0
192.288742 224.0
192.352814 220.0
192.475723 144.0
192.564087 76.0
192.616562 88.0
192.751938 140.0
192.884598 212.0
193.065918 6616.0
193.102051 2624.0
193.163879 152.0
193.210907 160.0
193.238571 132.0
193.324341 92.0
193.407013 92.0
193.459976 100.0
193.490417 160.0
193.642715 100.0
193.759064 84.0
193.836639 52.0
193.919769 156.0
194.07309 7508.0
194.158203 56.0
194.185944 72.0
194.20813 64.0
194.227539 52.0
194.301453 136.0
194.477264 132.0
194.529999 84.0
194.5522 84.0
194.659424 32.0
194.698898 200.0
194.849365 128.0
194.957718 68.0
195.043655 204.0
195.079834 5712.0
195.233704 116.0
195.260742 52.0
195.283005 128.0
195.302475 64.0
195.331711 200.0
195.429459 92.0
195.488861 72.0
195.589066 52.0
195.683701 104.0
195.783951 132.0
195.934357 220.0
195.992874 212.0
196.085587 1208.0
196.16008 172.0
196.204681 144.0
196.229782 72.0
196.383148 188.0
196.411041 108.0
196.544952 100.0
196.572861 104.0
196.719543 172.0
196.99556 132.0
197.060059 8232.0
197.096329 4992.0
197.137817 188.0
197.180176 76.0
197.206802 52.0
197.226364 68.0
197.245926 132.0
197.287857 148.0
197.312332 228.0
197.339188 120.0
197.413681 76.0
197.56192 32.0
197.615067 68.0
197.651443 60.0
197.740997 128.0
197.94368 96.0
197.970551 60.0
197.992966 200.0
198.064285 1424.0
198.09877 932.0
198.163834 44.0
198.466522 72.0
198.528214 152.0
198.576126 148.0
198.685287 208.0
198.707733 40.0
198.749817 128.0
198.850845 136.0
198.901367 52.0
199.036118 60.0
199.07135 160.0
199.106323 136.0
199.125977 128.0
199.260818 76.0
199.300156 64.0
199.572784 92.0
199.677536 80.0
199.789352 144.0
199.989136 236.0
200.064056 200.0
200.197464 56.0
200.290405 40.0
200.312943 76.0
200.574997 104.0
200.653931 132.0
200.79068 208.0
200.961349 144.0
201.068451 664.0
201.229477 60.0
201.48082 156.0
201.644714 80.0
201.879349 88.0
201.981171 144.0
202.078659 2376.0
202.235825 148.0
202.261292 76.0
202.321381 196.0
202.439667 160.0
202.496307 84.0
202.816467 68.0
202.867493 72.0
202.904343 208.0
203.0858 1868.0
203.122696 176.0
203.1539 128.0
203.179428 152.0
203.525696 64.0
203.627914 112.0
203.806885 104.0
203.835297 48.0
204.022888 92.0
204.088379 496.0
204.116699 96.0
204.583313 188.0
204.62886 160.0
204.731369 120.0
204.953552 44.0
205.065781 1028.0
205.386871 152.0
205.606567 88.0
205.683624 108.0
205.715134 192.0
206.072525 908.0
206.117722 36.0
206.363525 156.0
206.537964 72.0
206.592316 112.0
207.084396 476.0
207.305237 200.0
207.332596 144.0
207.425613 44.0
207.471481 92.0
207.60051 180.0
207.850067 52.0
207.910324 92.0
207.944763 92.0
208.019394 152.0
208.050476 284.0
208.088394 432.0
208.174438 68.0
208.205002 56.0
208.418594 116.0
208.471085 104.0
208.550781 100.0
208.660019 120.0
208.729019 164.0
208.827408 132.0
208.872818 240.0
208.979263 144.0
209.016663 184.0
209.058487 780.0
209.097183 16396.0
209.28241 220.0
209.359222 80.0
209.38089 84.0
209.454269 76.0
209.523407 100.0
209.583908 56.0
209.632889 188.0
209.785645 56.0
209.926926 32.0
210.016327 148.0
210.064896 496.0
210.100693 2288.0
210.166336 72.0
210.202606 56.0
210.275986 148.0
210.325058 52.0
210.397217 36.0
210.426086 76.0
210.466522 120.0
210.547363 108.0
210.642685 40.0
210.668686 164.0
210.97789 48.0
211.078918 348.0
211.102707 312.0
211.140106 40.0
211.200546 120.0
211.489883 168.0
211.822876 44.0
211.970627 148.0
212.040176 140.0
212.075562 136.0
212.156555 136.0
212.192413 52.0
212.263397 180.0
212.350403 52.0
212.385208 132.0
212.553467 156.0
212.948273 144.0
213.145813 116.0
213.323105 208.0
213.404495 72.0
213.625519 156.0
213.669159 48.0
213.724442 92.0
213.803009 136.0
213.835022 124.0
214.006775 124.0
214.332993 88.0
214.359222 200.0
214.589478 152.0
214.834457 88.0
214.860703 92.0
214.898636 120.0
214.940247 108.0
215.062057 188.0
215.67543 36.0
215.704651 100.0
216.040939 164.0
216.105301 132.0
216.301376 40.0
216.471191 44.0
216.793411 124.0
216.95462 188.0
217.063095 132.0
217.083633 136.0
217.286011 72.0
217.42392 180.0
217.55014 132.0
217.870224 120.0
218.040649 224.0
218.072845 612.0
218.13176 112.0
218.202316 96.0
218.258179 188.0
218.284637 36.0
218.320618 52.0
218.384628 28.0
218.590561 164.0
218.749496 120.0
218.967377 156.0
219.081589 4032.0
219.143387 192.0
219.163269 96.0
219.276718 128.0
219.391678 52.0
219.480133 196.0
219.660034 40.0
219.72197 196.0
219.958054 168.0
220.01709 112.0
220.086212 704.0
220.155869 104.0
220.365585 92.0
220.554718 216.0
220.578369 172.0
220.652267 92.0
220.791245 164.0
220.89476 96.0
220.915466 48.0
221.059967 6324.0
221.095978 4524.0
221.163528 96.0
221.240982 76.0
221.3535 48.0
221.380142 120.0
221.414124 144.0
221.501572 96.0
221.575638 84.0
221.640823 80.0
221.785797 104.0
221.83049 64.0
221.955017 160.0
222.005417 76.0
222.029144 108.0
222.067093 2508.0
222.099258 944.0
222.199265 68.0
222.248657 128.0
222.27536 72.0
222.296127 148.0
222.376266 32.0
222.45047 96.0
222.514618 124.0
222.696915 60.0
222.744446 28.0
222.791962 44.0
222.81871 64.0
222.999451 208.0
223.037796 1084.0
223.075882 5564.0
223.171692 104.0
223.264496 100.0
223.291336 92.0
223.374603 120.0
223.480408 128.0
223.532288 120.0
223.553116 80.0
223.61058 104.0
223.87674 216.0
224.049393 184.0
224.080872 1112.0
224.16655 264.0
224.41098 116.0
224.634644 168.0
224.691315 44.0
225.069794 392.0
225.463821 196.0
225.790543 80.0
226.197449 148.0
226.374084 100.0
226.442978 196.0
226.604721 52.0
226.679642 92.0
226.751099 132.0
226.931412 208.0
227.036362 136.0
227.402374 164.0
227.531448 260.0
227.6996 80.0
227.819748 40.0
228.057129 72.0
228.264557 184.0
228.339737 88.0
228.411926 160.0
228.46608 112.0
228.773026 204.0
228.962723 104.0
229.001877 112.0
229.075333 308.0
229.182617 40.0
229.336304 120.0
229.375488 120.0
229.422165 140.0
229.441803 172.0
229.812866 136.0
230.063263 160.0
230.085007 180.0
230.319931 52.0
230.674072 80.0
230.797424 164.0
230.948624 120.0
231.084183 188.0
231.093109 152.0
231.32988 80.0
231.772049 212.0
231.984207 128.0
232.113083 220.0
232.494461 224.0
232.754822 140.0
232.912735 76.0
233.116287 124.0
233.243942 112.0
233.344254 56.0
234.028809 72.0
234.085144 168.0
234.299866 144.0
234.763168 96.0
234.99498 200.0
235.070221 140.0
235.101242 136.0
235.284912 48.0
235.611694 60.0
236.024292 132.0
236.04953 332.0
236.086349 584.0
236.382172 104.0
236.54744 152.0
236.679092 84.0
236.70665 108.0
236.749512 120.0
236.813828 264.0
236.898407 252.0
236.934113 164.0
237.031982 172.0
237.058273 716.0
237.092239 25732.0
237.157578 252.0
237.212158 56.0
237.236679 48.0
237.258148 148.0
237.328659 148.0
237.383667 68.0
237.408386 128.0
237.442123 76.0
237.500397 124.0
237.537201 92.0
237.59549 28.0
237.638443 72.0
237.729248 148.0
237.832718 52.0
237.85939 148.0
237.914642 52.0
237.962555 132.0
237.992233 132.0
238.02211 160.0
238.050064 152.0
238.094589 3960.0
238.246307 40.0
238.280106 104.0
238.551483 144.0
238.579987 172.0
238.605881 104.0
238.665619 148.0
238.716568 112.0
238.747314 124.0
238.853821 152.0
238.934937 156.0
238.969589 152.0
239.071533 18396.0
239.144531 108.0
239.17189 212.0
239.241302 124.0
239.310425 156.0
239.363968 184.0
239.430511 100.0
239.458786 156.0
239.502396 140.0
239.590332 72.0
239.596268 64.0
239.644302 128.0
239.680023 64.0
239.71701 88.0
239.794052 60.0
239.863464 92.0
239.88652 28.0
239.963593 72.0
239.990921 148.0
239.997498 128.0
240.074341 3344.0
240.293594 28.0
240.336777 56.0
240.374847 72.0
240.441696 52.0
240.667038 148.0
240.691742 60.0
240.787476 180.0
240.825485 52.0
240.864685 88.0
241.076904 264.0
241.250946 36.0
241.315872 48.0
241.359161 56.0
241.417908 172.0
241.662277 72.0
241.770584 92.0
241.829376 44.0
241.940811 72.0
242.077042 116.0
242.200928 76.0
242.284561 52.0
242.405396 80.0
242.448792 144.0
242.774292 84.0
242.879745 100.0
243.103119 156.0
243.153091 192.0
243.232101 128.0
243.429062 108.0
243.696182 164.0
243.867096 60.0
244.116119 364.0
244.414429 64.0
244.529556 172.0
244.862686 148.0
245.062057 152.0
245.125931 164.0
245.242798 76.0
245.904007 152.0
245.94458 96.0
246.087814 108.0
246.092621 104.0
246.106537 168.0
246.256805 156.0
246.456726 68.0
246.831818 140.0
246.98819 124.0
247.077682 2344.0
247.438812 44.0
247.486816 60.0
247.570312 40.0
247.742584 112.0
247.877304 100.0
248.081451 392.0
248.115509 212.0
248.294235 28.0
248.451065 60.0
248.535782 112.0
248.573425 92.0
248.805695 52.0
248.950119 212.0
249.053207 160.0
249.064331 132.0
249.084656 316.0
249.185699 128.0
249.267395 164.0
249.333374 164.0
249.742096 200.0
250.062836 2136.0
250.205627 92.0
250.387299 120.0
250.48494 128.0
250.702332 176.0
250.768509 120.0
250.895554 172.0
251.070114 632.0
251.13739 96.0
251.226471 84.0
251.572845 176.0
251.620193 160.0
251.762283 212.0
251.977081 160.0
252.073471 368.0
252.128738 148.0
252.247559 244.0
252.296265 108.0
252.463837 152.0
252.59668 56.0
252.659943 140.0
252.909927 92.0
252.995407 144.0
253.270889 220.0
253.356415 68.0
253.38176 164.0
253.505325 128.0
253.549698 76.0
253.717697 52.0
253.739883 60.0
253.860367 152.0
253.942825 80.0
254.022125 284.0
254.49498 72.0
255.006424 152.0
255.104965 108.0
255.279831 188.0
255.467484 152.0
255.58519 124.0
255.827072 180.0
256.109161 224.0
256.381287 144.0
256.582092 180.0
256.716003 112.0
256.849945 40.0
257.063721 180.0
257.108398 152.0
257.137115 120.0
257.830139 156.0
258.087006 168.0
258.536896 68.0
258.600891 88.0
258.642487 140.0
260.081665 208.0
260.341705 100.0
260.868652 172.0
260.939362 128.0
261.631714 96.0
262.027161 112.0
262.086212 572.0
262.294647 168.0
262.391357 48.0
262.442932 48.0
262.471954 104.0
262.520325 76.0
262.607391 84.0
262.884277 184.0
263.092712 644.0
263.209015 112.0
263.279663 172.0
263.430481 180.0
263.469238 128.0
263.501556 64.0
263.582336 136.0
263.621094 64.0
263.682495 96.0
263.805328 208.0
263.892609 164.0
264.034912 172.0
264.089203 152.0
264.177216 144.0
264.296906 40.0
264.348694 48.0
264.381042 40.0
264.406952 48.0
264.433838 140.0
264.536407 180.0
264.597931 60.0
264.640015 116.0
264.804718 148.0
264.844025 232.0
264.88446 192.0
264.940094 176.0
264.963867 172.0
264.997314 176.0
265.025513 324.0
265.088074 75124.0
265.180328 40.0
265.219635 144.0
265.297394 44.0
265.315887 180.0
265.346893 88.0
265.371674 100.0
265.382477 100.0
265.409515 56.0
265.420593 144.0
265.441986 148.0
265.481415 60.0
265.52594 60.0
265.555359 60.0
265.586273 88.0
265.614166 60.0
265.644562 80.0
265.685486 156.0
265.738739 64.0
265.78714 100.0
265.814392 124.0
265.86203 164.0
265.887543 388.0
265.990906 148.0
266.035858 208.0
266.090759 16264.0
266.14502 248.0
266.172241 128.0
266.229553 56.0
266.287323 60.0
266.310059 76.0
266.353912 96.0
266.366821 84.0
266.386444 192.0
266.427002 44.0
266.488739 52.0
266.52771 28.0
266.573212 168.0
266.594971 104.0
266.66745 64.0
266.716217 48.0
266.769501 84.0
266.803986 68.0
266.870087 72.0
266.924286 172.0
267.028351 40.0
267.091003 1916.0
267.134796 164.0
267.158447 76.0
267.242218 64.0
267.30484 48.0
267.346222 96.0
267.386749 172.0
267.450378 200.0
267.493622 68.0
267.524353 96.0
267.591278 108.0
267.695465 108.0
267.793182 52.0
267.886108 180.0
267.946259 76.0
268.02652 172.0
268.094025 240.0
268.161346 188.0
268.223938 92.0
268.272156 100.0
268.369965 52.0
268.42215 32.0
268.517487 136.0
268.624329 52.0
268.647186 60.0
268.82663 48.0
268.86377 84.0
268.989807 108.0
269.071411 48.0
269.098236 56.0
269.326141 52.0
269.420868 72.0
269.445679 60.0
269.548279 28.0
269.724762 40.0
269.996124 76.0
270.080383 148.0
270.306915 52.0
270.447632 56.0
270.617859 40.0
271.105896 136.0
271.774841 80.0
271.886414 56.0
272.106873 184.0
272.342773 140.0
272.829071 48.0
273.116821 312.0
273.228302 92.0
273.579132 120.0
273.878784 124.0
274.066833 132.0
274.12793 204.0
274.570038 124.0
275.019592 184.0
275.069031 652.0
275.148346 84.0
275.465363 72.0
275.623962 64.0
275.828857 52.0
275.865204 44.0
276.068542 368.0
276.090027 232.0
276.142944 92.0
276.937286 136.0
277.010162 196.0
277.089661 160.0
277.374664 40.0
277.699585 116.0
277.819 112.0
278.154175 52.0
278.293579 172.0
278.486206 100.0
278.529388 160.0
278.602448 96.0
279.061096 92.0
279.852936 160.0
280.119354 212.0
281.323181 68.0
281.633209 136.0
281.807404 64.0
282.138275 176.0
283.106964 220.0
283.222473 176.0
284.000092 120.0
284.057098 96.0
284.108582 624.0
284.453064 156.0
284.594055 56.0
284.728363 40.0
284.896332 84.0
285.111725 204.0
285.279419 88.0
286.083405 136.0
286.110321 116.0
286.760437 80.0
286.942474 76.0
286.996399 120.0
287.701538 60.0
288.181091 84.0
288.228394 48.0
288.255432 116.0
288.58667 40.0
290.081696 1420.0
291.08902 2732.0
291.135559 164.0
291.17218 52.0
291.206146 56.0
291.579865 108.0
292.093109 560.0
292.345032 44.0
292.794403 32.0
293.083069 560.0
293.707794 32.0
294.086792 128.0
294.182098 108.0
295.128448 64.0
295.381531 48.0
296.06604 124.0
296.42572 48.0
298.973755 80.0
299.169952 128.0
299.249115 88.0
299.576294 96.0
299.948456 56.0
300.108551 260.0
300.14151 136.0
300.81427 108.0
300.883301 108.0
301.107727 148.0
301.131927 192.0
302.104767 156.0
302.373077 108.0
303.115509 184.0
303.21814 28.0
303.720856 124.0
304.102234 352.0
305.090424 128.0
305.339355 132.0
305.568939 44.0
305.99353 88.0
306.125854 168.0
306.205933 104.0
306.735535 64.0
306.91684 60.0
308.403992 132.0
308.568268 116.0
308.725616 148.0
309.138397 136.0
311.097656 164.0
311.726318 144.0
312.101379 1712.0
312.295837 96.0
312.619507 88.0
312.967987 124.0
313.109497 196.0
313.373047 56.0
314.118378 128.0
315.066467 88.0
315.190125 56.0
315.221924 104.0
315.359741 172.0
315.536499 200.0
315.568329 60.0
315.950287 112.0
316.116577 88.0
321.082916 172.0
321.10788 132.0
322.814911 64.0
322.847107 68.0
323.666565 84.0
323.938721 48.0
325.581421 232.0
325.61377 72.0
326.325226 104.0
327.005096 84.0
327.419128 136.0
328.091492 260.0
328.338104 136.0
328.795715 128.0
329.106995 3368.0
329.168091 100.0
329.800323 140.0
330.110748 440.0
330.219727 48.0
330.610443 120.0
330.831238 60.0
330.907257 88.0
331.11499 120.0
331.399811 52.0
331.537506 128.0
332.338898 76.0
332.520325 76.0
333.137604 32.0
334.07547 44.0
334.472107 68.0
334.705109 64.0
335.73999 52.0
335.925995 108.0
338.118683 320.0
338.286621 104.0
339.022797 124.0
339.110779 268.0
339.203705 124.0
340.101044 116.0
340.618774 228.0
340.721649 140.0
341.074402 76.0
341.423676 76.0
341.607605 76.0
342.10437 140.0
342.306885 44.0
342.748901 168.0
343.124817 324.0
344.124664 128.0
345.799194 32.0
347.099457 60.0
348.417053 68.0
348.446777 88.0
348.680878 116.0
348.985687 80.0
349.097229 144.0
349.12326 80.0
350.858368 92.0
351.100739 92.0
351.384216 128.0
351.414062 144.0
351.712585 108.0
352.276428 48.0
353.884552 80.0
354.049316 88.0
355.136169 292.0
355.161682 144.0
356.131866 200.0
356.224701 88.0
356.53653 176.0
357.114685 160.0
357.135254 164.0
357.627197 48.0
357.672363 52.0
359.334229 44.0
360.07785 48.0
361.866455 92.0
362.28302 80.0
363.689819 84.0
363.834076 48.0
364.109436 252.0
364.232788 136.0
364.510132 124.0
365.127258 212.0
365.441681 76.0
366.116028 1464.0
366.275391 60.0
366.477295 92.0
366.827911 80.0
367.114685 452.0
367.720428 72.0
368.13382 156.0
369.110962 92.0
371.220856 140.0
372.748627 72.0
373.79837 100.0
375.875305 96.0
376.713074 92.0
378.863922 80.0
380.733459 124.0
381.129669 88.0
381.572754 48.0
382.35849 216.0
382.950256 176.0
383.05542 180.0
383.140472 2168.0
383.897278 260.0
384.018188 172.0
384.145721 520.0
384.78299 68.0
385.155975 264.0
385.372742 112.0
385.716644 96.0
385.873016 52.0
386.045044 76.0
387.795013 44.0
388.092926 80.0
388.693054 96.0
389.682495 100.0
390.11087 52.0
394.083374 240.0
394.846283 48.0
395.756409 100.0
397.214813 60.0
399.371613 60.0
399.67395 88.0
399.853027 160.0
399.984375 108.0
400.178558 148.0
400.597595 68.0
400.780853 64.0
400.812714 140.0
400.956177 124.0
401.003998 168.0
401.071777 172.0
401.150635 7780.0
401.235199 88.0
401.287506 196.0
401.318329 80.0
401.41272 76.0
401.50235 36.0
401.530273 84.0
401.602051 60.0
401.63797 72.0
401.699371 140.0
401.837402 116.0
401.889282 64.0
401.921204 52.0
402.016968 136.0
402.155518 3424.0
402.280396 144.0
402.739594 60.0
402.776489 100.0
402.867401 52.0
403.031219 48.0
403.162018 492.0
403.251007 88.0
403.66275 48.0
404.163239 96.0
404.791168 128.0
405.58844 68.0
405.700653 128.0
405.732727 96.0
406.057526 124.0
406.438629 28.0
406.55899 96.0
407.000549 104.0
409.207886 76.0
413.061829 56.0
413.628326 56.0
420.721832 92.0
421.767548 112.0
424.383453 96.0
425.224365 88.0
427.315918 44.0
428.740631 32.0
431.609528 72.0
439.075928 104.0
441.452118 40.0
442.577698 80.0
445.043091 76.0
448.492676 96.0
453.594482 64.0
461.628357 40.0
461.884979 80.0
463.558929 108.0
468.340546 60.0
470.565674 52.0
473.692322 80.0
475.283386 56.0
477.372711 40.0
478.186218 88.0
480.735657 40.0
483.585052 32.0
487.079559 60.0
488.38501 76.0
494.265594 92.0
502.525452 64.0
506.029419 64.0
506.813232 140.0
511.758331 108.0
519.182495 60.0
526.45459 72.0
526.555054 120.0
527.359131 104.0
533.308289 44.0
533.786438 84.0
536.309265 36.0
536.774841 64.0
539.605164 68.0
542.75824 68.0
551.940369 84.0
552.894653 132.0
555.068237 216.0
556.250488 148.0
565.843811 76.0
571.287109 72.0
575.165894 56.0
576.369324 80.0
581.109436 72.0
583.664612 100.0
588.222107 76.0
594.32959 68.0
594.441223 40.0
594.703247 60.0
604.303162 64.0
605.009827 144.0
608.488647 116.0
611.516663 72.0
612.880676 36.0
619.401794 128.0
619.72876 48.0
622.749817 60.0
631.361755 52.0
632.647644 60.0
646.246094 56.0
646.524414 88.0
646.909119 32.0
662.47644 64.0
664.291077 68.0
665.296875 132.0
671.301208 108.0
677.327332 40.0
686.516052 68.0
687.094971 64.0
687.465454 220.0
691.15979 68.0
693.170471 64.0
694.124451 136.0
719.03064 80.0
725.041748 116.0
725.7547 84.0
726.881042 92.0
728.583008 52.0
738.544556 92.0
745.369873 164.0
747.174927 164.0
755.592834 108.0
757.399292 52.0
763.909302 76.0
767.797852 172.0
768.774292 104.0
780.95697 80.0
781.12384 76.0
792.456421 56.0
794.906677 88.0
801.23761 136.0
810.684692 232.0
815.065308 200.0
816.128235 72.0
817.123535 160.0
818.984924 172.0
826.182922 52.0
829.435425 112.0
829.985779 92.0
831.666687 120.0
832.315369 148.0
838.925781 232.0
843.873352 112.0
846.488647 80.0
846.650757 88.0
847.009827 36.0
848.168701 96.0
850.19281 128.0
854.224976 220.0
857.637085 136.0
857.823608 164.0
858.115112 168.0
859.92926 60.0
860.442932 60.0
862.440674 152.0
862.686157 108.0
863.522339 60.0
865.377258 148.0
865.78717 132.0
866.706848 184.0
868.090149 132.0
868.266113 80.0
868.459656 148.0
872.699463 180.0
872.911133 184.0
872.993469 160.0
873.963989 72.0
877.804382 84.0
878.97821 100.0
879.361816 112.0
879.532959 100.0
881.641418 196.0
884.119263 196.0
887.288086 232.0
890.130127 180.0
890.260742 168.0
891.864807 128.0
892.191772 164.0
892.399841 160.0
892.67926 172.0
892.923096 168.0
893.214539 160.0
894.970093 144.0
897.192322 164.0
897.251953 148.0
897.997314 244.0
898.737 200.0
899.333801 60.0
900.289001 216.0
900.354675 164.0
900.474121 96.0
902.218872 200.0
902.834717 120.0
903.26532 160.0
903.630249 100.0
906.378418 212.0
907.583191 148.0
908.416809 52.0
909.929077 184.0
910.619629 180.0
910.75177 92.0
911.664978 192.0
912.578613 76.0
912.729675 156.0
913.528809 168.0
915.237976 144.0
915.304199 168.0
916.460632 56.0
916.954773 184.0
918.293213 224.0
918.618896 112.0
918.721436 140.0
920.919922 200.0
921.776428 244.0
922.828125 96.0
926.277588 136.0
926.76825 172.0
927.64093 136.0
927.875854 160.0
928.762695 196.0
929.593872 116.0
931.816101 244.0
931.876892 212.0
933.475403 176.0
934.022766 164.0
935.927551 136.0
937.523499 116.0
938.901245 56.0
940.151855 196.0
940.377625 140.0
941.59259 188.0
943.25238 192.0
943.615112 172.0
944.018677 192.0
944.147095 176.0
944.587463 52.0
944.850464 108.0
946.178467 184.0
946.551941 176.0
947.538086 36.0
947.670837 184.0
948.334656 156.0
948.530823 156.0
949.425903 76.0
951.277283 160.0
951.806824 184.0
951.87439 108.0
952.033081 184.0
953.115112 208.0
953.28717 140.0
953.901794 112.0
954.350525 84.0
954.971619 52.0
955.122742 156.0
955.432983 172.0
955.999023 192.0
956.096741 148.0
956.817627 144.0
957.174744 180.0
957.384094 208.0
958.702393 160.0
958.770203 212.0
959.959961 112.0
960.274475 144.0
961.378723 116.0
961.421936 180.0
964.837585 100.0
966.039001 72.0
966.829224 128.0
969.870117 176.0
970.855896 224.0
971.668457 180.0
971.817322 144.0
972.214478 80.0
972.468933 156.0
973.015137 128.0
973.28833 208.0
974.524353 152.0
974.623718 132.0
974.760437 200.0
975.313538 204.0
975.817078 168.0
977.340881 144.0
977.502625 176.0
977.826233 196.0
977.913391 132.0
978.454895 172.0
979.065125 176.0
979.170959 148.0
982.780212 128.0
983.722534 84.0
984.07843 112.0
984.209534 200.0
984.29071 180.0
984.353149 168.0
984.883972 212.0
986.158569 132.0
987.990662 136.0
988.228394 228.0
988.415283 160.0
989.46759 160.0
989.705505 144.0
989.918396 184.0
990.770203 164.0
991.302734 156.0
991.434326 228.0
993.064331 120.0
994.149658 176.0
994.840088 116.0
995.0849 168.0
995.524414 208.0
995.568359 176.0
997.346313 224.0
998.182495 216.0
999.767639 184.0
1000.208191 144.0
1002.620422 172.0
1002.859924 140.0
1003.496582 144.0
1004.019958 168.0
1004.12085 200.0
1005.552979 160.0
1005.603455 228.0
1006.581909 220.0
1006.847168 180.0
1007.99054 160.0
1008.628845 72.0
1010.108459 156.0
1010.272888 200.0
1010.633545 156.0
1011.146057 168.0
1011.532166 168.0
1011.817017 160.0
1012.298218 116.0
1012.507202 184.0
1012.792175 132.0
1012.975891 116.0
1014.344604 188.0
1015.067322 68.0
1015.352661 128.0
1015.492188 212.0
1016.025024 216.0
1016.418396 196.0
1016.488159 204.0
1016.684875 172.0
1016.78009 156.0
1017.656067 196.0
1017.738586 120.0
1018.119629 152.0
1019.129578 172.0
1020.29895 180.0
1020.368896 104.0
1021.589355 180.0
1022.213379 120.0
1023.136292 148.0
1023.365479 136.0
1024.0625 164.0
1024.823975 148.0
1025.199951 148.0
1027.25293 180.0
1027.552734 172.0
1027.597412 212.0
1028.095093 88.0
1029.350342 240.0
1029.869873 124.0
1030.144531 200.0
1030.208496 148.0
1030.265991 140.0
1030.828125 112.0
1031.620728 168.0
1031.88916 156.0
1032.254883 200.0
1032.861206 196.0
1033.040283 60.0
1033.366577 232.0
1033.820801 88.0
1034.294434 204.0
1034.787354 232.0
1035.555786 200.0
1035.651855 180.0
1036.068237 204.0
1036.702515 164.0
1037.022949 140.0
1037.41394 160.0
1037.97168 120.0
1038.38855 236.0
1038.452637 124.0
1039.209595 116.0
1039.883423 132.0
1041.565552 184.0
1042.028687 216.0
1042.285156 148.0
1042.625732 136.0
1043.315308 164.0
1044.734619 144.0
1044.895386 96.0
1045.506714 144.0
1045.603271 92.0
1046.420776 172.0
1046.478638 192.0
1047.202637 188.0
1047.322266 208.0
1047.36731 160.0
1047.837646 144.0
1048.521362 176.0
1048.649536 44.0
1048.842896 132.0
1049.603516 44.0
1050.216187 152.0
1051.674316 192.0
1051.80249 192.0
1053.805298 144.0
1053.915161 168.0
1054.962158 196.0
1055.201294 124.0
1055.602173 60.0
1056.617676 152.0
1057.115845 132.0
1057.562378 104.0
1059.310669 140.0
1059.446655 136.0
1061.62439 176.0
1062.513062 136.0
1063.019165 68.0
1063.557739 112.0
1063.713501 104.0
1064.466675 172.0
1064.78479 156.0
1064.986206 64.0
1065.235596 100.0
1065.752686 192.0
1065.837158 100.0
1066.006104 120.0
1066.266113 136.0
1067.46167 152.0
1067.72876 60.0
1068.047485 160.0
1069.016846 160.0
1070.357788 244.0
1070.468506 136.0
1071.24353 132.0
1071.549683 176.0
1071.849365 136.0
1072.116577 176.0
1072.279541 164.0
1072.370728 92.0
1072.761841 140.0
1073.289917 156.0
1073.707275 132.0
1073.811523 184.0
1074.750977 60.0
1075.494873 160.0
1076.545898 208.0
1077.068481 112.0
1077.473389 148.0
1078.741211 172.0
1078.930786 140.0
1079.054932 172.0
1079.679321 244.0
1079.787354 144.0
1079.957397 192.0
1080.755493 148.0
1080.94519 228.0
1081.599609 140.0
1081.776367 168.0
1081.966187 164.0
1082.025146 140.0
1082.116821 220.0
1082.686523 212.0
1082.928833 144.0
1082.981201 108.0
1083.649414 148.0
1083.753296 152.0
1085.117432 172.0
1085.21582 164.0
1085.261719 112.0
1085.379639 204.0
1085.44519 332.0
1085.635376 144.0
1086.016724 140.0
1086.107666 92.0
1086.442139 140.0
1087.255737 140.0
1087.544556 164.0
1087.761108 172.0
1087.918701 116.0
1088.378174 160.0
1088.470215 124.0
1088.798462 156.0
1089.597778 220.0
1089.615723 152.0
1089.685303 128.0
1089.777222 128.0
1089.903687 176.0
1090.020386 64.0
1090.191162 288.0
1091.229736 156.0
1091.7229 180.0
1092.104248 152.0
1092.446289 140.0
1092.584473 168.0
1093.180054 152.0
1093.380615 64.0
1094.032227 56.0
1094.275879 128.0
1094.552368 168.0
1094.967285 140.0
1095.092407 148.0
1095.45459 188.0
1095.506348 136.0
1096.508789 120.0
1096.699951 176.0
1097.227295 168.0
1097.293213 64.0
1097.345947 172.0
1097.477783 156.0
1097.688843 36.0
1098.137207 136.0
1098.308716 180.0
1098.790283 44.0
1099.885742 104.0
1100.090332 160.0
1100.35437 204.0
1100.706909 52.0
1101.351562 120.0
1102.672852 148.0
1103.089355 248.0
1103.380127 116.0
1103.955444 132.0
1106.012939 204.0
1107.012573 120.0
1107.131836 120.0
1107.873657 44.0
1108.387085 196.0
1108.489746 120.0
1109.0 164.0
1109.072998 172.0
1109.212158 184.0
1110.127075 196.0
1110.578003 188.0
1110.75708 180.0
1110.803589 104.0
1111.632812 164.0
1112.031006 172.0
1112.236816 160.0
1112.332764 148.0
1112.435913 172.0
1112.522217 196.0
1112.920532 156.0
1113.116821 164.0
1113.265869 208.0
1113.557983 92.0
1113.604492 52.0
1113.704102 172.0
1113.943237 228.0
1114.275391 140.0
1114.39502 100.0
1114.514648 208.0
1114.880127 144.0
1115.052856 52.0
1115.298828 172.0
1115.417603 164.0
1115.737549 216.0
1115.870483 244.0
1116.112183 216.0
1116.302612 124.0
1116.555298 152.0
1117.157349 196.0
1117.546509 80.0
1117.619629 172.0
1117.779297 196.0
1117.932373 144.0
1118.624512 152.0
1118.77771 156.0
1119.137207 152.0
1119.3573 120.0
1119.508057 192.0
1119.729858 156.0
1119.829712 256.0
1120.242676 216.0
1120.47583 124.0
1120.662354 188.0
1121.282104 256.0
1121.668701 176.0
1122.602051 188.0
1123.182251 180.0
1123.275635 136.0
1124.630127 52.0
1124.857056 124.0
1125.117432 156.0
1125.771729 128.0
1125.853638 168.0
1126.967407 112.0
1127.334839 132.0
1127.942993 44.0
1128.183716 180.0
1128.591553 136.0
1128.698486 168.0
1128.905762 224.0
1129.320435 36.0
1129.534424 232.0
1129.614746 116.0
1129.828735 152.0
1130.437622 128.0
1130.564819 124.0
1130.812378 156.0
1131.314453 196.0
1131.448242 184.0
1131.515259 168.0
1131.756226 180.0
1131.861572 252.0
1131.879395 184.0
1132.158081 104.0
1132.365601 200.0
1132.8479 212.0
1133.316895 164.0
1133.444092 164.0
1133.631714 168.0
1133.69873 228.0
1135.046143 188.0
1135.207031 100.0
1136.468018 212.0
1136.555298 172.0
1136.803589 184.0
1137.199463 48.0
1137.729736 132.0
1138.226562 140.0
1138.683228 176.0
1138.951904 52.0
1139.523315 140.0
1140.42334 104.0
1140.860229 116.0
1141.428589 260.0
1142.650757 224.0
1142.817261 152.0
1144.648071 208.0
1145.766113 156.0
1145.833496 152.0
1145.988403 68.0
1146.177124 112.0
1146.581421 144.0
1146.64209 212.0
1147.107178 148.0
1147.187988 160.0
1147.632935 112.0
1147.713867 144.0
1148.071289 208.0
1148.327515 180.0
1148.968384 248.0
1149.710571 108.0
1149.939941 124.0
1151.358643 144.0
1151.492798 196.0
1151.641357 212.0
1151.911499 136.0
1152.526367 172.0
1152.97229 140.0
1153.668457 196.0
1153.830688 88.0
1154.966797 144.0
1155.460571 156.0
1156.428223 160.0
1156.522949 176.0
1156.617676 112.0
1157.470703 140.0
1157.680664 228.0
1157.782227 176.0
1157.849976 152.0
1157.990112 184.0
1158.073364 172.0
1159.021851 188.0
1159.955078 124.0
1160.811279 124.0
1161.279175 208.0
1161.855225 220.0
1162.649658 204.0
1162.748901 192.0
1162.873535 64.0
1163.583008 132.0
1164.130127 212.0
1164.962524 180.0
1165.122681 240.0
1165.379272 208.0
1165.453979 148.0
1165.555908 144.0
1165.651123 128.0
1165.73938 156.0
1166.575317 148.0
1167.214478 144.0
1167.683716 80.0
1167.860474 164.0
1168.459106 252.0
1168.948975 208.0
1169.602295 160.0
1169.782104 204.0
1169.922241 76.0
1170.003906 140.0
1170.398804 164.0
1170.473755 208.0
1170.582642 164.0
1171.168335 172.0
1171.290894 80.0
1171.338623 160.0
1171.43396 60.0
1172.053955 180.0
1172.176636 128.0
1172.299194 56.0
1172.633179 192.0
1173.348877 104.0
1173.417114 144.0
1173.567017 140.0
1173.887573 136.0
1174.494507 132.0
1174.781006 204.0
1174.910645 60.0
1175.135742 152.0
1175.626953 160.0
1175.756714 40.0
1175.891479 208.0
1176.002319 216.0
1176.13208 220.0
1176.268555 72.0
1176.499756 148.0
1177.094604 40.0
1177.34729 160.0
1177.640991 168.0
1177.818481 236.0
1178.453857 128.0
1179.854858 128.0
1180.119141 172.0
1180.251343 196.0
1180.449707 52.0
1180.764282 168.0
1181.092529 120.0
1181.516602 168.0
1181.954468 148.0
1182.844238 48.0
1182.967407 196.0
1183.337036 152.0
1183.932739 232.0
1184.493408 200.0
1184.55603 216.0
1184.686157 220.0
1184.850586 104.0
1185.090454 136.0
1185.549438 140.0
1186.221191 96.0
1186.401611 252.0
1187.23584 184.0
1188.717529 116.0
1188.916626 176.0
1189.122437 76.0
1189.342041 120.0
1190.468018 208.0
1190.674072 180.0
1190.900635 164.0
1191.077271 164.0
1191.182251 176.0
1192.295288 108.0
1192.955078 136.0
1193.539551 172.0
1193.786987 128.0
1194.213379 92.0
1194.564209 100.0
1195.052612 128.0
1195.169678 124.0
1195.437012 204.0
1196.959229 172.0
1197.200195 192.0
1197.379272 196.0
1198.467651 76.0
1198.743286 76.0
1198.901733 176.0
1199.232544 132.0
1199.464966 176.0
1199.590942 104.0
1199.839111 244.0
1200.048828 196.0
1200.673462 124.0
1200.887207 64.0
1200.935547 124.0
1201.025146 160.0
1201.121704 112.0
1201.41748 164.0
1201.466675 196.0
1201.535645 152.0
1201.714966 184.0
1201.956543 160.0
1202.487305 188.0
1202.531006 228.0
1202.839844 164.0
1202.936523 192.0
1203.053833 40.0
1205.167114 52.0
1205.429688 260.0
1205.489624 236.0
1205.851318 172.0
1206.307495 152.0
1206.390381 220.0
1206.660034 144.0
1207.697266 128.0
1208.534302 136.0
1208.679565 208.0
1208.734985 180.0
1208.934692 160.0
1209.281616 224.0
1209.399292 196.0
1209.59314 208.0
1209.835327 48.0
1211.116455 48.0
1211.228638 228.0
1211.573608 208.0
1211.670532 116.0
1212.640625 204.0
1212.883179 88.0
1212.959473 216.0
1213.181274 148.0
1213.85376 172.0
1214.491821 132.0
1214.845581 172.0
1214.991211 172.0
1215.254883 188.0
1215.324219 104.0
1215.372803 144.0
1216.032104 100.0
1216.268066 164.0
1216.55957 132.0
1217.094116 184.0
1217.226074 156.0
1217.406616 240.0
1218.462402 160.0
1219.421265 208.0
1219.706299 140.0
1219.775757 316.0
1219.907837 144.0
1220.346069 172.0
1220.596069 200.0
1220.874268 112.0
1221.10376 216.0
1221.326294 232.0
1221.597656 132.0
1221.799316 164.0
1222.063721 116.0
1222.446411 172.0
1223.229858 204.0
1223.35376 184.0
1223.469482 104.0
1223.601807 60.0
1223.962769 204.0
1224.263306 48.0
1224.325928 160.0
1224.548828 80.0
1225.168701 152.0
1225.287109 128.0
1225.39856 200.0
1225.544922 184.0
1226.018799 152.0
1226.632935 136.0
1226.75061 212.0
1226.869019 120.0
1226.959717 136.0
1227.022461 204.0
1227.550659 176.0
1227.740601 96.0
1229.149658 48.0
1229.233398 156.0
1229.526489 148.0
1229.831543 212.0
1229.924316 88.0
1230.119751 160.0
1230.540039 176.0
1230.782959 200.0
1231.963257 192.0
1232.200806 56.0
1232.347534 60.0
1232.403442 316.0
1232.977417 224.0
1233.060303 208.0
1233.584473 224.0
1234.43042 184.0
1234.591309 56.0
1234.829102 64.0
1235.234741 236.0
1235.318604 136.0
1235.54248 172.0
1235.941284 120.0
1236.28418 128.0
1236.585083 248.0
1236.949097 164.0
1237.239746 100.0
1237.692017 160.0
1237.838135 148.0
1238.713623 172.0
1238.839722 208.0
1239.182983 128.0
1239.421143 144.0
1240.36731 136.0
1240.689697 144.0
1240.850952 160.0
1241.047241 184.0
1241.310547 172.0
1241.811646 204.0
1241.923828 60.0
1242.25354 188.0
1242.351685 168.0
1242.513062 100.0
1242.723511 192.0
1242.835815 184.0
1243.123535 148.0
1243.22876 132.0
1243.916504 140.0
1244.155273 144.0
1244.309692 192.0
1244.597534 96.0
1244.681763 184.0
1244.815186 192.0
1245.039917 112.0
1245.74231 212.0
1246.381592 152.0
1246.768066 140.0
1247.042114 228.0
1247.499023 188.0
1247.639648 196.0
1248.033325 148.0
1248.145874 152.0
1248.356812 144.0
1248.630981 208.0
1248.778687 104.0
1249.017822 224.0
1249.323242 244.0
1249.489136 144.0
1249.742432 76.0
1250.608032 148.0
1250.805054 184.0
1251.276733 196.0
1251.952637 140.0
1253.09375 88.0
1253.453125 168.0
1253.741943 180.0
1253.79834 124.0
1253.918213 52.0
1254.10144 104.0
1254.171875 160.0
1254.446777 220.0
1254.714722 96.0
1254.799316 48.0
1255.074219 188.0
1255.243408 184.0
1255.690674 192.0
1255.92749 72.0
1256.647095 156.0
1256.731689 80.0
1257.366821 136.0
1257.592651 260.0
1257.747925 172.0
1257.931396 128.0
1258.552734 124.0
1259.050293 160.0
1259.138794 52.0
1259.294189 80.0
1259.732056 196.0
1259.845093 88.0
1260.120605 132.0
1260.212524 104.0
1260.445679 196.0
1260.551636 188.0
1260.636475 196.0
1260.790283 176.0
1261.095825 108.0
1261.413818 140.0
1261.753174 128.0
1262.064209 140.0
1263.266479 156.0
1263.32312 144.0
1263.613159 132.0
1264.427368 232.0
1264.61084 168.0
1265.226685 168.0
1265.375366 284.0
1265.442383 204.0
1265.575806 156.0
1266.550903 228.0
1266.657837 188.0
1267.075073 152.0
1267.181274 60.0
1267.627686 148.0
1267.734009 40.0
1267.939453 136.0
1267.989136 56.0
1268.50647 152.0
1268.641235 96.0
1268.853882 96.0
1269.422241 156.0
1269.853638 180.0
1269.981323 220.0
1270.229614 192.0
1270.293457 164.0
1270.520386 92.0
1270.619751 76.0
1270.797119 152.0
1270.882324 152.0
1271.237061 136.0
1271.598999 164.0
1271.698364 120.0
1271.81897 60.0
1272.507568 132.0
1272.592407 168.0
1272.990356 92.0
1273.089844 204.0
1273.139526 72.0
1273.459106 180.0
1273.679321 112.0
1273.807129 124.0
1274.18042 172.0
1274.240479 140.0
1274.432251 164.0
1274.482056 104.0
1274.574341 136.0
1274.815918 224.0
1275.327637 84.0
1275.543701 20.0
1275.732788 180.0
1275.825195 80.0
1275.896362 48.0
1276.301514 116.0
1276.536255 176.0
1276.834839 212.0
1276.934448 204.0
1277.140747 160.0
1277.368286 48.0
1277.432373 208.0
1277.916138 92.0
1278.185547 216.0
1278.286133 176.0
1278.826904 196.0
1278.962158 148.0
1279.125854 188.0
1279.204224 80.0
1279.296753 144.0
1279.467529 120.0
1279.973755 200.0
1280.300659 228.0
1280.414551 228.0
1280.77063 244.0
1281.005737 160.0
1281.447388 128.0
1281.604126 52.0
1281.825073 76.0
1282.224121 192.0
1282.601807 152.0
1282.986816 160.0
1283.229126 196.0
1284.127686 144.0
1284.370117 304.0
1284.519897 128.0
1284.705322 112.0
1284.755371 196.0
1284.812378 72.0
1285.763428 224.0
1286.025391 172.0
1286.368042 144.0
1286.596436 164.0
1286.739258 176.0
1286.810669 168.0
1286.860596 100.0
1287.360474 108.0
1287.867432 232.0
1288.181763 220.0
1288.524658 196.0
1288.77478 136.0
1289.26062 156.0
1289.38208 172.0
1289.49646 180.0
1290.025391 120.0
1290.37561 228.0
1290.447144 144.0
1290.561523 208.0
1290.754639 108.0
1291.076416 40.0
1291.205078 52.0
1291.630493 184.0
1291.798706 184.0
1292.199341 160.0
1292.363892 272.0
1292.61438 136.0
1292.900635 208.0
1293.201172 120.0
1293.565796 160.0
1293.6521 180.0
1293.815308 180.0
1293.895508 152.0
1293.967041 148.0
1294.189087 204.0
1294.403809 240.0
1294.876465 196.0
1295.077026 240.0
1295.29187 152.0
1295.929443 340.0
1296.165894 140.0
1296.552856 156.0
1297.139526 216.0
1298.547119 116.0
1299.356445 144.0
1299.550171 192.0
1299.966309 196.0
1301.631958 172.0
1301.775269 140.0
1302.198975 160.0
1302.57959 164.0
1303.183105 136.0
1303.355469 340.0
1303.81543 132.0
1304.419067 160.0
1304.494141 224.0
1304.555664 48.0
1304.605957 136.0
1305.109253 204.0
1305.396851 172.0
1305.461548 444.0
1305.540649 180.0
1305.605469 116.0
1305.720459 136.0
1305.813965 60.0
1307.202759 136.0
1307.720581 112.0
1308.05481 204.0
1308.584351 224.0
1308.663574 272.0
1308.829102 204.0
1309.189209 100.0
1309.33313 128.0
1309.405151 152.0
1309.462769 200.0
1309.829102 184.0
1310.716309 140.0
1310.896362 184.0
1311.14856 120.0
1311.335938 52.0
1311.56665 148.0
1311.718018 140.0
1311.9198 28.0
1312.186523 144.0
1312.402832 80.0
1312.525391 164.0
1312.741699 148.0
1312.907593 136.0
1313.022949 152.0
1313.109497 136.0
1313.376343 152.0
1313.628906 72.0
1314.465698 116.0
1314.624512 108.0
1314.992554 152.0
1315.172974 136.0
1315.468872 192.0
1316.674683 112.0
1316.869629 180.0
1317.165771 132.0
1317.238037 372.0
1317.418579 104.0
1318.083252 144.0
1318.184204 184.0
1318.755371 140.0
1319.116821 148.0
1319.167358 252.0
1319.232422 164.0
1319.868652 112.0
1320.049438 208.0
1320.186768 180.0
1320.953491 132.0
1321.138428 232.0
1321.546631 164.0
1322.05957 204.0
1322.125488 64.0
1322.190674 156.0
1322.277466 204.0
1322.711792 140.0
1323.428467 212.0
1323.710449 168.0
1324.109131 140.0
1324.283813 180.0
1324.449463 180.0
1324.572632 184.0
1324.681274 220.0
1325.10144 188.0
1325.507202 120.0
1325.673828 176.0
1325.789795 112.0
1325.884033 176.0
1326.050659 152.0
1326.123169 184.0
1326.195679 192.0
1326.253662 176.0
1326.418213 192.0
1326.507324 116.0
1326.652344 76.0
1326.869751 156.0
1326.993042 220.0
1327.921265 168.0
1328.044556 132.0
1328.160522 264.0
1328.436157 116.0
1329.292358 180.0
1329.364868 156.0
1330.335327 200.0
1330.475952 256.0
1330.802002 176.0
1330.896362 124.0
1330.990845 164.0
1331.319336 152.0
1331.593506 188.0
1331.680664 176.0
1331.862305 140.0
1332.255859 176.0
1332.574219 92.0
1332.646851 188.0
1332.901123 212.0
1333.504272 116.0
1333.606079 124.0
1333.678711 208.0
1333.773193 120.0
1334.049438 152.0
1335.758179 160.0
1336.296509 176.0
1336.376587 120.0
1336.485718 148.0
1336.682129 176.0
1336.784058 44.0
1338.196167 184.0
1338.469482 192.0
1338.734863 224.0
1338.807739 156.0
1339.710938 116.0
1340.658081 60.0
1341.270264 196.0
1341.66394 404.0
1342.261719 120.0
1342.429443 180.0
1342.728394 184.0
1342.925293 152.0
1343.071167 188.0
1343.180664 168.0
1343.465088 168.0
1343.516235 136.0
1343.574585 116.0
1343.953857 276.0
1344.085205 188.0
1344.318726 188.0
1345.121582 184.0
1345.325928 176.0
1345.384399 176.0
1345.4646 100.0
1345.910034 184.0
1346.143677 148.0
1346.494141 124.0
1346.747681 196.0
1346.859375 180.0
1346.990845 144.0
1347.180786 176.0
1347.290405 216.0
1347.421875 160.0
1347.509521 112.0
1347.82373 120.0
1348.247559 184.0
1348.327881 180.0
1348.876099 144.0
1349.113647 128.0
1349.219604 120.0
1349.314697 156.0
1350.309082 180.0
1350.374878 160.0
1350.528564 200.0
1351.274658 160.0
1351.33313 132.0
1351.435547 152.0
1351.490479 192.0
1352.064941 220.0
1352.15271 196.0
1352.394287 132.0
1352.972534 140.0
1353.031006 156.0
1353.140869 112.0
1353.251099 136.0
1353.550903 204.0
1353.799805 128.0
1354.195312 204.0
1354.305176 184.0
1354.656738 128.0
1354.75647 244.0
1355.023071 144.0
1355.088989 116.0
1355.366699 160.0
1355.484619 248.0
1355.57251 160.0
1355.660522 148.0
1356.210205 132.0
1356.386108 216.0
1356.452026 160.0
1356.8479 196.0
1356.950562 188.0
1357.186035 164.0
1357.234863 92.0
1357.287842 156.0
1357.375732 148.0
1357.434448 32.0
1357.623535 212.0
1357.771729 100.0
1357.87439 160.0
1358.285156 128.0
1358.519897 200.0
1358.761963 128.0
1358.927124 192.0
1359.018799 244.0
1359.216919 216.0
1359.341553 160.0
1359.635132 164.0
1359.936035 212.0
1360.024048 184.0
1360.09021 124.0
1360.178223 188.0
1360.35437 144.0
1360.834351 184.0
1360.900513 188.0
1360.963745 168.0
1361.396973 196.0
1361.646606 188.0
1361.925781 56.0
1362.043213 192.0
1362.153442 176.0
1362.212158 176.0
1362.643555 244.0
1362.744873 412.0
1362.843994 108.0
1362.91748 168.0
1363.02771 152.0
1363.182007 160.0
1363.292236 116.0
1363.461304 132.0
1363.559448 144.0
1363.850708 96.0
1364.049194 152.0
1364.181519 112.0
1364.244141 180.0
1364.343262 164.0
1364.426758 164.0
1364.630005 184.0
1364.681396 212.0
1365.115234 140.0
1365.394653 180.0
1365.534424 156.0
1365.806519 172.0
1365.856079 168.0
1365.945557 188.0
1366.159668 184.0
1366.468628 188.0
1366.527466 172.0
1366.727417 168.0
1366.895386 124.0
1366.983643 148.0
1367.054932 124.0
1367.226562 84.0
1367.383545 168.0
1367.631226 188.0
1367.719604 104.0
1367.771118 204.0
1367.859497 144.0
1368.949097 164.0
1369.118408 148.0
1369.235229 136.0
1369.357178 180.0
1369.445435 168.0
1369.561523 124.0
1369.9021 172.0
1370.525391 132.0
1370.657959 124.0
1370.842163 60.0
1371.055908 212.0
1371.387573 176.0
1371.461304 64.0
1371.807739 160.0
1371.903564 76.0
1371.962524 132.0
1372.183716 128.0
1372.279541 136.0
1372.375366 144.0
1372.581787 204.0
1372.721924 176.0
1373.112793 124.0
1374.212891 140.0
1374.707764 180.0
1375.089966 92.0
1375.171143 112.0
1375.562256 160.0
1375.665649 108.0
1375.786621 192.0
1375.938721 180.0
1376.042114 144.0
1376.37439 156.0
1376.71521 188.0
1377.061157 160.0
1377.171875 64.0
1377.297485 156.0
1377.6521 64.0
1377.950684 180.0
1378.351562 172.0
1378.797241 104.0
1378.906738 208.0
1378.999634 260.0
1379.29248 160.0
1379.506836 60.0
1379.928223 208.0
1380.002197 156.0
1380.09082 184.0
1380.297852 196.0
1380.654175 208.0
1381.007812 160.0
1381.311035 232.0
1381.555664 188.0
1382.376465 172.0
1382.532715 168.0
1382.74646 172.0
1382.856689 140.0
1383.020264 176.0
1383.072144 184.0
1383.316406 136.0
1383.392212 232.0
1383.582886 144.0
1383.716187 188.0
1383.967896 48.0
1384.730591 100.0
1385.42688 112.0
1385.539429 236.0
1385.598633 164.0
1385.893555 108.0
1386.167725 164.0
1386.286255 140.0
1387.094116 180.0
1387.205322 164.0
1387.271973 196.0
1387.472168 144.0
1387.69458 132.0
1388.038696 128.0
1388.139404 156.0
1388.510254 220.0
1388.947876 276.0
1389.296509 236.0
1389.363159 124.0
1389.446899 196.0
1389.506958 136.0
1389.585815 164.0
1389.697021 104.0
1389.823242 184.0
1390.053223 216.0
1390.20166 196.0
1390.38623 172.0
1390.713745 220.0
1390.943848 188.0
1391.433716 152.0
1391.86438 104.0
1391.983154 192.0
1392.074341 176.0
1392.17627 52.0
1392.358643 188.0
1392.532715 212.0
1392.844604 112.0
1393.026123 160.0
1393.230957 168.0
1393.617188 136.0
1393.929321 168.0
1393.981323 112.0
1394.122437 116.0
1394.508911 244.0
1394.709595 212.0
1394.880615 160.0
1394.940063 204.0
1395.579346 172.0
1395.705811 180.0
1395.961548 240.0
1396.233765 68.0
1396.605591 176.0
1396.769287 116.0
1396.880859 64.0
1396.946777 176.0
1397.05188 180.0
1397.14856 124.0
1397.795898 216.0
1397.877686 100.0
1398.078613 380.0
1398.242554 152.0
1398.443359 184.0
1398.755981 116.0
1398.867554 116.0
1399.597168 144.0
1399.760986 56.0
1400.237549 132.0
1400.349243 160.0
1400.445801 200.0
1400.91272 212.0
1401.012207 176.0
1401.116455 68.0
1401.399658 132.0
1401.463745 172.0
1401.60083 208.0
1401.675293 96.0
1401.843018 196.0
1401.980835 192.0
1402.077637 212.0
1402.159668 140.0
1402.433228 204.0
1402.56958 148.0
1402.822998 84.0
1402.897583 80.0
1403.024292 48.0
1403.315063 172.0
1403.464111 100.0
1404.575317 148.0
1405.918213 52.0
1406.022705 116.0
1407.381226 128.0
1407.679932 184.0
1408.158569 172.0
1408.292358 144.0
1408.366943 172.0
1408.419312 144.0
1408.665771 96.0
1409.143921 156.0
1409.711792 176.0
1409.873535 140.0
1410.018066 108.0
1410.361938 188.0
1410.54126 132.0
1410.735718 52.0
1411.318848 168.0
1411.589111 180.0
1411.774902 172.0
1411.9021 100.0
1412.178711 216.0
1412.575195 200.0
1412.687378 184.0
1412.886597 184.0
1413.061401 56.0
1413.255981 132.0
1413.368164 136.0
1413.452637 156.0
1414.086548 160.0
1414.152466 208.0
1414.32959 176.0
1414.378418 396.0
1414.515503 144.0
1414.647949 156.0
1415.957397 176.0
1416.078003 92.0
1416.302734 152.0
1417.194214 120.0
1417.343994 212.0
1417.523926 248.0
1418.28833 124.0
1418.648071 236.0
1418.955444 164.0
1419.412842 172.0
1419.517822 168.0
1419.637695 184.0
1419.727783 220.0
1419.825195 108.0
1420.297729 64.0
1420.620239 76.0
1420.852783 156.0
1421.062866 148.0
1421.144165 116.0
1421.325439 124.0
1421.630005 268.0
1421.693115 144.0
1421.835693 188.0
1421.940796 132.0
1422.781128 160.0
1423.096802 200.0
1423.276978 196.0
1423.607422 148.0
1423.757568 136.0
1424.110596 176.0
1424.359619 220.0
1424.643799 104.0
1424.756592 216.0
1425.094604 168.0
1425.184814 88.0
1425.785889 76.0
1425.885742 156.0
1425.987061 176.0
1426.31958 180.0
1426.522461 180.0
1426.890869 56.0
1427.507324 176.0
1427.710449 84.0
1428.259399 176.0
1428.50769 120.0
1428.612915 192.0
1428.680664 232.0
1429.229858 124.0
1429.703979 160.0
1429.868286 140.0
1430.447021 224.0
1430.795288 236.0
1431.397095 304.0
1431.694458 212.0
1431.863892 184.0
1432.090454 128.0
1432.210938 80.0
1432.312622 184.0
1432.557495 216.0
1432.655396 380.0
1432.926636 276.0
1433.190308 96.0
1433.469116 148.0
1433.951416 172.0
1434.388306 136.0
1434.456421 32.0
1434.772949 168.0
1435.172607 204.0
1435.451538 204.0
1436.077515 96.0
1436.348999 128.0
1436.907227 124.0
1437.103394 172.0
1437.548584 188.0
1437.63916 144.0
1438.12207 176.0
1438.197632 216.0
1438.356079 144.0
1438.439087 180.0
1438.537231 152.0
1438.627808 52.0
1438.707642 252.0
1438.978638 84.0
1439.216675 168.0
1439.360107 140.0
1439.450806 160.0
1439.601807 116.0
1439.80896 184.0
1440.047363 196.0
1440.130371 172.0
1440.477905 132.0
1440.545898 60.0
1440.598755 148.0
1440.681885 124.0
1441.006714 192.0
1441.19519 176.0
1441.469116 172.0
1441.963867 208.0
1442.072144 188.0
1442.932373 200.0
1442.960327 160.0
1443.05481 160.0
1443.33606 240.0
1443.508423 176.0
1443.773193 164.0
1444.277832 104.0
1444.892578 184.0
1444.968262 172.0
1445.074097 128.0
1445.142212 136.0
1445.588623 208.0
1445.762695 180.0
1445.906494 156.0
1446.072998 224.0
1446.209229 148.0
1446.337891 144.0
1446.526001 168.0
1446.55127 144.0
1446.822388 172.0
1446.882935 68.0
1447.08728 104.0
1447.163086 160.0
1447.412842 188.0
1447.511353 232.0
1447.647583 136.0
1447.783936 92.0
1447.884277 112.0
1448.042969 176.0
1448.488281 176.0
1448.639771 192.0
1448.715576 76.0
1448.836792 212.0
1448.965576 188.0
1449.276123 144.0
1449.783813 192.0
1449.995972 212.0
1450.299194 96.0
1450.693359 180.0
1450.852539 156.0
1451.11792 100.0
1451.37561 192.0
1451.838257 140.0
1452.240112 196.0
1452.793823 196.0
1452.862183 152.0
1453.044189 172.0
1453.461548 192.0
1453.537354 80.0
1453.643555 180.0
1453.774658 208.0
1453.916748 72.0
1454.258301 92.0
1454.577148 108.0
1454.675781 96.0
1455.10083 256.0
1455.267944 112.0
1455.867798 180.0
1455.928467 224.0
1456.068359 248.0
1456.210327 36.0
1456.748779 128.0
1456.953857 172.0
1457.272949 152.0
1457.348999 152.0
1457.493286 212.0
1457.569336 144.0
1457.675659 68.0
1457.80835 180.0
1457.926392 140.0
1458.070801 168.0
1458.314087 148.0
1458.450806 132.0
1458.595215 124.0
1458.98291 196.0
1459.355469 136.0
1459.408691 200.0
1459.537964 112.0
1459.621582 116.0
1460.22229 124.0
1460.480957 112.0
1460.549316 56.0
1460.929688 152.0
1461.10083 188.0
1461.355713 124.0
1461.583984 128.0
1461.743774 208.0
1461.812256 112.0
1461.911133 196.0
1462.10144 208.0
1462.588501 196.0
1463.11377 160.0
1463.319336 180.0
1463.372559 332.0
1463.585815 164.0
1463.867554 152.0
1464.248291 188.0
1464.332031 168.0
1464.476685 228.0
1464.555054 200.0
1464.89563 48.0
1465.238525 244.0
1465.527954 164.0
1466.130005 164.0
1466.225586 164.0
1466.434814 180.0
1466.549072 168.0
1466.709229 172.0
1467.008423 180.0
1467.090332 224.0
1467.303711 212.0
1467.730713 200.0
1468.063477 196.0
1468.559448 212.0
1468.813599 140.0
1468.882324 116.0
1468.966187 212.0
1469.355225 184.0
1469.729126 116.0
1470.606689 180.0
1470.688843 188.0
1470.916748 404.0
1471.560303 176.0
1471.714478 160.0
1471.769409 60.0
1471.858643 212.0
1472.087646 176.0
1472.490234 184.0
1472.706299 172.0
1472.912476 52.0
1473.859741 164.0
1473.974365 32.0
1474.341187 124.0
1474.616333 160.0
1474.769165 128.0
1474.866699 172.0
1474.952637 40.0
1476.22168 196.0
1476.305786 160.0
1476.795288 176.0
1477.070557 172.0
1477.384277 76.0
1477.629028 124.0
1477.866211 104.0
1478.072754 148.0
1478.164673 100.0
1478.348267 196.0
1478.669678 140.0
1478.746216 112.0
1478.94519 104.0
1479.090576 112.0
1479.167236 156.0
1479.603516 168.0
1479.695435 188.0
1479.908569 132.0
1480.246704 216.0
1480.307861 164.0
1480.422729 192.0
1480.575928 220.0
1480.790405 196.0
1480.843994 168.0
1481.295898 200.0
1481.418457 180.0
1481.58252 132.0
1481.671265 164.0
1481.724854 168.0
1481.902344 188.0
1482.353149 140.0
1482.552368 200.0
1482.858154 168.0
1483.081177 200.0
1483.211426 140.0
1483.380127 216.0
1483.786377 76.0
1483.916748 144.0
1484.054688 240.0
1484.177368 168.0
1484.706543 180.0
1484.890503 164.0
1485.105347 128.0
1485.166626 100.0
1485.358398 188.0
1485.442749 40.0
1485.527222 128.0
1485.619263 188.0
1485.833984 180.0
1486.202271 128.0
1486.66272 176.0
1486.915894 180.0
1487.092407 216.0
1487.291992 308.0
1487.668091 152.0
1487.775513 108.0
1488.620117 172.0
1488.736938 156.0
1488.796753 116.0
1488.927246 164.0
1489.03479 68.0
1489.360718 176.0
1489.726074 136.0
1489.810547 148.0
1490.145386 172.0
1490.640381 144.0
1491.022461 216.0
1491.408813 140.0
1491.993042 208.0
1492.492798 140.0
1492.838745 188.0
1493.130981 248.0
1493.28479 196.0
1493.392456 168.0
1493.727905 212.0
1494.077148 176.0
1494.184814 156.0
1494.531006 156.0
1495.046509 136.0
1495.169678 144.0
1495.616089 28.0
1495.716064 204.0
1496.077881 152.0
1496.255005 104.0
1496.624512 52.0
1496.806763 144.0
1497.078857 212.0
1497.394531 128.0
1497.579346 208.0
1497.848999 144.0
1498.010742 128.0
1498.087769 228.0
1498.362183 136.0
1498.711792 156.0
1498.773438 168.0
1498.9198 48.0
1499.104736 148.0
1499.166382 112.0
1499.251221 220.0
1499.428467 60.0
1499.721313 136.0
1499.821533 216.0
1500.021851 116.0
1500.145264 192.0
1500.22229 164.0
1500.283936 120.0
1500.461304 204.0
1500.623169 108.0
1500.701538 72.0
1500.776978 168.0
1501.2323 184.0
1501.294067 176.0
1501.371094 160.0
1501.733643 224.0
1501.980469 128.0
1502.327515 64.0
1502.55896 180.0
1502.665161 132.0
1503.01416 220.0
1503.261108 184.0
1503.924805 152.0
1504.032837 184.0
1504.102295 128.0
