>compound MLS001141366-01!(2R)-2-[3-[(10aS)-1,3-dioxo-10,10a-dihydro-5H-imidazo[1,5-b]isoquinolin-2-yl]propanoylamino]-2-phenylacetic acid
>formula C22H21N3O5
>ionization [M+H]+
>parentmass 408.156
#inchi InChI=1S/C22H21N3O5/c26-18(23-19(21(28)29)14-6-2-1-3-7-14)10-11-24-20(27)17-12-15-8-4-5-9-16(15)13-25(17)22(24)30/h1-9,17,19H,10-13H2,(H,23,26)(H,28,29)/t17-,19+/m0/s1
#inchikey XTJNPXYDTGJZSA
#Ion_Source LC-ESI
#Instrument qTof
#Compound_Source NIH Natural Product Library
#PI Dorrestein
#Data_Collector VVP/LMS
#Scan -1
#Precursor_MZ 408.156
#ExactMass 407.148
#Charge 1
#CAS_Number N/A
#Pubmed_ID N/A
#Smiles OC(=O)[C@H](NC(=O)CCN1C(=O)[C@@H]2Cc3ccccc3CN2C1=O)c4ccccc4
#INCHI_AUX N/A
#Library_Class 1
#SpectrumID CCMSLIB00000079350
#IonMode Positive
#UpdateWorkflowName UPDATE-SINGLE-ANNOTATED-GOLD
#LibraryQualityString Gold
#TaskID b1d8e8f6646f4e71acdff9ca3d919d08
##Scan# 1865
#SpectrumFile p1-A05_GA5_01_17878.mzXML
#LibraryName NIH_Natural_Products_Library.mgf
#MQScore -1
#Organism NIH_Natural_Products_Library
#TIC_Query 0
#RT_Query -1
#MZErrorPPM -1
#SharedPeaks 0
#MassDiff 0
#LibMZ -1
#SpecMZ 408.156
#SpecCharge 0
#internalFilename spec-00000.mgf

>collision 10
95.553299 80.0
95.588326 132.0
95.718742 180.0
95.956444 128.0
96.108566 136.0
96.128082 72.0
96.469864 136.0
97.039551 192.0
97.131714 236.0
97.147408 108.0
97.38295 144.0
97.412415 232.0
97.58535 180.0
98.195778 120.0
98.545166 88.0
98.671654 140.0
99.039711 160.0
99.071404 180.0
99.138771 136.0
99.771919 88.0
99.915108 148.0
99.982758 152.0
100.02726 156.0
100.596634 176.0
100.770378 80.0
100.956268 92.0
101.000267 164.0
101.256645 204.0
101.541031 188.0
101.625282 112.0
101.753723 140.0
102.163689 152.0
102.419327 212.0
102.600685 208.0
103.022453 196.0
103.050735 316.0
103.414719 140.0
103.522018 156.0
103.734749 40.0
103.840179 236.0
104.006554 164.0
104.256355 56.0
104.646896 148.0
105.352516 144.0
105.448555 216.0
105.726685 52.0
106.066605 356.0
106.238907 224.0
106.255318 192.0
106.563271 184.0
106.772934 160.0
107.048851 764.0
107.473305 104.0
108.051788 172.0
108.161469 192.0
108.190445 52.0
108.548874 180.0
108.694077 104.0
108.980606 172.0
109.088669 172.0
109.115692 188.0
109.213432 272.0
109.29248 172.0
109.350746 108.0
109.696495 92.0
110.264214 220.0
110.690964 128.0
112.353447 172.0
112.661659 196.0
113.393761 188.0
113.63974 152.0
114.311157 200.0
114.351593 204.0
114.882149 120.0
115.012306 200.0
115.056068 404.0
115.392548 212.0
115.463104 200.0
115.833374 192.0
115.901932 160.0
116.064827 140.0
116.161339 76.0
116.547768 144.0
116.588593 196.0
117.066376 152.0
117.454079 156.0
117.551163 260.0
117.682831 88.0
117.71801 204.0
117.933411 188.0
118.073936 136.0
118.166946 188.0
118.303291 108.0
118.435371 144.0
119.09256 84.0
119.677528 124.0
119.694946 56.0
119.873558 176.0
120.083519 180.0
120.109009 148.0
120.598091 144.0
121.064079 176.0
121.0811 136.0
121.147308 168.0
121.765839 184.0
121.829536 148.0
121.906441 200.0
121.932808 120.0
122.097687 136.0
122.14608 144.0
122.383751 152.0
122.606224 128.0
122.687775 32.0
123.19091 188.0
123.502579 148.0
123.586639 208.0
123.883293 156.0
124.231323 168.0
124.408783 136.0
125.051224 92.0
125.298386 140.0
125.777824 32.0
126.146385 180.0
126.853737 156.0
126.950142 208.0
127.244072 100.0
127.632759 124.0
127.8172 96.0
127.938736 196.0
127.963501 164.0
128.051361 228.0
128.736877 248.0
128.883713 136.0
129.154984 84.0
129.188919 128.0
129.659866 68.0
129.736923 160.0
129.782181 240.0
129.888855 36.0
129.984146 168.0
130.065247 12168.0
130.233856 100.0
130.347443 108.0
130.554306 200.0
130.615707 60.0
131.06958 1408.0
131.153061 80.0
131.201889 164.0
131.255646 48.0
131.29213 88.0
131.846863 120.0
131.933731 172.0
132.081299 7912.0
132.144119 68.0
132.173874 108.0
132.345535 32.0
132.476074 68.0
132.496689 108.0
132.559982 112.0
132.932312 68.0
133.026016 160.0
133.084671 1020.0
133.423828 92.0
133.605499 44.0
133.665329 60.0
133.738968 64.0
133.918549 52.0
133.95195 56.0
134.013 112.0
134.084427 148.0
134.252716 80.0
134.649643 172.0
134.799805 156.0
134.818283 116.0
135.045059 1120.0
135.137375 48.0
135.38736 196.0
135.591232 196.0
135.623672 168.0
135.867157 152.0
135.941406 176.0
136.048615 188.0
136.254852 212.0
136.326874 160.0
136.347794 76.0
136.920074 84.0
137.106445 100.0
137.306946 100.0
137.425903 200.0
137.488907 100.0
137.741058 204.0
137.869553 244.0
138.34903 160.0
139.040482 68.0
139.601929 184.0
139.872482 44.0
140.640869 160.0
140.68573 76.0
141.319092 164.0
142.067581 364.0
142.378647 212.0
142.644745 192.0
142.851624 48.0
142.913467 168.0
143.234848 236.0
143.692551 36.0
144.079712 2096.0
144.208328 136.0
144.457001 52.0
144.567047 128.0
144.784897 144.0
145.082001 132.0
145.835709 168.0
145.898209 88.0
146.059311 244.0
146.20607 172.0
146.413101 180.0
147.066452 100.0
147.097198 180.0
147.660797 128.0
147.85434 164.0
148.132767 196.0
148.17395 152.0
148.331467 164.0
150.418488 144.0
150.501495 156.0
151.102722 92.0
151.274033 144.0
151.842468 172.0
152.028915 160.0
152.068054 164.0
152.104996 136.0
152.807816 152.0
153.939148 64.0
155.163879 204.0
156.030304 200.0
156.047714 192.0
156.63501 112.0
156.754593 148.0
157.218399 184.0
157.32074 216.0
157.528 124.0
157.662918 224.0
158.060226 7068.0
158.153107 48.0
158.183136 28.0
158.23822 112.0
158.277252 128.0
158.458603 60.0
158.671631 180.0
158.714249 128.0
158.78447 64.0
159.06514 616.0
159.093079 144.0
159.417084 60.0
159.497498 88.0
159.681046 96.0
159.766556 36.0
160.038361 100.0
160.076172 548.0
160.103836 80.0
160.154205 108.0
160.315445 252.0
160.625549 52.0
160.759262 164.0
160.910706 164.0
160.994019 32.0
161.071167 136.0
161.395798 172.0
161.967728 164.0
162.013321 148.0
162.44426 144.0
162.857986 44.0
163.643753 52.0
164.796555 212.0
165.456375 196.0
165.70993 188.0
166.407516 220.0
166.818558 144.0
167.031982 148.0
167.34079 176.0
167.874146 212.0
168.299896 284.0
168.808914 140.0
169.326477 112.0
169.479324 216.0
169.608887 236.0
169.800751 140.0
170.061539 188.0
170.847504 148.0
171.284821 204.0
171.688797 224.0
173.194183 196.0
173.249191 120.0
173.414261 216.0
173.807617 168.0
173.915207 96.0
174.001831 96.0
174.093201 240.0
174.172516 108.0
174.865891 156.0
175.03511 180.0
175.085663 2004.0
175.480392 64.0
175.825928 32.0
175.85144 120.0
175.994873 128.0
176.089142 224.0
176.113708 92.0
176.214081 64.0
176.380569 160.0
176.475739 196.0
176.944016 84.0
177.428818 124.0
177.566711 132.0
178.474869 128.0
178.719574 208.0
178.855286 184.0
179.212128 64.0
180.103119 84.0
180.244705 92.0
180.319534 248.0
181.784378 196.0
182.205917 244.0
182.26503 104.0
182.808182 196.0
184.191238 148.0
184.745377 252.0
184.77243 148.0
185.069321 188.0
185.614746 168.0
185.991837 160.0
186.091202 268.0
186.24707 92.0
186.396484 96.0
186.439957 108.0
186.839645 160.0
186.989044 208.0
186.995636 308.0
187.040009 140.0
187.048828 120.0
187.086578 24488.0
187.149902 48.0
187.179855 48.0
187.198929 72.0
187.236145 96.0
187.32692 52.0
187.411377 96.0
187.509476 44.0
187.555817 40.0
187.708481 128.0
187.807632 56.0
187.953964 68.0
188.057663 56.0
188.089447 1844.0
188.1259 116.0
188.28154 60.0
188.486404 76.0
188.554718 72.0
188.770691 40.0
188.817764 56.0
189.092468 192.0
189.263214 72.0
189.320709 80.0
189.416565 100.0
189.460403 84.0
189.485046 92.0
189.564514 56.0
189.622055 76.0
189.78653 68.0
190.225479 64.0
190.259781 72.0
190.36824 52.0
191.080338 208.0
191.669312 60.0
191.798843 156.0
196.518753 168.0
196.588516 80.0
199.107986 60.0
200.830399 84.0
200.878342 168.0
201.070847 232.0
201.10257 916.0
201.221695 120.0
201.341217 88.0
201.37793 68.0
201.626556 32.0
201.646332 52.0
201.929047 40.0
202.073318 212.0
202.104889 152.0
202.245926 44.0
202.48941 116.0
202.51207 60.0
202.600739 184.0
202.948471 192.0
202.973984 152.0
203.044876 108.0
203.081558 15528.0
203.138474 52.0
203.174698 52.0
203.219406 80.0
203.280334 52.0
203.311554 68.0
203.339935 76.0
203.893723 96.0
204.084549 2424.0
204.313263 72.0
204.693069 48.0
205.087479 232.0
205.131805 64.0
205.154617 36.0
205.197372 144.0
205.217331 28.0
205.625244 40.0
205.742279 212.0
205.785095 132.0
206.147842 60.0
206.653946 128.0
207.003143 56.0
207.490219 44.0
207.59343 64.0
208.170212 208.0
209.167816 116.0
212.856781 72.0
214.436401 76.0
214.961319 100.0
215.080795 3752.0
215.165634 48.0
215.770355 36.0
216.083893 800.0
216.516495 140.0
217.083862 272.0
217.10553 116.0
218.003799 72.0
220.030228 144.0
220.098129 48.0
221.094299 92.0
221.18013 168.0
222.030441 48.0
222.338959 68.0
222.80513 184.0
223.203384 44.0
229.095978 984.0
229.445984 120.0
230.104477 280.0
230.420776 96.0
231.518738 84.0
233.094818 780.0
233.381836 80.0
233.406158 80.0
233.978149 128.0
234.093719 328.0
235.093384 196.0
235.481415 280.0
239.083633 160.0
239.841278 44.0
240.683456 116.0
240.967606 60.0
241.9263 48.0
242.05632 40.0
245.090179 292.0
245.848724 52.0
252.063171 196.0
252.917038 124.0
254.022873 160.0
255.070724 120.0
255.169281 124.0
255.258301 80.0
256.423431 100.0
256.477509 120.0
256.906952 180.0
256.975067 112.0
257.010162 212.0
257.091827 9300.0
257.160156 64.0
257.306976 56.0
257.33252 128.0
257.364441 88.0
257.447479 40.0
257.587982 40.0
257.610352 56.0
257.690216 36.0
257.744537 200.0
257.910706 64.0
257.938751 52.0
257.977844 76.0
258.094238 1208.0
258.236847 44.0
258.281616 64.0
258.473572 44.0
258.566345 56.0
258.729584 136.0
259.094788 128.0
259.136322 100.0
259.312561 68.0
259.72937 136.0
259.80957 96.0
259.876923 104.0
259.966766 100.0
260.011993 132.0
260.111206 120.0
260.554352 36.0
261.473969 76.0
261.544769 172.0
264.129272 100.0
264.841339 120.0
265.353333 76.0
268.752075 60.0
270.235382 96.0
273.833069 48.0
278.762268 120.0
282.760681 68.0
282.794159 32.0
284.476776 196.0
285.030914 84.0
295.070374 168.0
295.159271 100.0
303.145264 160.0
310.823639 64.0
314.324738 44.0
314.963715 60.0
315.564453 64.0
321.557007 68.0
330.982697 144.0
331.073242 148.0
339.205322 180.0
348.312134 96.0
351.084869 124.0
359.253937 160.0
362.179626 152.0
369.901642 32.0
378.041687 136.0
381.077698 88.0
381.112671 68.0
386.309448 160.0
389.845917 124.0
397.649506 96.0
399.071594 20.0
401.656067 76.0
405.165802 120.0
406.139862 156.0
407.211456 144.0
414.4646 76.0
417.915771 56.0
420.12796 104.0
493.205261 96.0
497.68396 32.0
503.026215 76.0
530.838989 84.0
550.94989 112.0
677.870178 152.0
716.922668 52.0
730.570435 180.0
775.524841 188.0
800.64386 140.0
848.693481 52.0
873.390381 108.0
879.854614 36.0
888.269409 152.0
908.083618 72.0
908.221558 96.0
913.916504 128.0
927.825439 96.0
934.566772 52.0
951.846191 236.0
956.543091 200.0
978.040222 56.0
997.882996 176.0
1079.74353 132.0
1090.442871 216.0
1101.214722 132.0
1101.525269 224.0
1115.90564 156.0
1138.685059 152.0
1147.48645 244.0
1153.203857 132.0
1153.318848 176.0
1156.66687 212.0
1171.837646 136.0
1172.634888 164.0
1175.778931 128.0
1185.146973 168.0
1188.211548 236.0
1191.032837 212.0
1193.816284 192.0
1206.544189 136.0
1207.373901 60.0
1224.069946 112.0
1228.88623 68.0
1230.742798 172.0
1233.907715 184.0
1249.483765 120.0
1257.319092 84.0
1259.952759 96.0
1266.106323 80.0
1266.269165 148.0
1268.820068 168.0
1282.532227 188.0
1286.690918 228.0
1294.262207 68.0
1308.780273 152.0
1310.804321 240.0
1329.680664 188.0
1331.348145 144.0
1331.580566 172.0
1333.324219 88.0
1335.774414 164.0
1337.396973 100.0
1341.979004 252.0
1342.175781 176.0
1350.873901 64.0
1357.524048 220.0
1359.908203 116.0
1368.346924 224.0
1380.299438 72.0
1380.735718 128.0
1382.503784 128.0
1384.865479 132.0
1396.138672 192.0
1397.075806 224.0
1398.638428 112.0
1406.77063 72.0
1408.637451 184.0
1413.796265 68.0
1422.152588 164.0
1424.021973 176.0
1427.305908 100.0
1433.749512 148.0
1445.514648 168.0
1445.991333 124.0
1448.027832 196.0
1451.278687 148.0
1453.857666 192.0
1454.745728 212.0
1457.913818 168.0
1459.706787 104.0
1460.931274 148.0
1463.838623 104.0
1471.791504 144.0
1472.303101 228.0
1475.03064 280.0
1475.504639 180.0
1478.028564 120.0
1481.312866 176.0
1481.504395 112.0
1482.354736 148.0
1489.458862 176.0
1489.712402 48.0
1490.150269 252.0
1495.586914 164.0
1495.748535 128.0
1499.276001 216.0
1501.557861 156.0
1503.339966 152.0
1503.887817 184.0
