>compound MLS002638110-01!PREDNISOLONE50-24-8
>formula C21H28O5
>ionization [M+H]+
>parentmass 361.2009504480905
#inchi InChI=1S/C21H28O5/c1-19-7-5-13(23)9-12(19)3-4-14-15-6-8-21(26,17(25)11-22)20(15,2)10-16(24)18(14)19/h5,7,9,14-16,18,22,24,26H,3-4,6,8,10-11H2,1-2H3
#inchikey OIGNJSKKLXVSLS
#Ion_Source LC-ESI
#Instrument qTof
#Compound_Source NIH Pharmacologically Active Library
#PI Dorrestein
#Data_Collector VP/LMS
#Scan -1
#Precursor_MZ 361.207
#ExactMass 360.194
#Charge 1
#CAS_Number N/A
#Pubmed_ID N/A
#Smiles CC12CC(O)C3C(CCC4=CC(=O)C=CC34C)C2CCC1(O)C(=O)CO
#INCHI_AUX N/A
#Library_Class 1
#SpectrumID CCMSLIB00000086041
#IonMode Positive
#UpdateWorkflowName UPDATE-SINGLE-ANNOTATED-GOLD
#LibraryQualityString Gold
#TaskID d252d724072548979f1f6f1ced849daf
##Scan# 1626
#SpectrumFile p5-C02_GC2_01_18447.mzXML
#LibraryName Pharm_Active_Library.mgf
#MQScore -1
#Organism Pharm_Active_Library
#TIC_Query 0
#RT_Query -1
#MZErrorPPM -1
#SharedPeaks 0
#MassDiff 0
#LibMZ -1
#SpecMZ 361.207
#SpecCharge 0
#internalFilename spec-00000.mgf

>collision 10
45.110115 36.0
45.159588 128.0
45.25058 204.0
45.653118 164.0
45.689434 152.0
45.71096 132.0
45.766148 216.0
45.838882 196.0
46.227783 104.0
46.571732 188.0
46.60474 176.0
46.939579 204.0
46.951855 108.0
46.995502 208.0
47.244148 244.0
47.452312 220.0
47.761292 116.0
47.779175 176.0
48.065754 112.0
48.250828 148.0
48.513859 184.0
49.194107 132.0
49.276501 156.0
49.948971 172.0
50.274853 72.0
50.328491 172.0
50.57164 160.0
50.608444 140.0
50.636765 224.0
50.723194 236.0
50.993076 220.0
51.116592 132.0
51.378754 216.0
51.631569 108.0
51.766087 212.0
51.81049 120.0
51.892178 184.0
52.278561 172.0
52.434093 192.0
52.517715 100.0
52.563881 80.0
52.66349 184.0
52.727062 124.0
52.870232 152.0
52.954201 160.0
53.025192 112.0
53.099129 168.0
53.404129 156.0
53.500164 64.0
53.727501 52.0
53.896862 164.0
53.914398 200.0
53.965557 224.0
54.089905 116.0
54.391857 124.0
54.416813 208.0
54.522575 64.0
54.890594 116.0
55.25985 112.0
55.271687 200.0
55.473103 128.0
55.596207 196.0
55.627373 212.0
55.810108 188.0
55.911259 84.0
56.098927 240.0
56.219738 148.0
56.289898 164.0
56.526077 236.0
56.582951 136.0
56.614395 156.0
56.831745 164.0
56.953342 212.0
57.040489 196.0
57.193916 152.0
57.537609 224.0
57.58593 64.0
57.909588 152.0
57.944431 156.0
58.09148 208.0
58.123341 212.0
58.210873 144.0
58.345081 128.0
58.380745 196.0
58.446983 144.0
58.606857 168.0
58.689163 184.0
58.750168 180.0
58.94865 184.0
59.144409 220.0
59.398766 156.0
59.599876 160.0
59.855209 168.0
60.143494 152.0
60.168194 180.0
60.194443 124.0
60.212971 168.0
60.937912 136.0
61.326946 128.0
61.410641 176.0
61.55315 140.0
61.617188 116.0
61.705719 204.0
61.817322 192.0
62.039726 168.0
62.108723 176.0
62.314369 156.0
62.48259 116.0
62.668365 156.0
62.687275 100.0
62.794476 184.0
62.920708 140.0
63.015469 124.0
63.129272 156.0
63.595043 208.0
63.849243 164.0
64.367149 136.0
64.9655 144.0
65.047562 180.0
65.418892 132.0
65.713806 140.0
66.184143 144.0
66.628532 148.0
66.802475 124.0
66.835014 152.0
66.996193 204.0
67.276505 180.0
67.45311 192.0
67.655983 176.0
67.805 184.0
68.175888 144.0
68.397919 168.0
68.470367 168.0
68.514839 236.0
68.577454 212.0
68.600533 208.0
68.810043 184.0
69.248238 144.0
69.877365 116.0
70.130478 196.0
70.465553 160.0
70.507668 248.0
70.694962 172.0
71.611603 116.0
71.626762 56.0
71.871208 172.0
72.263191 228.0
72.393524 56.0
72.601959 132.0
73.104797 152.0
73.203529 140.0
73.531792 160.0
73.546204 128.0
73.958122 188.0
74.002632 224.0
74.304047 152.0
74.673584 168.0
74.756157 220.0
75.004166 92.0
75.111069 188.0
75.518692 204.0
75.612122 124.0
75.878876 200.0
76.478172 200.0
76.88076 188.0
76.950584 252.0
77.099052 48.0
77.116531 168.0
77.424446 192.0
77.714058 200.0
78.008713 164.0
78.149399 200.0
78.306068 188.0
78.373009 184.0
78.593407 204.0
79.33799 176.0
79.380539 112.0
79.442612 236.0
79.612999 220.0
79.997047 128.0
80.310654 172.0
80.415916 124.0
80.458755 96.0
80.50161 172.0
80.514107 148.0
80.721405 96.0
80.914635 160.0
81.11348 196.0
81.158302 172.0
81.414902 168.0
81.5784 236.0
81.743866 144.0
81.760063 128.0
82.023018 124.0
82.515839 124.0
82.899567 196.0
82.963005 204.0
83.322327 156.0
83.549576 180.0
84.417755 164.0
84.436043 140.0
84.534836 208.0
85.295944 164.0
85.507462 180.0
85.551636 156.0
85.65844 108.0
85.798622 284.0
86.027245 212.0
86.067856 152.0
86.57637 220.0
86.58934 172.0
86.606003 144.0
86.783905 168.0
86.94529 108.0
87.142113 240.0
87.577408 204.0
87.877533 140.0
87.952179 108.0
88.260422 88.0
88.406326 224.0
89.092567 164.0
89.702263 176.0
89.845978 172.0
89.873878 132.0
90.688934 224.0
90.713577 44.0
90.86908 44.0
91.055138 456.0
91.279343 196.0
91.300262 76.0
91.423912 256.0
91.490532 164.0
92.058716 368.0
92.102356 80.0
92.435287 108.0
92.647812 204.0
93.067284 280.0
93.165771 176.0
93.473389 136.0
93.596581 120.0
93.982079 128.0
94.041901 52.0
94.072784 76.0
94.171257 180.0
94.23114 192.0
94.465057 108.0
94.507614 36.0
94.534706 196.0
94.600914 232.0
95.086266 392.0
95.145248 84.0
95.633156 172.0
96.092949 188.0
96.397629 88.0
97.065125 132.0
97.77034 124.0
98.016495 188.0
98.065758 32.0
98.389252 192.0
98.781639 184.0
98.851753 172.0
98.972496 192.0
99.043793 244.0
99.065582 188.0
99.33812 176.0
99.424454 196.0
99.919212 128.0
100.502975 140.0
100.526917 160.0
100.832466 204.0
101.73983 180.0
101.888435 148.0
102.021072 180.0
102.198051 144.0
102.239731 152.0
102.687561 184.0
102.762192 204.0
103.056213 1144.0
103.129715 208.0
103.194405 144.0
103.267204 76.0
103.28743 180.0
103.309677 112.0
103.325867 88.0
103.690338 184.0
103.726822 128.0
104.060867 524.0
104.297195 240.0
104.366318 224.0
104.451729 72.0
104.734657 100.0
104.93232 204.0
104.993492 180.0
105.070999 2036.0
105.122009 144.0
105.138336 48.0
105.322083 144.0
105.540009 176.0
105.634827 216.0
105.651192 156.0
105.671646 76.0
105.716667 208.0
105.825638 64.0
105.925499 144.0
106.073174 172.0
106.247337 232.0
106.571716 76.0
106.849274 164.0
107.05481 404.0
107.086868 1044.0
107.607697 120.0
107.70475 192.0
107.841118 148.0
107.930016 168.0
108.035492 132.0
108.050758 136.0
108.089279 180.0
108.240387 52.0
108.267303 180.0
108.306656 148.0
108.67981 188.0
108.823021 136.0
109.032448 180.0
109.065781 336.0
109.101662 460.0
109.577988 168.0
109.673843 180.0
109.721786 140.0
109.857338 32.0
110.072304 48.0
110.118248 176.0
110.193451 48.0
110.78759 200.0
110.825302 168.0
111.026535 148.0
111.049606 112.0
111.082886 180.0
111.175476 108.0
111.221649 96.0
111.238441 184.0
111.629227 140.0
111.921707 72.0
112.008049 232.0
112.140793 88.0
112.29892 180.0
112.427612 176.0
112.754944 108.0
112.778191 180.0
112.89447 148.0
112.949463 188.0
113.124863 184.0
113.281792 140.0
113.59742 156.0
113.822601 76.0
114.417923 180.0
114.690582 148.0
114.726822 100.0
114.834435 204.0
115.056404 936.0
115.074318 424.0
115.226204 196.0
115.281754 236.0
115.341599 132.0
115.401451 44.0
115.484856 220.0
115.748077 120.0
115.885155 196.0
115.910866 144.0
115.940872 116.0
116.000885 240.0
116.066483 220.0
116.105942 184.0
116.685982 236.0
116.982567 156.0
117.071465 872.0
117.236717 172.0
117.270004 144.0
117.299217 52.0
117.342331 136.0
117.387611 56.0
117.495453 124.0
117.884102 208.0
117.992172 160.0
118.037575 156.0
118.074341 260.0
118.169518 132.0
118.210625 80.0
118.258232 44.0
118.398956 40.0
118.591782 92.0
118.702568 152.0
118.995255 308.0
119.038483 132.0
119.087227 1352.0
119.186386 136.0
119.355927 80.0
119.37767 120.0
119.867447 176.0
120.05928 100.0
120.088661 204.0
120.25563 168.0
120.491455 84.0
120.727516 104.0
120.847824 212.0
120.963371 220.0
120.988831 64.0
121.029488 128.0
121.06633 8560.0
121.102211 192.0
121.119278 124.0
121.154327 44.0
121.229675 92.0
121.273293 148.0
121.305527 84.0
121.338417 132.0
121.360336 188.0
121.448059 152.0
121.643341 84.0
121.674072 144.0
121.707008 156.0
121.975029 120.0
122.034386 168.0
122.070824 500.0
122.615509 180.0
122.646362 80.0
122.941895 68.0
122.999283 124.0
123.081306 140.0
123.1185 156.0
123.138382 52.0
123.257668 68.0
123.407967 172.0
123.551727 148.0
124.77813 128.0
124.944923 200.0
125.057053 528.0
125.096245 184.0
125.183075 128.0
125.263252 256.0
125.521782 112.0
125.548538 156.0
125.648911 112.0
125.889969 120.0
126.213974 144.0
126.321327 216.0
126.35041 180.0
126.563026 132.0
127.033661 200.0
127.054436 364.0
127.085266 36.0
127.199715 168.0
127.316467 176.0
127.482704 176.0
127.505173 172.0
127.573944 148.0
127.694023 196.0
128.064407 1208.0
128.322281 188.0
128.422607 180.0
128.494812 144.0
128.534286 64.0
128.649399 140.0
129.040222 156.0
129.070923 1068.0
129.171387 220.0
129.359207 152.0
129.452026 60.0
129.646851 60.0
129.662704 172.0
129.887161 120.0
130.079926 616.0
130.164047 116.0
130.545792 128.0
130.953156 176.0
131.000992 128.0
131.053345 212.0
131.086517 888.0
131.158218 192.0
131.272217 168.0
131.352036 100.0
131.504913 120.0
131.534576 140.0
131.655594 92.0
131.733246 204.0
131.897766 176.0
132.057816 1488.0
132.095612 176.0
132.238556 72.0
132.277466 160.0
132.520218 144.0
132.577499 112.0
132.765488 116.0
132.978851 168.0
133.027664 148.0
133.063553 1124.0
133.102859 576.0
133.514145 184.0
133.718887 156.0
133.746506 224.0
133.762619 100.0
133.958359 124.0
134.069534 236.0
134.102661 236.0
134.27182 188.0
134.419464 224.0
135.081238 1708.0
135.115616 156.0
135.200516 60.0
135.286163 80.0
135.367188 164.0
135.723633 140.0
136.084946 412.0
136.671707 216.0
136.753143 44.0
136.955704 252.0
137.060547 204.0
137.087357 268.0
137.251678 112.0
137.335632 300.0
137.90065 148.0
138.10054 136.0
138.621445 260.0
139.003662 172.0
139.029465 160.0
139.061646 164.0
139.076675 192.0
139.757904 148.0
139.887344 204.0
140.462296 220.0
140.561386 124.0
140.596786 224.0
140.804535 104.0
140.844681 164.0
141.072189 520.0
141.423965 132.0
141.629959 52.0
141.663132 168.0
141.781586 64.0
142.049515 116.0
142.081238 320.0
142.168137 60.0
142.685944 48.0
142.759644 76.0
142.997543 160.0
143.085739 1668.0
143.2285 52.0
143.2547 120.0
143.843689 192.0
143.89621 76.0
144.057465 200.0
144.094498 352.0
144.661209 216.0
144.886307 140.0
145.064529 1704.0
145.10141 1300.0
145.43544 76.0
145.500244 44.0
145.543472 92.0
145.608307 56.0
145.790878 112.0
145.819717 204.0
145.884613 32.0
146.070465 852.0
146.107178 124.0
146.188522 56.0
146.291153 52.0
146.31282 176.0
146.409134 160.0
146.833282 68.0
146.850174 240.0
146.937012 220.0
146.980438 204.0
147.081268 8372.0
147.116562 168.0
147.146973 28.0
147.217972 128.0
147.323273 56.0
147.36676 84.0
147.589111 56.0
147.86972 44.0
148.085327 1784.0
148.247513 264.0
148.473984 228.0
148.586975 176.0
148.812683 104.0
148.863663 176.0
148.887955 64.0
149.002121 224.0
149.025711 152.0
149.094391 292.0
149.162506 76.0
149.36676 172.0
149.795166 260.0
150.00473 84.0
150.060791 176.0
150.10289 368.0
150.229065 36.0
150.912888 128.0
151.040054 108.0
151.079193 148.0
151.110992 176.0
151.448151 164.0
151.772293 100.0
152.022491 264.0
152.063461 168.0
152.204132 164.0
152.912109 148.0
153.04129 176.0
153.072388 684.0
153.205124 144.0
153.762375 48.0
154.079285 324.0
154.815506 164.0
154.842758 48.0
155.061737 340.0
155.084122 1424.0
155.110336 116.0
155.450119 36.0
156.031311 176.0
156.091843 768.0
156.347214 80.0
156.396988 48.0
156.658432 164.0
156.815414 224.0
157.06398 652.0
157.102188 464.0
157.289474 184.0
157.92395 56.0
158.073593 2128.0
158.104095 140.0
158.174164 164.0
158.299347 68.0
158.552368 56.0
158.818115 224.0
159.056488 168.0
159.081085 1700.0
159.119522 344.0
159.734924 168.0
159.880859 116.0
160.082687 616.0
160.266113 168.0
160.331635 52.0
160.703049 244.0
160.730057 148.0
160.770432 124.0
161.058243 124.0
161.097549 1460.0
161.462631 76.0
161.541046 56.0
161.644775 64.0
162.096176 148.0
162.158859 184.0
162.207016 124.0
162.232361 136.0
162.767685 104.0
163.080383 172.0
163.112595 168.0
163.8741 152.0
164.052505 72.0
164.08078 208.0
164.662323 156.0
164.92804 180.0
165.070724 472.0
165.093582 524.0
165.127457 196.0
165.265594 44.0
166.083038 388.0
166.162323 104.0
166.480591 204.0
166.876297 148.0
167.089615 428.0
167.661377 76.0
167.841827 160.0
167.95787 104.0
168.032684 132.0
168.068802 164.0
168.095428 216.0
168.135895 48.0
168.812729 112.0
168.99379 132.0
169.060898 300.0
169.102631 260.0
169.283691 56.0
169.783829 152.0
169.872025 108.0
170.072388 396.0
170.101639 172.0
170.586121 144.0
170.612106 120.0
170.684906 188.0
170.791534 152.0
171.051086 144.0
171.081802 7124.0
171.114792 136.0
171.148056 96.0
171.213165 36.0
171.241806 48.0
171.363983 84.0
171.439804 116.0
171.478897 44.0
171.61705 148.0
172.024933 184.0
172.086105 1328.0
172.219864 68.0
172.410583 108.0
172.52298 96.0
172.776642 52.0
172.983383 60.0
173.001694 120.0
173.067154 52.0
173.097092 5656.0
173.410324 64.0
173.488953 40.0
173.630539 28.0
173.874527 160.0
174.101562 572.0
174.139694 88.0
174.294678 36.0
174.470764 64.0
174.512833 80.0
174.533875 124.0
174.815323 52.0
174.899536 44.0
174.989044 184.0
175.075943 80.0
175.109024 192.0
175.473816 116.0
175.753387 92.0
176.080719 192.0
176.128647 212.0
176.220718 124.0
176.34491 176.0
176.487656 220.0
177.075119 160.0
177.096313 276.0
177.125443 156.0
177.167831 180.0
177.562775 160.0
178.078232 376.0
178.407135 128.0
178.524124 120.0
179.086929 904.0
179.240173 64.0
179.408081 192.0
179.712112 84.0
180.008392 212.0
180.093277 480.0
180.149948 124.0
180.598999 148.0
180.813034 128.0
180.933487 80.0
181.067352 916.0
181.100388 548.0
181.402298 56.0
181.482727 68.0
181.501495 80.0
181.555115 180.0
181.885117 36.0
182.070145 300.0
182.105011 352.0
182.169754 136.0
182.454605 140.0
182.839249 192.0
183.01152 124.0
183.080887 692.0
183.118774 164.0
183.593552 160.0
184.087234 508.0
184.149506 116.0
184.852386 48.0
184.895691 112.0
185.060806 240.0
185.094345 800.0
185.133911 128.0
185.250381 88.0
185.849518 48.0
186.102814 852.0
186.137238 180.0
186.275742 120.0
186.298248 224.0
186.441483 172.0
186.517578 56.0
186.571945 104.0
186.794937 168.0
187.042557 168.0
187.082443 116.0
187.110443 576.0
187.377502 132.0
188.119263 152.0
188.452438 112.0
188.541824 124.0
189.037582 76.0
189.071198 156.0
189.097794 244.0
189.134735 200.0
189.231918 64.0
189.475662 60.0
190.074112 264.0
190.085144 208.0
190.12825 100.0
190.839691 192.0
191.085022 700.0
192.092468 408.0
192.352127 52.0
193.051117 188.0
193.101089 640.0
193.275177 184.0
193.693207 136.0
194.080109 240.0
194.10614 352.0
194.369644 52.0
195.080612 992.0
195.114212 120.0
195.186279 48.0
195.367065 176.0
195.439392 140.0
195.946121 40.0
196.087173 1008.0
196.124466 124.0
196.208084 84.0
196.556717 88.0
196.874954 188.0
197.096695 1476.0
197.131058 248.0
197.442245 56.0
197.467422 220.0
197.570908 88.0
197.663239 44.0
198.066376 188.0
198.101898 340.0
198.132034 284.0
198.545639 84.0
199.076035 152.0
199.114548 664.0
199.28389 144.0
199.554489 100.0
199.685867 128.0
200.113739 148.0
200.164261 36.0
200.257202 144.0
200.510757 56.0
200.530487 52.0
200.550217 104.0
200.716537 196.0
201.108673 132.0
201.128433 184.0
201.156662 160.0
201.577469 136.0
201.80925 168.0
202.07579 164.0
202.09491 192.0
202.174149 92.0
202.205276 104.0
202.242065 180.0
202.669678 92.0
202.829346 164.0
203.038177 232.0
203.089233 256.0
203.113907 132.0
203.265121 160.0
203.787567 176.0
204.089767 516.0
204.467178 84.0
205.104614 548.0
205.259109 52.0
205.384583 40.0
206.102554 264.0
206.990692 148.0
207.080994 564.0
207.119217 396.0
208.089355 1388.0
208.12326 192.0
208.149185 172.0
208.189346 156.0
208.252518 88.0
208.275497 48.0
208.651611 172.0
209.002823 116.0
209.096268 1948.0
209.125748 112.0
209.130249 372.0
210.104828 828.0
210.432404 56.0
210.521912 208.0
210.712555 68.0
211.076385 136.0
211.113388 1768.0
211.153275 152.0
211.180832 140.0
211.279175 52.0
211.302322 152.0
211.470154 224.0
212.116226 252.0
212.620728 64.0
213.050461 164.0
213.097748 116.0
213.125839 356.0
213.387573 80.0
214.085907 124.0
214.135895 172.0
214.161621 220.0
215.084366 436.0
215.108246 304.0
215.237717 176.0
215.830872 48.0
215.930298 144.0
216.087875 184.0
216.167252 40.0
217.09726 176.0
217.773788 156.0
218.076416 144.0
218.12001 156.0
218.358658 196.0
218.885406 128.0
218.95314 128.0
219.083694 240.0
219.12439 536.0
219.861145 128.0
220.089264 512.0
220.127533 128.0
220.413345 168.0
221.022461 108.0
221.096573 732.0
221.12915 156.0
221.576111 132.0
221.712418 104.0
222.068176 48.0
222.100754 1376.0
222.278793 32.0
222.765701 128.0
223.112305 2552.0
223.144745 200.0
223.19664 84.0
223.422668 152.0
223.473251 120.0
223.800644 40.0
223.907852 68.0
224.024002 136.0
224.043671 180.0
224.074356 160.0
224.078873 144.0
224.1185 1668.0
224.500885 160.0
224.533691 104.0
224.706696 112.0
225.055893 92.0
225.125931 1064.0
225.232086 100.0
225.423294 52.0
226.133224 540.0
226.368546 112.0
227.087799 152.0
227.146149 304.0
227.558914 120.0
228.081619 156.0
228.460495 88.0
228.622971 76.0
229.097321 232.0
229.632202 128.0
230.110352 168.0
230.589264 196.0
230.667847 120.0
231.009552 132.0
231.077972 324.0
231.12149 100.0
231.99675 64.0
232.091843 352.0
232.122086 356.0
232.333359 120.0
232.61557 88.0
232.837219 100.0
233.095459 440.0
233.135681 200.0
233.922668 64.0
234.098923 556.0
234.266769 40.0
234.461777 68.0
235.113495 1108.0
235.221207 68.0
236.116882 552.0
236.156189 144.0
236.618256 104.0
236.906113 124.0
236.967392 132.0
237.00415 72.0
237.083832 128.0
237.129181 1488.0
237.482376 44.0
238.107727 212.0
238.134079 456.0
238.412613 352.0
238.637009 100.0
239.037476 180.0
239.143311 1136.0
240.037964 180.0
240.096558 104.0
240.150909 324.0
240.284714 72.0
240.658157 76.0
240.685944 48.0
241.099869 236.0
241.126251 112.0
241.171829 248.0
242.104172 212.0
242.161026 164.0
242.65062 52.0
242.845978 192.0
243.121597 100.0
243.166748 216.0
244.088303 156.0
244.118759 320.0
244.145538 252.0
244.461456 160.0
244.831894 196.0
244.915985 48.0
245.092621 288.0
245.137192 384.0
245.589233 96.0
246.029205 64.0
246.103622 356.0
246.146179 196.0
247.112396 688.0
247.338974 124.0
247.996719 188.0
248.119705 636.0
248.680466 196.0
249.125961 408.0
249.160828 856.0
249.266556 108.0
249.44371 120.0
249.751862 76.0
249.874542 164.0
250.131256 440.0
250.165024 432.0
250.680588 108.0
250.97374 60.0
251.047745 204.0
251.14299 3580.0
251.721558 60.0
252.000427 96.0
252.040573 104.0
252.106934 196.0
252.147797 416.0
252.179626 92.0
252.356644 64.0
252.394592 72.0
252.574844 64.0
252.688736 76.0
253.144516 172.0
253.80043 104.0
255.117813 160.0
255.709595 68.0
256.101196 180.0
256.126801 184.0
257.134216 160.0
258.101654 248.0
259.112152 316.0
259.165344 68.0
259.225647 136.0
259.562225 176.0
260.122955 588.0
261.12793 520.0
261.158752 112.0
261.168854 156.0
262.017761 108.0
262.138123 396.0
263.141388 664.0
263.909058 136.0
264.146698 400.0
264.180481 60.0
264.488098 72.0
264.611115 140.0
265.07428 168.0
265.158508 916.0
265.304413 80.0
265.502197 44.0
266.16684 1776.0
266.287567 52.0
266.320038 40.0
266.456482 72.0
266.56369 80.0
267.132446 176.0
267.171753 632.0
267.360413 48.0
267.409241 64.0
268.138763 168.0
268.176361 292.0
269.179413 132.0
269.953857 52.0
271.154785 108.0
273.082489 60.0
273.128052 320.0
273.154846 220.0
273.375275 40.0
274.136169 388.0
274.561218 56.0
275.142883 352.0
275.247589 88.0
276.156952 136.0
277.120789 212.0
277.161346 736.0
278.157776 120.0
279.133942 192.0
279.17807 872.0
279.403809 96.0
279.536896 32.0
280.139526 212.0
280.184113 220.0
280.716125 64.0
281.150177 132.0
281.183167 120.0
282.121735 148.0
282.155151 140.0
283.175751 120.0
284.691589 240.0
285.175354 160.0
285.208984 64.0
285.377075 44.0
289.157104 464.0
290.162201 264.0
291.141724 196.0
292.127411 120.0
292.702576 92.0
294.157257 132.0
294.202698 136.0
295.166656 468.0
295.194672 180.0
296.182587 132.0
297.153809 280.0
298.220673 156.0
307.169189 324.0
307.283081 36.0
310.143585 56.0
310.171631 144.0
313.182831 440.0
315.031158 68.0
315.197205 104.0
321.150696 108.0
321.202118 144.0
325.181366 176.0
325.240326 160.0
326.170624 148.0
326.206573 108.0
329.789429 64.0
330.903595 128.0
336.30542 52.0
339.121674 152.0
343.196014 144.0
343.301727 44.0
343.899384 84.0
345.177582 116.0
369.443512 108.0
370.254944 132.0
376.230133 44.0
379.080658 204.0
379.960815 44.0
390.948334 76.0
393.861877 152.0
414.332581 60.0
417.331818 44.0
418.849762 52.0
423.268585 56.0
454.191895 60.0
463.198608 88.0
486.907745 36.0
521.451843 36.0
523.831482 100.0
615.21283 40.0
619.411133 80.0
632.797241 76.0
671.764832 44.0
689.125305 64.0
743.799927 52.0
749.662781 32.0
804.502502 196.0
814.888916 268.0
851.284058 104.0
857.188232 120.0
878.883789 208.0
926.726074 256.0
932.247742 88.0
933.79187 128.0
936.95105 136.0
951.125732 120.0
957.372131 172.0
960.176147 136.0
965.246033 224.0
965.524292 148.0
965.883057 132.0
985.59668 112.0
995.908081 132.0
1002.702942 216.0
1006.424744 56.0
1021.787842 72.0
1049.411011 132.0
1060.134521 120.0
1062.358398 104.0
1069.571167 184.0
1082.523926 152.0
1088.005249 264.0
1091.993652 212.0
1102.423096 68.0
1104.366699 144.0
1113.300415 44.0
1113.552734 132.0
1124.237793 212.0
1128.519409 72.0
1128.659912 124.0
1128.847046 64.0
1129.295166 80.0
1139.054199 168.0
1144.871948 144.0
1154.745239 76.0
1155.130737 224.0
1157.066162 136.0
1159.138794 56.0
1162.380005 164.0
1163.873291 224.0
1185.352661 236.0
1186.08606 56.0
1186.730469 180.0
1192.606567 200.0
1196.203979 168.0
1199.007202 68.0
1201.013428 148.0
1203.497803 116.0
1210.190674 156.0
1216.082886 188.0
1217.401978 56.0
1231.434814 188.0
1233.006714 184.0
1234.258057 72.0
1252.934204 124.0
1258.096436 120.0
1260.511841 196.0
1260.660278 244.0
1261.084229 56.0
1261.543701 84.0
1262.236572 152.0
1264.840088 92.0
1266.822754 152.0
1266.914795 188.0
1270.509033 232.0
1272.141113 224.0
1273.539917 192.0
1278.737183 176.0
1279.897583 180.0
1283.702637 128.0
1285.878418 136.0
1288.677612 188.0
1288.934814 112.0
1290.249878 148.0
1294.807861 144.0
1298.835815 212.0
1299.574707 156.0
1302.963379 72.0
1306.658691 184.0
1306.80249 184.0
1309.689209 216.0
1310.171875 112.0
1315.970215 144.0
1319.307983 40.0
1319.52478 52.0
1322.476196 196.0
1324.213745 192.0
1326.525146 172.0
1329.135986 144.0
1330.028564 256.0
1330.798096 156.0
1332.330444 168.0
1333.144287 44.0
1336.278076 188.0
1338.490723 160.0
1342.819458 256.0
1354.601685 208.0
1356.118408 40.0
1357.247437 116.0
1360.152466 208.0
1365.148315 60.0
1374.259888 156.0
1380.560547 224.0
1385.912354 128.0
1387.58728 152.0
1391.341187 132.0
1398.387817 136.0
1399.638428 196.0
1400.777954 192.0
1400.830078 56.0
1401.105713 240.0
1401.74646 68.0
1403.885864 252.0
1405.012085 124.0
1406.288086 132.0
1416.846313 144.0
1419.88208 180.0
1421.532349 152.0
1422.155273 216.0
1423.431519 152.0
1424.813477 124.0
1427.286133 216.0
1427.564453 176.0
1427.662109 192.0
1428.737793 132.0
1430.016968 76.0
1430.06958 84.0
1434.55127 48.0
1436.708008 184.0
1439.825317 160.0
1440.57312 160.0
1445.033325 184.0
1449.993164 200.0
1450.11438 128.0
1456.366211 128.0
1459.588379 156.0
1460.683472 128.0
1461.117065 104.0
1462.943481 184.0
1464.390137 160.0
1467.46106 140.0
1467.567871 128.0
1469.131226 120.0
1471.084839 188.0
1474.95752 168.0
1476.410156 128.0
1477.672241 108.0
1477.802368 240.0
1477.909424 156.0
1482.787354 164.0
1483.339233 164.0
1483.69519 188.0
1486.376221 200.0
1487.30481 224.0
1489.162842 144.0
1491.513916 92.0
1494.697754 200.0
1497.538452 168.0
1498.093018 192.0
1498.570679 236.0
1498.948242 140.0
1501.669434 140.0
1502.186279 92.0
1502.325073 204.0
