>compound MLS001148268-01!51803-78-2
>formula C13H12N2O5S
>ionization [M+H]+
>parentmass 309.05396893609054
#inchi InChI=1S/C13H12N2O5S/c1-21(18,19)14-12-8-7-10(15(16)17)9-13(12)20-11-5-3-2-4-6-11/h2-9,14H,1H3
#inchikey HYWYRSMBCFDLJT
#Ion_Source LC-ESI
#Instrument qTof
#Compound_Source NIH Pharmacologically Active Library
#PI Dorrestein
#Data_Collector VP/LMS
#Scan -1
#Precursor_MZ 309.051
#ExactMass 308.047
#Charge 1
#CAS_Number N/A
#Pubmed_ID N/A
#Smiles CS(=O)(=O)Nc1ccc(cc1Oc2ccccc2)[N+](=O)[O-]
#INCHI_AUX N/A
#Library_Class 1
#SpectrumID CCMSLIB00000085268
#IonMode Positive
#UpdateWorkflowName UPDATE-SINGLE-ANNOTATED-GOLD
#LibraryQualityString Gold
#TaskID d252d724072548979f1f6f1ced849daf
##Scan# 2169
#SpectrumFile p3-G08_GG8_01_18301.mzXML
#LibraryName Pharm_Active_Library.mgf
#MQScore -1
#Organism Pharm_Active_Library
#TIC_Query 0
#RT_Query -1
#MZErrorPPM -1
#SharedPeaks 0
#MassDiff 0
#LibMZ -1
#SpecMZ 309.051
#SpecCharge 0
#internalFilename spec-00000.mgf

>collision 10
45.019436 144.0
46.053673 192.0
47.314369 224.0
47.946274 188.0
48.267948 192.0
49.89526 88.0
50.918392 148.0
51.409588 108.0
51.488113 136.0
54.52673 32.0
55.290745 236.0
56.798706 88.0
56.846722 204.0
57.177364 204.0
57.410892 40.0
58.448631 144.0
58.965637 124.0
59.333038 224.0
59.463432 208.0
60.398758 160.0
60.61552 152.0
60.665119 168.0
60.762829 216.0
60.837326 168.0
60.871487 196.0
60.932068 136.0
60.998894 208.0
61.548897 128.0
61.739555 228.0
62.0308 176.0
62.49255 172.0
62.790295 180.0
63.405338 172.0
63.440212 164.0
63.892849 108.0
64.32634 180.0
65.688835 120.0
65.885796 216.0
66.321121 152.0
67.359329 168.0
67.853584 200.0
68.014359 180.0
68.221352 180.0
68.88504 144.0
69.189812 176.0
70.153419 220.0
70.213455 168.0
70.276848 136.0
70.350281 180.0
70.729767 232.0
71.269814 164.0
71.31015 304.0
71.565865 136.0
72.127686 128.0
72.39502 180.0
72.625526 88.0
72.674728 84.0
73.012787 88.0
74.628876 164.0
75.026604 236.0
75.567207 228.0
75.657211 160.0
75.77845 152.0
76.260902 148.0
77.677094 200.0
77.847351 268.0
78.186668 188.0
78.216591 164.0
79.357903 260.0
79.400467 236.0
79.63298 152.0
80.030411 228.0
80.952797 112.0
81.223442 116.0
81.356239 128.0
81.41011 136.0
81.559242 160.0
81.609581 188.0
81.863312 116.0
82.11924 156.0
83.087067 60.0
83.359436 188.0
83.479424 132.0
83.873543 140.0
84.585129 204.0
84.711487 188.0
84.757294 104.0
85.170097 156.0
85.672318 140.0
85.731277 152.0
86.963089 132.0
87.520821 220.0
87.697815 212.0
87.9291 140.0
88.297173 256.0
88.62291 132.0
88.75412 184.0
89.894112 184.0
90.009262 136.0
90.149063 192.0
91.231392 176.0
91.478714 144.0
92.052628 148.0
92.138588 176.0
92.415833 100.0
92.875633 32.0
93.209702 224.0
93.240448 196.0
93.255829 128.0
93.336571 144.0
94.010826 136.0
95.044212 144.0
95.364662 80.0
95.395767 96.0
95.627251 196.0
95.769394 56.0
95.888245 228.0
96.546211 212.0
96.851547 128.0
97.878731 160.0
98.014648 140.0
98.931129 168.0
99.002411 148.0
99.11731 180.0
99.657043 180.0
99.760391 84.0
100.477371 144.0
100.818832 96.0
101.834648 136.0
102.039627 192.0
102.930252 172.0
103.051544 464.0
104.048965 424.0
104.820915 168.0
104.921577 224.0
104.973808 220.0
105.977425 112.0
106.027458 360.0
106.913925 144.0
107.035385 116.0
107.175461 184.0
108.523178 244.0
108.693268 176.0
110.246834 168.0
110.964836 152.0
111.287964 160.0
111.647308 168.0
111.811417 120.0
112.188469 120.0
112.393059 220.0
112.424721 180.0
113.031235 160.0
114.549332 140.0
115.033417 160.0
115.05471 376.0
115.29615 148.0
115.467194 172.0
115.82251 44.0
115.867493 112.0
116.049797 152.0
116.751892 180.0
117.053711 196.0
117.113487 44.0
117.300301 156.0
119.494881 176.0
120.043808 236.0
121.748657 40.0
122.025536 148.0
122.772041 172.0
123.025795 164.0
123.213524 156.0
125.036331 196.0
125.535378 180.0
126.039894 200.0
126.28582 104.0
127.054962 188.0
127.173126 156.0
127.507797 212.0
127.721405 128.0
127.759644 176.0
127.793396 120.0
128.056702 788.0
129.067657 876.0
129.185471 64.0
129.441223 60.0
130.062454 232.0
130.079666 228.0
130.162354 116.0
130.414536 148.0
130.478195 180.0
130.894592 88.0
131.060883 168.0
132.040253 156.0
132.07991 176.0
132.118027 236.0
132.495789 84.0
133.050812 156.0
133.069183 216.0
133.177109 188.0
133.91777 172.0
134.085968 112.0
134.254272 188.0
134.28656 92.0
135.602188 184.0
135.736649 104.0
136.042923 136.0
136.163666 136.0
136.542511 176.0
136.584381 92.0
137.063995 196.0
137.259811 144.0
137.367096 188.0
137.890152 228.0
138.046799 196.0
138.632065 200.0
139.021362 188.0
139.054413 224.0
140.352844 148.0
141.056168 148.0
141.515411 184.0
141.700165 44.0
142.062897 168.0
142.079514 80.0
142.385727 220.0
143.046753 120.0
143.070389 348.0
144.041443 600.0
144.076904 200.0
144.108078 76.0
144.25148 56.0
145.052292 160.0
145.0811 96.0
145.956177 168.0
145.985031 52.0
146.05751 192.0
146.444733 76.0
146.526642 188.0
146.955826 124.0
147.354218 208.0
148.043625 192.0
149.262085 216.0
149.317795 196.0
150.511948 184.0
150.60231 108.0
151.044754 140.0
153.022842 124.0
153.054428 164.0
153.732773 140.0
153.921646 228.0
153.965088 196.0
154.019073 188.0
154.064438 12672.0
154.112045 128.0
154.162476 56.0
154.192139 40.0
154.256409 32.0
154.315735 104.0
154.612595 68.0
154.691803 68.0
154.989014 100.0
155.050781 1228.0
155.068588 1756.0
155.959396 92.0
155.987793 124.0
156.045731 296.0
156.07959 1168.0
156.168274 60.0
156.269119 148.0
156.292664 88.0
156.96524 164.0
157.053741 132.0
157.06308 208.0
157.08548 236.0
157.14888 200.0
157.312057 48.0
157.754242 156.0
157.81424 56.0
158.065506 232.0
159.014221 168.0
160.072647 156.0
160.374985 164.0
160.63472 124.0
160.919907 76.0
160.947678 192.0
160.983032 212.0
161.043182 152.0
161.893463 52.0
162.055588 148.0
162.547516 32.0
163.454727 148.0
163.714386 100.0
163.905457 184.0
164.213043 92.0
164.698914 168.0
165.668442 212.0
166.06424 628.0
166.869583 116.0
166.890152 136.0
167.031601 168.0
167.070602 184.0
167.956375 92.0
168.036362 256.0
168.214432 36.0
168.299637 64.0
169.0504 160.0
169.124344 136.0
169.893997 176.0
170.058044 284.0
170.837067 84.0
171.070175 196.0
172.004547 252.0
172.075851 696.0
172.124649 168.0
172.678696 28.0
173.078171 144.0
173.228394 56.0
174.653809 132.0
175.675919 128.0
177.079559 148.0
177.56459 148.0
177.933456 180.0
178.91983 192.0
179.202164 136.0
180.122589 40.0
181.088226 184.0
181.73967 144.0
182.059158 1940.0
182.435303 104.0
182.698868 108.0
182.968903 104.0
183.066864 7692.0
183.151123 64.0
183.390945 52.0
183.452942 36.0
183.474518 52.0
183.800873 52.0
184.074463 1792.0
184.16806 72.0
184.297729 40.0
184.44368 204.0
184.676224 56.0
185.046967 48.0
185.073837 252.0
185.290741 92.0
185.350342 56.0
185.634979 112.0
186.047424 148.0
187.053284 132.0
188.065125 104.0
188.914444 216.0
189.125168 104.0
191.087372 128.0
195.103317 148.0
196.064331 164.0
196.111038 104.0
196.959305 172.0
197.062668 60.0
198.055832 132.0
199.05658 524.0
200.067825 800.0
200.111572 72.0
200.1707 52.0
200.587692 140.0
201.038986 160.0
201.070312 164.0
201.552948 68.0
202.07605 184.0
202.605499 120.0
203.166855 72.0
204.007492 224.0
204.072876 176.0
206.748672 192.0
213.064224 1584.0
214.071884 772.0
214.119797 156.0
215.056335 1876.0
215.245499 96.0
215.292236 56.0
215.98494 40.0
216.058563 568.0
217.016403 144.0
222.910843 188.0
224.053436 68.0
224.846634 200.0
228.04332 224.0
228.981201 132.0
229.060913 296.0
229.216202 144.0
230.067688 480.0
230.178497 156.0
231.074997 196.0
232.801041 52.0
233.566971 52.0
235.548401 144.0
236.040466 84.0
243.135513 44.0
247.024231 112.0
256.941589 52.0
260.479187 76.0
261.134918 120.0
262.050049 412.0
262.210297 40.0
263.165192 64.0
268.213348 92.0
274.749298 200.0
279.920166 164.0
280.0867 92.0
280.456573 112.0
282.955414 144.0
286.704224 180.0
290.060608 124.0
290.857788 64.0
291.061493 68.0
291.979065 128.0
292.049591 2728.0
292.082031 216.0
292.132141 64.0
292.210388 52.0
292.346497 48.0
292.594971 120.0
292.82312 68.0
293.048126 272.0
293.429718 188.0
294.046173 160.0
294.528595 88.0
294.812195 132.0
295.054901 60.0
301.773315 84.0
309.045013 136.0
309.130554 156.0
310.048096 56.0
312.2565 100.0
333.152832 144.0
334.054413 56.0
367.97934 68.0
403.000977 48.0
415.714111 100.0
420.430908 56.0
423.38269 80.0
427.212402 40.0
430.749512 72.0
515.968933 52.0
527.091553 68.0
543.842407 92.0
596.177246 36.0
634.16571 52.0
655.922363 60.0
663.370605 40.0
683.769531 216.0
730.267944 148.0
737.239197 164.0
757.864075 72.0
800.603577 60.0
897.52478 164.0
964.754517 216.0
971.294617 92.0
1000.315979 216.0
1036.55896 60.0
1036.994751 192.0
1038.649048 128.0
1057.140869 216.0
1097.051758 128.0
1131.520752 72.0
1146.379272 140.0
1157.41748 164.0
1161.931763 164.0
1165.822632 208.0
1175.800171 148.0
1180.965576 160.0
1193.942505 100.0
1211.62085 156.0
1216.413086 136.0
1226.011841 252.0
1230.434326 196.0
1230.664795 60.0
1242.998779 116.0
1247.627563 204.0
1258.668579 148.0
1270.389648 176.0
1276.505249 184.0
1276.583374 228.0
1278.261719 224.0
1278.710693 176.0
1280.127441 188.0
1294.567505 216.0
1301.078369 184.0
1304.972534 236.0
1315.744141 172.0
1316.386719 128.0
1316.480713 248.0
1323.828369 176.0
1336.255615 148.0
1345.000977 208.0
1358.304565 236.0
1370.582764 204.0
1375.893433 144.0
1384.789551 176.0
1386.293579 188.0
1392.585205 156.0
1398.325195 168.0
1399.985474 152.0
1406.77832 148.0
1410.005249 156.0
1415.234375 176.0
1417.466675 188.0
1434.913086 232.0
1441.729492 132.0
1445.593994 112.0
1455.676636 152.0
1462.032227 132.0
1463.265381 204.0
1463.752808 112.0
1477.316162 172.0
1488.598877 216.0
1499.438965 128.0
1499.616211 172.0
1501.350952 192.0
1504.460571 152.0
