>compound MLS001216204-01!
>formula C19H23N3O
>ionization [M+H]+
>parentmass 310.1913888080905
#inchi InChI=1S/C19H23N3O/c1-21(2)13-8-14-23-19-17-11-6-7-12-18(17)22(20-19)15-16-9-4-3-5-10-16/h3-7,9-12H,8,13-15H2,1-2H3
#inchikey CNBGNNVCVSKAQZ
#origInchi InChI=1S/C19H23N3O.ClH/c1-21(2)13-8-14-23-19-17-11-6-7-12-18(17)22(20-19)15-16-9-4-3-5-10-16;/h3-7,9-12H,8,13-15H2,1-2H3;1H
#Ion_Source LC-ESI
#Instrument qTof
#Compound_Source NIH Pharmacologically Active Library
#PI Dorrestein
#Data_Collector VP/LMS
#Scan -1
#Precursor_MZ 310.196
#ExactMass 309.184
#Charge 1
#CAS_Number N/A
#Pubmed_ID N/A
#Smiles CN(C)CCCOc1nn(Cc2ccccc2)c3ccccc13.Cl
#INCHI_AUX N/A
#Library_Class 1
#SpectrumID CCMSLIB00000085796
#IonMode Positive
#UpdateWorkflowName UPDATE-SINGLE-ANNOTATED-GOLD
#LibraryQualityString Gold
#TaskID d252d724072548979f1f6f1ced849daf
##Scan# 1701
#SpectrumFile p4-F07_GF7_01_18391.mzXML
#LibraryName Pharm_Active_Library.mgf
#MQScore -1
#Organism Pharm_Active_Library
#TIC_Query 0
#RT_Query -1
#MZErrorPPM -1
#SharedPeaks 0
#MassDiff 0
#LibMZ -1
#SpecMZ 310.196
#SpecCharge 0
#internalFilename spec-00000.mgf

>collision 10
44.944328 56.0
45.259792 68.0
45.522625 188.0
45.600548 48.0
45.670464 212.0
47.586746 140.0
47.652676 248.0
47.885162 108.0
48.566589 220.0
48.78183 156.0
49.646133 116.0
49.693829 136.0
50.043816 160.0
50.093105 204.0
50.104378 52.0
50.584541 172.0
52.432934 124.0
52.67823 144.0
52.788078 132.0
52.970448 184.0
53.032757 276.0
53.11541 120.0
53.30706 188.0
54.389328 160.0
54.568558 180.0
54.58326 140.0
54.814373 172.0
55.178963 212.0
55.198185 164.0
55.728851 192.0
56.042805 152.0
56.086025 152.0
56.502678 124.0
56.910358 160.0
57.099709 76.0
57.156876 124.0
57.393368 220.0
57.678711 188.0
58.117916 48.0
58.356384 144.0
58.458302 156.0
58.670025 168.0
59.062489 196.0
59.282967 160.0
59.623669 132.0
59.791309 112.0
60.289455 168.0
60.709003 100.0
60.847103 232.0
60.865738 152.0
61.03978 196.0
61.404202 64.0
61.421356 144.0
61.655563 240.0
61.852642 124.0
61.965401 264.0
62.00301 132.0
62.153557 120.0
63.488163 212.0
64.218185 196.0
65.387825 40.0
65.500534 224.0
66.067169 104.0
66.452774 176.0
66.841118 176.0
68.885719 132.0
69.828888 156.0
70.236977 192.0
70.27034 156.0
71.065109 104.0
71.365768 196.0
72.014587 240.0
72.735924 212.0
72.854797 200.0
72.875183 244.0
74.242538 160.0
74.496574 128.0
74.565308 204.0
75.049049 160.0
75.21122 140.0
75.832176 216.0
75.891121 48.0
76.349571 212.0
76.386093 116.0
77.79287 160.0
77.81218 112.0
77.842033 108.0
77.864861 196.0
78.063454 184.0
78.103905 156.0
78.190125 132.0
79.386177 140.0
79.561844 216.0
79.851486 216.0
80.571655 152.0
80.997429 184.0
81.178452 64.0
81.277115 204.0
81.338135 136.0
81.47821 96.0
81.690346 140.0
81.747925 216.0
82.662865 152.0
83.241142 124.0
83.295631 56.0
84.073105 160.0
84.494469 188.0
84.674599 140.0
84.788193 172.0
85.734688 128.0
85.863739 168.0
86.095345 680.0
86.129532 128.0
86.729057 56.0
87.716118 92.0
89.036896 168.0
89.612747 96.0
89.92202 92.0
90.0438 492.0
90.073074 200.0
90.318817 180.0
90.352867 208.0
90.49482 132.0
90.978287 212.0
91.008659 192.0
91.055222 1248.0
91.834602 176.0
92.054008 460.0
93.067062 180.0
93.093948 64.0
93.405312 196.0
93.775017 192.0
94.400543 220.0
95.422432 180.0
97.074387 120.0
97.697029 184.0
98.37101 240.0
99.328796 124.0
100.263313 164.0
100.612389 124.0
101.028084 92.0
101.661255 200.0
102.507889 152.0
103.05069 128.0
103.414703 196.0
103.582764 108.0
104.026871 308.0
104.046921 160.0
104.626602 72.0
105.027397 124.0
105.071251 184.0
105.156601 60.0
106.74025 208.0
108.029343 164.0
108.206482 208.0
108.700653 208.0
109.041245 132.0
110.005669 180.0
110.360847 188.0
111.881981 216.0
112.069435 152.0
112.613716 100.0
112.92865 36.0
113.963188 144.0
113.982315 208.0
114.693161 88.0
115.047279 96.0
115.414772 208.0
116.05188 196.0
116.213722 236.0
117.064964 196.0
117.681679 200.0
117.737823 196.0
118.04129 3036.0
118.503601 84.0
118.731209 184.0
118.978584 172.0
119.046371 404.0
119.071953 140.0
119.343597 48.0
119.58725 180.0
119.663445 32.0
119.870377 192.0
120.043839 176.0
120.081848 164.0
120.158195 172.0
123.055405 188.0
123.075279 256.0
124.752487 144.0
125.099533 144.0
126.1838 208.0
127.340118 40.0
127.621033 132.0
128.786163 140.0
129.609665 220.0
129.918015 136.0
130.031464 108.0
131.0466 316.0
132.082169 256.0
132.446136 60.0
133.150284 172.0
133.669846 136.0
133.82637 200.0
134.046112 152.0
136.013428 196.0
136.6409 156.0
136.701401 164.0
137.039032 140.0
137.482101 68.0
137.514771 172.0
137.570801 272.0
138.000687 124.0
138.766312 184.0
138.885925 156.0
141.019211 188.0
141.222549 40.0
141.452087 204.0
142.619156 104.0
143.135422 44.0
143.612076 60.0
144.991638 228.0
145.029984 172.0
145.074738 900.0
145.121094 112.0
145.33696 148.0
145.800446 236.0
145.906204 56.0
145.956696 44.0
146.017761 164.0
146.047226 11884.0
146.07663 444.0
146.168381 36.0
146.22374 68.0
146.245392 68.0
146.39949 84.0
146.493423 52.0
146.570526 48.0
146.976318 56.0
147.051071 592.0
147.195282 72.0
147.313644 68.0
147.446533 72.0
147.627853 208.0
147.867371 100.0
148.05275 108.0
148.10466 156.0
148.276688 36.0
148.647736 148.0
148.84436 136.0
150.058548 152.0
150.541687 160.0
150.888672 160.0
152.888687 192.0
153.040466 40.0
154.021118 196.0
154.061554 136.0
154.509033 196.0
154.952209 252.0
155.071152 152.0
155.090988 236.0
155.450607 60.0
157.037888 160.0
159.053162 172.0
159.089828 224.0
159.934464 132.0
160.569397 164.0
161.079269 240.0
165.0755 300.0
166.063385 124.0
167.278809 144.0
167.33287 100.0
167.755386 172.0
167.796631 36.0
168.046814 112.0
170.314651 168.0
170.865768 96.0
171.097397 248.0
171.613281 164.0
172.095993 144.0
173.071152 284.0
173.563919 132.0
174.017853 160.0
174.03624 192.0
174.07785 17384.0
174.245651 64.0
174.432953 100.0
174.711716 40.0
174.830124 68.0
174.938034 76.0
175.079132 1540.0
175.117096 176.0
175.312057 36.0
175.372681 76.0
175.486038 116.0
175.504486 40.0
176.078583 208.0
176.169601 132.0
176.221436 132.0
176.270004 92.0
176.351929 116.0
176.730103 52.0
176.78302 160.0
177.087494 240.0
177.206696 44.0
179.075699 176.0
180.0504 208.0
180.08284 152.0
181.072067 128.0
181.099747 180.0
183.080978 144.0
184.105072 480.0
185.027878 36.0
186.074402 148.0
186.723862 112.0
187.088013 228.0
191.976837 88.0
192.078888 160.0
193.095367 40.0
194.071823 208.0
195.064072 140.0
196.074188 160.0
196.110703 136.0
198.030243 128.0
198.125488 152.0
199.23085 64.0
199.998566 196.0
201.886093 124.0
204.120743 160.0
204.280029 112.0
205.890472 284.0
207.535934 208.0
208.071533 184.0
208.101181 152.0
209.080307 328.0
210.11879 308.0
212.093964 124.0
212.131332 148.0
212.93251 120.0
219.090225 140.0
219.138977 324.0
220.081131 112.0
220.134293 204.0
222.114349 136.0
223.028915 84.0
223.085403 184.0
223.347092 192.0
224.109222 84.0
224.141998 172.0
225.101547 376.0
227.09877 136.0
229.127197 184.0
237.099167 640.0
237.58316 228.0
238.109055 528.0
240.167191 84.0
245.689056 136.0
246.700912 60.0
256.00943 180.0
256.089081 136.0
258.909271 180.0
263.729065 72.0
264.748199 224.0
265.078644 32.0
265.13327 2872.0
265.175873 268.0
265.253662 76.0
265.376556 84.0
265.464417 124.0
265.941345 64.0
266.134247 324.0
266.308258 40.0
266.594147 68.0
266.906219 208.0
267.148895 124.0
267.882629 144.0
268.20694 300.0
268.821655 44.0
280.414764 100.0
281.25531 80.0
281.769592 36.0
282.10379 116.0
282.361267 116.0
310.18811 344.0
313.243225 220.0
314.844574 140.0
334.870697 304.0
347.751099 100.0
355.791992 172.0
389.982147 44.0
427.076355 200.0
498.534485 84.0
555.600159 120.0
711.463318 148.0
800.028625 188.0
824.13385 64.0
835.808472 148.0
869.686462 160.0
878.041443 180.0
878.944031 44.0
909.302063 200.0
926.457642 68.0
961.002991 84.0
968.037476 144.0
1007.217285 172.0
1017.692322 136.0
1067.912598 152.0
1070.600586 164.0
1101.659424 152.0
1103.509888 168.0
1107.215698 160.0
1124.535645 152.0
1140.444336 188.0
1141.431885 164.0
1157.71582 76.0
1183.881226 184.0
1192.690918 184.0
1198.278931 232.0
1203.023926 232.0
1214.608276 168.0
1217.349731 124.0
1229.588867 208.0
1233.234863 220.0
1237.21521 84.0
1244.197998 128.0
1245.658691 248.0
1246.361328 132.0
1251.080688 204.0
1255.745605 132.0
1261.394531 196.0
1268.927246 100.0
1273.064087 256.0
1278.267822 156.0
1285.158447 136.0
1301.004639 184.0
1303.928223 188.0
1306.955811 132.0
1311.831787 232.0
1313.374878 160.0
1317.489624 48.0
1321.350342 108.0
1324.043213 152.0
1331.600586 124.0
1339.048462 136.0
1346.3125 140.0
1374.03772 176.0
1378.423706 68.0
1379.783813 116.0
1384.845459 256.0
1386.58667 168.0
1392.091431 184.0
1395.457642 168.0
1396.089722 100.0
1397.376587 148.0
1399.393555 96.0
1400.279785 132.0
1403.133789 160.0
1404.252441 192.0
1415.559937 168.0
1421.279541 248.0
1421.407104 176.0
1424.132446 224.0
1425.552368 192.0
1426.92041 180.0
1431.638428 52.0
1435.949463 200.0
1441.611816 128.0
1445.650146 224.0
1448.315186 232.0
1455.482178 140.0
1457.821899 164.0
1461.532837 236.0
1463.588013 168.0
1468.846802 200.0
1470.204956 68.0
1473.985107 184.0
1474.986328 148.0
1483.207642 192.0
1488.800903 116.0
1491.536255 184.0
1494.543335 44.0
1497.399414 100.0
1500.497314 168.0
1502.602783 112.0
