>compound MLS001056735-01!
>formula C15H20N2O2
>ionization [M+H]+
>parentmass 261.158905
#inchi InChI=1S/C15H20N2O2/c18-14-16-12-15(19-14)7-10-17(11-8-15)9-6-13-4-2-1-3-5-13/h1-5H,6-12H2,(H,16,18)
#inchikey FVNFBBAOMBJTST
#origInchi InChI=1S/C15H20N2O2.ClH/c18-14-16-12-15(19-14)7-10-17(11-8-15)9-6-13-4-2-1-3-5-13;/h1-5H,6-12H2,(H,16,18);1H
#Ion_Source LC-ESI
#Instrument qTof
#Compound_Source NIH Pharmacologically Active Library
#PI Dorrestein
#Data_Collector VP/LMS
#Scan -1
#Precursor_MZ 261.16
#ExactMass 260.152
#Charge 1
#CAS_Number N/A
#Pubmed_ID N/A
#Smiles O=C1NCC2(CCN(CCc3ccccc3)CC2)O1.Cl
#INCHI_AUX N/A
#Library_Class 1
#SpectrumID CCMSLIB00000085909
#IonMode Positive
#UpdateWorkflowName UPDATE-SINGLE-ANNOTATED-GOLD
#LibraryQualityString Gold
#TaskID d252d724072548979f1f6f1ced849daf
##Scan# 1146
#SpectrumFile p4-G10_GG10_01_18406.mzXML
#LibraryName Pharm_Active_Library.mgf
#MQScore -1
#Organism Pharm_Active_Library
#TIC_Query 0
#RT_Query -1
#MZErrorPPM -1
#SharedPeaks 0
#MassDiff 0
#LibMZ -1
#SpecMZ 261.16
#SpecCharge 0
#internalFilename spec-00000.mgf

>collision 10
44.958214 156.0
45.012951 180.0
45.071728 156.0
45.113159 164.0
45.178692 216.0
45.233559 232.0
45.273727 72.0
45.383614 160.0
45.441135 176.0
45.537945 160.0
45.590343 100.0
45.679085 188.0
45.714069 176.0
46.109222 204.0
46.121387 60.0
46.147381 164.0
46.271553 68.0
46.283741 220.0
46.318954 120.0
46.34063 96.0
46.363667 228.0
46.794285 52.0
46.829693 48.0
46.86166 184.0
46.923721 52.0
46.933266 152.0
46.986462 200.0
47.043781 156.0
47.0588 100.0
47.084747 144.0
47.211849 120.0
47.263832 228.0
47.386002 180.0
47.421326 224.0
47.450115 180.0
47.596931 140.0
47.645004 228.0
47.657372 116.0
47.805885 44.0
47.82653 40.0
47.990471 124.0
48.190613 80.0
48.334255 136.0
48.402248 220.0
48.417484 80.0
48.49646 144.0
48.586597 220.0
48.854733 144.0
48.913181 48.0
49.023212 188.0
49.189194 208.0
49.27578 220.0
49.285561 108.0
49.345665 184.0
49.366638 132.0
49.461781 220.0
49.533199 176.0
49.625698 108.0
49.740738 104.0
49.802525 228.0
49.823597 128.0
49.896679 172.0
49.921989 108.0
49.931835 208.0
50.109207 192.0
50.130344 208.0
50.222691 196.0
50.236092 160.0
50.316536 176.0
50.440861 144.0
50.532787 260.0
50.681458 128.0
50.749496 96.0
51.006466 44.0
51.140835 172.0
51.308273 180.0
51.386719 168.0
51.748333 164.0
52.20034 160.0
52.244926 96.0
52.437889 196.0
52.579231 132.0
52.686089 180.0
52.699093 44.0
52.749676 116.0
52.892887 160.0
52.926186 176.0
52.984123 196.0
53.072536 152.0
53.249588 244.0
53.335316 184.0
53.3484 144.0
53.362938 144.0
53.498245 84.0
53.54047 220.0
53.675453 212.0
53.683876 220.0
53.775208 176.0
53.813164 140.0
53.851131 180.0
53.873043 140.0
53.963661 196.0
53.973896 176.0
54.006069 120.0
54.162537 188.0
54.410534 156.0
54.422279 192.0
54.513355 152.0
54.594212 152.0
54.731068 192.0
54.748741 180.0
54.764851 192.0
54.983158 84.0
55.058598 164.0
55.158928 184.0
55.246178 168.0
55.329056 212.0
55.378613 388.0
55.403107 144.0
55.443115 60.0
55.469795 188.0
55.523174 156.0
55.607746 152.0
55.731007 228.0
55.818707 144.0
55.875233 116.0
55.955601 164.0
56.04348 140.0
56.126953 184.0
56.262733 156.0
56.288116 216.0
56.307529 160.0
56.419601 168.0
56.512333 212.0
56.573696 180.0
56.750492 204.0
56.896027 160.0
56.947086 180.0
56.97863 176.0
57.014694 116.0
57.05077 192.0
57.076332 196.0
57.180134 120.0
57.196693 216.0
57.23885 216.0
57.276501 32.0
57.386517 220.0
57.458916 112.0
57.52985 172.0
57.680916 156.0
57.735348 124.0
58.03064 48.0
58.322121 140.0
58.365921 168.0
58.433136 88.0
58.530552 124.0
58.705799 132.0
58.719528 140.0
58.731728 156.0
58.838467 140.0
58.882839 240.0
58.965343 208.0
59.037197 140.0
59.121342 144.0
59.193295 224.0
59.230053 64.0
59.323528 232.0
59.521458 148.0
59.564461 144.0
59.579823 104.0
59.604408 32.0
59.693565 80.0
59.72279 196.0
59.753555 44.0
59.916073 180.0
59.949116 152.0
60.254642 124.0
60.291729 180.0
60.321095 228.0
60.573338 148.0
60.604321 172.0
60.629116 184.0
60.698879 148.0
60.724045 176.0
60.855598 172.0
60.908401 164.0
60.927044 212.0
60.947243 136.0
61.147858 264.0
61.693821 232.0
61.743858 204.0
61.793919 168.0
61.917583 188.0
62.184124 208.0
62.22337 156.0
62.316036 136.0
62.482697 164.0
62.728378 152.0
62.766216 168.0
62.807224 152.0
62.822998 188.0
63.149986 196.0
63.574596 224.0
63.65556 168.0
63.960823 160.0
64.011772 172.0
64.085045 152.0
64.444054 172.0
64.530365 136.0
64.712769 212.0
64.752808 116.0
64.906654 108.0
64.974022 180.0
65.24453 140.0
65.356422 276.0
65.502937 192.0
65.778687 136.0
65.827126 164.0
65.927284 168.0
65.96608 156.0
66.029144 260.0
66.042084 208.0
66.215271 220.0
66.315727 144.0
66.507126 248.0
66.598053 152.0
66.672791 144.0
66.692299 212.0
66.715927 212.0
67.043861 100.0
67.130264 128.0
67.185722 88.0
67.293442 156.0
67.396347 200.0
67.658043 184.0
67.754669 176.0
68.113945 172.0
68.179665 252.0
68.239182 156.0
68.298584 184.0
68.465935 144.0
68.487343 64.0
68.503822 264.0
68.528267 248.0
68.659286 240.0
68.673607 172.0
68.7033 204.0
68.761055 148.0
68.784157 228.0
68.871681 236.0
68.911324 160.0
68.952637 116.0
69.185875 180.0
69.46595 196.0
69.509094 80.0
69.545601 200.0
69.688423 128.0
69.711365 164.0
69.956192 160.0
69.96785 184.0
70.114433 128.0
70.247833 132.0
70.374672 192.0
70.705666 276.0
70.764259 200.0
70.864754 88.0
71.057571 164.0
71.176743 208.0
71.470909 192.0
71.681404 164.0
71.802788 172.0
71.829773 144.0
71.919205 124.0
72.101624 220.0
72.123596 204.0
72.147263 108.0
72.199135 136.0
72.41124 108.0
72.441734 144.0
72.543411 136.0
72.587494 180.0
72.60276 188.0
72.746986 196.0
72.933846 172.0
73.090309 136.0
73.136261 124.0
73.18734 232.0
73.320213 172.0
73.34919 144.0
73.376465 148.0
73.422508 180.0
73.451622 232.0
73.640976 156.0
73.659767 160.0
73.67514 172.0
73.690514 196.0
73.714439 212.0
73.929916 124.0
74.054901 168.0
74.23143 100.0
74.469986 144.0
74.494034 144.0
74.554176 184.0
74.645287 124.0
74.674522 68.0
74.712372 156.0
74.78981 60.0
74.819069 180.0
74.881065 228.0
75.24147 192.0
75.415947 140.0
75.538719 344.0
75.668518 168.0
75.749916 184.0
76.082886 44.0
76.209679 84.0
76.417519 168.0
76.677803 68.0
76.740562 164.0
76.831253 168.0
76.852188 128.0
77.096672 180.0
77.332787 180.0
77.349388 152.0
77.457108 48.0
77.549973 112.0
77.778008 168.0
77.792046 232.0
77.83419 188.0
77.965942 136.0
78.032738 220.0
78.060875 48.0
78.434135 172.0
78.74115 188.0
78.780014 48.0
78.928047 244.0
78.960312 184.0
79.008072 116.0
79.031075 184.0
79.073547 96.0
79.218742 172.0
79.263039 64.0
79.401321 144.0
79.568123 188.0
79.680016 108.0
79.74221 152.0
79.779541 124.0
79.834663 176.0
80.128372 148.0
80.144409 220.0
80.253136 148.0
80.28167 184.0
80.401199 136.0
80.558334 176.0
80.762444 132.0
80.835472 232.0
81.059319 168.0
81.091576 216.0
81.156113 160.0
81.29245 224.0
81.339111 160.0
81.353477 216.0
81.484581 172.0
81.57444 164.0
81.635574 76.0
81.684135 80.0
81.712921 144.0
81.896545 120.0
81.909149 48.0
81.92778 188.0
81.952393 112.0
82.15432 164.0
82.175972 200.0
82.327606 148.0
82.354698 112.0
82.5933 128.0
82.618622 116.0
82.834053 128.0
82.893845 192.0
83.064278 236.0
83.145927 140.0
83.187675 192.0
83.278465 132.0
83.294815 108.0
83.515274 128.0
83.569344 184.0
83.634857 64.0
83.653061 152.0
83.793297 172.0
83.840675 204.0
83.869766 112.0
83.899002 180.0
84.170868 160.0
84.27681 248.0
84.454147 204.0
84.56942 160.0
84.719582 140.0
84.748894 224.0
84.912056 224.0
85.121269 216.0
85.225975 188.0
85.264565 148.0
85.523903 88.0
85.564407 120.0
85.615967 156.0
85.789169 216.0
85.872147 180.0
85.975471 112.0
85.995773 140.0
86.065926 184.0
86.077858 168.0
86.173058 76.0
86.269165 144.0
86.363472 28.0
86.472641 104.0
86.591133 144.0
86.622627 124.0
86.837646 200.0
86.851082 160.0
86.898865 80.0
86.932266 204.0
87.15696 156.0
87.292656 172.0
87.331825 208.0
87.43219 180.0
87.450798 208.0
87.735809 132.0
87.77124 184.0
87.836517 200.0
87.95034 152.0
88.090393 156.0
88.198776 44.0
88.245514 116.0
88.286652 172.0
88.616112 196.0
88.649841 140.0
88.677956 124.0
88.747322 200.0
88.86174 152.0
89.167831 144.0
89.180984 144.0
89.85894 192.0
90.060936 164.0
90.200768 180.0
90.410721 204.0
90.555901 224.0
90.63797 180.0
90.675369 132.0
90.795319 68.0
91.001434 84.0
91.055336 136.0
91.222549 140.0
91.340446 168.0
91.368988 132.0
91.441299 176.0
91.597435 216.0
91.624107 156.0
91.688896 104.0
91.887215 160.0
91.946365 68.0
92.175537 120.0
92.611748 64.0
92.870514 244.0
93.000992 176.0
93.096985 160.0
93.15461 164.0
93.360275 216.0
93.460304 140.0
93.570023 104.0
93.5989 200.0
93.668236 140.0
93.706764 208.0
93.976707 196.0
94.066422 296.0
94.160095 148.0
94.196701 244.0
94.364937 164.0
94.384277 172.0
94.566132 200.0
94.602905 156.0
94.64357 212.0
94.74041 104.0
94.868317 160.0
94.98661 208.0
95.071983 144.0
95.085571 160.0
95.130211 196.0
95.197899 172.0
95.254501 148.0
95.520821 184.0
95.610321 108.0
96.025314 148.0
96.080933 2880.0
96.181412 68.0
96.277084 92.0
96.296616 188.0
96.767906 164.0
96.809029 96.0
96.853004 204.0
96.910889 36.0
97.037422 412.0
97.085434 360.0
97.104973 148.0
97.134392 172.0
97.403328 128.0
97.507469 56.0
97.603798 216.0
97.944275 216.0
98.017174 72.0
98.097534 312.0
98.129532 184.0
98.715996 204.0
98.820831 232.0
98.858429 172.0
98.985123 68.0
99.088127 192.0
99.155502 228.0
99.333954 164.0
99.804665 228.0
99.826538 48.0
100.075272 228.0
100.111115 168.0
100.144974 160.0
100.184814 64.0
100.314354 132.0
100.507812 208.0
100.66951 220.0
101.086243 156.0
101.255493 220.0
101.39975 160.0
101.451866 204.0
101.790955 64.0
101.859245 212.0
101.873306 168.0
102.045547 708.0
102.078323 176.0
102.15274 76.0
102.257065 156.0
102.27549 180.0
102.299652 212.0
102.381256 148.0
102.870949 236.0
102.963043 176.0
103.007484 188.0
103.054832 19584.0
103.094444 136.0
103.134789 156.0
103.189369 132.0
103.211891 60.0
103.225769 264.0
103.249634 160.0
103.276329 148.0
103.314766 68.0
103.345116 36.0
103.387611 28.0
103.43544 108.0
103.498947 48.0
103.553627 92.0
103.588066 196.0
103.673164 40.0
103.746132 176.0
103.815079 112.0
103.922585 216.0
103.953026 148.0
103.985497 148.0
104.056618 1304.0
104.141838 56.0
104.180954 156.0
104.23616 300.0
104.481323 184.0
104.527824 216.0
104.619713 156.0
104.682838 64.0
104.761108 172.0
104.795891 152.0
104.821823 160.0
104.862206 192.0
104.916336 188.0
104.933273 168.0
104.960144 144.0
104.98217 276.0
105.035141 332.0
105.070801 78680.0
105.111298 180.0
105.151878 120.0
105.182365 32.0
105.210831 72.0
105.243462 112.0
105.266075 188.0
105.290581 36.0
105.329391 64.0
105.343689 60.0
105.368759 44.0
105.384552 128.0
105.405922 1000.0
105.470383 28.0
105.497787 128.0
105.515358 52.0
105.567047 104.0
105.583717 56.0
105.604904 164.0
105.631111 60.0
105.68351 124.0
105.749382 100.0
105.78746 84.0
105.802757 76.0
105.869362 68.0
105.910324 72.0
105.925591 124.0
105.957443 32.0
106.008667 36.0
106.051704 192.0
106.073776 9776.0
106.10218 232.0
106.152168 88.0
106.172676 84.0
106.213226 84.0
106.231575 112.0
106.248184 148.0
106.295769 56.0
106.341537 172.0
106.358467 116.0
106.41893 44.0
106.457939 172.0
106.565231 104.0
106.671165 68.0
106.751816 56.0
106.772385 120.0
106.815025 220.0
106.836151 100.0
106.884285 152.0
106.942207 148.0
106.967857 36.0
106.982269 100.0
107.017265 152.0
107.07856 524.0
107.19854 64.0
107.260368 84.0
107.507881 84.0
107.578056 76.0
107.615219 76.0
107.66478 124.0
107.69783 108.0
107.732948 80.0
107.916893 44.0
108.020302 76.0
108.080673 196.0
108.314247 76.0
108.8535 180.0
108.891533 88.0
109.083794 196.0
109.158981 48.0
109.215134 52.0
109.250496 204.0
109.458641 192.0
109.671143 104.0
109.729515 32.0
109.831703 96.0
110.059189 96.0
110.847809 100.0
111.023903 88.0
111.062294 172.0
111.091026 196.0
111.168663 72.0
112.039177 228.0
112.285805 164.0
112.378624 64.0
112.503151 140.0
113.106392 168.0
113.467896 84.0
113.563324 100.0
113.620598 84.0
113.830734 76.0
114.583725 132.0
114.969681 112.0
115.053276 172.0
115.134216 116.0
115.390495 48.0
115.962067 60.0
116.05854 128.0
116.507118 116.0
116.707008 80.0
116.812393 76.0
117.06694 332.0
117.301224 136.0
117.424133 60.0
118.752159 76.0
119.075562 156.0
120.399765 68.0
120.812889 112.0
121.071182 200.0
121.924614 56.0
122.054321 184.0
123.297668 172.0
123.410416 192.0
123.470123 196.0
123.99041 132.0
124.633972 140.0
124.747322 52.0
125.110268 164.0
125.593513 72.0
125.81221 128.0
126.055672 128.0
126.091431 156.0
126.113052 172.0
126.328453 148.0
126.830063 112.0
127.876778 144.0
127.928551 144.0
128.068985 428.0
128.706406 176.0
129.074738 152.0
130.003525 248.0
130.067078 328.0
130.735306 124.0
131.069672 192.0
132.05632 108.0
132.076904 76.0
132.319489 180.0
133.351776 140.0
133.395462 232.0
133.963867 44.0
134.021469 56.0
134.09584 648.0
134.128326 44.0
134.178207 120.0
134.371948 68.0
134.3927 164.0
134.642029 32.0
134.923935 112.0
134.947052 196.0
135.098785 208.0
136.10994 204.0
136.170639 80.0
136.200836 160.0
136.537857 96.0
136.756577 200.0
138.758606 188.0
138.793777 112.0
139.08728 1008.0
139.143387 220.0
139.253754 88.0
140.077042 60.0
140.246704 204.0
140.487228 80.0
141.124924 84.0
143.010956 228.0
144.074524 204.0
144.263321 180.0
144.749023 136.0
144.990982 128.0
145.086868 188.0
146.096481 556.0
146.32901 124.0
146.449417 60.0
146.989456 120.0
147.030487 164.0
147.09938 200.0
147.122208 188.0
147.40239 148.0
147.45314 40.0
147.564346 148.0
151.086533 436.0
151.132629 124.0
151.887207 116.0
151.992706 136.0
152.090881 212.0
152.248016 144.0
153.091553 144.0
153.291107 184.0
154.95903 40.0
155.079056 320.0
156.090164 148.0
156.516418 104.0
156.66835 224.0
157.096191 644.0
157.696457 68.0
157.733948 152.0
158.061584 168.0
158.101639 156.0
158.687805 132.0
160.111801 232.0
160.775696 52.0
162.387344 168.0
163.075424 60.0
164.244171 124.0
164.420227 92.0
166.625015 84.0
166.763779 168.0
166.938614 156.0
167.576996 120.0
168.082382 164.0
168.159805 224.0
168.356018 116.0
168.627304 112.0
169.097656 7236.0
169.274078 44.0
169.292206 116.0
169.319839 48.0
169.337784 80.0
169.566833 32.0
169.631638 92.0
169.856308 56.0
170.059631 40.0
170.097626 652.0
170.236191 72.0
170.288132 48.0
170.912064 132.0
170.93808 112.0
171.1017 368.0
171.159348 76.0
171.242691 168.0
171.483231 124.0
172.105896 252.0
173.041962 100.0
173.434921 212.0
173.568634 188.0
175.121841 200.0
181.368988 220.0
183.104736 136.0
184.875809 68.0
186.128235 156.0
186.310211 156.0
187.821075 44.0
188.145859 288.0
188.610229 140.0
188.645767 184.0
189.135422 160.0
192.442734 196.0
194.757965 108.0
195.297211 128.0
196.160446 240.0
197.428085 64.0
197.973816 80.0
198.131088 216.0
198.54834 116.0
198.980484 196.0
199.92215 208.0
200.145187 1464.0
200.279724 108.0
201.14621 156.0
202.14595 144.0
206.12149 144.0
208.848007 124.0
211.265411 60.0
211.407181 196.0
213.347702 52.0
213.947006 232.0
215.595062 184.0
215.711975 56.0
217.172256 600.0
217.548782 88.0
218.177307 136.0
219.316727 200.0
219.667633 80.0
221.829376 204.0
222.64238 160.0
224.383148 136.0
227.833969 48.0
230.966141 56.0
231.959381 200.0
232.134109 140.0
234.131882 140.0
235.547165 28.0
241.127243 128.0
242.030579 48.0
243.149612 372.0
244.143326 176.0
245.258545 80.0
245.426895 40.0
245.645218 140.0
246.763275 108.0
250.142151 60.0
258.841919 76.0
259.14624 176.0
260.423035 100.0
260.513 96.0
260.541901 144.0
260.792572 64.0
261.001526 148.0
261.0755 112.0
261.158905 11220.0
261.209961 188.0
261.265533 140.0
261.295013 100.0
261.322296 64.0
261.551666 56.0
261.666565 128.0
261.729553 64.0
262.161133 1820.0
262.195862 92.0
262.247437 72.0
262.36026 84.0
262.551086 68.0
262.624695 116.0
262.656952 60.0
262.753723 68.0
262.789215 36.0
262.889252 28.0
263.012146 52.0
263.10553 88.0
263.164825 296.0
263.199158 48.0
263.80658 152.0
264.013519 112.0
264.165527 64.0
266.298462 56.0
266.337433 72.0
267.918427 104.0
272.581055 120.0
273.758759 80.0
279.106476 76.0
285.302124 60.0
289.289764 56.0
301.125092 72.0
304.502045 72.0
331.224182 104.0
334.288574 80.0
336.344177 60.0
344.677704 132.0
371.344177 76.0
375.108643 64.0
398.098145 104.0
415.434906 52.0
437.85556 76.0
440.579437 48.0
465.508881 52.0
480.704193 88.0
516.805725 96.0
588.368347 76.0
640.198975 88.0
689.411316 220.0
710.293762 132.0
715.224976 220.0
730.147949 44.0
756.022217 144.0
758.486938 56.0
760.264038 172.0
786.371643 216.0
801.806946 204.0
806.966553 128.0
818.815552 216.0
836.428589 52.0
838.628967 168.0
844.05011 44.0
845.351685 176.0
850.974426 60.0
851.375061 80.0
853.426392 212.0
854.042847 124.0
854.165039 76.0
854.612976 156.0
854.927246 136.0
858.066956 204.0
858.655945 100.0
875.335144 144.0
883.563354 164.0
890.540649 168.0
892.626709 72.0
893.637939 204.0
895.137939 164.0
901.808044 168.0
905.224243 248.0
906.602112 188.0
908.148987 140.0
909.775208 168.0
913.645569 172.0
915.565735 168.0
916.746582 32.0
917.729126 200.0
919.695862 128.0
919.816589 160.0
920.788757 136.0
922.256958 196.0
923.194092 196.0
928.554016 80.0
928.608582 180.0
930.125549 176.0
937.156006 168.0
937.448547 112.0
940.040344 108.0
946.201782 80.0
950.449402 216.0
953.470825 152.0
955.223267 208.0
955.500122 204.0
957.402161 144.0
957.556152 184.0
958.449402 176.0
964.083618 152.0
964.15155 168.0
965.010864 156.0
966.266418 148.0
966.409363 180.0
968.049133 232.0
968.284424 148.0
969.839661 200.0
973.785889 128.0
973.97229 76.0
975.270935 228.0
977.945618 136.0
980.225037 220.0
981.633911 36.0
981.958191 108.0
982.862793 100.0
985.635315 80.0
986.254028 184.0
987.098022 204.0
991.862671 80.0
993.254761 44.0
993.549561 212.0
995.815735 128.0
996.355957 184.0
997.682068 180.0
997.977539 172.0
998.430359 184.0
998.625305 96.0
998.814026 168.0
1002.119202 88.0
1002.28302 220.0
1003.379761 144.0
1004.054504 28.0
1005.120667 184.0
1006.698853 228.0
1009.669189 132.0
1010.782593 132.0
1012.048584 172.0
1014.640015 104.0
1015.033142 196.0
1015.642029 108.0
1016.041687 152.0
1017.139526 244.0
1018.301575 188.0
1018.790649 124.0
1019.597656 244.0
1020.28418 100.0
1023.089844 220.0
1023.319031 172.0
1025.376709 80.0
1028.48291 200.0
1032.054199 196.0
1032.776855 196.0
1035.497192 136.0
1035.919922 192.0
1036.022461 160.0
1039.157593 208.0
1039.305176 184.0
1039.837891 208.0
1040.954956 156.0
1042.908081 152.0
1044.41272 216.0
1047.889038 172.0
1049.468262 192.0
1049.758423 176.0
1050.41626 164.0
1050.493774 172.0
1051.248657 188.0
1051.952148 180.0
1053.192017 36.0
1054.342041 252.0
1056.230103 104.0
1056.838257 120.0
1057.776733 132.0
1059.641846 144.0
1060.250977 228.0
1061.605957 176.0
1062.176758 148.0
1062.591919 100.0
1062.67627 124.0
1064.506836 116.0
1066.774414 72.0
1066.865479 240.0
1069.174561 212.0
1069.753906 236.0
1069.884155 44.0
1070.463623 124.0
1071.838135 184.0
1072.926636 124.0
1074.15271 80.0
1074.439697 176.0
1074.615845 240.0
1074.687622 152.0
1074.85083 92.0
1076.241211 136.0
1076.868042 232.0
1077.358032 196.0
1078.115967 204.0
1078.547363 220.0
1078.848022 68.0
1079.41687 196.0
1081.58252 80.0
1082.125854 176.0
1083.697876 268.0
1084.11731 176.0
1084.366333 220.0
1085.323486 180.0
1085.526733 160.0
1085.61853 148.0
1086.208862 68.0
1086.372803 168.0
1087.098145 176.0
1087.698486 64.0
1088.25647 72.0
1088.801514 188.0
1088.854126 44.0
1089.878906 56.0
1090.233765 32.0
1090.391479 172.0
1091.693237 172.0
1093.456421 92.0
1093.706543 240.0
1093.923828 160.0
1095.543823 72.0
1098.259766 204.0
1098.615967 52.0
1098.721558 160.0
1098.807373 28.0
1098.879883 160.0
1099.058105 44.0
1100.015015 360.0
1100.807373 116.0
1101.117798 232.0
1101.441406 116.0
1101.917114 176.0
1102.491943 164.0
1103.529785 160.0
1105.421631 176.0
1105.474609 152.0
1105.646606 196.0
1108.706421 172.0
1111.000732 172.0
1111.305908 188.0
1112.035889 188.0
1112.719604 128.0
1113.184448 196.0
1113.377075 148.0
1114.765503 104.0
1116.095093 112.0
1116.234619 132.0
1118.050781 172.0
1118.157349 136.0
1118.443481 172.0
1119.002808 72.0
1119.21582 164.0
1119.462158 92.0
1119.668701 128.0
1121.574219 208.0
1122.074219 124.0
1122.454346 180.0
1122.52771 156.0
1122.861206 76.0
1124.14209 236.0
1124.369019 156.0
1124.555908 196.0
1126.712769 132.0
1127.147095 204.0
1130.209717 56.0
1130.356934 208.0
1130.738403 196.0
1132.007568 112.0
1133.551147 176.0
1133.712036 80.0
1134.335327 44.0
1134.435913 180.0
1134.908569 184.0
1135.535645 220.0
1136.125977 196.0
1137.427856 56.0
1138.132812 44.0
1138.455078 184.0
1138.811157 180.0
1140.248901 176.0
1140.302734 204.0
1140.396851 140.0
1140.457275 200.0
1141.707886 180.0
1142.003784 40.0
1142.057617 120.0
1143.578247 184.0
1144.426514 176.0
1144.520874 176.0
1145.227905 112.0
1146.238525 228.0
1146.824829 92.0
1147.000122 124.0
1147.411377 136.0
1147.58667 184.0
1147.640625 224.0
1149.030029 144.0
1149.887085 172.0
1150.791626 228.0
1152.622192 196.0
1153.338623 184.0
1153.534668 64.0
1153.811768 88.0
1154.616577 148.0
1155.705688 124.0
1156.368896 140.0
1156.470459 188.0
1158.408569 224.0
1159.030396 156.0
1160.074097 184.0
1160.162231 204.0
1161.423584 180.0
1163.108276 196.0
1164.600342 176.0
1165.130127 160.0
1165.347656 204.0
1165.959229 224.0
1166.333008 152.0
1166.570923 36.0
1167.291626 124.0
1168.230347 272.0
1169.734253 116.0
1169.856812 212.0
1171.068848 88.0
1171.423096 48.0
1171.695679 128.0
1173.84314 152.0
1174.695312 180.0
1175.759766 156.0
1175.828003 160.0
1176.353638 168.0
1176.496948 72.0
1178.101807 48.0
1178.252197 184.0
1178.84668 224.0
1180.535156 108.0
1180.665161 168.0
1182.539795 180.0
1182.984741 128.0
1183.258667 156.0
1183.929688 212.0
1184.114624 164.0
1186.691284 212.0
1187.555298 120.0
1188.07666 148.0
1188.927612 164.0
1193.076416 144.0
1194.706421 208.0
1194.802734 108.0
1195.31189 72.0
1197.611328 68.0
1197.900635 256.0
1198.052246 140.0
1198.279663 68.0
1198.520752 128.0
1198.596558 140.0
1198.830811 208.0
1199.072021 156.0
1199.161743 140.0
1199.216797 208.0
1200.030273 56.0
1200.237183 180.0
1202.575928 88.0
1203.093628 204.0
1203.673584 148.0
1204.530029 108.0
1205.415283 172.0
1205.60791 168.0
1205.690918 176.0
1206.845337 72.0
1208.436157 124.0
1208.726807 188.0
1209.017456 184.0
1210.436646 208.0
1211.32312 200.0
1213.15271 156.0
1213.568726 56.0
1213.832153 80.0
1214.040283 180.0
1214.491089 132.0
1214.713013 156.0
1215.531738 232.0
1216.80896 56.0
1216.940796 204.0
1217.475586 264.0
1217.712891 180.0
1218.878784 160.0
1219.209106 196.0
1219.858765 144.0
1220.978271 156.0
1222.571533 208.0
1223.023926 152.0
1224.57666 180.0
1224.938843 164.0
1226.262817 76.0
1226.68103 144.0
1227.301514 172.0
1227.831543 120.0
1228.243042 192.0
1230.399414 56.0
1232.390015 228.0
1232.704468 148.0
1233.417358 76.0
1233.606201 152.0
1234.046631 164.0
1234.235352 124.0
1235.221558 132.0
1235.466431 192.0
1235.823242 156.0
1237.06897 148.0
1237.657104 176.0
1237.839233 184.0
1237.902222 136.0
1239.50647 168.0
1239.751709 160.0
1239.87085 56.0
1240.067139 32.0
1240.200317 132.0
1241.202881 88.0
1242.774048 120.0
1243.616211 52.0
1244.297119 216.0
1244.37439 160.0
1244.957275 196.0
1245.701782 172.0
1247.022827 172.0
1247.655518 40.0
1247.753906 148.0
1248.232056 184.0
1248.766602 200.0
1249.934448 136.0
1250.12439 244.0
1250.286255 216.0
1250.532593 48.0
1251.180298 184.0
1251.328125 140.0
1252.419678 164.0
1252.701416 168.0
1253.236938 188.0
1255.309326 132.0
1256.938843 224.0
1257.150635 152.0
1258.216431 168.0
1258.774292 144.0
1259.409912 160.0
1260.582764 180.0
1260.822998 136.0
1261.749023 60.0
1262.109619 52.0
1262.519775 164.0
1263.043213 260.0
1263.425171 192.0
1263.594971 156.0
1267.397217 208.0
1269.020508 132.0
1269.148071 164.0
1269.460083 136.0
1270.034546 132.0
1270.978149 176.0
1271.283325 152.0
1274.436157 116.0
1274.613892 64.0
1275.615967 112.0
1277.576782 180.0
1277.713989 196.0
1278.945068 140.0
1279.863525 196.0
1280.483032 168.0
1281.387817 208.0
1281.515991 208.0
1282.613525 160.0
1283.148193 212.0
1283.490479 164.0
1284.10376 152.0
1284.496094 188.0
1286.158813 200.0
1286.722778 44.0
1289.115723 220.0
1289.615967 236.0
1289.873291 116.0
1290.380859 176.0
1292.154663 172.0
1292.390747 212.0
1292.82019 172.0
1295.161377 164.0
1295.526733 176.0
1295.598389 152.0
1296.049805 68.0
1297.711914 172.0
1300.266602 204.0
1300.797729 68.0
1301.989624 156.0
1302.039917 100.0
1302.83728 224.0
1302.995361 164.0
1303.160522 224.0
1303.397705 192.0
1303.800171 84.0
1304.037354 44.0
1305.381714 120.0
1305.683838 216.0
1305.849243 228.0
1305.957153 200.0
1306.086548 140.0
1307.899902 200.0
1308.295776 124.0
1309.267944 156.0
1309.930542 188.0
1310.384521 144.0
1311.566406 164.0
1313.419556 168.0
1313.545044 80.0
1313.80188 132.0
1313.946167 180.0
1314.097656 184.0
1315.63501 124.0
1317.556152 168.0
1317.715088 204.0
1318.611084 80.0
1318.950806 168.0
1319.008667 64.0
1319.276123 76.0
1319.383911 196.0
1320.859863 144.0
1321.431396 60.0
1321.894531 160.0
1322.307007 124.0
1322.430054 168.0
1322.871582 180.0
1323.38562 172.0
1323.849121 196.0
1323.914307 192.0
1324.370605 44.0
1325.761719 136.0
1326.327026 36.0
1326.964966 160.0
1327.72644 176.0
1327.791748 188.0
1328.026733 216.0
1328.966919 212.0
1329.363525 152.0
1329.692627 148.0
1329.924927 192.0
1330.164429 132.0
1330.803345 168.0
1331.035645 104.0
1331.260742 236.0
1331.478638 64.0
1331.820068 188.0
1332.016113 232.0
1332.97522 180.0
1334.436279 192.0
1334.661621 140.0
1336.443237 144.0
1337.040527 64.0
1337.338989 180.0
1337.520874 124.0
1338.219849 36.0
1338.343628 28.0
1338.518311 176.0
1338.943359 188.0
1339.064575 216.0
1339.676392 392.0
1339.800293 144.0
1340.106323 224.0
1340.186401 156.0
1341.921265 236.0
1342.46814 56.0
1343.671631 160.0
1344.277344 68.0
1344.598389 172.0
1345.284546 240.0
1346.547852 220.0
1347.40979 144.0
1347.723999 176.0
1348.001709 172.0
1348.820312 144.0
1348.87146 144.0
1349.405151 108.0
1351.270264 112.0
1351.833618 180.0
1352.36792 60.0
1352.470459 200.0
1353.495361 164.0
1354.030029 140.0
1354.10791 196.0
1354.506104 164.0
1357.921875 112.0
1358.912231 148.0
1361.055542 168.0
1362.186646 340.0
1362.348267 140.0
1363.060913 56.0
1363.487183 188.0
1363.722412 180.0
1364.154175 224.0
1364.214844 180.0
1364.619263 176.0
1364.810425 96.0
1364.876587 180.0
1365.031006 212.0
1365.384033 168.0
1365.479614 168.0
1366.156372 128.0
1367.474487 156.0
1368.128784 164.0
1368.901855 156.0
1369.498413 168.0
1369.645752 132.0
1369.969849 164.0
1370.367676 172.0
1371.664795 144.0
1374.725708 108.0
1375.116943 140.0
1375.345703 156.0
1375.869873 232.0
1376.024902 208.0
1376.194702 196.0
1377.243408 168.0
1377.89917 164.0
1377.962769 196.0
1378.270386 260.0
1378.440308 228.0
1378.588135 180.0
1379.977783 112.0
1380.197632 200.0
1380.258789 180.0
1380.687744 176.0
1381.013184 416.0
1381.701172 136.0
1381.789917 188.0
1382.892578 172.0
1383.980835 188.0
1384.162964 172.0
1385.165771 116.0
1387.00354 180.0
1387.448364 172.0
1388.076538 280.0
1390.467529 220.0
1390.964844 208.0
1391.335938 136.0
1391.98938 80.0
1392.131592 224.0
1393.512207 112.0
1395.020874 172.0
1396.567627 152.0
1396.694092 72.0
1396.790771 160.0
1399.075439 152.0
1399.953979 144.0
1400.385986 224.0
1400.557373 184.0
1400.721191 156.0
1401.041504 120.0
1401.39917 160.0
1401.727051 152.0
1401.876099 132.0
1402.718384 60.0
1402.777954 160.0
1404.478149 160.0
1404.828735 176.0
1405.015259 188.0
1405.395752 212.0
1405.806274 84.0
1405.880859 68.0
1406.171875 128.0
1406.789673 192.0
1407.650146 156.0
1408.48645 144.0
1409.569946 220.0
1409.719482 128.0
1409.794189 136.0
1410.070679 156.0
1411.139648 176.0
1411.214478 144.0
1413.151733 92.0
1413.757812 44.0
1414.072144 164.0
1415.337402 96.0
1417.052612 152.0
1417.464844 152.0
1418.903931 224.0
1419.068848 108.0
1419.241333 184.0
1419.556274 244.0
1419.961304 168.0
1420.163818 140.0
1420.366333 160.0
1422.785767 172.0
1423.758911 180.0
1427.170654 148.0
1429.148926 148.0
1429.359619 164.0
1429.570312 152.0
1429.818726 144.0
1432.28833 88.0
1432.42395 168.0
1432.845825 248.0
1435.800781 196.0
1437.898193 212.0
1438.124634 48.0
1439.015503 192.0
1439.755493 88.0
1441.591309 196.0
1441.780273 204.0
1441.901123 184.0
1442.195923 196.0
1442.891479 156.0
1443.140991 160.0
1443.352661 176.0
1443.40564 116.0
1443.776123 136.0
1444.05603 140.0
1444.373657 196.0
1444.744385 196.0
1446.931641 176.0
1447.348022 60.0
1448.362915 232.0
1450.317871 164.0
1451.000244 184.0
1452.130127 180.0
1452.865967 80.0
1453.177002 176.0
1453.503296 212.0
1454.36084 128.0
1454.520264 152.0
1454.884644 148.0
1455.818604 168.0
1456.562988 180.0
1456.692139 212.0
1458.303101 260.0
1460.607056 160.0
1460.80481 212.0
1461.953735 172.0
1462.456055 192.0
1462.661621 168.0
1462.867188 136.0
1463.430542 92.0
1463.963623 140.0
1464.161621 200.0
1464.268188 112.0
1464.329102 160.0
1464.382446 144.0
1465.39563 148.0
1465.578491 40.0
1465.738525 196.0
1466.447266 176.0
1466.508301 44.0
1466.637817 44.0
1466.752197 148.0
1467.240112 180.0
1468.155151 124.0
1468.353394 60.0
1469.238281 168.0
1470.621216 212.0
1471.016479 164.0
1471.085205 136.0
1472.245728 172.0
1474.835938 172.0
1475.577393 172.0
1476.13562 236.0
1476.541016 208.0
1477.374756 152.0
1477.879761 136.0
1479.456421 120.0
1481.692749 64.0
1482.052856 80.0
1483.049072 96.0
1483.349609 116.0
1483.409424 60.0
1483.700684 116.0
1484.574829 196.0
1484.966064 140.0
1485.671753 220.0
1485.848145 236.0
1486.515747 188.0
1488.25061 120.0
1489.057007 44.0
1489.533203 104.0
1489.602295 160.0
1491.730957 164.0
1492.169189 108.0
1492.223022 180.0
1492.684448 64.0
1492.838257 164.0
1493.084351 144.0
1493.199707 148.0
1493.453491 132.0
1495.023071 196.0
1495.084595 168.0
1495.892822 196.0
1496.023682 92.0
1496.154541 92.0
1496.539551 212.0
1496.801392 132.0
1496.91687 140.0
1496.986206 88.0
1497.848755 160.0
1499.266479 152.0
1500.021851 176.0
1500.176147 112.0
1501.688843 216.0
1502.875488 188.0
1503.15332 192.0
1503.52124 156.0
1503.647217 136.0
1503.8479 176.0
1504.635376 80.0
