>compound Tripelennamine HCl
>formula C16H21N3
>ionization [M+H]+
>parentmass 256.181763
#inchi InChI=1S/C16H21N3/c1-18(2)12-13-19(16-10-6-7-11-17-16)14-15-8-4-3-5-9-15/h3-11H,12-14H2,1-2H3
#inchikey UFLGIAIHIAPJJC
#origInchi InChI=1S/C16H21N3.ClH/c1-18(2)12-13-19(16-10-6-7-11-17-16)14-15-8-4-3-5-9-15;/h3-11H,12-14H2,1-2H3;1H
#Ion_Source LC-ESI
#Instrument qTof
#Compound_Source Commercial
#PI Dorrestein
#Data_Collector Garg_Neha
#Scan -1
#Precursor_MZ 256.181
#ExactMass 255.174
#Charge 1
#CAS_Number 154-69-8 ,91-81-6(free base)
#Pubmed_ID N/A
#Smiles C(CN(C1C=CC=CN=1)CC2C=CC=CC=2)N(C)C.Cl
#INCHI_AUX N/A
#Library_Class 1
#SpectrumID CCMSLIB00000078585
#IonMode Positive
#UpdateWorkflowName UPDATE-SINGLE-ANNOTATED-GOLD
#LibraryQualityString Gold
#TaskID 77f51c88eb8b467eb4a01dd2d0cb90d2
##Scan# 1054
#SpectrumFile Plate9_41_60_GC6_01_15755.mzXML
#LibraryName FDALibrary_2_04302014.mgf
#MQScore -1
#Organism FDALibrary_2_04302014
#TIC_Query 0
#RT_Query -1
#MZErrorPPM -1
#SharedPeaks 0
#MassDiff 0
#LibMZ -1
#SpecMZ 256.181
#SpecCharge 0
#internalFilename spec-00000.mgf

>collision 10
45.098091 192.0
46.150734 164.0
46.644218 172.0
46.887856 148.0
47.434589 216.0
47.850853 204.0
47.93074 184.0
48.090717 148.0
48.447479 144.0
48.627743 148.0
49.318592 152.0
49.816044 140.0
50.225677 168.0
50.417694 204.0
50.44455 172.0
50.781555 144.0
50.910706 188.0
50.994526 140.0
51.816486 184.0
52.363789 176.0
53.305595 188.0
53.710339 256.0
54.734779 204.0
55.149338 156.0
55.79863 148.0
57.468666 188.0
57.764778 184.0
58.859066 148.0
59.948208 140.0
60.074642 144.0
60.179588 188.0
60.3913 140.0
60.408318 228.0
60.460926 144.0
60.93853 144.0
61.517879 228.0
62.459667 220.0
63.681499 212.0
65.310257 144.0
65.641373 160.0
66.361572 168.0
66.871658 144.0
67.483398 180.0
67.935417 160.0
68.11763 152.0
68.198151 160.0
68.242531 180.0
69.141556 180.0
69.570862 188.0
70.188881 160.0
70.721054 184.0
71.958321 180.0
72.835548 144.0
72.980003 224.0
73.964371 180.0
74.387772 244.0
75.227844 148.0
75.42141 144.0
75.559654 160.0
76.308899 188.0
76.582115 164.0
78.753586 192.0
79.036438 172.0
79.681831 232.0
80.554771 180.0
80.883797 168.0
81.811874 204.0
81.828079 200.0
81.990196 180.0
82.110985 160.0
82.839417 148.0
82.86116 212.0
83.072365 172.0
83.920776 152.0
84.337006 196.0
84.807404 208.0
85.551353 180.0
86.298553 164.0
86.329987 188.0
87.080574 228.0
87.881042 200.0
88.439812 192.0
88.527809 148.0
88.777046 196.0
88.975639 124.0
89.289742 144.0
90.513977 188.0
90.872742 200.0
90.904999 148.0
91.055466 3504.0
91.722816 144.0
92.056129 708.0
92.146477 160.0
92.18087 160.0
92.883514 172.0
92.908447 180.0
93.060066 176.0
93.681267 228.0
94.670189 160.0
94.728294 144.0
94.809669 176.0
94.834862 160.0
95.269524 152.0
95.329758 232.0
95.407501 184.0
96.165253 208.0
96.448463 220.0
98.0205 204.0
98.144684 172.0
98.166374 144.0
98.8004 188.0
99.105301 172.0
99.969078 208.0
101.034569 208.0
101.194679 172.0
102.61718 200.0
102.990517 200.0
103.675781 216.0
105.453125 244.0
105.983154 188.0
106.545319 148.0
106.991592 204.0
107.059547 168.0
108.039978 184.0
108.356735 192.0
109.513809 160.0
110.051842 212.0
110.574448 152.0
111.085701 188.0
111.807587 168.0
112.364784 140.0
113.059975 172.0
113.62149 188.0
114.825455 204.0
114.96199 232.0
116.757256 180.0
117.975517 184.0
118.373627 204.0
118.427773 196.0
119.002441 212.0
119.060646 16292.0
119.342545 128.0
119.713326 164.0
119.981491 304.0
120.067848 8264.0
120.095459 236.0
120.663475 116.0
121.070496 780.0
121.418098 152.0
121.764854 172.0
122.074722 152.0
122.21991 148.0
122.351967 192.0
122.797081 160.0
122.834579 156.0
124.999176 172.0
125.150536 148.0
126.118736 216.0
126.45871 212.0
127.67247 260.0
128.16095 180.0
129.70903 148.0
130.376312 148.0
131.143295 188.0
131.960541 188.0
132.010849 168.0
132.029144 176.0
133.218735 196.0
135.155396 152.0
136.149872 160.0
136.424042 172.0
138.29248 180.0
141.581573 232.0
141.761627 164.0
141.782959 192.0
142.138657 208.0
142.221924 184.0
144.720108 180.0
144.789566 160.0
145.70105 188.0
147.177475 172.0
148.040741 140.0
148.474533 176.0
150.235565 184.0
150.535782 184.0
151.516602 152.0
153.8974 140.0
155.112106 144.0
155.320724 152.0
156.099976 180.0
158.258652 208.0
158.346298 216.0
159.289398 180.0
159.948212 192.0
161.606262 172.0
161.884705 140.0
162.825562 148.0
163.112671 232.0
163.741135 144.0
163.873596 172.0
165.226746 176.0
165.352127 164.0
165.936172 232.0
165.972061 140.0
166.131088 188.0
167.068756 148.0
169.741974 236.0
169.845718 144.0
171.030579 176.0
172.368469 180.0
173.137573 152.0
174.930893 188.0
175.845535 200.0
177.006088 160.0
177.745636 156.0
178.72081 140.0
178.955032 184.0
179.914825 152.0
180.04834 180.0
185.006378 172.0
185.331665 172.0
186.389893 200.0
186.814026 156.0
187.464767 148.0
187.958328 140.0
191.615997 168.0
192.67099 192.0
194.800232 208.0
194.941925 168.0
196.314331 176.0
197.806305 156.0
197.876297 204.0
198.344131 144.0
198.913559 144.0
200.085815 220.0
200.925674 184.0
202.82634 172.0
203.0103 140.0
203.10672 160.0
203.212021 152.0
203.998352 148.0
204.29126 152.0
204.629929 152.0
206.407532 168.0
206.753662 168.0
206.979813 144.0
207.47261 140.0
209.954056 200.0
210.212799 104.0
210.529282 108.0
210.586014 116.0
210.642441 176.0
210.886597 164.0
210.943146 116.0
210.973465 160.0
211.029434 252.0
211.05455 168.0
211.090729 476.0
211.124313 198360.0
211.186752 148.0
211.224518 136.0
211.264481 164.0
211.339996 152.0
211.400528 296.0
211.467133 100.0
211.599319 1244.0
211.652817 124.0
211.692108 196.0
211.752808 152.0
211.849289 152.0
211.911758 108.0
212.041733 128.0
212.126389 24080.0
212.182205 280.0
212.269989 260.0
212.307693 244.0
212.452667 120.0
212.485245 200.0
212.663635 248.0
213.129745 2320.0
213.236633 112.0
213.324356 140.0
213.427948 96.0
213.473083 228.0
213.547974 212.0
213.614212 172.0
213.647339 128.0
213.70108 224.0
213.884781 200.0
214.136856 196.0
214.333221 112.0
214.703415 108.0
214.863129 124.0
216.944229 140.0
219.540482 152.0
220.174988 144.0
222.870667 192.0
223.748062 140.0
229.956207 160.0
232.926559 164.0
233.02681 144.0
243.884552 244.0
249.564896 192.0
254.137054 152.0
256.013916 188.0
256.103119 180.0
256.128601 200.0
256.181763 24968.0
256.256989 132.0
256.427124 136.0
256.642731 124.0
257.139313 148.0
257.184113 4000.0
258.153595 164.0
258.189423 872.0
258.867218 116.0
259.181641 140.0
347.07428 176.0
1071.374146 200.0
1111.714233 160.0
1363.318604 176.0
1364.450562 140.0
1529.023804 152.0
1560.808228 164.0
1569.603638 168.0
1570.171387 212.0
1575.760132 172.0
1617.96814 140.0
1640.889404 200.0
1650.788696 180.0
1659.655396 164.0
1690.446289 144.0
1690.70813 148.0
1699.92749 200.0
1703.342896 200.0
1717.137939 212.0
1735.247559 152.0
1740.516235 164.0
1757.972168 172.0
1761.938232 148.0
1769.113647 144.0
1770.202148 156.0
1777.18457 192.0
1787.982666 236.0
1804.592041 144.0
1807.662476 156.0
1813.641724 184.0
1822.161743 196.0
1837.563354 140.0
1845.951172 160.0
1866.505493 156.0
1888.202637 144.0
1916.171265 148.0
1935.333984 152.0
1937.768799 164.0
1948.454834 148.0
1954.961548 164.0
1955.093628 160.0
1960.879761 204.0
1961.320435 188.0
1978.015137 152.0
