>compound MLS001048978-01!
>formula C16H14O4
>ionization [M+H]+
>parentmass 271.097
#inchi InChI=1S/C16H14O4/c1-10(2)5-7-19-16-11-3-4-15(17)20-14(11)9-13-12(16)6-8-18-13/h3-6,8-9H,7H2,1-2H3
#inchikey IGWDEVSBEKYORK
#Ion_Source LC-ESI
#Instrument qTof
#Compound_Source NIH Natural Product Library
#PI Dorrestein
#Data_Collector VVP/LMS
#Scan -1
#Precursor_MZ 271.097
#ExactMass 270.089
#Charge 1
#CAS_Number N/A
#Pubmed_ID N/A
#Smiles CC(=CCOc1c2ccoc2cc3oc(=O)ccc13)C
#INCHI_AUX N/A
#Library_Class 1
#SpectrumID CCMSLIB00000079923
#IonMode Positive
#UpdateWorkflowName UPDATE-SINGLE-ANNOTATED-GOLD
#LibraryQualityString Gold
#TaskID b1d8e8f6646f4e71acdff9ca3d919d08
##Scan# 2347
#SpectrumFile p1-H12_GH12_01_17968.mzXML
#LibraryName NIH_Natural_Products_Library.mgf
#MQScore -1
#Organism NIH_Natural_Products_Library
#TIC_Query 0
#RT_Query -1
#MZErrorPPM -1
#SharedPeaks 0
#MassDiff 0
#LibMZ -1
#SpecMZ 271.097
#SpecCharge 0
#internalFilename spec-00000.mgf

>collision 10
95.076515 176.0
95.255142 156.0
95.634315 192.0
95.647934 168.0
95.66935 160.0
95.718025 136.0
96.023987 160.0
96.047394 192.0
96.164467 104.0
97.215431 184.0
97.350883 156.0
97.50412 60.0
97.710587 252.0
97.744034 128.0
97.773552 132.0
97.828667 196.0
98.017746 172.0
98.165588 124.0
98.228699 80.0
98.382629 120.0
98.629555 116.0
98.880745 136.0
98.912415 52.0
99.296806 48.0
99.475388 116.0
99.618362 168.0
99.773376 120.0
100.085747 156.0
100.123581 168.0
100.163414 100.0
100.765892 128.0
100.863808 140.0
101.035667 204.0
101.115829 188.0
101.827576 132.0
102.045418 188.0
102.328293 216.0
102.763641 80.0
102.808029 56.0
103.051956 912.0
103.135223 164.0
103.169586 184.0
103.440659 196.0
103.975761 144.0
104.053558 140.0
104.075233 152.0
104.115845 192.0
104.262115 96.0
104.319031 104.0
104.39019 100.0
105.812386 68.0
105.839951 172.0
106.02874 200.0
106.082809 88.0
106.386421 168.0
106.554825 164.0
106.647301 228.0
106.81591 172.0
106.848824 184.0
107.046425 148.0
107.120567 96.0
107.310173 236.0
107.663025 160.0
108.109566 52.0
108.252411 160.0
108.339401 184.0
108.660744 204.0
108.689789 160.0
109.288216 84.0
109.588455 200.0
109.963402 116.0
109.996803 232.0
110.042732 52.0
111.049294 148.0
111.301125 184.0
111.618416 172.0
111.845627 40.0
112.039368 52.0
112.089935 116.0
112.163696 184.0
112.913254 128.0
112.928055 248.0
113.245537 236.0
113.270958 52.0
114.094345 144.0
114.65416 204.0
115.055168 108.0
115.255936 212.0
115.303162 164.0
115.360664 172.0
115.923569 100.0
115.994301 216.0
116.017876 184.0
116.159416 124.0
116.298889 128.0
116.496445 128.0
116.700615 168.0
116.805992 172.0
117.538506 188.0
118.013702 172.0
118.041817 156.0
118.098045 192.0
118.243004 68.0
118.615555 144.0
118.87365 156.0
119.048996 680.0
119.099442 140.0
119.434181 164.0
119.836922 164.0
120.048355 192.0
120.613831 120.0
120.629135 172.0
120.646622 68.0
120.961632 128.0
121.74218 124.0
122.199387 188.0
122.302818 88.0
123.003777 164.0
123.136253 164.0
123.290909 120.0
123.403641 228.0
123.567314 192.0
123.715591 60.0
123.856606 276.0
124.236382 168.0
124.307381 156.0
124.629356 172.0
124.70269 152.0
124.809395 168.0
124.989571 148.0
125.090248 68.0
125.174324 96.0
125.310196 196.0
126.015236 192.0
126.263367 56.0
126.583382 144.0
126.720016 128.0
126.915016 256.0
127.053757 200.0
127.168518 156.0
127.894516 132.0
128.148987 108.0
128.706116 208.0
128.871002 84.0
128.989075 156.0
129.032471 4196.0
129.067642 96.0
129.101562 80.0
129.130966 52.0
129.161133 224.0
129.416107 128.0
130.034683 204.0
130.064484 172.0
130.080368 72.0
131.04834 3632.0
131.167175 192.0
131.382065 60.0
131.459641 216.0
131.612579 108.0
131.74733 176.0
132.051498 644.0
132.364868 84.0
132.449615 188.0
132.536667 144.0
132.64209 52.0
132.976974 208.0
133.028671 172.0
133.088516 176.0
133.135391 120.0
133.850571 152.0
134.708542 68.0
134.858734 160.0
135.06221 152.0
135.080719 152.0
135.557663 216.0
136.811905 200.0
137.527542 232.0
137.560211 152.0
137.585892 108.0
138.352707 200.0
138.626755 192.0
138.964401 232.0
139.241409 172.0
139.840942 176.0
140.517258 140.0
140.562088 196.0
140.923355 136.0
141.36554 196.0
141.905594 136.0
142.594009 240.0
142.662933 160.0
143.205475 96.0
143.26503 104.0
143.405609 100.0
145.025452 448.0
145.042938 168.0
145.215576 168.0
145.325912 192.0
145.546738 80.0
145.655548 164.0
145.9384 124.0
146.036102 428.0
146.465439 212.0
146.496765 168.0
146.522415 160.0
146.590729 180.0
146.663025 124.0
146.771164 108.0
146.803558 152.0
146.847672 172.0
146.884872 84.0
146.956757 200.0
146.989929 176.0
147.043777 31980.0
147.110825 144.0
147.141449 100.0
147.19075 92.0
147.21553 172.0
147.244507 56.0
147.287369 80.0
147.312347 44.0
147.384613 88.0
147.418442 92.0
147.442612 36.0
147.46933 160.0
147.522369 48.0
147.626343 56.0
147.662949 88.0
147.73761 64.0
147.863434 88.0
147.928787 56.0
147.952988 92.0
148.046356 2972.0
148.16127 92.0
148.277573 60.0
148.345444 76.0
148.46936 80.0
148.525146 112.0
148.728714 96.0
148.774841 128.0
148.820969 72.0
148.876816 52.0
148.927811 192.0
148.988541 124.0
149.00798 64.0
149.048767 332.0
149.076019 80.0
149.112473 60.0
149.144073 132.0
149.214569 100.0
149.240479 128.0
149.287506 116.0
149.333725 72.0
149.350754 48.0
149.496719 44.0
149.774277 84.0
149.796204 36.0
149.827866 84.0
150.139877 148.0
150.225235 116.0
150.254517 104.0
150.696426 64.0
150.8284 52.0
151.33725 28.0
153.933899 160.0
154.551865 60.0
155.635056 92.0
156.012695 220.0
156.485397 96.0
157.027145 3044.0
157.190796 132.0
157.248199 48.0
157.402985 52.0
157.567825 76.0
157.632797 168.0
157.940308 180.0
158.028473 612.0
158.055389 204.0
158.193375 148.0
158.333267 52.0
158.350784 60.0
158.373337 80.0
158.897263 208.0
159.042206 2664.0
159.067917 244.0
159.268799 80.0
159.314011 60.0
159.821869 168.0
159.854584 60.0
159.917511 148.0
160.044205 172.0
160.761795 112.0
160.981415 116.0
161.034302 232.0
161.130447 136.0
161.213821 64.0
161.456528 44.0
162.084335 140.0
162.687958 100.0
162.837784 184.0
162.983032 148.0
163.552246 72.0
163.59552 80.0
165.630753 84.0
165.935715 68.0
166.361588 144.0
168.060211 60.0
168.612839 60.0
168.75502 192.0
168.969681 76.0
169.37352 148.0
169.954254 112.0
170.720551 232.0
171.864105 204.0
171.91629 160.0
172.700089 148.0
173.021957 56.0
173.530228 120.0
173.818756 40.0
174.029846 1100.0
174.104889 40.0
174.480637 192.0
174.509567 200.0
174.780487 176.0
174.812057 140.0
174.959457 76.0
175.037277 6796.0
175.544388 60.0
175.689453 40.0
175.742218 148.0
175.829315 48.0
175.890015 96.0
176.040543 852.0
177.034836 176.0
177.26796 208.0
178.055862 104.0
178.077118 148.0
178.332184 148.0
178.920059 148.0
179.029236 180.0
179.823715 68.0
180.611938 68.0
180.949112 192.0
182.032379 76.0
182.782364 144.0
183.471863 252.0
184.170776 168.0
184.554535 144.0
185.020966 1628.0
185.053497 212.0
185.835678 48.0
186.023117 208.0
187.037674 500.0
188.035614 112.0
188.209167 192.0
188.848648 68.0
189.253662 188.0
189.746841 196.0
191.365112 244.0
191.940979 264.0
193.83725 208.0
194.397415 116.0
195.909973 164.0
195.990768 92.0
196.950455 184.0
198.643967 120.0
199.506104 144.0
199.596069 48.0
199.669189 52.0
199.953339 120.0
200.294022 68.0
201.490143 120.0
202.026245 1108.0
202.131973 52.0
202.228195 176.0
202.47168 112.0
202.79184 32.0
202.854187 192.0
202.888214 248.0
202.93924 104.0
202.976105 136.0
203.033539 24716.0
203.083878 132.0
203.187363 100.0
203.22139 84.0
203.370453 72.0
203.439423 80.0
203.532272 56.0
203.577698 76.0
203.637344 116.0
203.670425 80.0
203.867661 60.0
204.037201 2540.0
204.094879 192.0
204.153137 248.0
204.177338 116.0
204.20578 36.0
204.248444 116.0
204.319565 88.0
204.390701 68.0
204.629791 72.0
204.735138 40.0
204.826294 96.0
205.036346 448.0
205.275787 112.0
205.310822 88.0
205.33078 104.0
205.367859 108.0
205.393539 120.0
205.424911 132.0
205.464844 104.0
205.750244 148.0
205.841614 152.0
205.86731 64.0
205.964417 100.0
206.035828 152.0
206.061554 132.0
206.653381 84.0
207.019775 64.0
208.534592 64.0
208.623703 48.0
208.954422 84.0
211.152512 144.0
212.876846 72.0
213.019165 136.0
214.777344 52.0
215.03067 496.0
218.062561 40.0
221.007874 128.0
223.593307 40.0
229.048721 116.0
242.014114 72.0
246.006104 160.0
252.991516 80.0
256.304169 96.0
259.00058 204.0
262.603729 64.0
270.314911 424.0
271.310028 340.0
272.024078 156.0
278.672241 84.0
280.519287 84.0
287.573547 76.0
290.198639 100.0
295.009277 124.0
302.276917 52.0
312.493896 120.0
321.912201 80.0
324.55658 72.0
344.784241 56.0
352.46933 32.0
361.505737 72.0
390.059509 72.0
394.470581 64.0
443.467346 152.0
461.091888 80.0
611.987427 80.0
644.016174 32.0
718.19519 104.0
723.153564 96.0
733.051514 180.0
789.069885 48.0
820.187866 136.0
827.775024 92.0
835.690552 144.0
843.996399 220.0
846.554077 176.0
853.6745 20.0
854.331787 208.0
865.174866 204.0
876.428101 80.0
893.789368 112.0
915.152283 40.0
921.781372 124.0
926.549255 40.0
930.181763 188.0
947.299072 228.0
948.077209 148.0
949.63446 132.0
962.965881 252.0
990.001526 200.0
993.411194 220.0
994.2771 68.0
1010.566528 40.0
1018.408325 52.0
1029.445435 132.0
1030.703857 148.0
1040.760376 108.0
1051.34314 168.0
1052.020874 144.0
1059.78186 180.0
1074.149658 224.0
1079.956543 156.0
1084.435059 108.0
1093.275024 180.0
1098.796875 104.0
1099.496338 68.0
1108.662476 92.0
1111.905518 172.0
1115.206421 72.0
1116.715698 196.0
1117.108154 72.0
1120.583374 160.0
1126.307129 136.0
1127.122192 124.0
1129.28833 252.0
1134.216309 160.0
1138.920044 252.0
1145.074341 140.0
1155.977295 52.0
1156.56604 116.0
1159.010864 52.0
1160.705444 84.0
1162.957886 144.0
1164.825073 40.0
1167.469116 76.0
1169.864136 232.0
1171.512085 168.0
1177.207275 108.0
1177.282471 156.0
1190.279785 92.0
1208.580688 72.0
1217.245361 176.0
1222.765137 184.0
1225.132568 152.0
1226.484497 152.0
1227.502319 192.0
1227.86499 220.0
1228.68811 176.0
1231.312744 120.0
1240.661133 412.0
1240.829346 192.0
1242.091675 184.0
1242.354858 272.0
1251.213257 148.0
1252.304688 68.0
1264.172607 200.0
1264.56189 112.0
1264.731689 144.0
1264.887451 184.0
1268.613525 108.0
1269.148926 176.0
1270.492798 156.0
1277.298218 96.0
1278.984619 176.0
1290.334473 180.0
1294.541748 144.0
1295.272339 232.0
1296.36853 204.0
1298.390137 196.0
1307.068115 148.0
1310.452271 140.0
1311.850464 164.0
1313.314209 172.0
1318.064575 232.0
1318.324707 184.0
1320.001831 100.0
1323.974731 252.0
1325.66272 212.0
1328.011719 84.0
1329.237793 192.0
1333.122803 108.0
1338.906372 124.0
1343.52771 180.0
1345.731812 160.0
1346.644531 168.0
1347.082886 124.0
1348.420044 180.0
1352.193848 80.0
1353.094238 136.0
1353.350586 184.0
1355.152344 140.0
1356.317505 132.0
1357.021362 232.0
1357.446655 168.0
1358.862305 180.0
1362.30542 204.0
1365.267578 156.0
1365.605835 120.0
1370.118286 212.0
1375.641846 144.0
1377.310669 252.0
1378.707153 172.0
1379.46106 172.0
1381.413208 140.0
1381.864502 168.0
1382.175293 168.0
1383.885132 184.0
1387.22644 112.0
1387.419189 144.0
1396.047119 216.0
1397.192627 128.0
1399.604126 148.0
1400.974487 148.0
1403.419067 88.0
1403.620361 132.0
1406.403076 104.0
1407.732056 144.0
1411.774902 76.0
1412.433105 104.0
1418.865845 196.0
1419.008301 152.0
1419.59314 80.0
1419.930664 188.0
1424.336548 108.0
1424.7948 156.0
1434.178589 284.0
1434.547974 224.0
1434.706299 56.0
1434.759033 132.0
1438.727295 212.0
1440.932495 136.0
1446.627197 172.0
1446.687744 104.0
1454.146484 84.0
1462.347412 196.0
1463.367432 204.0
1463.755859 204.0
1466.353638 168.0
1466.74231 204.0
1468.137573 196.0
1469.999023 148.0
1470.250122 128.0
1470.380493 220.0
1474.122559 148.0
1482.341187 112.0
1487.91748 216.0
1488.631592 88.0
1489.077026 112.0
1489.46875 124.0
1490.252319 260.0
1490.321411 52.0
1494.273438 184.0
1497.429565 164.0
1497.845459 60.0
1498.492554 156.0
1499.740967 112.0
1500.966797 176.0
1501.105591 56.0
1504.037354 148.0
