>compound MLS001032279-01!
>formula C26H28N2O5
>ionization [M+H]+
>parentmass 449.208496
#inchi InChI=1S/C26H28N2O5/c1-14-15(2)26(31)33-24-16(3)22(9-8-20(14)24)32-17(4)25(30)27-11-18-10-19(13-27)21-6-5-7-23(29)28(21)12-18/h5-9,17-19H,10-13H2,1-4H3/t17?,18-,19+/m1/s1
#inchikey OCMDUTAXPFPIQL
#Ion_Source LC-ESI
#Instrument qTof
#Compound_Source NIH Natural Product Library
#PI Dorrestein
#Data_Collector VVP/LMS
#Scan -1
#Precursor_MZ 449.208
#ExactMass 448.2
#Charge 1
#CAS_Number N/A
#Pubmed_ID N/A
#Smiles CC(Oc1ccc2c(C)c(C)c(=O)oc2c1C)C(=O)N3C[C@H]4C[C@@H](C3)c5cccc(=O)n5C4
#INCHI_AUX N/A
#Library_Class 1
#SpectrumID CCMSLIB00000080365
#IonMode Positive
#UpdateWorkflowName UPDATE-SINGLE-ANNOTATED-GOLD
#LibraryQualityString Gold
#TaskID b1d8e8f6646f4e71acdff9ca3d919d08
##Scan# 1754
#SpectrumFile p2-G07_GG7_01_18055.mzXML
#LibraryName NIH_Natural_Products_Library.mgf
#MQScore -1
#Organism NIH_Natural_Products_Library
#TIC_Query 0
#RT_Query -1
#MZErrorPPM -1
#SharedPeaks 0
#MassDiff 0
#LibMZ -1
#SpecMZ 449.208
#SpecCharge 0
#internalFilename spec-00000.mgf

>collision 10
94.956291 152.0
95.160049 192.0
95.371796 132.0
95.926567 208.0
96.047707 200.0
96.070877 176.0
96.123558 124.0
96.150879 144.0
96.398903 124.0
96.548981 224.0
96.768593 144.0
96.915497 220.0
96.965103 152.0
97.199821 212.0
97.832703 184.0
98.268257 188.0
98.436035 212.0
98.60791 176.0
98.663261 64.0
99.114532 152.0
99.207687 168.0
99.249321 140.0
99.454422 160.0
99.521156 168.0
99.565086 132.0
99.76355 164.0
99.837112 120.0
99.952492 196.0
100.015511 204.0
100.299034 208.0
100.518417 124.0
100.60025 180.0
100.772003 176.0
101.372299 76.0
101.428421 144.0
101.460495 128.0
101.480545 148.0
101.494583 184.0
101.636993 44.0
101.661079 120.0
101.986443 132.0
102.088974 188.0
102.179497 148.0
102.529869 180.0
102.854599 136.0
103.011162 228.0
103.232414 96.0
103.258705 152.0
103.410446 128.0
103.937592 176.0
104.049194 240.0
104.226601 144.0
104.500191 184.0
104.889168 88.0
105.060577 224.0
105.182907 188.0
105.344231 116.0
105.368744 128.0
105.5159 140.0
105.624283 136.0
105.67543 208.0
105.695892 132.0
105.955925 160.0
106.007149 136.0
106.021492 120.0
106.056335 188.0
106.2491 308.0
106.341446 132.0
106.415344 348.0
106.524193 52.0
106.538574 136.0
106.859299 36.0
106.875755 228.0
107.048668 144.0
107.083679 140.0
107.44648 156.0
108.076653 52.0
108.107697 52.0
108.422478 200.0
108.619453 108.0
108.818687 148.0
109.051025 1316.0
109.072136 180.0
109.517426 140.0
109.563255 192.0
109.734444 172.0
109.938576 100.0
110.05455 136.0
110.29274 196.0
110.312447 172.0
110.358444 84.0
110.40863 108.0
110.818916 132.0
110.833588 52.0
110.852448 116.0
110.957245 28.0
111.486206 204.0
111.549263 152.0
111.732224 140.0
112.066994 160.0
112.387482 112.0
112.733795 204.0
112.765495 144.0
112.799316 144.0
112.985161 164.0
113.05101 52.0
113.08699 192.0
113.22007 140.0
113.377144 184.0
113.648575 220.0
113.854492 208.0
113.903343 140.0
114.060585 60.0
114.469078 176.0
114.920975 96.0
115.014877 132.0
115.29467 224.0
115.596207 128.0
115.664688 132.0
115.743706 172.0
116.063179 196.0
116.157547 164.0
116.228348 152.0
116.436577 104.0
116.485977 240.0
116.505318 136.0
116.670792 192.0
117.053429 264.0
117.067635 148.0
117.21965 188.0
117.387794 64.0
117.495644 56.0
117.538795 84.0
117.964272 164.0
118.064392 340.0
118.126457 60.0
118.15242 188.0
118.696075 56.0
118.993332 208.0
119.058479 172.0
119.078217 136.0
119.508453 120.0
119.530212 124.0
120.083641 124.0
120.144646 120.0
120.231926 168.0
120.310509 132.0
120.39785 160.0
120.618523 144.0
120.905052 48.0
121.040886 324.0
121.093338 96.0
121.237938 192.0
121.512032 168.0
121.595413 100.0
121.922653 244.0
122.059654 1080.0
122.329575 172.0
122.43306 76.0
122.741577 168.0
122.957428 152.0
123.056808 148.0
123.073349 112.0
123.636253 136.0
123.676094 144.0
123.899757 136.0
124.023849 168.0
124.075912 220.0
124.141357 188.0
124.256699 160.0
124.427597 192.0
124.46756 196.0
124.574173 132.0
124.667488 56.0
124.925407 116.0
124.97213 172.0
125.082756 272.0
125.283829 164.0
125.720856 224.0
125.968697 36.0
126.355453 224.0
126.47406 124.0
126.491966 184.0
126.530022 136.0
126.666634 168.0
126.814514 224.0
126.915398 40.0
127.388954 44.0
127.568733 192.0
127.773384 148.0
128.05928 148.0
128.282349 188.0
128.345474 68.0
128.742645 224.0
128.812653 48.0
128.946579 148.0
129.07077 208.0
129.124588 84.0
129.174347 140.0
129.22052 212.0
129.416504 108.0
129.504822 60.0
130.067535 192.0
130.382874 184.0
130.683044 148.0
131.024551 220.0
131.084564 680.0
131.247925 156.0
131.314056 172.0
131.336868 140.0
131.352829 112.0
131.407578 176.0
131.453217 188.0
131.718063 164.0
131.839157 192.0
131.969452 164.0
132.044312 700.0
132.079224 176.0
132.095505 168.0
132.146164 216.0
132.239395 48.0
132.365311 152.0
132.381332 140.0
132.482117 64.0
132.543976 104.0
132.60585 132.0
132.64711 164.0
132.743408 80.0
132.963638 168.0
133.000366 196.0
133.016434 180.0
133.051865 976.0
133.072906 168.0
133.337997 152.0
133.595535 116.0
133.795761 44.0
133.979996 28.0
134.014557 180.0
134.058456 1572.0
134.104431 380.0
134.175888 80.0
134.330414 200.0
134.427307 88.0
134.471161 200.0
134.598129 168.0
134.632767 140.0
134.785233 72.0
134.838394 140.0
135.063614 624.0
135.104309 212.0
135.127441 64.0
135.199173 60.0
135.305649 32.0
135.470078 40.0
135.548859 176.0
135.873474 148.0
135.93129 208.0
136.031281 164.0
136.062164 288.0
136.147369 40.0
136.221695 200.0
136.444794 132.0
136.595963 44.0
137.01033 200.0
137.077911 76.0
137.115189 68.0
137.234085 116.0
137.278381 132.0
137.320358 112.0
137.399857 252.0
137.500015 188.0
137.693802 84.0
137.904068 156.0
137.969528 184.0
138.030319 196.0
138.065399 92.0
138.091125 588.0
138.215103 48.0
138.383636 124.0
138.486679 220.0
138.662399 48.0
138.713974 120.0
138.855438 208.0
138.880447 208.0
138.955521 112.0
139.091629 156.0
139.13858 176.0
139.291229 160.0
139.35231 108.0
139.387558 104.0
140.109894 124.0
140.213577 56.0
140.312576 108.0
140.345581 164.0
140.664093 144.0
140.855362 160.0
141.023117 248.0
141.254852 56.0
141.444153 80.0
141.910858 224.0
142.076889 172.0
142.406845 180.0
142.547012 140.0
142.618301 112.0
142.677734 132.0
142.956039 144.0
143.027435 140.0
143.549194 164.0
143.680389 268.0
143.756744 140.0
144.079559 328.0
144.236801 92.0
144.480728 52.0
144.521469 160.0
144.724854 152.0
145.049881 36.0
145.086197 296.0
145.247314 128.0
145.266495 164.0
145.47287 184.0
145.628952 132.0
145.677002 108.0
145.809158 100.0
145.869247 144.0
145.922134 188.0
145.958206 140.0
145.991867 176.0
146.03244 188.0
146.059799 9236.0
146.103439 80.0
146.138596 88.0
146.215607 136.0
146.23967 120.0
146.283447 108.0
146.307083 72.0
146.470825 64.0
146.593704 220.0
146.709396 136.0
146.801025 152.0
146.880615 140.0
146.919205 196.0
146.989182 60.0
147.018143 160.0
147.067245 8364.0
147.120499 168.0
147.261993 64.0
147.304276 108.0
147.351364 168.0
147.641434 52.0
147.687393 60.0
148.074814 4324.0
148.144897 60.0
148.186081 48.0
148.217575 88.0
148.258896 80.0
148.426041 108.0
148.663773 144.0
148.785141 88.0
148.888641 148.0
148.92598 68.0
148.98671 92.0
149.071045 1244.0
149.103348 200.0
149.258926 140.0
149.288101 68.0
149.546005 64.0
149.611725 92.0
149.689636 72.0
149.847961 60.0
149.989517 92.0
150.076614 456.0
150.099014 228.0
150.264877 100.0
150.316116 80.0
150.728806 216.0
150.760574 184.0
150.958588 236.0
151.014832 204.0
151.090668 108.0
151.266876 160.0
152.510513 180.0
152.783478 132.0
153.391739 56.0
153.522415 140.0
153.813553 288.0
154.065506 368.0
154.117325 136.0
154.547562 72.0
155.072571 116.0
155.132065 116.0
155.682892 132.0
155.871689 136.0
155.901505 164.0
156.082977 160.0
156.267029 192.0
156.334213 56.0
156.483566 84.0
156.8423 184.0
156.924576 188.0
157.054459 140.0
157.110138 148.0
157.15155 172.0
157.311264 160.0
158.00853 224.0
158.057968 364.0
158.064285 244.0
158.072311 384.0
158.101105 220.0
158.278839 148.0
159.072739 996.0
159.128174 208.0
159.156464 204.0
159.179062 48.0
159.307159 196.0
159.38002 84.0
159.702179 164.0
160.07605 2884.0
160.126709 192.0
160.24054 180.0
160.290924 116.0
160.42955 172.0
160.485016 164.0
160.82988 132.0
160.871033 76.0
161.025055 244.0
161.079254 600.0
161.106491 200.0
161.181686 160.0
161.212006 96.0
161.290359 172.0
161.328278 120.0
161.429413 64.0
161.829208 100.0
161.900116 164.0
162.09108 676.0
162.706451 180.0
163.036667 196.0
163.067169 88.0
163.095657 588.0
163.387573 124.0
163.517349 148.0
163.845825 56.0
163.909531 112.0
163.937561 140.0
163.960495 104.0
164.105804 64.0
164.577835 236.0
164.641678 196.0
165.413849 136.0
165.449677 100.0
165.559784 124.0
166.244278 128.0
166.745071 68.0
167.089645 116.0
167.764389 60.0
167.952637 224.0
167.986176 184.0
168.060989 116.0
168.321686 160.0
168.4095 164.0
168.577438 56.0
169.242233 164.0
169.423523 168.0
169.687881 48.0
170.012115 136.0
170.217209 180.0
170.443192 144.0
170.510757 152.0
170.635529 68.0
170.788971 184.0
170.86441 112.0
170.982239 184.0
171.015335 160.0
171.09082 152.0
171.168945 112.0
171.267899 140.0
171.369507 184.0
171.632767 168.0
171.651016 180.0
171.700562 152.0
171.841431 120.0
171.940582 120.0
172.075668 1676.0
172.376709 160.0
172.470795 84.0
172.656433 116.0
172.944229 140.0
173.082794 10704.0
173.162292 56.0
173.206085 28.0
173.282043 52.0
173.300385 68.0
173.407837 48.0
173.468124 92.0
173.517929 216.0
173.542847 224.0
173.628067 152.0
173.696259 52.0
173.801208 108.0
173.866806 72.0
173.890427 212.0
174.087433 1652.0
174.442032 88.0
174.489349 88.0
174.531418 40.0
174.841843 216.0
174.931335 132.0
175.047119 848.0
175.087677 548.0
175.111908 604.0
175.173599 128.0
175.194519 132.0
175.255264 112.0
175.400223 116.0
175.690292 120.0
175.732513 216.0
175.753616 56.0
175.827515 140.0
175.980621 120.0
176.012299 124.0
176.049973 196.0
176.08316 564.0
176.120575 144.0
176.199829 88.0
176.461487 200.0
176.530228 132.0
176.622803 64.0
176.78949 116.0
176.892715 84.0
177.048935 80.0
177.091919 172.0
177.128387 140.0
177.777969 152.0
177.91069 244.0
178.107193 100.0
178.128448 164.0
178.20018 48.0
178.660126 200.0
178.854385 220.0
179.219238 140.0
179.739197 172.0
180.067551 196.0
180.361465 236.0
180.7332 144.0
181.041046 220.0
181.081223 148.0
181.103668 196.0
181.381317 68.0
182.037308 40.0
182.100418 132.0
182.484695 220.0
183.052444 144.0
183.071304 224.0
183.610291 144.0
183.702011 140.0
183.836914 180.0
184.228424 144.0
184.747467 264.0
184.785355 176.0
184.958542 48.0
184.980209 100.0
185.096619 180.0
185.156204 200.0
185.351257 108.0
185.52742 128.0
185.809479 148.0
186.004868 124.0
186.048309 108.0
186.675949 152.0
186.844589 192.0
187.048691 72.0
187.07312 160.0
187.090149 140.0
187.098343 184.0
187.489944 184.0
187.615326 116.0
187.650772 152.0
187.811661 88.0
188.081497 180.0
188.105286 264.0
188.242874 148.0
188.33847 148.0
188.399399 260.0
188.436813 116.0
188.488724 120.0
188.606247 132.0
188.65271 100.0
188.759354 208.0
188.989166 212.0
189.047623 472.0
189.102875 47156.0
189.184189 188.0
189.203796 92.0
189.252258 52.0
189.293732 84.0
189.321808 164.0
189.364166 92.0
189.406998 120.0
189.451813 56.0
189.472824 136.0
189.498398 60.0
189.552017 124.0
189.601669 64.0
189.687485 44.0
189.746735 168.0
189.774307 84.0
189.832809 76.0
189.901367 36.0
189.931534 36.0
189.972687 88.0
190.050537 320.0
190.106781 10040.0
190.24437 36.0
190.274567 132.0
190.302017 76.0
190.373413 44.0
190.486115 72.0
190.508011 96.0
190.573944 88.0
190.601425 88.0
190.766327 80.0
190.80481 40.0
190.968353 76.0
190.993179 112.0
191.030319 180.0
191.117142 7320.0
191.206421 84.0
191.226746 64.0
191.283493 68.0
191.354675 56.0
191.387268 92.0
191.419891 148.0
191.451447 32.0
191.484497 68.0
191.526688 88.0
191.631027 116.0
191.677338 68.0
191.779312 124.0
191.95575 72.0
192.079865 44.0
192.120499 884.0
192.161987 172.0
192.228851 44.0
192.281281 92.0
192.347519 48.0
192.377899 176.0
192.535278 104.0
192.620895 96.0
192.640244 44.0
192.786682 52.0
192.886185 76.0
193.121216 268.0
193.26506 60.0
193.30751 148.0
193.4422 136.0
193.538086 120.0
194.10437 80.0
194.378983 40.0
194.628815 120.0
194.928818 84.0
195.337524 64.0
196.192444 92.0
196.563416 52.0
196.884445 84.0
197.088364 152.0
197.365097 56.0
197.919113 72.0
198.566467 76.0
199.096909 140.0
199.715225 88.0
200.086685 36.0
200.168335 92.0
200.297897 120.0
200.641281 136.0
201.561844 40.0
201.968948 100.0
202.085114 648.0
203.074188 808.0
203.106674 968.0
203.314758 168.0
203.485077 160.0
203.675339 144.0
203.996445 112.0
204.081635 672.0
204.602402 72.0
204.710602 132.0
205.083557 1172.0
205.954086 232.0
206.089661 140.0
207.052399 84.0
207.08963 152.0
207.118271 208.0
208.012924 80.0
210.058929 148.0
213.090042 120.0
213.808289 124.0
213.945099 160.0
214.091751 152.0
214.997345 156.0
216.921936 136.0
217.09787 2184.0
217.129684 788.0
217.200348 148.0
217.294388 52.0
217.402954 52.0
217.470459 148.0
217.755249 44.0
218.057877 112.0
218.099487 380.0
218.12056 208.0
218.20192 124.0
218.42836 88.0
219.084824 128.0
219.182053 80.0
219.494507 136.0
219.518097 148.0
219.544647 128.0
219.688171 176.0
219.857361 72.0
222.17421 112.0
227.267227 152.0
228.126175 116.0
228.417877 92.0
230.912338 84.0
230.992218 224.0
231.101776 3200.0
232.099533 696.0
232.131927 68.0
232.405807 152.0
232.967484 124.0
233.104813 148.0
233.30481 48.0
233.33522 168.0
234.830399 100.0
235.382767 172.0
236.676224 112.0
237.448471 148.0
238.667633 84.0
240.022476 160.0
240.077988 100.0
241.081299 144.0
242.390289 124.0
242.880142 216.0
243.022842 44.0
244.082047 160.0
244.539368 136.0
244.91922 92.0
245.128632 8016.0
245.224579 36.0
245.489578 32.0
245.754715 156.0
246.073074 148.0
246.134445 3572.0
246.351028 104.0
246.651016 56.0
246.68541 112.0
246.747925 68.0
246.832352 52.0
247.001236 76.0
247.082581 124.0
247.140594 404.0
247.267197 36.0
247.721222 80.0
247.805801 32.0
247.971893 68.0
248.065933 68.0
248.142426 140.0
248.853394 108.0
248.975845 124.0
249.079498 116.0
249.881149 76.0
250.866898 132.0
252.825226 92.0
253.848465 104.0
253.9785 80.0
255.547852 76.0
255.770615 52.0
258.467407 84.0
259.095581 724.0
259.181488 44.0
259.55011 80.0
259.912567 96.0
260.09845 144.0
260.185394 68.0
260.545074 44.0
261.126404 180.0
262.121674 128.0
267.498108 72.0
269.61496 92.0
270.22644 136.0
271.123657 120.0
273.096863 52.0
275.893188 136.0
276.946686 56.0
278.127563 372.0
278.683838 80.0
278.856628 40.0
279.126953 232.0
280.12439 120.0
281.218079 76.0
284.122284 264.0
284.287079 152.0
286.021362 132.0
286.132446 72.0
290.597198 60.0
293.031586 136.0
297.275024 100.0
299.864685 140.0
305.651581 128.0
309.886993 156.0
318.850311 88.0
320.155975 40.0
322.031921 184.0
322.310577 168.0
323.179474 116.0
324.5047 92.0
331.218658 136.0
331.312836 28.0
331.765839 92.0
332.030548 148.0
334.898193 76.0
335.827637 108.0
336.889862 88.0
341.004883 180.0
341.229095 232.0
343.589142 100.0
345.932892 160.0
348.187286 68.0
349.179596 124.0
353.110657 140.0
353.237823 204.0
353.33136 128.0
354.96817 144.0
355.181946 120.0
359.248383 128.0
363.163452 96.0
364.275635 40.0
369.506165 108.0
380.296387 180.0
382.153961 112.0
386.113373 48.0
387.074585 180.0
387.115967 220.0
389.150299 168.0
391.308807 76.0
393.690491 80.0
398.01474 144.0
401.046234 72.0
402.738007 88.0
403.101562 112.0
405.174194 132.0
409.218597 148.0
412.369141 180.0
415.138336 212.0
415.649445 112.0
416.290833 128.0
418.568024 96.0
419.280945 160.0
422.457642 92.0
431.228546 28.0
432.163116 92.0
434.387878 44.0
436.847107 212.0
442.69046 220.0
446.18988 156.0
446.980621 160.0
447.313904 128.0
448.307098 92.0
448.345032 100.0
448.382965 72.0
448.42511 72.0
448.737061 144.0
448.800293 112.0
449.091278 128.0
449.141907 140.0
449.208496 3868.0
449.319061 72.0
449.546906 76.0
449.656647 116.0
449.694641 60.0
449.833923 40.0
449.95636 192.0
450.01123 48.0
450.150574 96.0
450.210327 1480.0
450.289948 160.0
450.44516 64.0
450.598297 104.0
450.6828 48.0
450.860291 124.0
451.215973 500.0
451.494446 100.0
451.536743 40.0
452.184052 88.0
452.222137 164.0
452.25177 36.0
452.755585 68.0
452.912323 84.0
452.963135 28.0
453.191925 176.0
453.416504 112.0
453.785309 104.0
454.79068 84.0
456.766541 36.0
459.190125 52.0
482.514343 108.0
484.29541 64.0
498.657379 144.0
524.901001 84.0
550.159058 156.0
563.478271 56.0
569.313965 92.0
570.886963 80.0
583.068298 68.0
587.787659 100.0
599.893555 124.0
611.989929 56.0
646.794556 48.0
674.520447 96.0
686.383728 48.0
718.67218 108.0
720.41803 128.0
731.341003 88.0
833.921021 88.0
840.734253 64.0
868.774658 172.0
891.952942 200.0
924.412903 132.0
927.0047 72.0
932.284302 188.0
933.950134 200.0
944.630981 72.0
948.384521 244.0
987.949036 56.0
989.26947 72.0
1046.695312 212.0
1047.320068 108.0
1051.491577 192.0
1062.861694 156.0
1065.640625 164.0
1082.299072 64.0
1115.950195 48.0
1125.144409 68.0
1126.720459 68.0
1127.555786 220.0
1141.68811 92.0
1150.79834 172.0
1156.842407 224.0
1171.994507 20.0
1174.90564 108.0
1180.91687 164.0
1181.689819 116.0
1198.938965 196.0
1208.136108 152.0
1215.924316 132.0
1220.912476 172.0
1222.582153 124.0
1228.665039 68.0
1234.805054 260.0
1236.253174 172.0
1248.952026 176.0
1249.746948 144.0
1251.379883 168.0
1255.988647 160.0
1268.107666 68.0
1271.036499 168.0
1278.661621 108.0
1287.03772 164.0
1287.473389 140.0
1305.676514 180.0
1307.475098 212.0
1308.274048 268.0
1315.908813 108.0
1316.082153 32.0
1328.189575 168.0
1333.322754 176.0
1334.689331 104.0
1339.796753 136.0
1340.148438 212.0
1346.348755 144.0
1348.445435 164.0
1350.017334 96.0
1350.975464 152.0
1352.029053 176.0
1359.526123 192.0
1364.814941 196.0
1365.77832 148.0
1366.153564 208.0
1366.756836 80.0
1370.983643 184.0
1371.993408 164.0
1375.253784 96.0
1375.763184 116.0
1382.119263 60.0
1387.296143 160.0
1388.786621 216.0
1402.148315 200.0
1405.129517 160.0
1409.012085 164.0
1411.904785 184.0
1413.393433 64.0
1414.074463 168.0
1417.466919 120.0
1420.585815 136.0
1427.142212 136.0
1429.654663 196.0
1436.427979 156.0
1437.189941 96.0
1439.998169 132.0
1441.410889 80.0
1442.181763 172.0
1442.468994 120.0
1443.262817 168.0
1446.167725 32.0
1447.61377 184.0
1448.802856 140.0
1454.179077 128.0
1457.824341 212.0
1469.878784 160.0
1470.573242 156.0
1475.16394 60.0
1477.947754 88.0
1487.189819 136.0
1488.36438 124.0
1489.009521 160.0
1491.506592 152.0
1491.614136 188.0
1491.921631 228.0
1492.413696 92.0
1493.105835 152.0
1494.467285 152.0
1495.206055 164.0
1495.444702 160.0
1496.037354 184.0
1497.42334 116.0
1499.087402 160.0
1500.058472 64.0
1500.33606 200.0
