>compound Glycine, N-[2-[(acetylthio)methyl]-1-oxo-3-phenylpropyl]-,phenylmethyl ester [CAS]
>formula C21H23NO4S
>ionization [M+H]+
>parentmass 386.141052
#inchi InChI=1S/C21H23NO4S/c1-16(23)27-15-19(12-17-8-4-2-5-9-17)21(25)22-13-20(24)26-14-18-10-6-3-7-11-18/h2-11,19H,12-15H2,1H3,(H,22,25)
#inchikey ODUOJXZPIYUATO
#Ion_Source LC-ESI
#Instrument qTof
#Compound_Source Commercial
#PI Dorrestein
#Data_Collector Garg_Neha
#Scan -1
#Precursor_MZ 386.142
#ExactMass 385.135
#Charge 1
#CAS_Number N/A
#Pubmed_ID N/A
#Smiles CC(=O)SCC(Cc1ccccc1)C(=O)NCC(=O)OCc2ccccc2
#INCHI_AUX N/A
#Library_Class 1
#SpectrumID CCMSLIB00000079175
#IonMode Positive
#UpdateWorkflowName UPDATE-SINGLE-ANNOTATED-GOLD
#LibraryQualityString Gold
#TaskID 278b19f5865741e282cec7349aa7e7a1
##Scan# 1971
#SpectrumFile NCP003592_C2_D11_BE1_01_15735.mzXML
#LibraryName NIHcollectionI_05062014.mgf
#MQScore -1
#Organism NIHcollectionI_05062014
#TIC_Query 0
#RT_Query -1
#MZErrorPPM -1
#SharedPeaks 0
#MassDiff 0
#LibMZ -1
#SpecMZ 386.142
#SpecCharge 0
#internalFilename spec-00000.mgf

>collision 10
46.283497 200.0
47.447075 144.0
47.954311 160.0
49.248859 144.0
52.577251 208.0
53.570473 200.0
54.904308 200.0
57.437012 196.0
57.587952 148.0
57.625717 188.0
57.837433 236.0
61.567818 148.0
62.326 200.0
64.58358 164.0
65.043449 176.0
65.719368 144.0
66.468536 152.0
67.031158 180.0
68.579887 144.0
75.987366 196.0
76.004715 196.0
81.651421 140.0
83.3162 160.0
84.393326 180.0
89.404083 196.0
90.292656 196.0
90.406158 168.0
91.05471 5860.0
92.057373 1012.0
92.390724 268.0
94.510956 192.0
94.644508 140.0
94.756844 172.0
96.203758 180.0
96.594589 176.0
101.47657 192.0
104.601898 140.0
107.74157 180.0
108.706429 188.0
109.692261 152.0
111.359909 184.0
115.055321 316.0
115.617233 140.0
115.70713 240.0
117.06958 1408.0
118.073303 216.0
119.055832 168.0
119.075378 140.0
120.080322 156.0
121.086227 156.0
127.053734 172.0
128.06369 204.0
128.281586 232.0
129.044647 184.0
129.070892 376.0
130.072479 160.0
130.488876 160.0
132.057755 204.0
133.043076 152.0
135.388031 156.0
135.645203 164.0
135.700836 228.0
135.969925 164.0
136.729889 160.0
137.041962 1132.0
137.111816 140.0
138.045105 156.0
139.038895 300.0
143.049469 212.0
144.020493 232.0
144.845703 184.0
145.039795 160.0
145.064285 6816.0
146.068314 1180.0
146.093964 160.0
147.075119 136.0
147.333084 156.0
149.038727 140.0
149.505615 148.0
153.678696 172.0
157.065155 2548.0
158.067398 468.0
158.096878 172.0
162.18454 164.0
166.084137 1072.0
167.086288 228.0
167.507202 192.0
168.456482 216.0
172.769287 176.0
173.678253 208.0
173.71759 188.0
174.092468 164.0
175.289825 152.0
175.962418 140.0
177.037186 204.0
178.078079 172.0
179.052429 1472.0
179.085464 312.0
179.547302 156.0
180.053574 456.0
181.046646 424.0
181.101013 364.0
181.896469 152.0
182.54126 184.0
184.012421 156.0
187.149399 144.0
191.053009 1200.0
191.086273 692.0
192.090576 368.0
193.043579 152.0
193.100037 524.0
193.536118 188.0
193.630264 248.0
194.104279 128.0
195.963638 160.0
196.420837 156.0
202.08757 820.0
202.962524 224.0
203.088379 152.0
204.102814 176.0
206.016373 144.0
206.08493 172.0
206.267838 168.0
207.085068 188.0
207.11528 2388.0
207.438599 172.0
207.881134 216.0
208.07608 488.0
208.120575 668.0
208.371063 112.0
209.077026 136.0
209.137299 196.0
209.706467 144.0
210.084213 160.0
213.522385 168.0
215.084076 156.0
216.906387 184.0
217.100922 436.0
217.314026 160.0
218.103973 212.0
219.455215 192.0
220.087097 324.0
221.063004 256.0
222.063416 140.0
223.112946 248.0
229.428452 184.0
233.087646 208.0
235.11145 8676.0
235.16153 184.0
236.077789 596.0
236.114029 1576.0
236.390076 200.0
237.115936 156.0
237.905518 144.0
241.024063 144.0
241.107208 1032.0
242.108414 468.0
242.813339 156.0
243.095123 168.0
268.704712 252.0
268.910278 168.0
269.037598 352.0
269.100616 44788.0
269.276886 108.0
269.360138 212.0
269.532867 112.0
269.578033 172.0
269.834717 180.0
270.103973 7532.0
271.097656 2388.0
271.448944 240.0
271.949432 112.0
272.103363 300.0
275.897125 180.0
278.082428 664.0
279.089996 324.0
280.087524 128.0
280.774841 140.0
281.093933 376.0
285.718842 168.0
287.107666 140.0
290.180267 164.0
292.136383 308.0
293.737427 148.0
298.125977 5008.0
299.128479 1212.0
300.127747 276.0
301.131714 148.0
307.0867 160.0
309.462952 168.0
310.141205 220.0
311.116058 264.0
316.79895 168.0
321.021362 144.0
326.12085 5880.0
326.50412 320.0
327.121887 928.0
328.11853 240.0
328.957825 152.0
342.549133 156.0
343.039246 196.0
343.684723 168.0
343.889374 100.0
343.935577 200.0
343.987091 172.0
344.042633 152.0
344.131927 32268.0
344.277435 128.0
344.578857 100.0
344.800537 168.0
344.90332 100.0
345.136414 4972.0
345.657898 132.0
346.130951 1324.0
347.136444 580.0
347.640289 280.0
347.82019 100.0
349.416351 144.0
367.239075 156.0
368.128296 144.0
377.953552 216.0
385.30191 140.0
386.141052 1268.0
387.140869 464.0
388.160645 184.0
1075.408936 148.0
1225.97229 160.0
1326.287598 196.0
1407.903687 172.0
1425.868774 168.0
1436.711548 240.0
1437.134033 220.0
1459.675903 204.0
1483.558228 164.0
1484.631592 164.0
1491.779785 164.0
1500.756592 176.0
1512.429443 212.0
1534.47583 172.0
1545.198975 192.0
1546.724976 208.0
1584.826172 172.0
1588.171509 192.0
1611.04895 188.0
1612.20752 140.0
1621.050171 180.0
1631.46814 180.0
1634.468018 160.0
1661.404907 200.0
1675.066772 132.0
1678.321777 152.0
1683.70752 176.0
1707.202881 188.0
1709.218262 228.0
1718.958008 160.0
1725.32605 152.0
1735.924072 168.0
1744.05188 164.0
1751.898682 180.0
1761.02417 184.0
1774.932739 200.0
1811.383423 252.0
1813.32373 184.0
1825.871826 164.0
1872.075317 160.0
1933.72583 180.0
1963.227173 156.0
1995.431396 172.0
