>compound MLS001142947-01!7-[2-[(4aS,8aS)-4a-hydroxy-1,3,4,5,6,7,8,8a-octahydroisoquinolin-2-yl]-2-oxoethoxy]-4-methylchromen-2-one
>formula C21H25NO5
>ionization [M+H]+
>parentmass 372.181
#inchi InChI=1S/C21H25NO5/c1-14-10-20(24)27-18-11-16(5-6-17(14)18)26-13-19(23)22-9-8-21(25)7-3-2-4-15(21)12-22/h5-6,10-11,15,25H,2-4,7-9,12-13H2,1H3/t15-,21-/m0/s1
#inchikey NSGJNGNQTQMOBX
#Ion_Source LC-ESI
#Instrument qTof
#Compound_Source NIH Natural Product Library
#PI Dorrestein
#Data_Collector VVP/LMS
#Scan -1
#Precursor_MZ 372.181
#ExactMass 371.173
#Charge 1
#CAS_Number N/A
#Pubmed_ID N/A
#Smiles Cc1cc(=O)oc2cc(OCC(=O)N3CC[C@@]4(O)CCCC[C@H]4C3)ccc12
#INCHI_AUX N/A
#Library_Class 1
#SpectrumID CCMSLIB00000080209
#IonMode Positive
#UpdateWorkflowName UPDATE-SINGLE-ANNOTATED-GOLD
#LibraryQualityString Gold
#TaskID b1d8e8f6646f4e71acdff9ca3d919d08
##Scan# 1825
#SpectrumFile p2-E05_GE5_01_18029.mzXML
#LibraryName NIH_Natural_Products_Library.mgf
#MQScore -1
#Organism NIH_Natural_Products_Library
#TIC_Query 0
#RT_Query -1
#MZErrorPPM -1
#SharedPeaks 0
#MassDiff 0
#LibMZ -1
#SpecMZ 372.181
#SpecCharge 0
#internalFilename spec-00000.mgf

>collision 10
95.016663 176.0
95.047707 132.0
95.075386 396.0
95.523697 196.0
96.003212 252.0
96.084755 140.0
96.174522 184.0
96.192085 156.0
96.356125 132.0
96.426476 112.0
96.655281 56.0
96.700287 184.0
97.066628 72.0
97.111732 36.0
97.262817 60.0
97.64006 120.0
98.938423 200.0
99.065163 252.0
99.565002 120.0
99.877045 124.0
100.291199 172.0
100.337051 52.0
100.512573 112.0
100.734184 148.0
100.918518 220.0
100.998039 168.0
101.250221 152.0
101.839165 192.0
101.896118 176.0
102.043777 284.0
102.189659 104.0
102.435265 180.0
102.497726 180.0
102.945541 124.0
103.054306 3240.0
103.149605 204.0
103.554283 164.0
103.787331 76.0
103.878593 148.0
104.054901 348.0
104.555199 204.0
104.842346 76.0
105.06881 1524.0
105.507767 128.0
105.569107 168.0
106.075081 380.0
106.435905 192.0
107.052803 172.0
107.084114 292.0
107.564117 168.0
107.601273 100.0
107.712791 168.0
107.929794 132.0
108.021095 164.0
108.051819 168.0
108.081596 4548.0
108.113899 228.0
108.18634 80.0
108.403816 164.0
108.548927 68.0
108.685829 192.0
108.878883 64.0
108.943062 156.0
109.088326 1892.0
109.122002 172.0
109.182304 148.0
109.255104 144.0
109.332092 132.0
109.577805 120.0
109.871765 40.0
109.932274 124.0
109.978188 172.0
110.009499 116.0
110.030373 116.0
110.054337 188.0
110.092552 496.0
110.291496 184.0
110.408577 156.0
110.433678 88.0
111.343285 140.0
111.978432 224.0
112.041626 128.0
112.087982 156.0
112.128021 240.0
112.482368 124.0
112.691566 196.0
112.947235 156.0
113.304993 144.0
113.32618 180.0
113.432144 164.0
113.470306 40.0
113.65271 172.0
114.27951 28.0
114.388046 160.0
114.52858 136.0
114.927238 204.0
114.952843 208.0
115.055344 424.0
115.138565 92.0
115.296661 164.0
115.313759 148.0
115.431335 128.0
115.566093 220.0
115.58107 92.0
115.915115 72.0
116.060875 180.0
116.814705 128.0
117.032074 104.0
117.068352 412.0
117.154831 32.0
117.31646 92.0
117.588242 188.0
117.717773 124.0
118.128418 136.0
118.236603 68.0
118.53112 176.0
118.776108 148.0
118.860718 164.0
118.882416 124.0
118.919312 36.0
119.050446 208.0
119.082893 544.0
119.362488 140.0
119.643166 164.0
120.090599 480.0
120.118225 164.0
120.34301 60.0
120.388863 144.0
120.45002 188.0
120.71228 204.0
120.909172 180.0
121.031754 180.0
121.063042 368.0
121.101753 1600.0
121.167549 88.0
121.222328 108.0
121.316574 76.0
121.397697 44.0
121.421822 216.0
121.439369 36.0
121.456917 60.0
121.697464 196.0
121.753212 224.0
122.06752 372.0
122.097084 2368.0
122.179642 144.0
122.29847 88.0
122.437309 64.0
122.465805 72.0
122.690567 140.0
122.869202 208.0
123.09893 464.0
123.162804 72.0
123.297577 132.0
123.538589 164.0
123.569557 36.0
123.965424 72.0
124.034615 64.0
124.073189 200.0
124.105553 180.0
124.265251 192.0
124.836105 88.0
125.176575 160.0
125.281258 128.0
125.426102 160.0
125.620094 196.0
125.646866 244.0
125.731354 88.0
125.794159 164.0
126.106873 144.0
126.270081 68.0
126.377457 92.0
127.04734 220.0
127.110168 68.0
127.390808 140.0
127.51889 236.0
127.536873 204.0
127.674019 148.0
127.797737 192.0
128.491669 204.0
129.289307 200.0
129.359482 164.0
129.774063 192.0
129.864777 140.0
130.193863 152.0
130.357422 140.0
130.648453 148.0
130.828232 176.0
131.04866 2876.0
131.083328 144.0
131.12207 32.0
131.224655 84.0
131.283096 48.0
131.52121 148.0
131.580566 144.0
132.052216 480.0
132.07663 304.0
132.204575 56.0
132.284683 48.0
132.307571 144.0
132.442688 100.0
132.664948 56.0
132.69017 168.0
132.903473 156.0
133.062576 992.0
133.105469 152.0
133.190445 112.0
133.427139 156.0
133.855087 112.0
134.036377 188.0
134.068619 312.0
134.106476 176.0
134.382935 40.0
134.526016 220.0
134.560654 56.0
135.041855 312.0
135.096817 148.0
135.11763 204.0
135.219452 168.0
135.499802 176.0
135.520493 164.0
135.599274 164.0
135.840424 128.0
136.03302 188.0
136.053925 132.0
136.073669 460.0
136.111633 6836.0
136.145874 332.0
136.225769 48.0
136.434921 108.0
136.527924 204.0
136.560486 132.0
136.660507 56.0
136.732651 60.0
136.800156 104.0
136.96196 180.0
137.079071 148.0
137.119751 7308.0
137.185501 96.0
137.378082 172.0
137.630142 72.0
137.713623 192.0
137.744568 140.0
137.821671 160.0
138.081482 228.0
138.126709 5888.0
138.186417 84.0
138.216827 80.0
138.308105 108.0
138.726028 48.0
138.947845 32.0
138.985382 72.0
139.034668 52.0
139.06752 92.0
139.087799 176.0
139.131256 904.0
139.191956 96.0
139.344025 140.0
139.415115 176.0
139.636108 148.0
139.746658 52.0
139.890335 80.0
140.071548 188.0
140.130432 200.0
140.224701 132.0
140.316635 192.0
141.041351 136.0
141.069717 196.0
141.57132 56.0
142.061951 196.0
142.15686 152.0
143.049591 360.0
143.131454 132.0
144.092682 184.0
144.511078 64.0
144.554153 168.0
145.066071 156.0
145.085876 152.0
145.229752 212.0
145.400101 132.0
146.029556 84.0
147.045578 204.0
147.253922 92.0
147.94548 80.0
148.073822 144.0
148.391251 228.0
148.662933 60.0
148.789139 140.0
149.058121 220.0
149.501328 168.0
149.540268 176.0
149.696075 48.0
149.78862 176.0
150.091125 1200.0
150.128006 6904.0
150.160263 380.0
150.208038 64.0
150.376251 104.0
150.901459 120.0
151.09642 352.0
151.134705 2928.0
151.164886 212.0
151.249481 60.0
151.508408 32.0
151.579453 152.0
151.601517 56.0
151.802521 40.0
151.822144 84.0
151.920258 92.0
152.104294 100.0
152.137772 448.0
152.168121 44.0
152.384262 152.0
152.622665 56.0
152.780075 172.0
153.085281 180.0
153.144394 156.0
153.220749 140.0
154.02742 44.0
154.084244 128.0
154.120392 292.0
154.200378 140.0
155.056702 112.0
155.259995 200.0
155.438614 72.0
156.674316 196.0
157.018295 168.0
157.060699 144.0
157.22287 104.0
157.564957 156.0
158.277786 140.0
159.043594 8088.0
159.205795 108.0
159.321503 144.0
159.985062 64.0
160.048508 692.0
160.231873 108.0
160.264618 68.0
160.309982 72.0
160.403229 124.0
160.436005 160.0
160.534332 52.0
160.790207 76.0
161.059204 4104.0
161.140137 64.0
161.178024 92.0
161.261276 68.0
161.408051 104.0
161.443451 52.0
161.494034 84.0
161.554749 92.0
161.736938 44.0
162.062439 804.0
162.124435 148.0
162.809402 184.0
162.883057 60.0
163.070938 148.0
164.048523 124.0
164.071457 152.0
164.106125 1260.0
164.318848 144.0
164.678772 32.0
165.110489 168.0
165.333282 112.0
165.868576 160.0
166.042923 96.0
166.130142 48.0
166.85434 184.0
168.07518 164.0
168.131958 128.0
168.183578 176.0
168.550293 116.0
169.026077 148.0
170.366516 188.0
170.795425 176.0
171.073853 76.0
171.131134 64.0
171.170181 104.0
172.299561 108.0
173.058029 108.0
173.080475 188.0
174.084671 176.0
174.478836 228.0
174.598358 152.0
175.000961 256.0
175.039413 120.0
175.82341 172.0
175.913147 188.0
176.589584 228.0
176.67952 40.0
177.054138 1624.0
177.089813 320.0
177.476715 180.0
177.50589 64.0
177.689285 136.0
177.917145 156.0
177.986176 128.0
178.056519 360.0
178.120972 1964.0
178.174744 168.0
178.235855 52.0
178.395325 104.0
178.546875 172.0
178.730423 164.0
178.807602 60.0
178.874146 68.0
179.017914 128.0
179.084488 72.0
179.131058 7612.0
179.183823 124.0
179.308289 60.0
179.364273 40.0
179.382919 148.0
179.486908 48.0
179.516785 96.0
179.558899 80.0
179.58754 56.0
179.823029 132.0
180.009903 68.0
180.131577 1284.0
180.199554 48.0
180.375931 52.0
180.434738 96.0
180.480194 132.0
180.509613 180.0
180.702194 64.0
181.143921 172.0
181.312714 64.0
181.417252 68.0
181.500366 84.0
181.948425 32.0
181.96991 52.0
182.921585 36.0
182.94043 52.0
183.125168 132.0
183.287857 84.0
184.00531 152.0
186.348053 104.0
186.753098 84.0
186.823822 68.0
186.93396 92.0
187.051392 640.0
187.567245 80.0
187.651749 132.0
187.932678 180.0
188.061981 136.0
188.653687 96.0
188.754852 72.0
188.98735 52.0
189.019394 140.0
189.05423 7744.0
189.137863 128.0
189.282959 48.0
189.450027 68.0
189.48291 56.0
189.704895 32.0
190.056534 752.0
190.09761 252.0
190.473236 84.0
190.599609 68.0
190.679306 96.0
191.039505 84.0
191.061508 140.0
191.097275 136.0
191.123672 216.0
191.510208 132.0
191.614883 120.0
191.794006 164.0
191.873947 48.0
192.097321 36.0
192.445053 76.0
196.065079 200.0
200.101532 176.0
200.766525 48.0
202.080017 160.0
202.394196 144.0
202.513138 88.0
203.006256 192.0
203.091339 188.0
204.062546 152.0
204.093826 128.0
207.204865 60.0
213.538254 124.0
216.070221 192.0
216.102402 136.0
216.169708 52.0
217.049545 764.0
217.10582 120.0
217.18045 92.0
217.391678 128.0
218.049576 392.0
218.084778 144.0
218.116272 348.0
219.123566 140.0
220.120514 120.0
220.203201 208.0
222.792084 140.0
223.226028 60.0
225.031693 128.0
226.17067 132.0
228.000214 160.0
229.75264 124.0
230.084549 280.0
231.088013 148.0
231.584473 88.0
231.908661 72.0
232.098312 244.0
232.392349 40.0
233.77948 56.0
234.078491 1136.0
234.115189 116.0
234.141754 236.0
234.166122 40.0
235.08168 388.0
235.746429 192.0
236.538574 64.0
236.590607 128.0
236.719208 160.0
236.909103 140.0
238.163696 76.0
244.604691 36.0
245.046906 120.0
246.069382 172.0
246.078217 144.0
246.547806 204.0
246.675949 64.0
247.073105 136.0
248.100494 132.0
249.343307 124.0
253.081421 180.0
254.616226 164.0
254.965683 96.0
258.012939 180.0
259.12027 172.0
260.091949 160.0
260.72467 40.0
261.097595 176.0
262.9888 136.0
264.132629 144.0
272.090729 84.0
274.106964 152.0
278.148438 160.0
279.627533 192.0
292.117035 204.0
294.596497 104.0
300.663666 116.0
301.046844 144.0
302.703247 56.0
302.921448 88.0
304.148956 148.0
304.954773 112.0
308.171234 28.0
309.115326 176.0
310.709534 112.0
311.063965 172.0
313.86795 148.0
314.210083 136.0
319.520782 36.0
319.99057 132.0
320.136566 108.0
321.184387 156.0
321.937439 36.0
322.00174 64.0
322.044586 32.0
322.101746 40.0
324.660797 56.0
325.145111 140.0
325.733948 76.0
325.838135 72.0
325.884827 76.0
326.082489 96.0
326.175629 3096.0
326.25058 188.0
326.316132 48.0
326.355682 152.0
326.503723 72.0
326.668579 76.0
326.826874 44.0
327.02478 28.0
327.18161 480.0
327.330811 72.0
328.116272 104.0
328.166748 164.0
328.906281 80.0
329.979187 36.0
332.877869 100.0
334.379272 64.0
336.880615 76.0
337.110779 180.0
339.545288 40.0
343.66156 180.0
343.698456 76.0
345.449677 176.0
352.211304 64.0
352.880219 136.0
353.003632 180.0
354.16864 2844.0
354.362335 244.0
354.424652 76.0
354.755859 84.0
354.868317 84.0
355.055817 84.0
355.174683 740.0
355.303375 72.0
355.532257 36.0
356.166748 196.0
356.197968 248.0
356.268188 44.0
356.388397 92.0
357.174133 164.0
357.46759 60.0
358.687836 52.0
358.763214 136.0
370.778564 32.0
372.647308 80.0
373.150787 116.0
373.20462 204.0
373.931671 112.0
374.220398 124.0
375.249084 124.0
381.246918 20.0
437.920898 76.0
440.929016 88.0
453.530518 128.0
454.33194 72.0
490.476562 44.0
496.204498 124.0
498.025146 124.0
498.345001 128.0
514.865601 132.0
521.180298 120.0
522.194031 152.0
546.930908 180.0
571.835571 112.0
595.3797 60.0
596.210449 96.0
614.213684 56.0
625.805115 80.0
665.818176 20.0
737.413025 120.0
756.204346 92.0
757.321289 56.0
814.138855 52.0
814.348938 112.0
834.268433 140.0
838.833313 132.0
844.977783 124.0
866.443298 156.0
894.77417 220.0
896.024841 200.0
900.247742 252.0
906.720703 76.0
914.69696 44.0
916.461487 152.0
928.860718 204.0
932.67395 144.0
953.116455 188.0
957.816589 156.0
961.873901 180.0
963.522705 132.0
981.553162 148.0
1002.943909 44.0
1015.564209 184.0
1018.242554 108.0
1020.720886 120.0
1020.867188 28.0
1021.051575 76.0
1030.019287 68.0
1031.003174 136.0
1035.55188 144.0
1040.611328 80.0
1044.602173 116.0
1045.715332 136.0
1051.218872 148.0
1057.028076 176.0
1059.494873 180.0
1063.015503 72.0
1067.400146 164.0
1071.181396 196.0
1074.747559 168.0
1079.149658 192.0
1079.476685 152.0
1080.84375 176.0
1081.832031 280.0
1082.061157 176.0
1094.404297 72.0
1097.896729 132.0
1098.252808 112.0
1098.510132 220.0
1100.813477 188.0
1101.830688 68.0
1102.068481 48.0
1104.435181 236.0
1108.57959 216.0
1112.074585 156.0
1114.916992 128.0
1119.001099 208.0
1123.13269 156.0
1123.873291 188.0
1127.38562 188.0
1128.047241 92.0
1133.227905 156.0
1146.396973 204.0
1151.331299 196.0
1157.163574 144.0
1157.705322 200.0
1161.073364 176.0
1164.466797 152.0
1165.363403 220.0
1165.913818 140.0
1170.076538 56.0
1176.143555 92.0
1177.905151 108.0
1178.526855 184.0
1180.454468 100.0
1181.877197 144.0
1182.753174 96.0
1188.571411 176.0
1193.544434 156.0
1194.397217 112.0
1195.325928 188.0
1195.628784 180.0
1196.709473 68.0
1197.274048 200.0
1201.230225 120.0
1201.878784 160.0
1217.030029 212.0
1220.712769 172.0
1226.358765 104.0
1226.902466 204.0
1229.127319 116.0
1231.703369 196.0
1232.101562 180.0
1234.289185 120.0
1235.443115 36.0
1237.374756 136.0
1239.84729 132.0
1247.174438 116.0
1248.573486 108.0
1248.868896 88.0
1249.804565 192.0
1255.418579 176.0
1255.651367 156.0
1257.767944 184.0
1258.608032 172.0
1258.763428 100.0
1258.827026 52.0
1260.656616 216.0
1262.17627 140.0
1265.296509 56.0
1266.507324 148.0
1274.069092 68.0
1274.260864 180.0
1276.606445 196.0
1276.727417 192.0
1278.050415 120.0
1278.961304 184.0
1280.25708 248.0
1282.016602 104.0
1282.529785 128.0
1283.784546 152.0
1287.245483 176.0
1288.152466 156.0
1289.452881 168.0
1292.556519 196.0
1295.520508 68.0
1301.846558 196.0
1302.701172 180.0
1304.677368 196.0
1305.230957 208.0
1307.475342 244.0
1310.110718 144.0
1310.442017 124.0
1315.793457 164.0
1319.362305 232.0
1319.557495 140.0
1329.146973 60.0
1329.705811 156.0
1333.722168 96.0
1334.1875 68.0
1334.492798 156.0
1337.249756 108.0
1338.938843 156.0
1339.281128 84.0
1343.54541 200.0
1344.793213 188.0
1345.786011 248.0
1347.305054 60.0
1350.280029 68.0
1351.00415 128.0
1351.801636 160.0
1356.29834 164.0
1357.896729 200.0
1358.520142 160.0
1360.52356 184.0
1361.771851 116.0
1365.130249 148.0
1365.247925 148.0
1365.917236 144.0
1366.578491 176.0
1366.873657 68.0
1367.432983 92.0
1368.426636 144.0
1371.719604 208.0
1373.813843 192.0
1376.057373 160.0
1377.327515 184.0
1377.379272 180.0
1382.724854 180.0
1383.716675 184.0
1384.553467 204.0
1389.660645 152.0
1394.784668 220.0
1395.00769 228.0
1395.542969 148.0
1399.128906 140.0
1399.411865 144.0
1400.000122 204.0
1404.635864 120.0
1405.650513 52.0
1406.658081 132.0
1407.203003 172.0
1407.255249 124.0
1409.608032 220.0
1410.594604 204.0
1412.77063 160.0
1415.375122 144.0
1415.817017 160.0
1417.644775 168.0
1417.89209 188.0
1422.512329 68.0
1422.700073 228.0
1422.760132 108.0
1427.027344 168.0
1431.504272 192.0
1432.716919 132.0
1434.25415 172.0
1435.181396 120.0
1435.475464 172.0
1435.754517 116.0
1439.074585 216.0
1441.000488 164.0
1444.06958 60.0
1445.151245 144.0
1446.831421 144.0
1446.952515 160.0
1448.194336 196.0
1449.095825 224.0
1451.589478 132.0
1452.765137 108.0
1453.076172 128.0
1454.54834 244.0
1456.461792 172.0
1457.373413 212.0
1458.042114 148.0
1461.081421 248.0
1469.021362 192.0
1470.60083 92.0
1471.75354 180.0
1471.974976 156.0
1473.647705 164.0
1473.922729 164.0
1475.550781 160.0
1477.944702 48.0
1478.939453 44.0
1481.972046 108.0
1483.688721 140.0
1486.012451 156.0
1487.631714 108.0
1487.800659 200.0
1489.251953 64.0
1490.650146 172.0
1491.134277 136.0
1492.725586 236.0
1499.083862 192.0
1502.584351 136.0
1503.448608 200.0
1503.826782 224.0
1504.204956 120.0
