>compound Nelarabine (Arranon)
>formula C11H15N5O5
>ionization [M+H]+
>parentmass 298.114471
#inchi InChI=1S/C11H15N5O5/c1-20-9-5-8(14-11(12)15-9)16(3-13-5)10-7(19)6(18)4(2-17)21-10/h3-4,6-7,10,17-19H,2H2,1H3,(H2,12,14,15)/t4-,6-,7+,10-/m1/s1
#inchikey IXOXBSCIXZEQEQ
#Ion_Source LC-ESI
#Instrument qTof
#Compound_Source Commercial
#PI Dorrestein
#Data_Collector Garg_Neha
#Scan -1
#Precursor_MZ 298.115
#ExactMass 297.107
#Charge 1
#CAS_Number 121032-29-9
#Pubmed_ID N/A
#Smiles N1C(=NC2=C(C=1OC)N=CN2[C@H]3[C@H]([C@@H]([C@H](O3)CO)O)O)N
#INCHI_AUX N/A
#Library_Class 1
#SpectrumID CCMSLIB00000078051
#IonMode Positive
#UpdateWorkflowName UPDATE-SINGLE-ANNOTATED-GOLD
#LibraryQualityString Gold
#TaskID 77f51c88eb8b467eb4a01dd2d0cb90d2
##Scan# 983
#SpectrumFile Plate1_41_60_GG3_01_16490.mzXML
#LibraryName FDALibrary_2_04302014.mgf
#MQScore -1
#Organism FDALibrary_2_04302014
#TIC_Query 0
#RT_Query -1
#MZErrorPPM -1
#SharedPeaks 0
#MassDiff 0
#LibMZ -1
#SpecMZ 298.115
#SpecCharge 0
#internalFilename spec-00000.mgf

>collision 10
45.261082 156.0
46.52718 156.0
48.461147 152.0
49.254143 196.0
50.045124 216.0
50.964531 164.0
51.789127 144.0
52.045837 144.0
54.478764 180.0
55.205429 168.0
57.012344 168.0
57.293724 196.0
59.41465 140.0
59.746494 204.0
60.822067 200.0
62.318218 176.0
62.634438 172.0
66.176987 264.0
66.30172 140.0
66.637619 176.0
67.837181 176.0
68.63623 164.0
69.217896 152.0
70.597466 144.0
70.892105 152.0
73.474205 156.0
76.257095 164.0
77.433067 220.0
80.705353 192.0
81.145813 196.0
83.549576 192.0
84.727333 148.0
86.391632 176.0
88.978493 180.0
91.5578 184.0
92.277206 164.0
93.074295 216.0
94.622604 164.0
95.043205 152.0
95.778099 180.0
96.334053 328.0
96.995483 160.0
99.320366 200.0
99.365997 204.0
99.41362 176.0
102.153015 148.0
102.626305 176.0
107.023674 212.0
107.085457 140.0
109.342262 160.0
110.036423 204.0
110.936035 148.0
112.043571 248.0
113.059242 192.0
114.767181 176.0
115.042412 140.0
115.576736 168.0
117.953278 224.0
120.286331 168.0
120.301613 172.0
120.434814 208.0
121.58429 204.0
122.364655 192.0
123.576378 148.0
124.063629 200.0
124.118874 192.0
125.054359 212.0
126.315086 156.0
127.016228 148.0
127.175537 148.0
130.332809 228.0
131.779694 156.0
131.802551 148.0
133.057724 156.0
133.101349 224.0
133.209305 176.0
134.045181 760.0
135.029404 496.0
135.074219 148.0
135.532639 148.0
136.084671 204.0
140.506027 208.0
145.31459 216.0
146.076172 168.0
146.514313 236.0
146.878326 148.0
146.973541 216.0
147.912567 192.0
148.060257 176.0
148.613312 164.0
148.889694 176.0
149.045654 3888.0
150.049545 200.0
151.050125 580.0
151.828156 196.0
152.051407 164.0
153.043045 272.0
155.655807 168.0
156.481323 216.0
157.438873 168.0
161.179459 248.0
161.74852 192.0
162.539261 176.0
163.731537 140.0
164.465851 172.0
165.07135 140.0
165.811218 172.0
165.941956 164.0
165.998367 140.0
166.072754 23776.0
166.266693 104.0
167.075165 1272.0
167.509659 188.0
168.07341 304.0
168.280777 152.0
168.420227 180.0
170.53978 148.0
178.070541 172.0
190.921021 232.0
199.061234 200.0
209.054382 180.0
212.095703 176.0
212.951675 156.0
217.230972 192.0
224.265945 156.0
237.219986 156.0
255.059891 140.0
257.248596 244.0
258.250122 324.0
264.950806 220.0
275.258118 124.0
279.05835 156.0
280.416565 192.0
294.767517 244.0
296.293549 168.0
298.114471 4716.0
298.314941 144.0
299.118744 152.0
299.157776 356.0
300.117096 164.0
300.208679 152.0
301.213074 196.0
302.402527 148.0
314.210968 204.0
1137.936157 180.0
1299.394043 316.0
1324.373291 212.0
1335.551514 212.0
1357.564819 144.0
1491.477783 176.0
1529.551758 144.0
1534.358398 144.0
1615.152466 160.0
1691.709961 208.0
1712.40271 160.0
1731.481567 236.0
1766.867798 144.0
1784.606812 212.0
1792.763794 172.0
1843.795898 200.0
1883.060303 168.0
1885.090454 160.0
1906.122192 152.0
1912.993286 200.0
1916.747192 200.0
1923.908081 144.0
1928.258179 168.0
1941.127441 196.0
1957.947998 164.0
1992.090942 168.0
1997.673706 192.0
2001.02002 204.0
2003.469238 184.0
