>compound Budesonide
>formula C25H34O6 
>ionization [M+H]+
>parentmass 431.243011
#inchi InChI=1S/C25H34O6/c1-4-5-21-30-20-11-17-16-7-6-14-10-15(27)8-9-23(14,2)22(16)18(28)12-24(17,3)25(20,31-21)19(29)13-26/h8-10,16-18,20-22,26,28H,4-7,11-13H2,1-3H3/t16-,17-,18-,20+,21?,22+,23-,24-,25+/m0/s1
#inchikey VOVIALXJUBGFJZ
#Ion_Source LC-ESI
#Instrument qTof
#Compound_Source Isolated
#PI Sirenas
#Data_Collector Ed Esquenazi 
#Scan -1
#Precursor_MZ 431.245
#ExactMass 0.0
#Charge 1
#CAS_Number N/A
#Pubmed_ID N/A
#Smiles N/A
#INCHI_AUX N/A
#Library_Class 3
#SpectrumID CCMSLIB00000004380
#IonMode Positive
#UpdateWorkflowName UPDATE-SINGLE-ANNOTATED-BRONZE
#LibraryQualityString Bronze
#TaskID d19310cd93df49b68e9fcbec27720eb5
##Scan# 1
#SpectrumFile Budesonide.mgf
#LibraryName fda_library.mgf
#MQScore -1
#Organism fda_library
#TIC_Query 0
#RT_Query -1
#MZErrorPPM -1
#SharedPeaks 0
#MassDiff 0
#LibMZ -1
#SpecMZ 431.245
#SpecCharge 0
#internalFilename spec-00000.mgf

>collision 10
101.023933 170.527695
101.060745 234.401093
101.096977 1.694445
101.465813 5.013889
101.955757 7.337719
105.069809 115.766197
105.277336 7.407407
105.295181 12.38272
105.463028 3.335526
107.048042 25.33399
107.085335 193.658707
107.178253 3.375
109.064072 248.496307
109.101112 115.516098
109.127708 4.394608
111.041962 33.134998
111.076668 54.294472
111.748978 12.09058
112.389862 43.336979
113.059723 93.891197
113.49234 10.44599
115.076202 16.69643
115.561554 7.605556
115.834282 61.87006
116.393227 3.335526
117.052773 65.107269
117.072418 45.081909
118.604454 5.510417
119.083839 267.718201
119.208282 10.13611
119.498825 7.058333
119.986908 4.222222
120.626701 3.341666
120.737984 6.00119
120.951294 6.779762
121.064308 787.302917
121.10128 98.536652
121.18708 27.33333
121.266083 9.666667
121.29673 3.727941
121.496048 2.00463
121.526199 9.219203
121.549904 4.531863
121.576584 18.414419
121.751419 3.791667
122.106941 46.709381
122.468147 9.122549
122.537453 5.401515
122.560562 10.33333
123.078873 301.730896
123.138954 13.72
123.625847 3.047619
124.303688 4.408333
125.061699 42.432899
125.094368 43.397041
127.073547 201.049301
127.263504 19.56517
128.061707 11.85714
128.468964 34.84848
129.050262 106.2472
130.056229 68.950531
130.098495 3.335526
130.344635 12.79167
131.049118 53.7995
131.065948 22.00107
131.085159 303.703888
131.135513 1.708333
131.283569 25.388729
132.057083 170.617798
132.454163 19.005951
133.064285 326.295197
133.098831 250.807205
134.381851 15.9631
134.419281 5.002451
134.435425 10.80952
134.766632 13.45588
135.081741 674.361877
135.115112 99.07296
135.16217 6.177631
135.31218 4.481482
137.060135 209.417007
137.09935 28.59852
137.222855 7.458333
137.265778 11.82315
138.274231 6.347222
138.343796 10.08333
139.074905 550.697327
139.105927 6.333333
139.337509 7.757576
139.541199 4.033333
139.732742 7.208333
141.068542 41.969139
141.08847 275.474091
143.327942 3.025
144.399124 4.333333
145.100952 145.636703
145.211395 3.125
145.578827 4.854167
146.299866 23.213329
146.349579 9.757883
146.383255 3.0
146.429062 13.01071
146.442093 14.86631
146.463715 23.149099
146.475861 2.367424
146.526428 9.614036
146.572723 3.358333
146.859268 13.33611
146.98616 17.29912
147.080307 5438.25293
147.131744 20.15909
147.150131 21.1637
147.205887 3.416667
147.239197 4.898148
147.268494 5.668011
147.279861 8.818182
147.310715 8.074074
147.318909 13.00144
147.330475 11.45581
147.350235 55.464649
147.385574 36.161652
147.428558 7.708333
147.46698 11.35459
147.501083 32.979172
147.51001 3.926282
147.534592 9.117248
147.551483 3.342592
147.578537 38.82814
147.597977 6.681667
147.64447 10.68
147.686752 20.011971
147.730316 14.84058
148.078873 33.497131
148.086487 94.209167
148.131165 19.07184
148.393631 17.680189
148.414856 16.724541
149.019104 10.00595
149.057632 44.737068
149.094971 214.731598
149.136017 32.020828
149.192093 7.111111
149.863602 5.522727
150.840408 4.721491
151.076218 125.084702
152.736679 5.939394
153.086044 75.840523
154.122513 17.8776
154.187195 10.01071
155.071014 596.401917
155.108322 57.620041
155.572632 6.775537
155.81723 18.480261
157.064499 9.422222
157.087418 135.416504
157.098984 106.990196
157.339325 4.0
158.970718 7.272727
159.078842 414.769714
159.118683 9.630073
159.133545 2.0
159.383804 2.670455
160.215881 2.14881
160.232574 4.673077
160.392349 3.640152
160.666656 10.79891
161.057129 16.952921
161.096268 419.5979
161.264969 9.364899
161.534302 5.006944
162.171631 7.395202
162.663773 9.523809
163.073761 763.814209
163.107086 123.728104
163.126511 2.075
163.224899 9.149692
163.543472 10.00079
165.054703 41.777031
165.089279 234.740997
165.418076 42.922482
165.518951 8.558333
165.583099 5.148148
165.709274 16.75
165.963699 11.60333
166.179642 12.02222
166.229248 4.669445
166.255661 9.813406
167.06691 57.783939
167.105865 83.786369
167.785431 9.897988
167.902954 4.083333
169.066681 61.82243
169.083069 148.368805
169.133835 3.335526
169.198166 13.26453
170.050751 19.560341
170.244202 3.773809
170.366699 12.01894
170.716248 16.75725
171.079575 2369.37207
171.132431 9.684872
171.148911 2.041667
171.200638 17.09524
171.237335 13.65676
171.294617 3.857143
171.313156 21.76136
171.339828 10.72185
171.462799 6.095238
171.48558 3.0
171.909515 7.375
172.028137 9.005208
172.166656 33.36496
172.178955 16.1696
172.19429 9.30242
172.215363 42.5116
172.292145 11.59414
172.401001 47.296822
172.548767 8.008333
172.580688 8.02671
172.704102 8.675
172.745255 7.334459
172.873306 6.030303
173.095749 5453.935059
173.153885 34.118919
173.248917 8.388441
173.261887 33.290722
173.346558 10.66667
173.368958 6.25
173.413467 16.89216
173.422592 6.054825
173.450195 13.49135
173.468445 7.668333
173.486588 31.752661
173.513153 11.0947
173.536163 16.865761
173.56813 9.335318
173.584076 8.701852
173.601776 50.119339
173.633286 11.0704
173.720596 22.35854
173.731674 8.218137
173.793915 4.741667
173.939407 3.125
174.101517 48.506142
175.071457 127.1325
175.11348 130.292892
175.319885 3.375
175.35675 4.002451
175.48616 19.37719
177.087662 186.874802
178.555206 12.07419
179.08493 19.00119
179.107224 105.366898
179.167877 2.111111
179.210571 6.334524
181.08757 118.276199
181.928131 10.72024
182.27034 8.041667
183.078003 6.037037
183.099319 81.670174
184.082809 31.659941
184.357513 28.01667
184.916656 18.56517
184.999176 11.20427
185.059647 16.789221
185.095596 418.42041
185.341385 4.387821
185.505539 7.668651
186.734772 4.0
187.075699 127.510696
187.111649 739.076416
187.172653 3.375
187.290924 24.43803
187.327957 13.30029
187.343842 13.58954
187.362839 12.67738
187.415543 11.7619
187.720276 2.678571
188.194031 7.852564
189.089554 35.113091
189.125824 88.451714
189.143219 10.71902
189.460678 3.640152
191.099731 5.375
191.174881 11.125
192.497543 11.34375
193.087936 12.92607
193.285065 11.00595
195.074829 70.470673
195.097015 67.875
195.107147 19.48159
195.121292 11.67361
195.938858 5.458333
197.095932 456.689606
197.114944 81.403763
197.153152 14.66667
197.24704 1.666667
197.344772 3.011905
197.760468 18.003469
198.010117 2.083333
198.611877 14.64628
199.071411 20.614771
199.111008 469.790985
199.217514 9.426724
199.481308 6.333333
199.58078 12.87615
199.648987 5.865196
199.771317 14.50785
199.78566 3.708333
201.090546 180.206604
201.127045 159.450394
202.158661 9.826923
203.105774 105.0634
204.148453 60.21706
206.223053 6.708333
207.114532 19.04344
208.18988 32.770828
209.095383 470.232513
209.12822 99.373222
209.496536 7.987319
209.930786 51.604759
210.044968 3.926282
211.074341 62.485409
211.110489 688.518127
211.197662 6.916667
211.265945 1.666667
211.290924 8.388158
211.356979 12.35227
211.531509 4.333333
211.716187 26.28734
212.182175 10.00658
213.091705 112.113602
213.128113 448.370087
213.212128 7.075617
213.354568 9.739865
213.990082 17.17452
215.067184 10.90675
215.104492 63.539131
215.493958 4.677083
217.085129 53.926868
217.12265 77.892273
217.213303 7.334459
217.282715 14.01667
217.312531 8.775641
217.505692 10.08333
219.076965 17.03788
219.094086 47.482471
221.093994 304.933594
221.132141 32.714291
221.401901 6.25
221.945618 12.72803
221.967377 10.37255
222.516083 6.344048
222.931442 9.107527
223.111938 981.133118
223.156784 8.136111
223.187485 20.09486
223.290161 11.73016
223.342041 13.12821
223.523819 8.214286
223.594208 7.458333
223.846909 44.48378
223.898636 4.120098
223.966309 4.017857
224.000412 12.46371
224.049637 6.801667
224.803391 11.64444
224.900421 6.558333
224.983932 9.711021
225.091736 175.611893
225.127411 3397.48291
225.193893 16.116501
225.211288 5.857143
225.248322 5.722222
225.286621 11.82738
225.421463 37.981628
225.483902 6.666667
225.51561 8.284091
225.635544 8.921875
225.698914 12.07419
225.722687 6.453703
225.844666 51.650581
225.865509 21.09857
225.902115 22.42667
225.927597 28.259621
226.001373 12.03261
226.190598 25.256519
226.208008 11.04167
226.229797 5.808731
226.27272 20.35264
226.315277 10.3344
226.427536 23.72205
226.734161 8.667792
226.831085 9.708333
226.891068 8.755435
227.032852 5.666667
227.074997 14.80682
227.110367 75.080223
227.142914 2889.273926
227.310043 17.207581
227.355209 21.01473
227.384186 5.686403
227.437012 41.124378
227.462952 8.081667
227.486649 12.74484
227.52356 8.761905
227.564072 19.339279
227.583496 11.384
227.628387 11.05887
227.656433 20.930799
227.683304 2.695513
227.784897 7.185606
227.827576 26.24441
228.201813 19.7815
228.523972 6.001984
229.085175 83.349861
229.108139 2.336539
229.123871 8.188811
229.154648 96.652924
229.270706 4.59375
229.642487 25.809521
229.954956 7.080883
230.022583 32.528992
230.769638 13.86111
230.801529 2.375
231.099869 81.115227
231.13121 24.731741
231.441483 4.335318
233.097321 79.759499
235.111816 326.320801
235.154648 17.51894
235.401199 3.34375
235.769592 4.427083
235.78894 5.347222
235.908707 6.520061
235.994049 16.803419
237.088257 147.122894
237.126007 1049.854004
237.173996 9.378968
237.278427 3.375
237.305573 2.386905
237.367111 17.440479
237.380249 3.080128
237.423126 7.375
237.49762 4.066667
237.680328 18.32299
237.784363 4.761905
237.841431 3.688725
238.254669 4.347222
239.10939 266.197998
239.1427 1371.043945
239.206146 7.001437
239.269318 48.90477
239.389114 2.333333
239.45372 3.678571
239.647552 6.775537
239.70372 19.526779
239.827805 28.48704
239.863022 8.049797
239.893677 3.148809
241.083557 20.587299
241.118881 135.953293
241.158325 678.194519
241.364594 24.076811
241.442123 29.32436
241.493454 5.633333
241.541595 11.8442
241.746048 17.111111
242.391205 3.670455
242.662201 5.88587
243.139236 339.214386
243.20433 3.011905
243.351166 23.388161
243.685165 6.893518
243.981308 4.157052
244.123001 21.00054
244.257187 4.823718
245.129807 41.805759
246.705292 12.40351
246.896606 9.676802
247.101913 55.003571
247.114227 148.036896
247.151215 34.832909
247.312302 19.185699
247.684952 8.380952
247.766434 24.66964
248.288773 10.42672
248.453796 14.39126
248.864609 6.453703
249.085373 17.46558
249.126663 620.900208
249.15625 59.677299
249.205765 2.083333
249.362778 5.120098
249.386322 12.77778
249.434174 5.208333
249.560745 2.449074
249.725021 12.34167
250.022659 13.65333
250.330414 2.35
251.141754 568.167725
251.34317 14.30183
251.387985 10.37862
251.770523 17.64706
251.956802 18.75
252.111282 24.785179
253.124451 192.617401
253.15741 511.647888
253.222946 8.001811
253.259384 7.510417
253.279099 3.027778
253.353058 16.099211
254.287003 14.35756
254.447968 4.844298
255.137833 227.733093
255.175247 133.338898
255.522552 12.41554
255.717468 12.79167
257.153503 86.296669
257.486115 10.04167
258.207123 9.186728
259.091827 7.345238
259.115509 40.1381
259.147461 18.847891
259.442352 30.670139
260.108185 22.40766
261.127411 642.029419
261.167389 37.04208
261.210541 11.68056
261.268707 6.408951
261.295807 6.201666
261.471191 6.672222
261.510895 18.58333
261.710327 16.16667
261.776031 25.66231
261.808807 17.51029
261.842133 17.170139
262.004395 15.0194
262.186096 2.0
262.589874 44.165722
263.106812 247.889404
263.143097 3327.314941
263.212311 6.382936
263.233795 4.361111
263.296082 63.972382
263.330872 10.80474
263.356201 18.92906
263.387207 48.391899
263.420563 44.41399
263.438293 8.068182
263.492706 13.49691
263.517914 60.750641
263.569824 32.11607
263.692291 9.007353
263.732758 3.518939
263.82251 33.66993
263.890259 25.894171
263.971558 63.972832
264.117554 325.395813
264.908264 4.69697
265.158691 2332.741943
265.197266 34.365082
265.236786 6.333333
265.349548 4.190476
265.40033 43.654911
265.44574 16.79594
265.468475 7.177631
265.539032 3.482143
265.559814 5.133333
265.594421 47.61562
265.644623 12.15278
265.673309 31.526621
265.789368 16.379499
265.820709 18.34409
265.849731 15.5
266.251923 9.004167
266.348816 20.166969
266.371155 19.33333
266.416565 3.025
266.541504 9.046875
266.659851 15.24537
266.711914 3.695513
267.137543 330.488708
267.174927 1681.260986
267.232513 4.733333
267.252747 9.027451
267.308838 10.25397
267.404633 23.46377
267.505493 22.858841
267.52774 20.502979
267.692993 19.185261
267.853302 25.067209
267.938293 7.280303
267.991791 11.01136
268.470398 6.335145
268.714172 6.963235
269.152802 539.003418
269.52652 37.1465
269.725891 7.0
269.806946 11.77885
271.163208 8.081897
271.419769 2.333333
271.547852 37.720242
271.832581 7.34248
272.113068 65.374039
273.143372 14.46371
273.630829 4.694444
273.763428 6.615
275.141174 486.762299
275.188782 25.00004
275.462616 2.669444
275.869629 9.557099
275.903046 12.27417
275.931793 13.57121
276.522644 5.42803
277.120209 267.645905
277.15863 2745.143066
277.233459 6.510965
277.256348 3.4
277.279907 15.81081
277.301544 5.414216
277.330475 46.837238
277.349701 8.777778
277.366791 7.736842
277.441437 16.757879
277.46286 23.66231
277.500092 17.390869
277.576874 29.430269
277.600433 8.801667
277.662323 15.56215
277.707581 8.722222
277.795807 10.66848
277.836304 5.041667
277.888489 7.692073
278.469452 13.96296
279.09024 5.001667
279.136932 881.755371
279.173859 984.895874
279.229584 2.053571
279.280579 11.60606
279.332306 4.893518
279.47113 14.55147
279.520477 7.757883
279.549561 9.001437
279.566711 29.02273
279.607574 28.74189
279.661194 12.3588
279.710083 23.181089
279.733917 26.11145
279.764832 14.97222
279.805573 14.68883
279.924652 14.87907
279.956879 11.72803
280.084961 5.840278
280.188934 286.234314
280.288757 5.068182
280.861053 5.522727
281.153717 1471.126953
281.22287 14.5625
281.26059 7.263889
281.294312 16.851851
281.355591 12.33468
281.372437 14.76875
281.392487 5.075
281.422394 26.18803
281.537018 16.574631
281.595062 28.259939
281.702942 14.58333
281.881042 18.01462
281.910248 4.673077
282.163757 83.795891
282.188232 46.596661
282.961914 8.868506
283.132019 100.608101
283.169952 1184.741943
283.242096 2.408333
283.308044 8.443714
283.337738 4.005952
283.581848 5.002778
283.659454 3.36218
283.70047 10.36905
283.865997 17.111839
284.463318 4.225
285.261292 5.001437
285.494476 3.640152
285.902527 9.122475
286.097473 17.037359
286.148285 65.444031
286.217133 2.0
286.255157 7.351852
287.142395 784.786682
287.287109 20.122549
287.356079 18.117849
287.398163 12.39587
287.451324 4.362179
287.547516 3.640152
287.681549 9.533334
287.737579 21.455681
287.819153 39.558929
287.893951 9.375
289.158691 1226.676025
289.225861 3.669872
289.260406 5.002778
289.371643 22.54167
289.454224 13.76179
289.478516 13.95667
289.519348 9.469697
289.649597 3.010417
289.678375 17.875
289.756165 6.333333
289.850952 5.840278
289.89325 10.29643
289.916077 11.69345
290.795593 9.401667
291.13205 28.66815
291.172546 59.07206
291.291321 9.480073
291.404541 9.415
291.438385 18.540489
291.476044 11.82315
291.744873 24.44643
292.14505 36.97744
292.540161 2.683333
292.96286 16.96324
293.117249 4.802778
293.154694 1248.516968
293.236755 6.408951
293.270721 5.964285
293.361664 34.879238
293.391663 20.32206
293.416473 48.268009
293.457123 28.0
293.481628 13.92004
293.506104 3.888889
293.559113 11.26667
293.677765 5.378623
293.69696 18.445101
293.767212 8.666667
293.815216 10.15147
293.844879 35.291229
294.00592 24.5
294.192139 27.30575
294.680206 20.047729
294.721008 8.606061
295.050659 2.733333
295.12912 197.388794
295.169037 4681.124023
295.236267 8.011363
295.259491 14.24242
295.296783 30.717751
295.343262 20.838751
295.377319 38.482601
295.395752 7.333333
295.449036 26.547621
295.50708 12.72795
295.544403 35.086601
295.581116 8.385684
295.616791 23.32361
295.711609 21.16346
295.744171 12.76344
295.983521 5.334677
296.306824 14.06136
296.426605 6.482143
296.490417 22.92857
296.570251 19.357531
296.589722 24.166849
297.144257 218.584305
297.183929 320.578613
297.493744 10.7631
299.160156 106.352402
299.943542 10.75556
302.125916 23.000441
303.13739 147.351807
303.340271 4.973485
303.361725 8.74359
303.461182 25.79377
303.700165 5.339285
303.736542 5.76923
303.784943 28.253969
303.815338 2.336539
303.900269 13.00076
304.076141 7.667635
304.094543 14.45687
304.251801 4.367424
304.349213 13.11177
304.380402 3.053571
305.078278 72.010117
305.113922 57.174099
305.153534 5476.375977
305.233612 57.171711
305.287109 19.32847
305.314575 11.52365
305.33786 64.844597
305.391083 3.125
305.414459 14.93845
305.44043 14.78571
305.471497 5.016667
305.534973 48.657318
305.56427 25.70752
305.650635 17.1201
305.690491 29.16531
305.755829 8.041667
305.780029 69.158653
305.881653 9.888257
306.185974 30.886259
306.506104 4.483333
306.756866 8.688725
306.885254 16.543329
307.114227 30.826799
307.129913 54.906261
307.16983 4015.876953
307.244934 12.00459
307.267273 3.933333
307.360626 16.321341
307.38147 32.778969
307.421906 15.83114
307.491638 12.89423
307.528137 49.364349
307.574493 25.3391
307.591461 6.037281
307.666779 25.52393
307.707153 9.160714
307.856567 10.23438
307.918884 12.50694
307.984772 29.68878
308.282532 3.440476
308.345215 8.307693
308.592682 22.722811
308.911987 6.801667
308.942841 12.92014
309.144012 52.814491
309.315369 6.416667
309.414734 9.208333
309.431915 20.266821
309.73822 11.14682
309.982727 13.67262
310.693817 7.333333
311.10553 25.597389
311.162201 519.715576
311.276764 17.13611
311.380737 13.66759
312.208557 12.16253
312.315521 2.816667
313.179047 1011.55603
313.280792 3.0
313.403961 14.57992
313.447784 4.675
313.471741 22.05665
313.605042 4.347222
313.632416 12.30682
313.657349 6.265351
313.705139 16.391081
313.743073 6.98077
313.76712 3.42803
314.310059 15.83712
315.210052 17.30682
315.97821 12.74242
316.608795 25.04932
317.186676 24.55032
318.499451 13.12927
319.163391 41.506229
319.204071 94.053787
319.301422 2.816667
319.448303 23.87756
320.956451 5.358974
321.089172 6.041667
321.147247 481.905701
321.195312 108.848297
321.232361 14.43301
321.270142 31.116949
321.312958 53.993092
321.330688 5.003788
321.381104 15.165
321.437347 18.90432
321.465424 13.3869
321.484314 75.418243
321.516357 18.23214
321.536224 6.408333
321.585052 26.71171
321.736115 44.71666
321.791901 13.56199
321.857727 36.60667
321.972046 67.293053
322.008362 25.63201
322.066437 37.702709
322.165558 14.77193
322.216644 4.017857
322.391693 49.0
322.420776 25.74856
322.785187 10.15
323.028992 11.34015
323.090118 26.723289
323.164093 17891.910156
323.237823 145.323196
323.260956 81.351578
323.291962 86.663818
323.316406 67.627998
323.342316 124.005898
323.364777 40.14859
323.398163 75.599632
323.434357 99.081306
323.462952 70.373756
323.509796 15.57381
323.522919 47.688011
323.549042 90.953796
323.567596 70.321274
323.592865 41.794788
323.659302 67.367523
323.70282 49.452419
323.858978 52.08004
323.913879 39.14323
323.993408 4.4
324.101898 46.362949
324.218811 7.148148
324.683411 18.97043
324.794647 5.480072
324.819702 4.669117
325.001709 21.513359
325.120728 7.033602
325.144318 37.56213
325.179779 5146.587891
325.258759 17.770201
325.315094 9.62963
325.440735 6.007576
325.562103 35.881981
325.59137 28.82753
325.613525 17.60288
325.705994 36.123539
325.722687 9.011905
325.763367 82.73925
325.801727 4.541667
325.823669 8.375
325.85321 8.779761
326.150757 73.129807
326.225586 18.85417
326.742981 6.080883
326.885773 5.030303
326.924469 12.57615
327.068207 2.666667
327.198792 248.292404
327.294739 12.54459
327.452148 10.32143
327.515076 7.386905
327.607513 14.70588
327.81778 4.746795
327.864197 10.75556
327.911835 5.668104
328.258392 10.39951
328.466431 7.724359
328.908264 15.93817
328.946167 12.17926
329.166656 20.00219
329.217194 1.720238
329.248718 11.33667
331.208191 27.097219
335.160339 64.503143
335.200073 50.12587
335.375061 13.49709
335.403015 6.933333
336.960999 7.613636
337.002777 33.388069
337.052521 2.375
337.180115 4.680556
337.209015 53.143169
337.25116 8.347222
337.373016 15.86786
337.832214 11.22866
337.960114 19.39423
339.063995 16.96221
339.083405 5.041667
339.112244 5.708333
339.15863 1126.94397
339.208374 23.917271
339.229828 14.05506
339.276154 7.226852
339.317413 42.064819
339.387695 27.118179
339.460907 36.222561
339.493866 70.716591
339.52356 6.708333
339.573639 28.170469
339.69043 19.842859
339.798065 4.666667
339.904419 14.53104
340.036346 23.33523
340.138397 7.347222
340.299103 12.40653
340.369049 5.884804
340.413055 13.64706
340.645081 13.8776
340.995117 4.5
341.119232 12.12121
341.142975 30.749359
341.175171 8806.678711
341.253204 85.633682
341.281921 15.32381
341.314331 35.185009
341.340851 56.037819
341.386475 33.2258
341.419342 37.23045
341.46225 67.011978
341.495178 20.671721
341.520569 10.63426
341.554443 25.559759
341.588501 9.148809
341.61972 62.834339
341.682983 21.04031
341.713593 27.334261
341.797363 47.141121
341.883789 27.984329
342.003448 29.66667
342.075226 3.625
342.277863 27.56028
342.355164 7.386905
342.52002 19.36381
342.597198 39.92033
342.662903 5.444445
342.832184 16.02696
343.082947 10.96014
343.151489 6.833333
343.190857 1559.937988
343.372589 11.14881
343.430054 22.80076
343.450439 45.35358
343.478729 6.469444
343.528229 26.835529
343.553772 14.8742
343.637329 11.71795
343.689362 3.857143
343.736298 8.401667
343.813629 13.69099
343.838165 7.972826
344.2323 13.15
344.321259 14.20455
344.487732 15.84052
345.219452 3.458333
345.464813 8.166667
346.171967 18.01827
346.798096 7.338542
347.192139 8.722222
349.219513 71.121803
350.176086 39.26572
353.173553 55.182388
353.208649 93.15873
353.808319 4.347222
354.137878 7.495968
357.172821 68.912064
358.24234 8.45
359.194885 131.391296
359.981873 10.60093
360.060486 16.33333
361.018677 12.65476
365.211639 175.3535
365.414673 3.335526
366.173187 5.76923
366.787109 31.369101
367.225037 173.701202
367.339172 6.201666
367.814117 11.11574
367.969482 3.208333
368.55365 6.00926
369.208801 27.157579
369.432526 23.2124
370.11142 12.68003
374.818207 4.531863
374.837921 5.522727
376.160614 11.40789
377.211609 759.969971
377.307343 15.70399
377.361389 8.720239
377.462799 17.336109
377.503326 7.360043
377.557587 12.40833
377.658173 7.006945
377.711517 5.823718
377.773743 5.688889
377.82785 6.742284
383.082001 14.52632
383.495361 6.338889
385.234497 212.319794
385.35498 4.560185
385.664978 2.6875
392.658539 4.683333
392.785492 20.10965
392.912445 32.8284
393.126984 5.678764
393.444336 2.333333
393.502045 4.761905
393.527405 7.656609
394.703461 13.81349
395.221497 2915.445068
395.301056 11.05556
395.358093 20.631821
395.402069 20.218399
395.465454 53.377762
395.503448 13.41588
395.545624 35.955479
395.579712 6.840278
395.654541 6.5
395.753784 27.698839
395.822937 32.06443
396.07782 9.719017
396.095337 36.22438
396.142761 10.70029
396.174164 3.094697
400.534821 10.56048
404.191864 10.43219
406.822449 12.08333
407.478302 30.496731
408.05484 8.357142
409.948944 13.15
410.324158 13.34299
410.412048 58.72707
410.488708 28.58938
410.522614 88.335243
410.553406 6.674242
410.605774 23.455811
410.629883 73.432907
410.667603 86.269073
410.696655 86.059883
410.731476 132.907898
410.771057 3.518939
410.797668 104.401703
410.84845 96.002647
410.88797 24.54167
410.955719 77.022888
410.976776 87.555939
411.008179 12.45833
411.033295 22.923519
411.056488 14.30682
411.103241 71.413918
411.223267 4.008333
411.253754 5.075
411.345398 8.12037
411.375 46.76329
411.573517 41.127441
411.612305 101.665802
411.772583 221.861404
411.920624 36.505409
412.008392 44.9884
412.042389 31.4203
412.153931 5.260417
412.182709 176.176193
412.275146 19.102079
412.310455 10.68
412.352997 10.5098
412.439789 30.015791
412.552002 19.345341
412.86145 16.4662
412.898376 16.423941
413.12027 48.640411
413.154266 24.309521
413.233368 54367.199219
413.50824 171.061295
413.574402 60.517948
413.670227 247.9776
413.70459 20.96419
413.733307 119.949699
413.812073 54.191399
413.861847 140.784897
413.896606 82.134911
413.936737 70.895287
414.014801 85.46138
414.058075 130.916199
414.096283 95.704918
414.124969 63.910801
414.190063 119.061996
414.297943 111.969597
414.33429 83.754227
414.383514 91.114082
414.4245 84.558632
414.446381 34.710541
414.475555 70.761353
414.576721 52.237492
414.679626 10.68333
414.713623 44.888351
414.756287 5.15
415.169739 48.950989
415.481293 13.01965
415.640778 7.791667
415.689453 29.51054
415.764923 5.444445
415.808624 20.61603
415.857147 5.720238
415.930206 9.783334
415.97052 26.154449
416.001068 24.96258
416.032013 21.401779
416.102539 13.4537
416.134033 13.85227
416.396484 11.01235
416.552673 7.041667
416.76767 5.787037
416.799835 16.96759
417.362366 10.34028
417.547302 8.802928
417.582855 4.382936
418.279846 12.74423
418.834991 2.0
419.205292 8.681818
419.657715 11.66667
419.908966 14.96491
421.0849 6.884804
421.28775 12.7821
423.046143 6.748333
425.019745 6.041667
428.228119 3.666667
428.401154 2.027778
428.458527 9.171748
428.487335 9.082317
428.535767 41.420151
428.559082 10.07562
428.590576 17.948721
428.632385 36.676899
428.685913 17.654409
428.718048 30.23472
428.75116 21.055071
428.782654 11.3652
428.811432 9.773936
428.958862 35.75082
429.186127 30.927891
429.339844 44.824451
429.914001 6.708333
430.160156 11.57143
430.462738 16.133329
430.686523 10.69253
430.773438 27.315821
430.934357 6.906746
431.170593 70.403954
431.243011 9942.880859
431.3302 68.556778
431.3703 90.936172
431.405579 45.979462
431.45459 56.945671
431.497681 26.6875
431.546326 26.89501
431.589539 45.01001
431.635986 24.682171
431.69043 153.802597
431.739014 43.171181
431.784515 33.276852
431.969299 36.483971
432.033661 117.046898
432.066406 16.70833
432.35022 15.18015
432.609131 5.019737
432.804016 25.065121
432.884125 11.4375
433.119873 22.922621
433.144775 20.00046
433.760376 12.15705
434.224487 26.89831
434.521576 4.362179
435.058289 7.375
436.104462 7.948333
436.416534 5.013889
453.165894 7.028153
484.980682 25.398439
493.351257 4.002451
1313.586182 12.69338
