>compound MLS001077315-01!
>formula C17H21NO3
>ionization [M+H]+
>parentmass 288.161
#inchi InChI=1S/C17H21NO3/c1-3-11-6-5-7-12-13-8-9-21-17(4-2,10-14(19)20)16(13)18-15(11)12/h5-7,18H,3-4,8-10H2,1-2H3,(H,19,20)
#inchikey NNYBQONXHNTVIJ
#Ion_Source LC-ESI
#Instrument qTof
#Compound_Source NIH Pharmacologically Active Library
#PI Dorrestein
#Data_Collector VP/LMS
#Scan -1
#Precursor_MZ 288.161
#ExactMass 287.152
#Charge 1
#CAS_Number N/A
#Pubmed_ID N/A
#Smiles CCc1cccc2c3CCOC(CC)(CC(=O)O)c3[nH]c12
#INCHI_AUX N/A
#Library_Class 1
#SpectrumID CCMSLIB00000085429
#IonMode Positive
#UpdateWorkflowName UPDATE-SINGLE-ANNOTATED-GOLD
#LibraryQualityString Gold
#TaskID d252d724072548979f1f6f1ced849daf
##Scan# 2192
#SpectrumFile p4-A09_GA9_01_18333.mzXML
#LibraryName Pharm_Active_Library.mgf
#MQScore -1
#Organism Pharm_Active_Library
#TIC_Query 0
#RT_Query -1
#MZErrorPPM -1
#SharedPeaks 0
#MassDiff 0
#LibMZ -1
#SpecMZ 288.161
#SpecCharge 0
#internalFilename spec-00000.mgf

>collision 10
44.996475 160.0
45.031197 164.0
45.051231 136.0
45.130085 204.0
45.15683 100.0
45.184921 184.0
45.285316 192.0
45.294693 32.0
45.322826 124.0
45.385822 172.0
45.411304 188.0
45.494499 68.0
45.558956 164.0
45.642288 196.0
45.727036 184.0
45.739151 168.0
45.836117 40.0
45.907562 180.0
46.008759 152.0
46.103306 212.0
46.177666 188.0
46.222309 124.0
46.329266 236.0
46.479763 56.0
46.49876 176.0
46.542202 172.0
46.573437 124.0
46.589737 188.0
46.607399 172.0
46.773315 128.0
46.799183 176.0
46.864559 120.0
46.908169 196.0
46.919075 152.0
47.12516 136.0
47.210522 152.0
47.241367 32.0
47.533195 156.0
47.77776 212.0
47.820419 88.0
47.852077 204.0
47.949883 44.0
48.286751 176.0
48.307499 84.0
48.317184 192.0
48.332401 180.0
48.389149 136.0
48.422382 68.0
48.591667 132.0
48.82486 164.0
48.86937 168.0
49.20945 204.0
49.238773 108.0
49.284874 176.0
49.324005 148.0
49.410706 220.0
49.461414 152.0
49.640415 160.0
49.693714 140.0
49.921268 280.0
49.945175 180.0
50.22971 204.0
50.279091 76.0
50.339794 144.0
50.375103 116.0
50.416077 164.0
50.510807 168.0
50.524952 124.0
50.67786 148.0
50.757233 184.0
50.779922 156.0
50.822479 80.0
51.069668 152.0
51.092426 228.0
51.22197 140.0
51.26186 124.0
51.317451 132.0
51.331711 40.0
51.395897 156.0
51.448704 292.0
51.522968 160.0
51.537254 108.0
51.555832 208.0
51.565834 148.0
51.657345 164.0
51.67165 184.0
51.683098 116.0
51.829147 136.0
51.902248 120.0
51.948143 208.0
52.008408 120.0
52.019894 152.0
52.117554 40.0
52.228249 256.0
52.271408 104.0
52.383709 184.0
52.406757 144.0
52.465847 260.0
52.527859 148.0
52.607224 96.0
52.623104 124.0
52.662094 100.0
52.713856 140.0
52.725662 216.0
52.75457 132.0
52.86739 152.0
53.00206 44.0
53.168823 136.0
53.200756 104.0
53.232697 180.0
53.264648 88.0
53.324223 136.0
53.456562 204.0
53.541405 228.0
53.575954 244.0
53.749454 116.0
53.793236 172.0
53.921772 192.0
53.95393 136.0
53.967091 48.0
54.072414 208.0
54.152939 128.0
54.334705 164.0
54.470722 136.0
54.554989 148.0
54.722706 132.0
54.765411 140.0
54.836132 152.0
54.892155 132.0
54.977715 188.0
55.172684 156.0
55.212605 200.0
55.368 124.0
55.506569 136.0
55.582947 184.0
55.784935 128.0
56.040913 156.0
56.051342 156.0
56.170612 148.0
56.23925 252.0
56.252552 228.0
56.270599 120.0
56.294487 144.0
56.460369 184.0
56.478317 148.0
56.497761 136.0
56.523197 176.0
56.550133 184.0
56.669933 64.0
56.687916 188.0
56.914417 120.0
56.939945 188.0
57.085716 116.0
57.423058 208.0
57.493965 188.0
57.558876 196.0
57.613251 128.0
57.63084 152.0
57.685787 172.0
57.77652 188.0
57.805267 156.0
57.911243 180.0
58.000637 244.0
58.249489 216.0
58.28899 120.0
58.326988 172.0
58.349789 148.0
58.567657 188.0
58.600914 180.0
58.666515 172.0
58.706409 208.0
58.747974 208.0
58.8022 252.0
58.878536 172.0
58.984886 204.0
59.129261 136.0
59.144566 56.0
59.164467 228.0
59.241035 172.0
59.392792 224.0
59.464905 196.0
59.620018 212.0
59.927773 196.0
59.963215 152.0
60.00021 132.0
60.057266 176.0
60.290394 196.0
60.302757 180.0
60.353771 144.0
60.369236 240.0
60.387794 176.0
60.432655 132.0
60.463604 48.0
60.485271 204.0
60.503849 260.0
60.666626 108.0
60.730087 176.0
60.907032 48.0
60.917908 156.0
61.037579 168.0
61.064014 108.0
61.107571 72.0
61.158924 56.0
61.196285 48.0
61.434734 116.0
61.82066 132.0
61.909889 140.0
62.016422 176.0
62.090111 44.0
62.162273 180.0
62.297298 212.0
62.330292 56.0
62.377441 156.0
62.629204 164.0
62.73793 128.0
62.753696 144.0
62.819935 168.0
62.845177 224.0
62.887783 188.0
62.903568 196.0
62.926102 224.0
62.969883 148.0
63.116852 208.0
63.194355 168.0
63.226002 176.0
63.417637 124.0
63.514359 148.0
63.622265 224.0
63.870159 88.0
63.916298 172.0
63.989513 176.0
64.193466 132.0
64.533569 108.0
64.570351 160.0
64.680748 196.0
64.760811 40.0
64.953148 156.0
65.094383 140.0
65.111374 124.0
65.15522 288.0
65.211662 192.0
65.319389 120.0
65.486786 100.0
65.501282 196.0
65.647949 160.0
65.680206 124.0
65.751198 140.0
65.920761 176.0
66.255684 192.0
66.546806 248.0
66.607704 200.0
66.666191 132.0
66.851578 216.0
66.950882 272.0
67.016037 140.0
67.301476 144.0
67.41745 348.0
67.48774 212.0
67.518806 232.0
67.616722 188.0
67.674263 136.0
67.865959 252.0
67.939766 112.0
68.062859 52.0
68.090775 160.0
68.117058 184.0
68.195923 76.0
68.396591 168.0
68.414703 156.0
68.495392 56.0
68.526688 172.0
68.628876 112.0
68.683296 68.0
68.767448 172.0
68.795509 148.0
68.823578 188.0
68.894592 188.0
69.225388 176.0
69.396057 136.0
69.551994 72.0
69.590179 152.0
69.618408 156.0
69.767944 104.0
69.827805 116.0
69.852753 192.0
69.887695 112.0
70.199181 144.0
70.250885 144.0
70.33432 200.0
70.55172 192.0
70.611671 140.0
70.631744 164.0
70.645126 164.0
70.996864 120.0
71.109703 180.0
71.208321 156.0
71.268799 224.0
71.426826 84.0
71.444489 136.0
71.529472 192.0
71.684418 160.0
71.775444 164.0
71.85376 220.0
71.871582 172.0
71.942467 180.0
72.020149 116.0
72.113075 292.0
72.312645 176.0
72.42778 232.0
72.454887 200.0
72.509109 160.0
72.539619 120.0
72.660027 148.0
72.916428 152.0
72.987823 132.0
73.042244 40.0
73.091583 156.0
73.147743 32.0
73.273766 44.0
73.416946 168.0
73.452759 156.0
73.471527 164.0
73.541489 176.0
73.638809 144.0
73.655891 148.0
73.818253 224.0
73.980789 144.0
74.020462 212.0
74.164078 136.0
74.364754 160.0
74.399078 180.0
74.601791 120.0
74.680244 160.0
75.070107 116.0
75.083908 184.0
75.234024 112.0
75.306541 144.0
75.452576 188.0
75.491295 208.0
75.614296 164.0
75.647179 152.0
75.732025 200.0
75.74588 220.0
75.89492 116.0
75.99205 140.0
76.035431 104.0
76.254265 156.0
76.285553 52.0
76.302933 196.0
76.620316 176.0
76.642326 168.0
76.699837 152.0
76.773064 216.0
76.832367 176.0
76.931847 124.0
77.034874 88.0
77.277878 180.0
77.291878 164.0
77.314629 136.0
77.345711 184.0
77.351181 140.0
77.355171 168.0
77.505501 136.0
77.545807 84.0
77.582611 228.0
77.601898 136.0
77.636971 160.0
77.65181 180.0
77.891457 228.0
77.909027 52.0
77.930107 232.0
77.947678 172.0
78.025017 100.0
78.091835 100.0
78.174522 224.0
78.549797 240.0
79.007324 168.0
79.14006 152.0
79.176514 220.0
79.365089 152.0
79.407646 176.0
79.448441 236.0
79.485703 140.0
79.549599 228.0
79.5709 168.0
79.723656 140.0
79.759201 116.0
80.095497 100.0
80.1436 144.0
80.195282 120.0
80.21489 152.0
80.243408 72.0
80.25946 152.0
80.341499 180.0
80.383713 200.0
80.727295 168.0
80.886528 144.0
80.94561 172.0
80.965309 48.0
80.977844 220.0
81.028 216.0
81.128357 184.0
81.266457 172.0
81.332855 124.0
81.366959 240.0
81.388504 120.0
81.544792 200.0
81.575348 140.0
81.672455 56.0
81.845215 176.0
81.951485 76.0
82.054214 216.0
82.389374 152.0
82.507362 136.0
82.605019 44.0
82.747986 172.0
82.920067 128.0
83.032471 120.0
83.090515 96.0
83.239349 132.0
83.266594 232.0
83.446487 76.0
83.513771 144.0
83.544693 172.0
83.647057 208.0
83.662979 256.0
83.726707 72.0
83.794106 204.0
83.839661 212.0
83.857887 172.0
83.938103 204.0
84.016525 120.0
84.05484 68.0
84.219147 168.0
84.284912 240.0
84.40921 104.0
84.539085 128.0
84.808311 228.0
84.832138 132.0
84.852303 172.0
85.153198 176.0
85.197327 164.0
85.224884 144.0
85.390327 148.0
85.491516 180.0
85.603806 92.0
85.706955 164.0
85.918983 76.0
86.096184 156.0
86.109108 160.0
86.205177 132.0
86.449272 156.0
86.482582 176.0
86.691864 120.0
86.758583 100.0
86.784546 64.0
86.817917 176.0
86.880981 212.0
86.910667 148.0
87.278435 140.0
87.295174 32.0
87.538948 240.0
87.568741 196.0
87.654442 156.0
87.734581 132.0
87.934166 112.0
87.971504 144.0
87.986435 52.0
88.135849 152.0
88.221825 176.0
88.442551 188.0
88.483734 148.0
88.517441 128.0
88.541779 172.0
88.731033 236.0
88.807915 200.0
89.063187 220.0
89.097 104.0
89.132698 176.0
89.196594 168.0
89.324463 224.0
89.522079 152.0
89.56163 176.0
89.644524 88.0
89.917976 120.0
89.931183 124.0
90.208855 140.0
90.369606 216.0
90.422585 168.0
90.556091 232.0
90.582558 180.0
90.595772 164.0
90.611946 104.0
90.678268 176.0
90.792015 196.0
90.949493 212.0
91.004539 192.0
91.053917 164.0
91.131798 68.0
91.194511 100.0
91.221115 152.0
91.253441 172.0
91.314285 120.0
91.37516 256.0
91.418922 132.0
91.609322 72.0
91.630272 124.0
91.710312 180.0
91.832336 160.0
92.026978 152.0
92.068993 184.0
92.202721 120.0
92.28109 128.0
92.424545 148.0
92.593002 148.0
92.641762 140.0
92.961075 172.0
93.020569 172.0
93.201103 228.0
93.32988 220.0
93.427971 116.0
93.554977 208.0
93.745659 204.0
93.784203 148.0
93.832397 120.0
93.869034 196.0
93.923035 172.0
94.01371 220.0
94.076553 112.0
94.11795 172.0
94.291809 148.0
94.376862 244.0
94.49678 288.0
94.593544 104.0
94.91127 212.0
95.089737 116.0
95.126617 152.0
95.388855 144.0
95.548325 176.0
95.622261 176.0
95.690392 172.0
95.72155 164.0
95.799454 184.0
95.84037 44.0
95.90078 216.0
96.125053 228.0
96.261696 72.0
96.343727 144.0
96.405479 132.0
96.451035 216.0
96.474663 156.0
96.619377 208.0
96.787697 140.0
96.958298 224.0
97.032608 120.0
97.085548 124.0
97.132622 204.0
97.23661 204.0
97.34066 140.0
97.35833 256.0
97.439774 168.0
97.46244 132.0
97.645256 216.0
97.818405 204.0
97.842033 92.0
97.940491 144.0
98.022247 160.0
98.107986 148.0
98.208549 228.0
98.37233 232.0
98.394043 132.0
98.433533 108.0
98.997108 104.0
99.036713 124.0
99.100105 172.0
99.343956 172.0
99.53846 212.0
99.63578 96.0
99.673531 208.0
99.733154 80.0
99.778877 168.0
99.803207 100.0
99.975792 172.0
100.017586 140.0
100.348274 72.0
100.368217 184.0
100.467941 52.0
100.525803 152.0
100.545753 28.0
100.726448 20.0
100.901306 148.0
100.981293 128.0
101.035301 160.0
101.084641 212.0
101.263489 164.0
101.335609 188.0
101.387703 128.0
101.441826 136.0
101.568153 120.0
101.630341 140.0
101.692551 72.0
101.732697 184.0
101.964859 236.0
102.013931 36.0
102.196945 164.0
102.322937 192.0
102.334511 180.0
102.396179 140.0
102.448601 284.0
102.470764 132.0
102.529198 184.0
102.561447 192.0
102.65419 172.0
103.009399 68.0
103.05439 316.0
103.191284 52.0
103.223755 208.0
103.270149 368.0
103.411781 112.0
103.436066 176.0
103.494293 200.0
103.541351 216.0
103.583885 168.0
103.673035 160.0
103.721672 232.0
103.743973 184.0
103.778435 144.0
103.827667 216.0
103.855499 124.0
104.036095 136.0
104.058426 148.0
104.149811 156.0
104.507599 140.0
104.810982 160.0
104.855812 216.0
105.023003 152.0
105.173988 200.0
105.253609 212.0
105.300575 152.0
105.513092 164.0
105.770844 188.0
105.860924 44.0
106.045311 108.0
106.065804 172.0
106.121155 128.0
106.13961 52.0
106.166267 184.0
106.227798 76.0
106.252411 32.0
106.602783 144.0
106.747414 104.0
107.008728 212.0
107.072563 140.0
107.220901 128.0
107.249756 164.0
107.293045 180.0
107.381752 200.0
107.422958 108.0
107.474541 40.0
107.596306 140.0
107.616951 200.0
107.740875 84.0
107.821457 132.0
108.162727 172.0
108.431984 92.0
108.456856 108.0
108.587479 72.0
108.782516 132.0
108.843185 180.0
108.990204 172.0
109.248001 160.0
109.34996 72.0
109.429062 184.0
109.814575 136.0
109.835434 152.0
110.029503 164.0
110.104675 128.0
110.165245 204.0
110.2948 272.0
110.321976 208.0
110.439072 84.0
110.486809 176.0
110.552933 236.0
110.65461 176.0
110.675552 104.0
110.690208 168.0
111.247902 172.0
111.325592 136.0
111.375992 204.0
111.466331 116.0
111.499954 40.0
111.552505 228.0
111.626091 204.0
111.697594 176.0
111.7565 148.0
111.823837 152.0
111.897514 180.0
112.009125 104.0
112.023872 68.0
112.122902 164.0
112.293671 184.0
112.432915 60.0
112.593262 176.0
112.618706 216.0
112.652504 204.0
113.005554 156.0
113.096786 72.0
113.524513 112.0
113.624199 172.0
113.751534 204.0
113.959656 156.0
114.214752 216.0
114.346672 220.0
114.427559 164.0
114.446724 180.0
114.49144 244.0
114.555336 116.0
114.757797 160.0
114.896423 156.0
115.028732 76.0
115.055107 1508.0
115.109863 152.0
115.161118 236.0
115.216652 128.0
115.248703 196.0
115.421837 176.0
115.650742 152.0
115.702118 132.0
115.798477 96.0
115.858452 188.0
115.888443 160.0
115.954872 180.0
116.012749 140.0
116.060318 740.0
116.149986 220.0
116.210052 184.0
116.246529 144.0
116.502029 208.0
116.686852 76.0
116.734871 180.0
116.759964 204.0
116.901947 176.0
116.921318 220.0
116.972969 216.0
117.009567 140.0
117.067734 1688.0
117.143089 128.0
117.318649 68.0
117.401726 196.0
117.477219 188.0
117.582939 136.0
117.643379 132.0
117.81398 116.0
117.93499 140.0
118.068672 400.0
118.303986 184.0
118.473793 92.0
118.521461 56.0
118.625488 188.0
118.835846 140.0
118.855377 184.0
118.914673 160.0
118.959549 124.0
119.000801 156.0
119.064964 152.0
119.283218 172.0
119.352783 144.0
119.40715 148.0
119.502777 200.0
119.537682 224.0
119.633446 200.0
119.670456 220.0
119.714005 128.0
119.849174 72.0
119.923149 36.0
119.944435 204.0
119.984184 212.0
120.001625 168.0
120.136841 148.0
120.241577 136.0
120.296143 164.0
120.320152 164.0
120.374741 204.0
120.481766 164.0
120.65004 180.0
120.739685 152.0
120.94754 196.0
121.107376 116.0
121.350616 144.0
121.451492 212.0
121.497559 176.0
121.837837 144.0
122.147797 180.0
122.176392 64.0
122.277611 128.0
122.297417 192.0
122.326035 72.0
122.482376 144.0
122.612366 160.0
122.740227 140.0
122.822159 156.0
122.945374 176.0
122.971855 204.0
123.004967 160.0
123.19046 128.0
123.502129 248.0
123.603897 244.0
123.683563 160.0
123.936028 44.0
123.951538 132.0
123.993645 208.0
124.148827 200.0
124.248642 200.0
124.268608 132.0
124.392883 68.0
124.461708 28.0
124.532776 108.0
124.557205 132.0
124.712746 140.0
124.79055 156.0
124.821449 156.0
124.919128 160.0
125.026337 144.0
125.057495 140.0
125.135406 176.0
125.257889 128.0
125.318039 164.0
125.369286 116.0
125.41832 224.0
125.491882 196.0
125.80645 180.0
126.043198 144.0
126.063309 176.0
126.081184 240.0
126.324898 236.0
126.356216 156.0
126.427818 60.0
126.58004 144.0
126.604668 148.0
126.931839 92.0
127.035011 96.0
127.054207 660.0
127.075394 32.0
127.369057 196.0
127.414398 56.0
127.591942 216.0
127.64035 196.0
127.836411 192.0
127.922638 216.0
128.017197 212.0
128.049088 348.0
128.091522 48.0
128.111801 188.0
128.177139 212.0
128.260513 112.0
128.420609 240.0
128.449936 72.0
128.668823 216.0
128.752365 80.0
128.788818 172.0
128.865311 164.0
128.887909 132.0
128.903732 148.0
128.945145 160.0
129.061859 240.0
129.064835 408.0
129.496445 116.0
129.531433 128.0
129.682236 136.0
129.788773 48.0
129.977051 220.0
130.065033 1268.0
130.242661 152.0
130.263107 164.0
130.499451 164.0
130.581314 212.0
130.936356 128.0
130.952301 48.0
131.046143 184.0
131.076813 328.0
131.1642 76.0
131.251633 172.0
131.335205 128.0
131.554276 68.0
131.602219 112.0
131.629608 200.0
132.004364 148.0
132.082123 504.0
132.203384 56.0
132.271927 156.0
132.773819 176.0
132.822678 144.0
132.90686 148.0
133.131821 52.0
133.203018 196.0
133.230591 152.0
133.42363 116.0
133.528976 172.0
133.759491 196.0
133.814743 84.0
134.178757 200.0
134.270981 192.0
134.32634 172.0
134.357452 172.0
134.43248 184.0
134.866653 152.0
135.0979 228.0
135.160355 136.0
135.484497 196.0
135.533157 216.0
135.600357 188.0
135.625854 176.0
135.681488 224.0
135.74176 208.0
135.843811 188.0
136.213211 148.0
136.259369 128.0
136.615051 68.0
136.66391 164.0
136.698807 188.0
136.752335 160.0
136.780273 156.0
136.88736 164.0
136.905991 156.0
136.940933 168.0
136.978195 148.0
137.097015 40.0
137.222885 156.0
137.535492 220.0
137.612518 148.0
137.761993 152.0
137.797028 136.0
137.895172 152.0
137.93959 96.0
138.252991 164.0
138.3396 76.0
138.406601 152.0
138.447296 204.0
138.728455 60.0
138.801147 172.0
138.911377 228.0
138.93248 84.0
138.998184 44.0
139.038071 180.0
139.080322 96.0
139.233459 176.0
139.31044 136.0
139.386536 208.0
139.411469 152.0
139.950134 160.0
140.034912 180.0
140.055634 180.0
140.13385 112.0
140.15976 184.0
140.758896 124.0
141.028564 160.0
141.067291 136.0
141.120407 160.0
141.19371 224.0
141.266251 204.0
141.392441 212.0
141.591309 228.0
141.799789 84.0
141.920685 108.0
141.968109 156.0
142.018967 236.0
142.065918 1948.0
142.102875 196.0
142.219604 52.0
142.26944 228.0
142.328796 188.0
142.423798 180.0
142.499817 164.0
142.552094 84.0
142.796951 164.0
142.848282 168.0
142.927795 52.0
142.963867 172.0
143.007584 192.0
143.028107 132.0
143.07402 47488.0
143.10994 96.0
143.128784 160.0
143.146469 236.0
143.190811 168.0
143.2164 188.0
143.298492 104.0
143.318283 88.0
143.356583 140.0
143.408844 68.0
143.432678 128.0
143.466049 392.0
143.482742 184.0
143.530426 56.0
143.597198 128.0
143.613892 72.0
143.630585 172.0
143.661591 56.0
143.755798 200.0
143.823853 60.0
143.945618 68.0
143.965332 204.0
144.012482 140.0
144.080856 24332.0
144.153107 76.0
144.170685 200.0
144.198837 76.0
144.237091 168.0
144.277725 68.0
144.294464 40.0
144.349457 80.0
144.381165 352.0
144.484528 76.0
144.521667 36.0
144.542633 168.0
144.579102 32.0
144.616257 124.0
144.679626 124.0
144.703568 88.0
144.722717 64.0
144.804138 128.0
144.840073 192.0
144.878403 68.0
144.901306 192.0
144.935898 120.0
144.976639 140.0
145.010956 200.0
145.084488 2720.0
145.132446 108.0
145.162537 68.0
145.226151 184.0
145.25563 132.0
145.305801 172.0
145.422714 56.0
145.453918 164.0
145.521133 72.0
145.738998 164.0
145.816605 140.0
146.028168 116.0
146.058563 160.0
146.090179 220.0
146.161362 88.0
146.200806 252.0
146.264328 216.0
146.295258 92.0
146.324142 108.0
146.366837 96.0
146.671036 120.0
146.740952 56.0
146.767471 164.0
147.071304 144.0
147.095581 68.0
147.167999 80.0
147.438538 152.0
147.469955 152.0
147.750458 208.0
147.843414 184.0
147.905334 236.0
147.994904 160.0
148.358322 28.0
148.848419 160.0
148.916412 180.0
149.059738 196.0
149.144806 176.0
149.246902 72.0
149.271225 120.0
149.378235 164.0
149.414719 128.0
149.70961 132.0
149.784744 88.0
149.88707 160.0
149.930923 52.0
150.065002 72.0
150.24791 136.0
150.430939 84.0
150.470001 60.0
150.855988 172.0
151.249817 40.0
151.423645 68.0
151.744659 124.0
151.776535 168.0
151.972748 160.0
152.063599 184.0
152.122452 140.0
152.525314 44.0
153.070358 324.0
153.527359 144.0
153.700043 180.0
153.751862 224.0
153.865402 76.0
153.9617 108.0
153.986404 136.0
154.06572 624.0
154.218643 160.0
154.653961 124.0
154.797546 136.0
154.860092 204.0
154.918915 208.0
155.067001 384.0
155.079559 804.0
155.300644 40.0
155.814484 128.0
155.923813 76.0
156.05307 180.0
156.080811 1608.0
156.167465 28.0
156.378952 64.0
156.425781 64.0
156.625443 64.0
156.690216 124.0
156.792374 144.0
156.966873 176.0
157.009277 88.0
157.08844 6084.0
157.124008 144.0
157.246277 40.0
157.284393 176.0
157.343628 60.0
157.396057 48.0
157.43602 68.0
157.550919 76.0
157.655853 120.0
157.925858 216.0
158.038437 200.0
158.096085 2204.0
158.236832 148.0
158.303772 76.0
158.328812 168.0
158.354813 104.0
158.499146 120.0
158.5242 116.0
158.927917 76.0
159.099716 292.0
159.168884 160.0
159.259293 276.0
159.598541 260.0
159.734344 128.0
160.020309 108.0
160.076843 544.0
160.33107 160.0
160.431885 156.0
160.557953 100.0
161.080414 36.0
161.148636 120.0
161.224915 168.0
161.267395 208.0
161.603729 140.0
161.647797 192.0
162.429596 260.0
162.553925 272.0
162.769684 184.0
162.975418 180.0
163.115204 36.0
163.351685 120.0
163.580704 200.0
163.646896 80.0
163.700363 128.0
163.942368 188.0
164.034119 168.0
164.498383 148.0
164.536682 180.0
164.567307 200.0
164.679672 156.0
164.720535 212.0
164.779297 312.0
165.070541 152.0
165.239487 132.0
165.416077 60.0
165.505676 152.0
165.600433 184.0
166.05899 148.0
166.064941 136.0
166.072647 180.0
166.092545 172.0
166.147934 88.0
166.207993 44.0
166.231079 36.0
166.534027 216.0
166.562271 172.0
166.742126 212.0
166.778107 176.0
166.798676 352.0
166.929794 172.0
167.073471 3176.0
167.398132 40.0
167.480545 96.0
167.635117 68.0
167.68924 100.0
167.771729 136.0
167.94191 156.0
168.019302 72.0
168.081985 2320.0
168.140579 56.0
168.372925 52.0
168.429749 148.0
168.491745 244.0
168.982956 84.0
169.087997 860.0
169.16153 72.0
169.42308 92.0
169.456757 88.0
169.529312 192.0
169.573364 252.0
169.68483 96.0
169.731506 152.0
169.938995 244.0
170.055466 168.0
170.096359 1068.0
170.240097 44.0
170.316437 132.0
170.362183 92.0
170.411545 160.0
170.541473 72.0
170.79628 36.0
170.85611 168.0
170.92511 200.0
171.064301 160.0
171.106018 564.0
171.39505 132.0
171.59053 80.0
171.638367 128.0
171.671371 112.0
171.689621 40.0
171.791336 64.0
171.853958 208.0
171.903534 92.0
171.924408 120.0
171.95726 164.0
172.000427 160.0
172.026199 184.0
172.076813 312.0
172.113144 61336.0
172.165314 224.0
172.187592 64.0
172.224655 32.0
172.263824 80.0
172.296158 32.0
172.360504 64.0
172.391571 144.0
172.425827 68.0
172.465027 68.0
172.544266 72.0
172.568695 116.0
172.588989 96.0
172.611435 68.0
172.642807 52.0
172.719055 52.0
172.739594 84.0
172.789337 196.0
172.811722 140.0
172.83638 60.0
172.895447 148.0
172.942169 124.0
173.014359 96.0
173.032684 100.0
173.066727 76.0
173.115417 6048.0
173.182114 60.0
173.244202 52.0
173.284103 60.0
173.336517 108.0
173.530472 64.0
173.569809 252.0
173.617004 100.0
173.672073 168.0
173.700928 68.0
173.732407 40.0
173.773926 112.0
173.823212 56.0
173.848206 60.0
173.89772 84.0
173.931839 60.0
173.977631 72.0
174.011856 88.0
174.060486 60.0
174.086746 192.0
174.119049 620.0
174.14978 92.0
174.212814 104.0
174.288406 124.0
174.298965 96.0
174.350098 128.0
174.406631 212.0
174.444992 148.0
174.517685 72.0
174.586044 128.0
174.639542 152.0
174.720184 116.0
174.777328 248.0
174.85965 52.0
174.949142 68.0
175.162445 92.0
175.20459 56.0
175.547241 80.0
175.665924 84.0
176.038071 68.0
176.141068 192.0
176.315445 88.0
176.401642 196.0
177.204529 136.0
177.358231 104.0
177.440414 128.0
177.469574 32.0
177.488144 220.0
177.644608 72.0
177.928574 40.0
178.085236 188.0
178.260574 176.0
178.311066 268.0
178.332336 188.0
178.627472 144.0
178.922867 156.0
179.079681 340.0
179.346405 196.0
179.682404 64.0
179.767792 92.0
180.024063 180.0
180.081436 4972.0
180.223724 48.0
180.75383 68.0
180.8582 128.0
180.914413 160.0
181.002762 48.0
181.041122 200.0
181.087555 5116.0
181.179535 68.0
181.273315 80.0
181.302429 60.0
181.353226 148.0
181.490433 48.0
181.554779 88.0
181.654022 44.0
181.710358 112.0
181.764023 92.0
182.048569 240.0
182.095276 3392.0
182.169418 160.0
182.190918 28.0
182.352142 68.0
182.473099 256.0
182.505371 168.0
182.67749 80.0
182.69632 44.0
182.742935 184.0
182.91272 48.0
183.06398 308.0
183.104034 644.0
183.19165 60.0
183.222458 128.0
183.38295 76.0
183.542526 104.0
183.644485 104.0
184.073364 192.0
184.111618 1084.0
184.168106 48.0
184.338303 160.0
184.486954 56.0
184.573471 68.0
185.055099 64.0
185.087494 128.0
185.122818 364.0
185.580719 56.0
185.767853 128.0
185.822098 152.0
186.090469 132.0
186.131042 252.0
186.465668 96.0
186.609726 212.0
186.674988 96.0
187.097549 280.0
187.123947 124.0
187.145721 128.0
187.235596 136.0
187.513474 188.0
187.957977 88.0
188.112854 172.0
188.766525 120.0
188.914215 204.0
189.231674 48.0
190.118912 176.0
190.427261 72.0
190.592087 204.0
190.737747 48.0
191.442078 188.0
191.802994 84.0
192.080261 208.0
192.362946 52.0
193.088135 204.0
193.562836 192.0
193.648697 196.0
194.058807 176.0
194.096359 3688.0
194.175278 88.0
194.297333 136.0
194.413864 120.0
194.491577 44.0
194.660934 160.0
194.797012 76.0
194.876007 148.0
195.008194 64.0
195.103287 5524.0
195.146042 68.0
195.378021 60.0
195.422531 52.0
195.517136 48.0
195.66188 36.0
195.721497 116.0
195.81781 56.0
195.971024 60.0
195.990524 128.0
196.049042 188.0
196.078125 132.0
196.111404 3840.0
196.160538 68.0
196.364075 148.0
196.542618 112.0
197.017242 148.0
197.078354 324.0
197.116898 636.0
197.430908 68.0
197.506424 116.0
197.640717 100.0
197.803024 96.0
197.892166 152.0
198.091827 624.0
198.127396 460.0
198.158691 116.0
198.197906 68.0
198.598801 28.0
198.739059 160.0
199.011322 128.0
199.053436 44.0
199.096115 420.0
199.132324 524.0
199.446762 40.0
199.533905 104.0
199.651993 72.0
199.688553 56.0
200.107544 400.0
200.146774 756.0
200.28244 96.0
200.527557 152.0
200.620575 32.0
200.77565 48.0
200.88002 68.0
200.927979 160.0
201.107162 136.0
201.153381 296.0
201.362671 36.0
201.464355 80.0
202.038239 52.0
202.445816 80.0
202.663925 88.0
203.503479 64.0
203.619904 248.0
204.074554 120.0
205.025299 176.0
205.087509 184.0
205.63562 224.0
206.098236 112.0
206.18396 104.0
206.778824 232.0
207.070847 120.0
207.108093 180.0
207.176834 176.0
208.076263 388.0
208.111343 1056.0
208.387512 108.0
208.718063 68.0
208.792816 52.0
209.074753 364.0
209.120285 2516.0
209.551407 192.0
209.60173 152.0
209.843842 60.0
209.892868 176.0
210.127426 6960.0
210.227478 56.0
210.337143 52.0
210.562363 56.0
211.098297 132.0
211.135361 1792.0
211.201096 60.0
211.823425 64.0
212.065979 292.0
212.108948 172.0
212.14296 328.0
212.188568 64.0
212.53952 44.0
212.649796 132.0
212.739777 104.0
212.826874 56.0
213.085373 192.0
213.114777 352.0
213.152191 180.0
213.611557 108.0
213.876343 172.0
214.119156 296.0
214.163925 120.0
214.386017 76.0
214.837952 68.0
215.090225 132.0
215.12558 240.0
215.375061 84.0
216.105499 324.0
216.35173 132.0
217.621185 64.0
218.091217 112.0
218.117676 156.0
218.211746 124.0
219.050461 164.0
219.09903 168.0
219.67244 180.0
220.209641 212.0
220.253952 216.0
221.312668 244.0
222.089737 604.0
222.124817 372.0
222.21666 56.0
222.418442 88.0
223.102615 708.0
223.449631 76.0
224.024185 204.0
224.102982 428.0
224.144028 5032.0
224.205948 52.0
224.247665 52.0
224.322189 28.0
224.363922 32.0
224.393738 84.0
224.581604 52.0
224.76358 48.0
225.121033 200.0
225.147079 780.0
225.250214 68.0
225.609634 52.0
226.087479 308.0
226.125412 564.0
226.159225 688.0
226.225052 124.0
226.560455 88.0
227.091019 116.0
227.115005 64.0
227.155655 284.0
227.961639 108.0
228.10289 196.0
228.13945 1952.0
228.34343 52.0
228.882095 68.0
229.032669 72.0
229.139999 404.0
229.189331 52.0
229.780273 40.0
231.024948 116.0
231.161102 68.0
231.268234 80.0
232.51268 40.0
233.059265 84.0
233.725159 132.0
234.123932 128.0
235.129974 116.0
236.107529 272.0
237.115005 332.0
238.122986 456.0
239.058014 80.0
239.13887 332.0
239.431274 92.0
240.130875 176.0
241.109848 516.0
242.077835 200.0
242.106644 80.0
242.150177 252.0
243.681458 120.0
244.175705 132.0
244.953827 56.0
244.991211 52.0
245.134537 112.0
245.86113 96.0
247.583679 120.0
251.090958 168.0
251.371719 68.0
252.14064 768.0
253.136765 356.0
253.259109 120.0
253.484039 160.0
253.550583 44.0
254.045227 136.0
254.146744 188.0
255.123383 328.0
255.322067 80.0
256.130493 156.0
257.06781 120.0
258.064392 132.0
258.108643 268.0
259.123779 232.0
259.617401 152.0
260.474335 112.0
261.227783 160.0
268.051544 148.0
269.421906 104.0
270.072388 164.0
270.149872 1084.0
270.628723 96.0
271.152832 132.0
272.800568 140.0
273.116241 80.0
273.313629 72.0
274.077515 296.0
274.268646 148.0
275.744019 152.0
280.053864 212.0
280.087189 88.0
280.353729 80.0
281.154083 96.0
285.76825 68.0
286.212524 120.0
289.125732 52.0
289.745392 88.0
294.074158 84.0
295.581238 72.0
300.098022 64.0
300.473969 44.0
302.540588 60.0
303.14325 148.0
304.090027 132.0
308.489288 60.0
309.542419 52.0
311.130707 40.0
314.097198 108.0
316.118073 160.0
316.787231 68.0
317.357819 76.0
318.017639 88.0
328.686066 104.0
331.115326 160.0
332.434937 48.0
336.080963 100.0
337.816345 88.0
343.923462 104.0
358.231689 76.0
360.518127 80.0
361.516479 144.0
362.394958 32.0
364.0336 52.0
371.322754 44.0
371.944305 116.0
381.948395 52.0
397.479187 60.0
413.327576 136.0
415.097717 56.0
416.745667 116.0
419.256348 108.0
420.994202 92.0
424.091217 84.0
446.454041 44.0
450.56369 72.0
458.362122 56.0
465.969604 100.0
481.520966 68.0
483.396393 48.0
484.267578 60.0
487.848145 44.0
499.656067 140.0
500.158905 88.0
504.423218 104.0
523.085327 40.0
526.436401 60.0
531.664307 68.0
541.530518 96.0
554.136047 72.0
560.406982 68.0
580.002625 44.0
580.074524 84.0
582.728394 84.0
603.742004 64.0
627.428955 76.0
636.585388 48.0
641.390076 92.0
661.802856 48.0
665.124817 44.0
672.134277 120.0
672.227173 64.0
721.293518 84.0
721.993896 128.0
725.501038 188.0
730.247803 60.0
750.092529 112.0
750.703186 140.0
756.231934 196.0
767.675659 112.0
773.222168 36.0
784.497742 112.0
790.619385 148.0
799.379333 136.0
805.394836 108.0
806.440125 68.0
818.956604 176.0
822.857117 68.0
831.908142 116.0
848.998535 168.0
860.513977 40.0
873.394714 80.0
886.21106 88.0
886.477722 108.0
890.422791 36.0
895.501953 180.0
899.520752 68.0
901.575317 160.0
903.261353 104.0
903.327209 172.0
903.751953 100.0
904.697571 104.0
907.993103 180.0
930.385559 164.0
935.942566 128.0
937.008423 80.0
946.273376 152.0
965.484192 108.0
970.853394 196.0
971.455017 140.0
971.56665 140.0
976.281006 180.0
979.729248 56.0
981.368347 132.0
982.416077 188.0
995.126892 168.0
995.491089 160.0
996.715942 228.0
997.224976 168.0
999.986084 76.0
1002.190125 128.0
1004.308289 180.0
1007.578186 152.0
1009.3479 176.0
1013.069336 196.0
1015.509766 52.0
1015.668335 152.0
1016.169495 128.0
1026.69043 124.0
1028.010986 168.0
1030.961304 68.0
1032.93689 232.0
1036.79126 136.0
1038.368408 228.0
1043.196899 120.0
1046.967285 124.0
1047.411743 176.0
1048.126831 208.0
1049.886597 156.0
1052.64856 220.0
1055.129761 172.0
1055.853882 176.0
1060.120117 140.0
1062.253174 124.0
1067.35144 204.0
1067.396973 112.0
1068.151367 136.0
1068.379028 132.0
1068.873535 232.0
1070.390259 204.0
1073.257202 200.0
1076.480713 180.0
1076.663574 100.0
1078.466797 228.0
1081.180908 160.0
1085.884888 160.0
1090.454468 112.0
1093.269165 116.0
1095.125732 52.0
1097.544312 188.0
1098.263184 164.0
1103.539551 168.0
1105.934326 144.0
1106.192383 168.0
1106.35791 44.0
1110.432983 204.0
1113.140625 176.0
1117.46106 252.0
1118.832031 200.0
1123.797241 120.0
1125.646118 180.0
1126.908569 52.0
1127.296143 164.0
1127.797363 152.0
1129.749878 180.0
1134.933716 180.0
1141.494019 172.0
1142.926758 180.0
1148.781372 196.0
1155.564209 120.0
1155.685913 180.0
1156.613159 160.0
1159.559448 276.0
1161.247559 168.0
1163.826294 160.0
1163.887451 212.0
1164.389893 192.0
1165.802979 104.0
1171.327515 244.0
1173.331055 144.0
1182.443237 216.0
1183.798706 256.0
1184.148071 52.0
1184.778198 156.0
1186.42981 152.0
1186.546387 152.0
1187.760132 132.0
1190.546631 100.0
1191.927368 164.0
1194.650024 56.0
1194.918335 204.0
1197.169067 132.0
1198.223022 112.0
1199.780518 60.0
1200.980347 124.0
1202.401611 248.0
1202.560425 188.0
1203.388794 168.0
1204.583496 64.0
1207.361938 208.0
1208.302734 44.0
1211.847534 104.0
1215.230957 128.0
1216.049805 148.0
1216.313599 160.0
1217.882812 176.0
1219.522583 116.0
1219.696289 140.0
1220.245483 180.0
1222.325195 128.0
1223.01416 80.0
1223.202148 124.0
1226.002075 188.0
1226.106567 144.0
1226.350464 228.0
1227.563599 116.0
1228.043823 156.0
1228.944702 136.0
1232.051514 168.0
1234.693604 212.0
1235.400024 184.0
1238.606079 208.0
1239.60791 152.0
1240.2948 172.0
1241.248291 168.0
1242.223145 188.0
1242.636963 112.0
1244.363525 104.0
1246.210693 132.0
1249.297119 236.0
1253.063477 176.0
1254.19104 180.0
1255.107544 188.0
1255.177979 184.0
1256.26416 172.0
1257.11792 188.0
1257.703613 160.0
1261.454468 168.0
1261.673584 132.0
1266.931763 136.0
1267.307251 140.0
1269.944336 156.0
1272.648071 180.0
1274.324219 184.0
1274.835815 168.0
1275.283569 136.0
1275.489746 224.0
1275.845093 224.0
1276.186401 232.0
1277.843628 240.0
1278.768677 156.0
1281.460449 184.0
1283.513184 68.0
1289.709839 152.0
1291.25415 148.0
1294.145264 244.0
1295.892822 152.0
1296.150757 184.0
1297.4552 156.0
1298.093384 124.0
1298.882202 168.0
1301.415527 84.0
1303.786011 160.0
1303.922607 68.0
1305.856567 152.0
1307.122681 188.0
1307.540161 128.0
1312.431396 216.0
1312.647705 44.0
1312.828003 204.0
1316.790039 184.0
1317.909668 96.0
1319.998657 184.0
1321.134155 176.0
1322.197876 260.0
1322.277466 144.0
1323.957031 208.0
1324.739258 152.0
1325.17395 264.0
1326.369751 212.0
1326.884399 180.0
1327.841553 176.0
1328.073608 248.0
1328.733765 164.0
1329.582764 168.0
1331.797119 136.0
1333.046753 44.0
1336.842651 80.0
1337.774292 148.0
1339.747803 164.0
1339.980957 180.0
1340.272339 192.0
1341.343628 44.0
1343.3125 180.0
1344.450684 168.0
1346.03479 168.0
1347.0354 192.0
1347.692871 92.0
1348.555176 172.0
1348.803711 224.0
1350.485474 168.0
1352.19751 44.0
1355.939941 48.0
1356.013184 156.0
1358.3302 216.0
1358.52832 40.0
1358.851074 200.0
1359.416138 224.0
1361.016235 148.0
1361.097046 232.0
1362.543945 224.0
1363.190552 172.0
1364.785645 192.0
1367.088013 144.0
1367.794556 112.0
1369.377563 168.0
1370.011108 176.0
1370.873047 172.0
1371.845947 148.0
1372.339966 156.0
1375.453125 176.0
1375.718872 152.0
1377.092285 168.0
1377.626221 188.0
1378.385132 192.0
1378.991089 212.0
1379.148193 260.0
1380.440063 76.0
1380.743286 136.0
1381.076172 152.0
1383.036865 188.0
1383.221924 156.0
1384.317749 92.0
1384.865723 148.0
1388.059814 68.0
1391.532349 204.0
1393.277954 168.0
1394.035522 44.0
1395.544434 136.0
1396.429321 192.0
1397.28479 160.0
1398.542358 152.0
1401.00708 80.0
1401.461548 184.0
1404.55542 212.0
1405.26416 128.0
1406.219238 148.0
1410.895386 180.0
1413.038086 124.0
1414.575928 144.0
1415.923584 36.0
1416.028442 96.0
1417.122192 196.0
1417.242065 164.0
1418.246216 248.0
1418.928345 168.0
1419.543213 200.0
1420.728271 156.0
1420.926636 176.0
1421.426025 160.0
1421.80127 160.0
1422.844604 236.0
1424.767212 148.0
1426.307739 152.0
1428.014526 160.0
1428.255127 136.0
1429.105225 116.0
1429.21814 192.0
1431.905518 140.0
1432.832031 72.0
1435.590698 136.0
1437.031494 36.0
1438.563477 108.0
1438.63147 160.0
1438.805054 136.0
1439.514771 188.0
1439.741333 156.0
1440.043457 160.0
1441.048096 64.0
1441.138794 104.0
1442.680542 136.0
1443.323242 168.0
1443.504639 200.0
1445.145996 208.0
1446.432617 160.0
1446.6521 168.0
1448.143799 224.0
1448.643677 140.0
1448.704346 236.0
1449.317993 200.0
1449.924194 148.0
1450.144043 124.0
1451.531372 140.0
1451.849854 88.0
1452.706909 156.0
1452.820679 180.0
1454.103027 96.0
1454.490112 152.0
1455.029053 176.0
1455.082275 172.0
1457.254395 172.0
1457.968628 156.0
1458.227051 216.0
1460.051758 92.0
1461.839478 128.0
1462.509155 160.0
1463.712036 168.0
1463.811035 236.0
1464.153687 48.0
1466.271606 152.0
1466.507935 92.0
1468.581787 180.0
1469.871094 196.0
1469.977905 220.0
1470.496826 164.0
1471.321167 200.0
1472.86377 164.0
1473.20752 108.0
1474.055542 144.0
1474.453003 252.0
1474.819824 44.0
1475.003296 220.0
1475.897705 132.0
1476.754272 200.0
1477.236938 188.0
1477.871094 224.0
1478.804688 236.0
1479.003784 104.0
1479.15686 108.0
1480.182739 176.0
1480.734131 176.0
1481.140015 168.0
1481.477051 164.0
1481.791138 104.0
1482.657104 144.0
1483.546143 140.0
1485.808472 172.0
1486.706299 160.0
1487.665649 224.0
1487.780762 156.0
1488.03418 56.0
1489.239746 172.0
1489.424072 184.0
1491.606323 124.0
1491.806274 176.0
1492.12915 172.0
1492.659668 184.0
1495.459961 132.0
1495.713989 112.0
1497.115234 136.0
1498.532471 236.0
1499.827148 208.0
1501.523315 168.0
1501.602417 164.0
1501.754761 132.0
1502.495239 184.0
1503.212891 92.0
1504.965088 112.0
