>compound MLS000028731-01!1-ADAMANTANAMINE HYDROCHLORIDE
>formula C10H17N
>ionization [M+H]+
>parentmass 152.142578
#inchi InChI=1S/C10H17N/c11-10-4-7-1-8(5-10)3-9(2-7)6-10/h7-9H,1-6,11H2
#inchikey DKNWSYNQZKUICI
#origInchi InChI=1S/C10H17N.ClH/c11-10-4-7-1-8(5-10)3-9(2-7)6-10;/h7-9H,1-6,11H2;1H/t7-,8+,9-,10-;
#Ion_Source LC-ESI
#Instrument qTof
#Compound_Source NIH Pharmacologically Active Library
#PI Dorrestein
#Data_Collector VP/LMS
#Scan -1
#Precursor_MZ 152.146
#ExactMass 151.136
#Charge 1
#CAS_Number N/A
#Pubmed_ID N/A
#Smiles N[C@]1(C[C@@H]2C[C@H]3C[C@@H](C2)C1)C3.Cl
#INCHI_AUX N/A
#Library_Class 1
#SpectrumID CCMSLIB00000086021
#IonMode Positive
#UpdateWorkflowName UPDATE-SINGLE-ANNOTATED-GOLD
#LibraryQualityString Gold
#TaskID d252d724072548979f1f6f1ced849daf
##Scan# 1184
#SpectrumFile p5-B04_GB4_01_18443.mzXML
#LibraryName Pharm_Active_Library.mgf
#MQScore -1
#Organism Pharm_Active_Library
#TIC_Query 0
#RT_Query -1
#MZErrorPPM -1
#SharedPeaks 0
#MassDiff 0
#LibMZ -1
#SpecMZ 152.146
#SpecCharge 0
#internalFilename spec-00000.mgf

>collision 10
45.162292 204.0
45.414093 52.0
45.813316 216.0
46.611565 156.0
46.668652 188.0
47.003723 152.0
47.434525 176.0
47.525036 48.0
48.831863 316.0
48.869423 32.0
49.81308 184.0
52.090252 220.0
52.761787 116.0
52.915138 208.0
53.100616 180.0
54.472656 172.0
54.653484 148.0
54.836086 140.0
55.215511 180.0
55.941963 212.0
56.230225 208.0
58.156765 108.0
58.326881 180.0
58.437893 172.0
58.766991 200.0
58.971615 184.0
59.10313 172.0
59.96154 184.0
61.297375 200.0
61.746967 212.0
61.831448 244.0
61.851795 148.0
62.157398 104.0
62.848152 56.0
63.1562 116.0
63.300217 144.0
63.855648 220.0
64.081688 136.0
64.850319 156.0
65.346519 140.0
65.39801 168.0
65.742897 112.0
66.080605 160.0
66.315407 80.0
66.693581 160.0
66.773247 36.0
66.945747 168.0
67.069565 148.0
67.544724 156.0
67.84111 180.0
68.098724 140.0
68.430893 156.0
68.472054 172.0
68.511589 164.0
68.595627 176.0
69.455467 144.0
70.210548 188.0
70.283951 224.0
70.847374 132.0
70.98481 128.0
71.003258 208.0
71.023384 36.0
72.280159 188.0
72.608795 156.0
72.625755 152.0
73.023186 168.0
73.161011 84.0
73.404655 168.0
74.050629 224.0
74.336922 192.0
74.627205 164.0
74.653 156.0
75.499718 96.0
75.736832 256.0
76.068016 156.0
76.403404 248.0
76.978569 168.0
77.356209 216.0
77.413986 56.0
78.529953 100.0
78.542297 80.0
79.07412 200.0
79.297272 56.0
79.52961 140.0
80.714302 256.0
80.945129 160.0
81.068733 144.0
81.907753 128.0
82.140274 172.0
82.546631 120.0
83.064606 116.0
83.904747 156.0
84.399529 168.0
84.54953 64.0
85.126984 152.0
85.393456 188.0
85.601402 144.0
86.87484 188.0
86.988037 208.0
87.629623 136.0
89.384041 68.0
89.421677 176.0
89.72683 216.0
90.096725 244.0
91.056557 1288.0
91.30793 232.0
91.361191 68.0
91.667725 184.0
91.738243 164.0
92.058105 348.0
92.945045 112.0
93.070183 2020.0
93.941628 88.0
94.075249 328.0
94.664467 112.0
94.691582 116.0
94.712883 184.0
95.709137 136.0
96.573647 172.0
98.101303 160.0
98.569054 240.0
98.907234 140.0
99.190483 196.0
99.957085 224.0
100.385361 128.0
100.511024 84.0
100.888496 152.0
101.226624 200.0
102.42337 180.0
102.461868 76.0
102.500145 176.0
102.70578 184.0
103.538467 40.0
104.447731 140.0
104.584053 76.0
105.071136 880.0
105.09964 32.0
105.311943 144.0
105.471313 52.0
105.907135 64.0
106.508102 148.0
106.833267 196.0
106.933708 28.0
107.086693 4548.0
107.176704 128.0
107.413788 68.0
107.438538 168.0
107.467422 184.0
107.510757 60.0
108.086327 276.0
108.478714 196.0
108.69648 200.0
108.783646 200.0
109.263695 140.0
110.584557 100.0
111.942833 148.0
112.212532 148.0
112.92627 64.0
113.161156 92.0
113.379333 136.0
113.502281 216.0
117.141998 232.0
117.812881 92.0
117.927399 188.0
118.520348 88.0
118.763145 152.0
118.795677 64.0
119.082962 340.0
119.18647 152.0
120.098618 192.0
121.224518 120.0
123.070007 92.0
123.976921 212.0
124.023468 216.0
124.411652 100.0
125.056267 84.0
125.120819 196.0
125.847633 152.0
126.612373 184.0
126.892464 168.0
126.919373 152.0
127.440094 152.0
128.934067 236.0
129.284592 200.0
131.081741 228.0
132.163132 180.0
132.795395 180.0
132.916977 160.0
133.101181 468.0
133.988388 160.0
134.101303 200.0
134.230392 124.0
134.288055 40.0
134.417511 172.0
134.830597 44.0
134.93924 228.0
135.043289 156.0
135.071045 212.0
135.091873 136.0
135.118271 20424.0
135.184158 148.0
135.23764 96.0
135.27005 84.0
135.314026 44.0
135.348755 44.0
135.369598 128.0
135.415924 36.0
135.439087 140.0
135.455292 104.0
135.496994 96.0
135.531738 40.0
135.580414 40.0
135.689346 44.0
135.886475 80.0
136.120651 3036.0
136.348572 44.0
136.520599 128.0
136.564789 88.0
136.699707 60.0
136.741608 68.0
136.816086 40.0
137.12822 164.0
137.412704 60.0
138.202393 120.0
147.289551 64.0
147.480438 108.0
152.142578 348.0
159.071655 160.0
183.868851 76.0
190.221695 84.0
225.005295 48.0
232.291046 92.0
243.367477 84.0
251.352402 92.0
263.796082 56.0
275.459137 104.0
354.423981 64.0
436.43161 44.0
519.173218 152.0
521.670349 92.0
693.490051 128.0
759.021545 96.0
767.130798 100.0
768.024109 184.0
793.751404 184.0
834.217346 100.0
876.372681 136.0
878.418335 64.0
896.781738 264.0
912.621399 48.0
917.196655 136.0
923.887329 212.0
932.199768 132.0
937.871765 160.0
940.866882 224.0
953.767517 168.0
963.126953 204.0
983.836121 160.0
993.743042 156.0
1013.769226 136.0
1017.911438 104.0
1019.518616 216.0
1046.074707 244.0
1052.76062 120.0
1056.075928 224.0
1057.803589 180.0
1068.075317 168.0
1082.171021 216.0
1099.036377 64.0
1107.464966 236.0
1113.560181 76.0
1121.877441 128.0
1122.84436 180.0
1125.566895 156.0
1128.413208 156.0
1135.450806 160.0
1135.517822 212.0
1146.604004 104.0
1148.377197 160.0
1149.712891 128.0
1151.535767 40.0
1155.469849 188.0
1156.823242 160.0
1157.439331 188.0
1157.52063 184.0
1163.609253 120.0
1174.626709 212.0
1179.24231 176.0
1181.39624 152.0
1182.210449 216.0
1186.991699 140.0
1187.183716 156.0
1192.628052 180.0
1193.205444 140.0
1197.327026 44.0
1197.822876 204.0
1199.993652 224.0
1210.565308 156.0
1213.31604 160.0
1213.815186 212.0
1213.974731 172.0
1216.409912 164.0
1223.013184 80.0
1236.749268 164.0
1238.681885 184.0
1240.475708 204.0
1241.94812 148.0
1242.305908 188.0
1242.607544 152.0
1242.944336 124.0
1246.651978 176.0
1252.512451 132.0
1254.379761 132.0
1261.480957 160.0
1275.551636 168.0
1281.828735 192.0
1286.700195 156.0
1302.289062 220.0
1303.711548 32.0
1306.695435 220.0
1310.943604 52.0
1315.935059 184.0
1320.661011 220.0
1325.80127 192.0
1326.446289 148.0
1328.295288 164.0
1332.091675 88.0
1333.00708 176.0
1337.843628 92.0
1344.790161 220.0
1347.009888 172.0
1349.1875 196.0
1349.326416 136.0
1358.187012 240.0
1360.050659 200.0
1361.453003 148.0
1363.796509 76.0
1365.053711 248.0
1366.561523 200.0
1369.27771 152.0
1369.866943 224.0
1371.104858 184.0
1372.262085 176.0
1375.766357 64.0
1378.861206 88.0
1379.356445 40.0
1385.453857 76.0
1388.722778 208.0
1392.849609 156.0
1396.134644 84.0
1413.283569 156.0
1420.355469 64.0
1422.614136 192.0
1446.752197 88.0
1447.668335 180.0
1449.43335 68.0
1454.005981 124.0
1455.182495 160.0
1456.374756 232.0
1460.882202 176.0
1466.501587 160.0
1468.430542 56.0
1468.560181 84.0
1478.759888 180.0
1486.546021 180.0
1494.444824 172.0
1494.852661 132.0
1496.045654 196.0
1500.837646 184.0
