>compound MLS000028566-01!Minoxidil
>formula C9H15N5O
>ionization [M+H]+
>parentmass 210.134
#inchi InChI=1S/C9H15N5O/c10-7-6-8(12-9(11)14(7)15)13-4-2-1-3-5-13/h6,10,15H,1-5H2,(H2,11,12)
#inchikey IHGXBAMAHRLAOP
#Ion_Source LC-ESI
#Instrument qTof
#Compound_Source NIH Pharmacologically Active Library
#PI Dorrestein
#Data_Collector VP/LMS
#Scan -1
#Precursor_MZ 210.134
#ExactMass 209.128
#Charge 1
#CAS_Number N/A
#Pubmed_ID N/A
#Smiles Nc1nc(cc(=N)n1O)N2CCCCC2
#INCHI_AUX N/A
#Library_Class 1
#SpectrumID CCMSLIB00000085945
#IonMode Positive
#UpdateWorkflowName UPDATE-SINGLE-ANNOTATED-GOLD
#LibraryQualityString Gold
#TaskID d252d724072548979f1f6f1ced849daf
##Scan# 1245
#SpectrumFile p4-H06_GH6_01_18414.mzXML
#LibraryName Pharm_Active_Library.mgf
#MQScore -1
#Organism Pharm_Active_Library
#TIC_Query 0
#RT_Query -1
#MZErrorPPM -1
#SharedPeaks 0
#MassDiff 0
#LibMZ -1
#SpecMZ 210.134
#SpecCharge 0
#internalFilename spec-00000.mgf

>collision 10
44.902222 264.0
45.000973 204.0
45.085129 88.0
45.146626 196.0
45.186756 200.0
45.19746 152.0
45.233307 184.0
45.300552 200.0
45.327351 160.0
45.356834 84.0
45.375412 168.0
45.394375 120.0
45.434616 172.0
45.452057 148.0
45.503063 56.0
45.524548 144.0
45.614571 148.0
45.668358 216.0
45.750443 144.0
45.785694 156.0
45.878426 140.0
45.897301 132.0
45.929668 176.0
46.137634 116.0
46.166031 56.0
46.342007 220.0
46.36911 208.0
46.403461 240.0
46.412491 204.0
46.500671 192.0
46.529179 112.0
46.6297 188.0
46.646011 168.0
46.724888 208.0
46.753464 240.0
46.827114 168.0
46.87603 192.0
46.888294 224.0
46.914192 156.0
46.942825 152.0
46.979652 204.0
47.051987 140.0
47.14077 144.0
47.185879 224.0
47.214745 180.0
47.231007 132.0
47.33913 128.0
47.44738 128.0
47.481659 124.0
47.502464 168.0
47.533791 204.0
47.562614 188.0
47.598309 176.0
47.823776 92.0
47.850002 164.0
47.892624 116.0
47.910534 56.0
47.944981 136.0
47.96014 192.0
47.971169 124.0
48.05254 176.0
48.099461 64.0
48.142262 216.0
48.232071 152.0
48.248657 204.0
48.319195 136.0
48.398087 164.0
48.468731 200.0
48.578262 152.0
48.604626 192.0
48.635155 112.0
48.679585 148.0
48.761551 128.0
48.793526 212.0
48.838024 100.0
48.967468 108.0
49.003689 156.0
49.062923 220.0
49.084534 72.0
49.112427 136.0
49.141724 136.0
49.164051 152.0
49.235249 156.0
49.249218 208.0
49.267376 164.0
49.299515 160.0
49.387596 248.0
49.442165 108.0
49.481358 156.0
49.678967 168.0
49.740711 176.0
49.795475 232.0
49.839024 180.0
49.864967 156.0
49.878376 168.0
49.921963 100.0
50.021858 76.0
50.07114 68.0
50.141586 124.0
50.186695 128.0
50.247345 164.0
50.275566 204.0
50.316502 136.0
50.337681 192.0
50.361691 184.0
50.390572 236.0
50.46627 132.0
50.58511 136.0
50.621925 204.0
50.637501 168.0
50.654499 92.0
50.789165 332.0
50.817539 156.0
50.827469 136.0
50.915485 136.0
50.9851 124.0
51.066143 184.0
51.111668 216.0
51.125896 124.0
51.172871 72.0
51.205624 108.0
51.27829 160.0
51.296818 144.0
51.348152 172.0
51.528015 172.0
51.580894 152.0
51.64238 212.0
51.716976 176.0
51.729664 72.0
51.781212 140.0
51.880085 204.0
51.933144 156.0
51.948921 184.0
51.970444 44.0
52.068062 124.0
52.125523 176.0
52.195961 164.0
52.220409 172.0
52.475883 124.0
52.504143 204.0
52.519035 208.0
52.608032 148.0
52.619583 184.0
52.675903 32.0
52.766953 232.0
52.798157 200.0
52.827694 156.0
52.84795 112.0
52.863865 136.0
52.953629 160.0
53.027519 44.0
53.037666 144.0
53.146439 124.0
53.200138 176.0
53.271297 260.0
53.320702 156.0
53.362858 184.0
53.410847 196.0
53.62027 164.0
53.643841 212.0
53.760769 168.0
53.92556 328.0
53.981117 120.0
54.055721 92.0
54.238995 208.0
54.293049 144.0
54.40897 296.0
54.622059 160.0
54.654922 220.0
54.702995 156.0
54.859146 120.0
54.877579 148.0
54.907806 224.0
54.938786 240.0
55.030499 56.0
55.059822 196.0
55.155861 184.0
55.263824 188.0
55.275661 144.0
55.391144 232.0
55.432629 216.0
55.490437 180.0
55.612083 208.0
55.757637 48.0
55.928684 240.0
55.962925 212.0
56.04932 188.0
56.061241 132.0
56.10894 124.0
56.16061 192.0
56.17754 236.0
56.217827 40.0
56.365665 128.0
56.382107 56.0
56.480145 252.0
56.533154 136.0
56.567577 168.0
56.605011 120.0
56.715878 168.0
56.873375 92.0
56.897392 188.0
56.919918 188.0
56.937939 152.0
56.995022 252.0
57.077698 104.0
57.088223 80.0
57.115295 64.0
57.250755 156.0
57.315533 116.0
57.378838 172.0
57.405979 180.0
57.466175 128.0
57.471466 116.0
57.47739 176.0
57.575001 72.0
57.612766 68.0
57.638451 152.0
57.661118 124.0
57.695885 168.0
57.729153 80.0
57.780579 44.0
57.829002 168.0
57.853222 164.0
57.922886 248.0
57.93652 128.0
58.004711 168.0
58.103287 148.0
58.113907 196.0
58.173096 112.0
58.197388 148.0
58.238392 152.0
58.268776 128.0
58.296127 100.0
58.507553 72.0
58.531914 184.0
58.603165 160.0
58.725464 132.0
58.789543 264.0
58.902527 116.0
58.913219 132.0
59.000332 200.0
59.092098 120.0
59.156376 192.0
59.181381 104.0
59.199249 108.0
59.298832 44.0
59.344822 92.0
59.482899 32.0
59.512066 72.0
59.528957 148.0
59.561211 120.0
59.614319 204.0
59.71492 204.0
59.884224 124.0
59.987465 204.0
60.015217 164.0
60.073826 220.0
60.095425 120.0
60.16951 132.0
60.20348 212.0
60.28072 200.0
60.33482 144.0
60.492619 196.0
60.512745 212.0
60.560749 192.0
60.675426 164.0
60.703335 168.0
60.71574 180.0
60.751419 132.0
60.821247 128.0
60.853851 156.0
60.869377 252.0
60.93306 256.0
61.104263 208.0
61.456211 56.0
61.473377 132.0
61.531132 160.0
61.546417 76.0
61.612343 136.0
61.670162 152.0
61.692047 332.0
61.721752 208.0
61.735828 192.0
61.901566 172.0
61.978466 64.0
61.997269 212.0
62.023914 160.0
62.130554 80.0
62.158794 196.0
62.190182 156.0
62.232571 212.0
62.295391 184.0
62.311104 244.0
62.331528 188.0
62.399746 180.0
62.476181 308.0
62.506077 52.0
62.561165 220.0
62.572186 180.0
62.622578 224.0
62.695049 188.0
62.748646 124.0
62.859058 192.0
62.926933 176.0
63.070694 232.0
63.149754 116.0
63.167152 208.0
63.194046 164.0
63.273182 156.0
63.284267 216.0
63.472828 140.0
63.509304 144.0
63.552135 132.0
63.669609 132.0
63.791958 136.0
63.803085 144.0
63.817394 164.0
63.863514 132.0
63.927151 144.0
63.990822 180.0
64.013115 212.0
64.029037 76.0
64.09436 100.0
64.241035 80.0
64.306465 196.0
64.426224 144.0
64.498138 144.0
64.523712 176.0
64.690094 164.0
64.718918 200.0
64.773369 264.0
64.789391 224.0
64.837456 172.0
64.896774 156.0
65.078079 196.0
65.155174 256.0
65.208206 148.0
65.270905 96.0
65.351326 256.0
65.418922 60.0
65.521996 132.0
65.615471 212.0
65.638046 124.0
65.71386 192.0
65.726768 304.0
65.744514 88.0
65.76873 148.0
65.805534 220.0
65.88015 120.0
65.947517 168.0
66.053123 140.0
66.202026 144.0
66.365692 156.0
66.417587 144.0
66.443542 252.0
66.544174 44.0
66.594513 160.0
66.666 120.0
66.794449 160.0
66.807465 184.0
66.856644 160.0
66.93116 176.0
66.983276 144.0
67.05986 40.0
67.085938 180.0
67.172371 240.0
67.555527 212.0
67.616806 180.0
67.65023 144.0
67.680656 144.0
67.772385 168.0
67.903267 176.0
67.92485 176.0
68.067642 160.0
68.09063 156.0
68.120201 220.0
68.180992 204.0
68.192497 148.0
68.416214 28.0
68.46067 152.0
68.571053 144.0
68.666679 36.0
68.823456 220.0
68.972145 148.0
69.046547 192.0
69.117683 116.0
69.234352 128.0
69.406647 172.0
69.430779 232.0
69.59507 48.0
69.663162 132.0
69.787811 208.0
69.822144 204.0
69.869308 160.0
69.887611 172.0
69.990814 100.0
70.04744 220.0
70.06076 176.0
70.260826 276.0
70.309212 184.0
70.342598 152.0
70.589874 124.0
70.643394 296.0
70.933105 180.0
71.037071 108.0
71.057762 60.0
71.12265 92.0
71.19989 152.0
71.332626 132.0
71.389793 180.0
71.421753 212.0
71.44194 220.0
71.573547 224.0
71.605217 88.0
71.699562 156.0
71.765305 44.0
71.819275 68.0
71.844574 124.0
71.859764 144.0
71.889748 156.0
71.896492 120.0
71.934021 112.0
71.961029 96.0
72.002861 176.0
72.082649 192.0
72.109688 164.0
72.206062 132.0
72.251732 244.0
72.26696 140.0
72.300804 180.0
72.363434 180.0
72.389923 156.0
72.426094 60.0
72.465057 164.0
72.493866 172.0
72.527763 156.0
72.718369 192.0
72.894356 208.0
72.997604 136.0
73.01506 192.0
73.042274 220.0
73.12735 156.0
73.149483 208.0
73.171608 88.0
73.241432 144.0
73.278915 208.0
73.304474 184.0
73.794365 336.0
74.03051 124.0
74.109306 116.0
74.165344 132.0
74.335648 104.0
74.589844 136.0
74.822083 96.0
74.873741 248.0
74.885803 188.0
75.094353 128.0
75.288391 188.0
75.405136 156.0
75.482933 124.0
75.505417 104.0
75.719604 180.0
75.815315 124.0
75.89505 192.0
76.014748 196.0
76.077225 192.0
76.208618 196.0
76.27874 72.0
76.38134 148.0
76.421349 156.0
76.496185 156.0
76.590218 160.0
76.607643 156.0
76.635513 136.0
76.715691 204.0
76.774971 188.0
76.841255 360.0
76.937248 160.0
77.014084 220.0
77.083969 68.0
77.255318 192.0
77.272636 160.0
77.306061 136.0
77.377823 116.0
77.460136 144.0
77.479401 196.0
77.503479 232.0
77.520584 200.0
77.544243 208.0
77.605598 136.0
77.647682 60.0
77.670486 288.0
77.735405 168.0
77.798592 184.0
77.856537 152.0
77.898689 216.0
77.914497 376.0
77.940857 76.0
78.023468 164.0
78.079735 176.0
78.213455 136.0
78.243439 128.0
78.300674 164.0
78.491821 236.0
78.534149 116.0
78.654137 136.0
78.726524 120.0
78.754784 208.0
78.83252 36.0
78.985031 108.0
79.209381 172.0
79.32811 80.0
79.469994 124.0
79.493065 28.0
79.54808 244.0
79.562286 180.0
79.590691 64.0
79.603127 188.0
79.677895 124.0
79.702599 132.0
79.974701 136.0
80.095779 224.0
80.118942 36.0
80.270447 156.0
80.311462 40.0
80.327522 116.0
80.351631 176.0
80.420303 172.0
80.520294 216.0
80.552444 216.0
80.573883 164.0
80.622124 44.0
80.700783 188.0
80.799149 88.0
80.932373 212.0
81.223724 152.0
81.309853 200.0
81.354721 204.0
81.408592 132.0
81.570297 168.0
81.631424 136.0
81.681786 168.0
81.778954 180.0
81.915802 212.0
82.011307 160.0
82.043755 84.0
82.411942 124.0
82.433624 124.0
82.549324 104.0
82.616249 140.0
82.635872 208.0
82.840729 160.0
82.853409 164.0
82.876961 192.0
82.911392 136.0
82.925896 156.0
83.048225 212.0
83.065514 204.0
83.116318 160.0
83.145348 40.0
83.163498 112.0
83.277893 180.0
83.317856 188.0
83.354195 88.0
83.401268 164.0
83.562462 208.0
83.585136 56.0
83.829147 124.0
83.912994 152.0
84.060745 180.0
84.079384 56.0
84.157494 164.0
84.170273 192.0
84.228714 132.0
84.242958 172.0
84.344116 184.0
84.542397 156.0
84.563332 132.0
84.585297 176.0
84.609093 140.0
84.6595 288.0
84.854599 160.0
84.915115 168.0
84.984825 204.0
85.014076 200.0
85.018356 276.0
85.155548 192.0
85.32093 204.0
85.341156 144.0
85.400009 136.0
85.493469 400.0
85.519608 104.0
85.646652 176.0
85.889969 224.0
85.980377 116.0
86.05307 148.0
86.12439 144.0
86.233406 168.0
86.262985 164.0
86.548248 192.0
86.759117 196.0
86.888939 168.0
87.063431 184.0
87.199051 152.0
87.325485 56.0
87.48185 124.0
87.519028 72.0
87.604698 192.0
87.738884 156.0
87.75193 124.0
87.8228 252.0
87.940346 224.0
87.992615 156.0
88.03183 164.0
88.259804 140.0
88.306557 120.0
88.353325 56.0
88.476845 208.0
88.546127 192.0
88.566734 180.0
88.673531 40.0
88.701645 144.0
88.847923 136.0
89.043144 128.0
89.332619 132.0
89.582993 140.0
89.597961 144.0
89.682861 156.0
89.775246 124.0
89.833717 244.0
89.878998 132.0
89.990074 208.0
90.113129 232.0
90.245438 184.0
90.322975 104.0
90.358925 176.0
90.491409 204.0
90.542542 108.0
90.586105 156.0
90.610733 180.0
90.648628 172.0
90.714966 196.0
90.878067 196.0
90.897041 156.0
91.223045 212.0
91.263649 256.0
91.308578 172.0
91.334015 132.0
91.451988 216.0
91.691971 148.0
91.707222 148.0
91.760597 100.0
92.012444 140.0
92.050629 272.0
92.091232 184.0
92.247429 164.0
92.297134 124.0
92.377464 160.0
92.45974 124.0
92.660805 184.0
92.819893 136.0
92.892776 300.0
92.956093 160.0
93.042259 260.0
93.080864 140.0
93.111595 60.0
93.228783 156.0
93.403748 224.0
93.707924 176.0
93.75032 132.0
93.80043 192.0
93.858269 148.0
93.939278 192.0
94.033905 192.0
94.109116 204.0
94.299927 176.0
94.316772 176.0
94.33709 204.0
94.431839 196.0
94.445381 160.0
94.590508 124.0
94.652466 196.0
94.706688 252.0
94.726059 160.0
94.86171 240.0
94.96254 188.0
95.060966 1216.0
95.095581 148.0
95.148834 200.0
95.20031 192.0
95.218735 28.0
95.259529 68.0
95.277016 148.0
95.549194 192.0
95.775017 248.0
95.967949 224.0
96.05735 308.0
96.075806 160.0
96.100586 148.0
96.430183 200.0
96.680954 216.0
96.749466 168.0
96.986496 220.0
97.051636 500.0
97.065193 332.0
97.098251 244.0
97.196342 204.0
97.257179 80.0
97.27092 88.0
97.29055 148.0
97.612785 176.0
97.636269 132.0
97.78788 208.0
97.827248 172.0
97.949341 80.0
98.059181 944.0
98.097137 164.0
98.207558 40.0
98.27121 76.0
98.491112 204.0
98.566872 176.0
98.62616 160.0
98.649879 112.0
98.671631 156.0
98.707222 196.0
98.721062 216.0
98.744797 104.0
98.966438 156.0
99.010002 232.0
99.039711 112.0
99.329117 192.0
99.402527 160.0
99.471992 184.0
99.571312 204.0
99.674576 144.0
99.88134 140.0
100.029472 336.0
100.066422 188.0
100.082352 192.0
100.185921 196.0
100.201859 148.0
100.22377 156.0
100.331398 60.0
100.357323 192.0
100.465019 136.0
100.564796 184.0
100.62468 112.0
100.681564 148.0
100.732529 156.0
100.808907 244.0
100.830437 176.0
100.886406 164.0
101.004387 144.0
101.020393 64.0
101.153893 208.0
101.2686 164.0
101.304657 152.0
101.367302 60.0
101.442932 52.0
101.535172 92.0
101.665573 152.0
101.684738 284.0
101.751663 180.0
101.790039 188.0
101.986923 144.0
102.033165 264.0
102.066002 108.0
102.173943 136.0
102.190041 160.0
102.26651 48.0
102.316841 68.0
102.361137 176.0
102.40947 244.0
102.506172 156.0
102.604942 92.0
102.633171 144.0
102.697701 220.0
102.78849 132.0
102.889412 148.0
102.924339 120.0
102.955032 176.0
103.036842 156.0
103.129799 128.0
103.243019 216.0
103.287521 136.0
103.391693 148.0
103.429161 176.0
103.508125 204.0
103.566856 152.0
103.597237 128.0
103.653969 216.0
103.726936 84.0
103.759369 148.0
104.171349 140.0
104.191658 180.0
104.222137 196.0
104.244492 180.0
104.346123 80.0
104.370522 168.0
104.565819 148.0
104.602455 268.0
104.704704 204.0
104.726669 168.0
104.783707 172.0
104.802048 164.0
104.923615 180.0
105.044884 2480.0
105.132393 152.0
105.220169 64.0
105.248749 196.0
105.26445 88.0
105.359047 136.0
105.405121 160.0
105.441666 188.0
105.456841 56.0
105.489838 140.0
105.571625 136.0
105.620712 136.0
105.712776 132.0
105.84993 168.0
105.901131 224.0
105.919571 184.0
106.020882 248.0
106.047897 196.0
106.12384 160.0
106.220901 156.0
106.278343 160.0
106.350464 140.0
106.366592 180.0
106.430237 176.0
106.462143 208.0
106.57608 208.0
106.635674 140.0
106.738464 196.0
106.794449 72.0
106.872169 108.0
106.886574 156.0
106.921272 172.0
107.024483 116.0
107.046143 532.0
107.057854 380.0
107.086266 164.0
107.100685 64.0
107.234612 244.0
107.319138 136.0
107.385124 140.0
107.428444 136.0
107.454948 184.0
107.595612 200.0
107.690742 176.0
107.742241 120.0
107.773232 128.0
107.864166 108.0
107.93087 184.0
108.000641 164.0
108.056587 2600.0
108.11718 148.0
108.269707 28.0
108.327705 172.0
108.423019 172.0
108.460327 196.0
108.485817 148.0
108.775627 80.0
108.842064 132.0
108.873215 180.0
108.900215 160.0
108.933449 84.0
108.977081 48.0
109.026955 164.0
109.05175 2892.0
109.075111 164.0
109.112175 140.0
109.164162 184.0
109.324951 184.0
109.390945 52.0
109.453407 160.0
109.517967 200.0
109.557549 56.0
109.572136 28.0
109.620056 124.0
109.645065 140.0
109.663757 196.0
109.707596 196.0
109.745125 100.0
109.836655 176.0
109.882782 156.0
109.916779 192.0
109.932861 236.0
109.980865 232.0
110.031525 224.0
110.059349 24720.0
110.112518 220.0
110.145828 60.0
110.191788 44.0
110.233582 72.0
110.248207 92.0
110.292099 88.0
110.319275 64.0
110.381714 204.0
110.401558 68.0
110.530518 84.0
110.561905 104.0
110.668671 188.0
111.007774 140.0
111.063957 2856.0
111.094978 368.0
111.131889 84.0
111.154968 164.0
111.171761 88.0
111.213737 96.0
111.264404 256.0
111.299812 168.0
111.461555 68.0
111.505684 72.0
111.657631 172.0
111.697029 168.0
111.73069 160.0
111.768562 176.0
111.789604 144.0
111.806435 108.0
111.881744 144.0
111.909584 176.0
111.962234 68.0
112.014885 100.0
112.06852 308.0
112.101402 192.0
112.17083 112.0
112.278358 140.0
112.312103 148.0
112.335312 52.0
112.698235 200.0
112.920418 152.0
113.046616 1092.0
113.076981 64.0
113.265427 96.0
113.348053 148.0
113.487953 120.0
113.524002 68.0
113.812843 176.0
113.848701 176.0
113.872063 192.0
114.178108 144.0
114.344063 144.0
114.503029 136.0
114.60173 36.0
114.746666 104.0
114.780785 124.0
114.834099 168.0
114.873917 204.0
114.913033 160.0
114.934364 196.0
114.989853 140.0
115.088051 204.0
115.184158 152.0
115.203384 348.0
115.237564 28.0
115.372215 116.0
115.397873 156.0
115.444916 120.0
115.539024 176.0
115.714523 144.0
115.759491 140.0
115.836601 120.0
115.898727 60.0
115.944801 184.0
115.987389 184.0
116.20105 136.0
116.228951 136.0
116.278305 132.0
116.319084 144.0
116.469398 160.0
116.664948 124.0
116.688599 160.0
116.707954 316.0
116.93084 248.0
117.028549 88.0
117.095314 124.0
117.157776 176.0
117.179321 184.0
117.384094 184.0
117.478996 108.0
117.551468 184.0
117.606308 228.0
117.753136 152.0
117.813614 80.0
117.839539 40.0
117.87191 184.0
117.895721 164.0
117.956245 96.0
118.048386 104.0
118.089783 232.0
118.172508 172.0
118.220116 136.0
118.252579 160.0
118.304527 136.0
118.675011 88.0
118.818161 104.0
118.878914 120.0
119.004814 108.0
119.059731 1108.0
119.139473 128.0
119.165543 88.0
119.506905 196.0
119.728943 88.0
119.779045 96.0
119.89016 180.0
120.010056 128.0
120.056259 3440.0
120.101654 164.0
120.136551 40.0
120.162735 36.0
120.186737 172.0
120.217285 168.0
120.250832 140.0
120.354935 140.0
120.507706 152.0
120.527374 212.0
120.577637 140.0
120.717552 148.0
120.875053 204.0
120.899124 220.0
120.927574 204.0
120.960411 80.0
120.9823 56.0
121.055183 296.0
121.111504 164.0
121.179413 188.0
121.207901 180.0
121.267067 184.0
121.324066 60.0
121.350372 136.0
121.453445 104.0
121.506096 244.0
121.534615 180.0
121.641151 96.0
121.67289 140.0
121.708809 244.0
121.754143 184.0
121.798065 196.0
121.837608 116.0
121.918907 164.0
121.93869 112.0
121.965065 132.0
122.011551 164.0
122.071877 13336.0
122.158577 208.0
122.191574 48.0
122.239983 208.0
122.363251 72.0
122.494308 84.0
122.552666 192.0
122.662857 56.0
122.722389 44.0
122.753258 44.0
122.837067 168.0
122.859131 180.0
122.891548 144.0
123.067642 1972.0
123.115173 40.0
123.14679 128.0
123.201317 84.0
123.231369 160.0
123.314018 108.0
123.333908 120.0
123.35601 64.0
123.402443 108.0
123.440033 156.0
123.457726 136.0
123.610367 80.0
123.632492 184.0
123.674545 164.0
123.740959 36.0
123.765312 76.0
123.819901 160.0
123.882698 76.0
123.933655 160.0
124.004807 108.0
124.022301 144.0
124.073128 2016.0
124.157547 180.0
124.197472 36.0
124.306183 136.0
124.45713 76.0
124.675148 168.0
124.728172 220.0
124.881599 148.0
125.042633 148.0
125.069283 2420.0
125.155327 172.0
125.215454 140.0
125.28228 60.0
125.304558 48.0
125.334045 92.0
125.48732 64.0
125.574287 68.0
125.612213 164.0
125.663521 136.0
125.815292 44.0
125.892601 140.0
125.931404 44.0
125.962677 92.0
125.996185 156.0
126.053246 1696.0
126.077934 656.0
126.12133 216.0
126.173782 156.0
126.219704 140.0
126.257721 172.0
126.282814 164.0
126.310204 172.0
126.338242 48.0
126.445648 152.0
126.515213 160.0
126.56057 156.0
126.709885 116.0
126.7547 200.0
126.797279 204.0
126.866768 156.0
126.893669 156.0
126.929543 148.0
127.055321 260.0
127.093292 112.0
127.109001 116.0
127.126953 212.0
127.194283 188.0
127.239182 136.0
127.362694 132.0
127.432343 152.0
127.663864 168.0
127.690857 156.0
127.726845 136.0
127.882103 104.0
127.958641 248.0
128.073486 124.0
128.244736 188.0
128.366486 160.0
128.384521 188.0
128.517609 152.0
128.647659 136.0
128.734314 184.0
128.763672 248.0
128.788528 148.0
128.808853 208.0
128.960251 180.0
129.102676 216.0
129.129822 84.0
129.184113 144.0
129.317612 200.0
129.34024 136.0
129.410431 80.0
129.507812 120.0
129.700409 220.0
129.995255 152.0
130.020218 44.0
130.041 336.0
130.340408 60.0
130.367691 44.0
130.451782 252.0
130.588211 168.0
130.665558 140.0
130.707245 176.0
130.731552 104.0
130.747482 156.0
130.906845 208.0
131.064011 180.0
131.157455 132.0
131.342163 180.0
131.536118 120.0
131.762207 256.0
131.933609 124.0
132.04306 272.0
132.075394 32.0
132.260727 100.0
132.297363 112.0
132.315674 160.0
132.447906 168.0
132.473694 104.0
132.521805 236.0
132.721222 140.0
132.82901 148.0
132.907013 124.0
132.994232 220.0
133.049866 524.0
133.075211 724.0
133.113617 48.0
133.131989 68.0
133.352539 72.0
133.375534 144.0
133.435303 72.0
133.656113 192.0
133.702133 120.0
134.037552 184.0
134.044266 120.0
134.052261 128.0
134.324249 140.0
134.386536 172.0
134.44191 176.0
134.693588 212.0
135.010239 60.0
135.047241 124.0
135.066788 180.0
135.206879 136.0
135.292526 152.0
135.322632 144.0
135.5056 88.0
135.575119 100.0
135.626099 224.0
135.877167 200.0
136.062531 576.0
136.085815 544.0
136.196915 196.0
136.410706 100.0
136.450226 168.0
136.540909 48.0
136.568817 148.0
136.615341 52.0
136.66188 116.0
136.829453 348.0
136.852737 204.0
136.906296 144.0
136.948227 120.0
136.9785 144.0
137.013443 188.0
137.048401 168.0
137.082657 29184.0
137.136337 112.0
137.174423 52.0
137.272171 28.0
137.307159 44.0
137.332809 260.0
137.34729 192.0
137.398758 88.0
137.435455 80.0
137.462585 32.0
137.545151 120.0
137.654877 200.0
137.72728 72.0
137.84877 152.0
137.882599 160.0
137.923569 116.0
137.983719 196.0
138.045135 196.0
138.080688 6744.0
138.18782 44.0
138.215897 208.0
138.252167 40.0
138.329056 92.0
138.358673 152.0
138.409607 64.0
138.442978 48.0
138.46405 76.0
138.50296 176.0
138.526535 172.0
138.542557 124.0
138.632736 108.0
138.771027 112.0
138.821442 32.0
138.928162 104.0
138.984482 140.0
139.046387 156.0
139.085602 1616.0
139.121445 156.0
139.144226 132.0
139.190002 100.0
139.276855 148.0
139.317871 48.0
139.360168 132.0
139.376617 144.0
139.418915 100.0
139.463562 68.0
139.545853 192.0
139.574066 76.0
139.636307 120.0
139.668137 56.0
139.70578 84.0
139.732681 128.0
140.082977 176.0
140.160187 144.0
140.431305 168.0
140.4944 160.0
140.761703 64.0
140.863266 32.0
141.019211 120.0
141.040482 136.0
141.102203 152.0
141.142151 88.0
141.364502 140.0
141.404739 164.0
141.744873 148.0
141.857162 136.0
141.973343 220.0
142.04863 948.0
142.111526 208.0
142.14415 152.0
142.191605 156.0
142.260452 44.0
142.400894 192.0
142.523331 164.0
142.550217 52.0
142.583496 152.0
142.72374 212.0
142.814117 176.0
142.830765 180.0
142.935455 312.0
143.049957 148.0
143.47612 200.0
143.697937 208.0
143.728943 180.0
143.91275 244.0
143.962891 188.0
144.056046 188.0
144.139664 132.0
144.209564 192.0
144.361984 192.0
144.395615 200.0
144.426559 148.0
144.567719 72.0
144.603622 156.0
144.661072 132.0
144.855042 176.0
144.873596 144.0
144.914932 64.0
144.965256 52.0
145.052841 484.0
145.121063 60.0
145.257767 144.0
145.315338 244.0
145.49054 136.0
145.579376 136.0
145.836456 104.0
145.886932 208.0
146.058807 336.0
146.192413 108.0
146.334427 92.0
146.613861 156.0
146.705444 152.0
146.770554 68.0
146.81636 132.0
146.847717 132.0
146.922501 264.0
146.960159 224.0
146.992096 104.0
147.024963 204.0
147.066666 17816.0
147.108322 64.0
147.192825 40.0
147.251007 44.0
147.30098 92.0
147.427155 228.0
147.460983 152.0
147.678009 164.0
147.714874 40.0
147.956879 60.0
147.983505 256.0
148.036789 184.0
148.070084 1768.0
148.099747 172.0
148.182114 52.0
148.206345 188.0
148.30571 80.0
148.34935 48.0
148.579727 128.0
148.713196 116.0
148.778748 88.0
148.951157 60.0
149.01918 100.0
149.043488 108.0
149.080872 2504.0
149.152847 220.0
149.296295 128.0
149.319748 224.0
149.328659 144.0
149.414581 96.0
149.532288 96.0
149.59314 136.0
149.705658 132.0
149.724319 220.0
149.831802 152.0
149.873749 260.0
149.951218 156.0
150.024338 64.0
150.041397 188.0
150.078323 18492.0
150.202362 168.0
150.241394 60.0
150.258469 48.0
150.290909 276.0
150.338989 156.0
150.397568 60.0
150.459305 152.0
150.564972 64.0
150.590454 224.0
150.63443 72.0
150.671066 68.0
150.732162 56.0
150.759033 144.0
150.886139 60.0
150.911575 132.0
151.085434 2736.0
151.175369 244.0
151.247314 64.0
151.298264 124.0
151.414688 80.0
151.431839 84.0
151.529831 116.0
151.645004 60.0
151.667068 212.0
151.710434 116.0
151.809265 252.0
151.837463 80.0
151.938553 192.0
152.064407 80.0
152.093323 1308.0
152.192062 72.0
152.307495 200.0
152.337112 136.0
152.58519 152.0
152.717987 152.0
152.848373 80.0
152.94928 48.0
153.049835 128.0
153.056244 108.0
153.066589 68.0
153.091736 144.0
153.099701 124.0
153.104904 156.0
153.13887 344.0
153.21524 56.0
153.294083 164.0
153.35817 192.0
153.483902 64.0
153.525818 128.0
153.716431 240.0
153.78981 84.0
153.972519 164.0
154.088623 68.0
154.325897 40.0
154.417389 244.0
154.464386 76.0
154.497543 200.0
154.555923 68.0
155.187546 92.0
155.482742 180.0
155.554733 136.0
155.644104 132.0
155.745941 176.0
155.83786 56.0
155.865189 228.0
155.947189 204.0
156.372513 216.0
156.469589 208.0
156.516907 148.0
156.80838 92.0
156.92662 92.0
156.970428 148.0
157.551987 160.0
157.596954 160.0
157.919601 192.0
158.077301 192.0
158.112183 132.0
158.485229 200.0
158.685745 144.0
158.715836 108.0
158.871338 184.0
158.916489 132.0
159.305649 120.0
159.34082 208.0
159.410889 176.0
159.539352 64.0
159.753113 128.0
159.82608 148.0
159.983688 220.0
160.071991 208.0
160.115906 156.0
160.723129 136.0
160.854355 140.0
161.081787 632.0
161.161926 260.0
161.248398 112.0
161.349518 192.0
161.470886 272.0
161.564484 36.0
161.69606 200.0
161.794785 120.0
161.832764 136.0
161.853012 200.0
161.901138 136.0
161.954315 152.0
162.010056 180.0
162.077026 4288.0
162.196167 76.0
162.248276 72.0
162.276169 132.0
162.293915 104.0
162.377594 140.0
162.485458 108.0
162.677017 64.0
162.984131 148.0
163.082321 1408.0
163.113953 196.0
163.134277 248.0
163.182587 44.0
163.202927 44.0
163.35051 148.0
163.424225 84.0
163.457306 168.0
163.49292 244.0
163.559097 188.0
163.597168 240.0
163.635468 128.0
163.672501 200.0
163.705963 112.0
163.793442 148.0
163.829041 208.0
163.885086 108.0
163.960739 340.0
163.994019 360.0
164.043945 132.0
164.093811 107220.0
164.145081 136.0
164.183334 96.0
164.236893 72.0
164.287323 68.0
164.321976 68.0
164.339142 208.0
164.356995 208.0
164.394623 88.0
164.410324 156.0
164.473633 160.0
164.479141 64.0
164.512405 504.0
164.550385 172.0
164.586533 76.0
164.612076 64.0
164.654877 80.0
164.724564 96.0
164.752548 64.0
164.780655 52.0
164.801102 80.0
164.837723 84.0
164.86647 192.0
164.957001 68.0
165.046478 120.0
165.09552 8720.0
165.168121 64.0
165.204315 56.0
165.22113 56.0
165.279251 28.0
165.297165 64.0
165.348343 28.0
165.366257 76.0
165.45816 136.0
165.51474 68.0
165.535233 96.0
165.568527 36.0
165.624252 116.0
165.786285 88.0
165.817032 76.0
165.934952 88.0
165.954056 160.0
165.999054 168.0
166.05658 140.0
166.067627 60.0
166.098602 564.0
166.122543 308.0
166.178619 140.0
166.196579 40.0
166.262253 148.0
166.294098 120.0
166.330795 108.0
166.358643 136.0
166.391647 88.0
166.428207 116.0
166.460632 92.0
166.486649 36.0
166.53801 48.0
166.8582 76.0
167.458817 52.0
167.497467 112.0
167.773193 44.0
168.044006 132.0
168.118835 184.0
168.327942 48.0
168.444168 132.0
169.007767 36.0
169.067291 88.0
170.084503 216.0
170.592438 112.0
170.712051 56.0
170.800476 96.0
170.883728 148.0
171.071106 148.0
171.433151 216.0
171.507339 140.0
171.599976 208.0
171.672989 112.0
172.087891 96.0
172.255035 128.0
172.992477 52.0
173.138168 120.0
173.285797 96.0
173.708893 52.0
174.125244 44.0
174.164642 104.0
174.32753 112.0
174.579895 84.0
174.792984 56.0
175.021988 120.0
175.098907 1120.0
175.282776 68.0
175.346024 112.0
175.61496 128.0
176.05307 104.0
176.101364 724.0
176.224777 136.0
176.314621 60.0
176.333115 80.0
176.470581 104.0
176.790649 92.0
176.90712 112.0
177.112976 632.0
177.378647 68.0
177.633224 148.0
178.049957 292.0
178.108963 5496.0
178.141647 244.0
178.180099 32.0
178.22261 44.0
178.277283 84.0
178.874207 76.0
178.964722 72.0
179.111832 320.0
179.204437 84.0
179.43898 48.0
179.534988 152.0
179.66301 100.0
179.759064 88.0
180.060745 56.0
180.381378 84.0
180.440918 104.0
180.520416 76.0
180.731735 136.0
181.108719 196.0
181.342331 208.0
181.500504 108.0
181.798264 172.0
182.652664 128.0
183.075226 320.0
183.428192 108.0
184.878601 44.0
186.655472 116.0
187.175217 148.0
187.284149 76.0
187.333176 84.0
188.364349 44.0
188.593872 156.0
188.643082 160.0
189.592865 160.0
189.710724 64.0
189.97673 52.0
190.19902 76.0
191.08667 132.0
191.775116 228.0
191.970871 112.0
192.064636 132.0
192.124542 7000.0
192.172241 72.0
192.658157 224.0
192.707886 52.0
192.823944 40.0
193.088333 160.0
193.131607 4852.0
193.258118 148.0
193.280243 80.0
193.493378 68.0
193.678909 48.0
193.70108 32.0
193.847916 76.0
194.047501 56.0
194.134277 240.0
194.549652 128.0
194.782928 160.0
195.650574 80.0
196.430878 68.0
196.841156 48.0
197.637802 76.0
198.1129 140.0
198.680069 48.0
209.120758 148.0
209.489685 124.0
210.132126 728.0
210.262451 60.0
210.81694 84.0
211.080002 68.0
211.140869 184.0
214.039841 184.0
215.37558 88.0
220.136505 72.0
221.035172 92.0
221.449631 96.0
221.852631 92.0
222.70726 40.0
225.018158 72.0
225.117004 152.0
230.702469 52.0
233.051331 124.0
251.095978 72.0
257.932281 108.0
268.654022 64.0
269.663025 52.0
271.093231 92.0
279.953644 44.0
281.941986 52.0
283.183228 96.0
283.511566 140.0
283.712677 140.0
289.291595 112.0
290.457306 124.0
303.233856 80.0
304.021149 200.0
304.142609 196.0
304.316193 100.0
305.504822 76.0
311.61615 52.0
311.900818 96.0
313.777191 76.0
321.074951 52.0
321.335358 80.0
322.07077 124.0
323.963104 136.0
330.953918 104.0
343.512177 72.0
345.903076 68.0
349.406342 76.0
355.962494 44.0
360.32431 80.0
378.07193 52.0
378.586823 88.0
379.606018 44.0
384.308899 60.0
398.424316 88.0
401.656799 52.0
409.396393 96.0
414.186584 68.0
414.445862 84.0
434.932465 76.0
447.575348 80.0
447.790131 96.0
465.203522 60.0
480.018585 116.0
491.75882 56.0
516.537537 92.0
528.65863 64.0
545.387329 112.0
573.575745 76.0
584.89978 64.0
592.48645 128.0
609.697021 76.0
612.846436 48.0
618.941772 64.0
627.837097 100.0
670.773499 52.0
689.553528 56.0
702.154236 80.0
709.096191 80.0
738.724854 220.0
746.12207 100.0
758.980469 72.0
792.982422 128.0
800.87677 84.0
810.322266 212.0
828.749023 248.0
828.789124 76.0
833.643799 68.0
838.777771 208.0
841.171692 316.0
843.123962 148.0
843.384094 92.0
855.868958 224.0
873.538391 164.0
875.816467 184.0
881.657593 76.0
887.01416 132.0
888.223877 220.0
890.621948 32.0
890.841736 148.0
914.172852 44.0
914.263123 72.0
918.360046 180.0
923.451843 180.0
924.625549 136.0
925.006897 64.0
925.152222 236.0
925.588135 132.0
926.030212 104.0
930.997375 60.0
933.738342 160.0
936.385864 200.0
956.50647 264.0
959.327881 140.0
960.450195 168.0
960.999207 148.0
962.110168 152.0
968.603455 204.0
969.291199 212.0
969.774597 252.0
974.950806 168.0
977.133362 68.0
984.807312 156.0
986.013123 288.0
986.213135 120.0
987.276001 148.0
988.114258 192.0
995.943481 176.0
1000.585083 240.0
1001.177002 56.0
1002.562988 168.0
1004.580688 128.0
1006.347839 140.0
1006.411011 184.0
1007.086731 156.0
1007.282532 168.0
1008.306152 176.0
1009.678101 236.0
1009.741333 172.0
1012.01947 224.0
1014.376282 168.0
1017.142029 184.0
1019.47937 144.0
1026.819946 240.0
1031.730469 172.0
1035.659546 180.0
1037.652588 152.0
1038.57605 140.0
1041.413086 152.0
1041.657227 176.0
1041.824219 104.0
1043.694458 128.0
1045.019531 140.0
1046.319702 60.0
1054.182495 196.0
1057.254395 180.0
1060.551025 164.0
1060.816772 152.0
1064.307373 108.0
1066.314697 156.0
1066.542236 252.0
1069.534424 188.0
1070.940796 172.0
1074.082642 216.0
1075.772827 176.0
1076.902466 236.0
1078.67981 224.0
1079.045898 140.0
1079.418579 192.0
1081.165283 56.0
1081.819824 196.0
1082.075195 148.0
1082.206055 76.0
1085.030029 164.0
1085.856201 48.0
1087.870728 164.0
1089.5979 196.0
1090.294434 236.0
1092.181396 108.0
1092.714355 124.0
1097.628052 160.0
1101.429565 64.0
1101.601318 204.0
1102.02417 92.0
1103.102173 160.0
1104.84729 192.0
1106.455444 228.0
1107.316406 144.0
1109.363892 184.0
1110.736572 124.0
1111.267334 208.0
1111.446411 132.0
1111.57251 112.0
1112.149902 196.0
1116.694702 148.0
1121.328735 160.0
1121.641968 204.0
1122.835571 136.0
1125.097656 76.0
1125.498169 120.0
1127.001099 252.0
1128.030396 240.0
1130.873169 192.0
1131.099609 152.0
1133.679443 152.0
1134.53064 204.0
1135.37561 144.0
1136.536133 200.0
1136.703857 136.0
1137.314575 180.0
1137.58313 232.0
1138.019531 44.0
1139.073853 184.0
1140.3573 140.0
1140.525391 172.0
1140.679932 184.0
1140.948853 204.0
1141.305176 200.0
1141.92395 180.0
1142.018066 156.0
1142.125732 188.0
1143.949341 176.0
1143.99646 156.0
1144.205078 128.0
1144.555298 244.0
1145.161377 212.0
1145.646362 228.0
1147.189575 44.0
1147.749268 84.0
1148.369629 180.0
1149.057739 180.0
1149.894531 124.0
1150.333252 156.0
1153.609619 208.0
1153.974731 140.0
1154.082886 232.0
1155.077026 116.0
1156.308594 72.0
1157.784424 156.0
1157.906372 136.0
1157.974121 40.0
1158.123169 176.0
1158.861572 192.0
1158.922485 264.0
1161.145996 164.0
1161.586914 176.0
1162.075439 132.0
1162.658936 212.0
1163.337769 88.0
1164.947266 72.0
1165.422852 208.0
1166.605347 200.0
1167.074463 152.0
1168.911133 192.0
1171.130615 132.0
1172.71814 180.0
1174.415894 228.0
1175.077637 196.0
1175.820312 204.0
1176.101318 216.0
1176.271973 116.0
1176.647461 92.0
1176.784058 120.0
1177.617188 120.0
1177.876709 200.0
1178.313965 128.0
1180.870605 76.0
1181.020996 132.0
1181.178345 92.0
1182.423706 176.0
1182.745361 260.0
1186.156616 200.0
1186.835449 208.0
1187.76123 28.0
1189.202271 196.0
1191.399658 112.0
1191.784424 172.0
1193.640259 108.0
1193.764038 212.0
1195.442627 124.0
1196.578369 216.0
1200.333618 176.0
1202.072021 144.0
1202.410156 140.0
1203.362793 184.0
1204.529907 144.0
1204.626709 128.0
1205.056885 256.0
1207.03186 128.0
1207.861816 160.0
1210.20105 212.0
1210.491821 216.0
1212.237549 212.0
1214.449219 100.0
1216.524048 164.0
1218.753418 176.0
1219.55957 144.0
1220.164429 164.0
1221.92395 136.0
1222.633789 92.0
1224.207153 168.0
1226.687622 152.0
1227.796265 112.0
1230.029053 136.0
1230.803955 180.0
1231.907471 204.0
1232.480347 196.0
1234.59082 156.0
1235.493896 156.0
1235.626709 160.0
1236.585449 244.0
1236.984497 180.0
1237.173462 172.0
1237.229492 176.0
1237.982544 204.0
1239.092407 212.0
1239.821167 156.0
1239.877197 216.0
1241.79834 140.0
1242.036743 116.0
1243.145386 208.0
1243.966553 164.0
1246.03125 36.0
1246.762085 196.0
1247.971191 192.0
1249.483276 100.0
1249.884399 220.0
1250.088501 152.0
1250.173584 196.0
1251.615967 152.0
1253.468628 124.0
1253.517944 148.0
1254.265015 164.0
1256.69104 176.0
1257.13562 128.0
1259.00647 124.0
1260.617188 32.0
1261.253174 52.0
1262.886597 224.0
1265.604126 208.0
1265.894531 132.0
1268.026978 200.0
1268.310425 176.0
1269.345581 140.0
1271.040894 60.0
1271.72937 136.0
1272.680664 56.0
1273.184814 188.0
1273.355347 184.0
1275.913452 200.0
1276.290283 112.0
1277.456665 156.0
1279.335449 132.0
1279.513428 148.0
1279.741211 132.0
1280.602905 124.0
1281.607422 108.0
1282.113403 216.0
1283.111328 92.0
1284.509155 128.0
1285.557983 164.0
1286.393066 216.0
1286.928467 104.0
1287.456909 176.0
1287.849731 184.0
1288.606934 136.0
1288.685547 164.0
1288.964233 204.0
1291.108887 128.0
1291.652466 192.0
1292.382202 172.0
1292.904663 172.0
1293.155151 96.0
1293.792236 152.0
1294.164551 108.0
1294.236084 192.0
1295.47522 128.0
1295.733032 212.0
1297.553467 124.0
1298.464233 136.0
1300.214844 164.0
1300.437256 124.0
1302.792603 152.0
1303.611694 40.0
1303.992676 124.0
1304.711426 128.0
1304.862427 216.0
1305.099731 184.0
1306.164062 172.0
1308.740601 128.0
1309.287842 132.0
1309.532715 152.0
1309.734497 172.0
1310.505249 176.0
1310.807983 148.0
1311.600708 40.0
1311.723267 148.0
1311.780884 156.0
1311.867432 156.0
1312.783203 184.0
1313.432251 156.0
1313.511597 176.0
1314.160889 184.0
1314.370239 56.0
1315.286743 160.0
1315.683838 172.0
1316.239746 152.0
1316.355347 72.0
1319.917847 180.0
1321.0896 184.0
1322.326904 212.0
1324.006592 164.0
1324.347046 160.0
1325.274292 136.0
1325.745361 196.0
1326.796387 204.0
1328.595093 196.0
1328.90686 164.0
1329.770508 176.0
1330.147949 164.0
1330.264038 180.0
1330.489136 204.0
1331.803467 296.0
1332.515503 164.0
1333.445557 36.0
1334.223389 104.0
1335.379639 212.0
1335.932495 164.0
1336.012451 144.0
1336.266113 208.0
1336.383545 180.0
1337.147583 192.0
1337.47522 200.0
1337.700806 132.0
1340.351929 92.0
1340.923828 168.0
1341.576416 228.0
1343.005615 188.0
1343.078613 160.0
1343.195312 124.0
1344.910156 232.0
1345.406494 188.0
1347.319946 156.0
1348.569458 192.0
1349.161621 120.0
1350.397461 124.0
1352.592529 140.0
1353.192871 220.0
1357.919556 176.0
1358.256958 180.0
1358.641602 228.0
1358.961182 168.0
1360.509766 164.0
1361.409302 152.0
1361.670044 196.0
1361.927124 112.0
1362.24292 148.0
1363.021729 216.0
1364.307983 200.0
1364.50647 184.0
1365.028564 172.0
1365.241821 40.0
1366.426147 112.0
1366.808716 176.0
1367.191406 148.0
1367.846436 88.0
1368.77417 196.0
1369.101807 188.0
1372.955933 156.0
1373.417236 160.0
1374.45752 64.0
1376.613037 156.0
1376.966187 192.0
1377.454956 136.0
1378.312012 80.0
1379.206299 180.0
1379.553711 120.0
1380.315186 208.0
1380.367065 132.0
1381.195312 156.0
1381.69104 124.0
1382.453125 184.0
1383.467163 176.0
1383.94104 196.0
1384.385376 216.0
1384.696411 172.0
1385.229736 176.0
1386.037231 144.0
1386.55603 176.0
1387.245361 60.0
1387.949707 204.0
1388.179565 180.0
1389.225464 168.0
1389.618652 120.0
1390.345825 60.0
1390.62793 180.0
1390.935791 188.0
1391.258789 128.0
1391.355347 132.0
1391.607788 164.0
1391.82312 160.0
1394.839478 128.0
1395.3302 220.0
1395.612671 248.0
1395.680054 180.0
1396.125854 196.0
1399.02771 216.0
1399.861694 172.0
1400.07019 208.0
1401.180054 128.0
1401.24707 216.0
1401.880493 204.0
1402.186035 192.0
1402.322144 204.0
1402.663086 156.0
1403.714355 184.0
1404.504883 168.0
1405.422485 156.0
1405.750854 108.0
1406.191162 148.0
1406.602173 120.0
1407.296021 132.0
1407.38562 164.0
1407.460327 212.0
1407.609619 180.0
1408.102539 176.0
1409.05127 156.0
1409.148315 172.0
1409.798462 92.0
1410.306641 104.0
1410.418823 124.0
1410.486084 196.0
1410.665527 188.0
1412.744507 112.0
1413.05127 112.0
1413.208374 172.0
1413.634888 128.0
1413.724609 132.0
1415.745972 212.0
1416.247803 208.0
1417.671265 136.0
1418.135986 156.0
1419.088013 160.0
1420.348022 164.0
1421.351685 132.0
1421.563477 116.0
1422.066284 88.0
1423.718018 160.0
1423.793091 72.0
1424.221191 192.0
1424.957397 140.0
1425.671265 112.0
1425.859131 164.0
1425.919312 132.0
1428.799316 212.0
1429.19812 152.0
1430.63562 180.0
1431.802734 196.0
1432.096558 156.0
1432.247192 128.0
1432.880005 136.0
1434.651001 204.0
1434.824463 224.0
1436.453369 160.0
1436.86084 276.0
1436.966431 172.0
1437.290894 176.0
1437.819092 188.0
1439.195679 140.0
1440.303223 64.0
1440.764038 176.0
1441.564941 240.0
1441.776611 176.0
1441.920166 108.0
1442.532471 144.0
1442.963379 144.0
1443.757324 196.0
1445.005493 196.0
1445.830322 192.0
1446.231445 176.0
1446.405518 184.0
1446.973267 96.0
1448.025879 176.0
1448.55603 176.0
1449.184937 176.0
1449.533447 144.0
1451.299683 160.0
1451.951782 112.0
1452.596558 128.0
1452.740723 184.0
1454.32666 92.0
1454.911133 188.0
1455.161743 260.0
1456.088135 104.0
1456.445068 92.0
1456.802124 92.0
1457.212402 168.0
1458.352295 160.0
1458.603149 144.0
1458.907227 228.0
1459.196167 144.0
1460.237915 128.0
1461.188843 76.0
1462.02832 172.0
1462.124756 208.0
1462.200928 176.0
1463.4646 192.0
1464.614502 120.0
1465.094482 224.0
1465.536377 236.0
1465.650635 128.0
1465.99353 144.0
1466.93103 152.0
1467.24939 224.0
1467.525757 80.0
1467.792603 56.0
1468.829834 132.0
1469.463135 216.0
1470.119263 216.0
1470.271973 208.0
1471.630737 156.0
1471.890381 120.0
1472.165283 128.0
1473.081787 140.0
1473.280396 144.0
1473.983398 180.0
1475.022827 180.0
1475.099243 220.0
1475.374512 76.0
1475.550293 284.0
1475.60376 96.0
1475.894409 156.0
1476.727905 132.0
1477.52356 180.0
1477.860107 196.0
1478.334595 160.0
1478.426392 136.0
1478.656006 148.0
1479.003784 228.0
1479.666504 144.0
1480.746216 52.0
1482.332031 148.0
1482.401001 160.0
1482.49292 184.0
1482.738159 164.0
1482.922119 160.0
1483.029419 164.0
1485.322144 164.0
1486.181396 188.0
1486.918091 192.0
1487.094604 248.0
1487.593628 136.0
1488.146362 216.0
1488.261597 196.0
1489.00647 80.0
1489.789917 144.0
1491.442139 176.0
1491.864868 52.0
1493.064453 104.0
1493.579712 164.0
1495.203247 192.0
1496.858398 76.0
1497.890503 188.0
1498.275635 104.0
1499.254272 60.0
1499.639648 160.0
1500.18689 152.0
1500.472168 156.0
1500.765137 220.0
1501.582642 128.0
1501.669678 164.0
1501.775391 80.0
1502.369385 184.0
1503.996216 148.0
1504.067139 164.0
1504.98584 180.0
