>compound MLS000728602-01!(12bS)-2,3,6,7,12,12b-hexahydro-1H-indolo[2,3-a]quinolizin-4-one
>formula C15H16N2O
>ionization [M+H]+
>parentmass 241.133469
#inchi InChI=1S/C15H16N2O/c18-14-7-3-6-13-15-11(8-9-17(13)14)10-4-1-2-5-12(10)16-15/h1-2,4-5,13,16H,3,6-9H2/t13-/m0/s1
#inchikey RAWPBTDNWLONTE
#Ion_Source LC-ESI
#Instrument qTof
#Compound_Source NIH Natural Product Library
#PI Dorrestein
#Data_Collector VVP/LMS
#Scan -1
#Precursor_MZ 241.134
#ExactMass 240.126
#Charge 1
#CAS_Number N/A
#Pubmed_ID N/A
#Smiles O=C1CCC[C@@H]2N1CCc3c2[nH]c4ccccc34
#INCHI_AUX N/A
#Library_Class 1
#SpectrumID CCMSLIB00000080249
#IonMode Positive
#UpdateWorkflowName UPDATE-SINGLE-ANNOTATED-GOLD
#LibraryQualityString Gold
#TaskID b1d8e8f6646f4e71acdff9ca3d919d08
##Scan# 1847
#SpectrumFile p2-B06_GB6_01_17994.mzXML
#LibraryName NIH_Natural_Products_Library.mgf
#MQScore -1
#Organism NIH_Natural_Products_Library
#TIC_Query 0
#RT_Query -1
#MZErrorPPM -1
#SharedPeaks 0
#MassDiff 0
#LibMZ -1
#SpecMZ 241.134
#SpecCharge 0
#internalFilename spec-00000.mgf

>collision 10
95.030464 100.0
95.053749 124.0
95.133324 56.0
95.154358 168.0
95.92701 120.0
95.981606 164.0
96.08107 196.0
96.106438 76.0
96.182549 124.0
96.319237 112.0
96.469696 84.0
96.55378 124.0
96.735741 132.0
96.759239 140.0
96.861069 68.0
97.068817 160.0
97.247337 156.0
97.319977 56.0
97.968994 204.0
97.988113 176.0
98.048927 184.0
98.095116 192.0
98.15229 80.0
98.351547 192.0
98.383133 160.0
98.592506 264.0
98.653778 168.0
98.883224 220.0
98.976273 188.0
99.002014 132.0
99.146927 188.0
99.591049 200.0
99.827553 48.0
100.0942 152.0
100.321335 256.0
100.536751 168.0
101.216408 184.0
101.356628 112.0
101.506966 140.0
101.561111 176.0
101.641357 212.0
101.689522 176.0
101.789902 140.0
101.950912 132.0
102.043076 156.0
102.528191 188.0
102.760078 168.0
103.020515 172.0
103.054977 736.0
103.275208 268.0
103.495796 228.0
103.629478 180.0
103.779457 144.0
104.059113 156.0
104.165054 180.0
104.297134 136.0
104.31543 136.0
104.331696 128.0
104.573753 172.0
104.836479 168.0
105.199532 128.0
105.254654 124.0
105.320007 180.0
105.497787 124.0
105.52845 184.0
105.95211 68.0
106.068916 344.0
106.091461 208.0
106.407402 52.0
106.505974 52.0
106.545006 336.0
106.764938 92.0
106.779335 124.0
107.079819 188.0
108.14312 156.0
109.165916 196.0
109.417686 224.0
109.607224 80.0
109.738541 116.0
109.874107 172.0
110.060822 348.0
110.488319 136.0
110.752083 156.0
110.888268 212.0
111.131523 116.0
111.171394 152.0
111.291039 156.0
111.873405 136.0
112.158897 152.0
112.550186 184.0
112.66423 192.0
112.919998 224.0
113.065979 196.0
113.663582 132.0
113.931099 84.0
114.041595 128.0
114.10112 156.0
114.364899 136.0
114.539497 88.0
114.607666 136.0
114.776054 224.0
114.98085 28.0
115.0214 148.0
115.055618 2348.0
115.22641 196.0
115.378151 152.0
115.433746 128.0
115.67337 156.0
116.052711 344.0
116.081894 136.0
116.087357 176.0
116.621452 128.0
116.718193 136.0
116.799919 144.0
116.905342 160.0
117.004349 192.0
117.068542 3356.0
117.185265 68.0
117.340439 52.0
117.547508 44.0
118.042183 136.0
118.062462 348.0
118.239044 204.0
118.332123 152.0
118.622421 152.0
118.722153 160.0
118.828445 104.0
118.871841 132.0
118.887032 48.0
118.904617 76.0
118.943459 128.0
119.078079 160.0
119.930977 172.0
120.00074 64.0
120.024719 180.0
120.050888 184.0
120.070518 168.0
120.264694 248.0
120.29744 164.0
120.323639 180.0
120.502724 208.0
120.719124 84.0
120.894127 168.0
120.939316 248.0
120.964165 172.0
121.027657 88.0
121.06488 188.0
121.42868 96.0
121.6064 216.0
121.755692 176.0
122.102936 116.0
122.177719 184.0
122.193123 84.0
122.237129 136.0
122.448463 136.0
122.596069 124.0
122.704079 132.0
123.010727 128.0
123.450401 156.0
124.198982 140.0
124.518593 144.0
124.560799 144.0
124.645218 164.0
125.482117 192.0
125.604774 188.0
125.629311 104.0
125.702942 128.0
125.821236 104.0
126.052544 188.0
126.187637 132.0
126.25248 192.0
126.908585 140.0
127.054596 984.0
127.083534 176.0
128.058685 852.0
128.0952 124.0
128.329575 100.0
128.616089 88.0
129.070145 1424.0
129.183258 60.0
129.242081 100.0
129.36203 64.0
129.416367 52.0
129.434479 40.0
129.488831 200.0
129.534134 52.0
130.066544 2196.0
130.166901 84.0
130.535034 40.0
130.689697 116.0
130.736649 236.0
130.92189 204.0
131.045105 176.0
131.071716 344.0
131.145157 132.0
131.186188 212.0
131.421097 136.0
131.587708 88.0
131.605988 140.0
131.891541 128.0
132.081741 172.0
132.130249 156.0
132.454437 144.0
132.715698 40.0
133.527939 204.0
133.650543 168.0
134.065033 140.0
134.152618 140.0
134.556335 176.0
134.808105 224.0
135.509216 192.0
136.042618 80.0
136.081787 156.0
136.28183 140.0
136.486374 48.0
136.858673 128.0
136.958817 196.0
137.126572 184.0
137.296753 196.0
137.534744 172.0
137.727463 192.0
137.882736 188.0
138.044052 88.0
138.451233 176.0
138.638657 104.0
138.683182 200.0
138.744125 52.0
138.870758 180.0
139.049072 44.0
139.361389 164.0
140.057739 320.0
140.118988 168.0
140.845566 188.0
140.890442 176.0
140.937698 152.0
140.956253 164.0
141.074524 384.0
141.098419 112.0
141.368057 104.0
142.067581 752.0
142.29248 84.0
142.537125 64.0
142.770813 220.0
142.810516 164.0
143.003235 128.0
143.074173 6520.0
143.186569 104.0
143.260406 132.0
143.286606 84.0
143.36763 152.0
143.527344 56.0
143.546417 96.0
143.646591 164.0
143.842255 132.0
143.899963 348.0
143.945862 184.0
143.973572 84.0
143.997452 212.0
144.040039 184.0
144.046783 152.0
144.082123 32588.0
144.151657 80.0
144.17923 48.0
144.209641 84.0
144.236389 72.0
144.253128 48.0
144.288986 80.0
144.324844 80.0
144.341583 256.0
144.431335 76.0
144.507416 72.0
144.572144 116.0
144.599945 60.0
144.623886 120.0
144.649094 196.0
144.674149 64.0
144.695694 216.0
144.717239 76.0
144.763947 88.0
144.801056 56.0
144.822617 64.0
144.872925 72.0
144.92395 228.0
145.011902 88.0
145.084686 2820.0
145.126968 36.0
145.143753 116.0
145.201294 112.0
145.261261 36.0
145.29245 32.0
145.369232 132.0
145.549271 40.0
145.604492 72.0
145.688568 184.0
145.71106 128.0
145.736618 68.0
145.767853 36.0
145.806305 80.0
145.830338 104.0
145.847168 124.0
145.996231 36.0
146.045029 96.0
146.064835 200.0
146.086487 152.0
146.130936 144.0
146.250778 144.0
146.34996 76.0
146.564331 124.0
147.119049 120.0
147.271179 100.0
147.297745 128.0
147.503143 140.0
147.565994 100.0
148.074158 388.0
148.163788 56.0
148.566208 92.0
149.139282 236.0
149.508972 112.0
150.980042 180.0
151.053421 164.0
151.648422 144.0
151.685196 104.0
151.869095 60.0
151.994217 244.0
152.063171 160.0
152.547211 196.0
152.640228 112.0
152.81604 212.0
153.071808 744.0
153.919113 196.0
154.040131 32.0
154.066544 2588.0
154.24028 204.0
154.30455 80.0
154.480148 68.0
155.071167 1748.0
155.117386 240.0
155.287643 52.0
155.607758 164.0
155.972931 160.0
156.038742 152.0
156.083023 1988.0
156.346008 88.0
156.487885 56.0
156.637314 160.0
156.702087 124.0
156.816711 112.0
156.876541 48.0
156.896484 100.0
156.983749 172.0
157.023651 88.0
157.053574 160.0
157.089798 480.0
157.28064 100.0
157.313095 56.0
158.055145 120.0
158.096848 580.0
158.350769 164.0
158.473526 76.0
159.072601 164.0
159.096039 224.0
159.148224 208.0
160.224686 96.0
160.653259 188.0
161.122818 196.0
161.380615 224.0
162.659973 60.0
163.554718 208.0
164.092239 132.0
165.071289 520.0
165.325974 120.0
165.658829 160.0
165.948425 160.0
166.067169 784.0
166.17157 196.0
166.5849 168.0
166.751907 76.0
166.798172 180.0
167.000473 160.0
167.0746 8092.0
167.114304 52.0
167.2117 88.0
167.258606 128.0
167.289505 36.0
167.310089 60.0
167.397644 88.0
167.469742 88.0
167.606277 104.0
167.709366 88.0
167.776398 68.0
167.84343 168.0
168.044159 184.0
168.081268 5200.0
168.215103 128.0
168.25882 84.0
168.364685 116.0
168.462845 72.0
168.504181 80.0
168.535187 168.0
168.635971 48.0
168.881027 200.0
168.920395 36.0
168.961792 88.0
169.088608 2136.0
169.179169 228.0
169.210236 52.0
169.241302 48.0
169.375977 120.0
169.396698 132.0
169.417419 100.0
169.614365 104.0
169.95929 44.0
170.021561 116.0
170.096634 3028.0
170.260406 84.0
170.364304 104.0
170.424057 88.0
170.450043 148.0
170.67099 60.0
170.756805 80.0
171.032608 224.0
171.099487 556.0
171.292984 108.0
171.970932 40.0
172.028351 40.0
172.099197 236.0
172.532547 52.0
174.091568 180.0
174.377914 236.0
174.690826 36.0
174.896072 128.0
175.061935 168.0
176.320312 112.0
177.379028 40.0
177.442657 32.0
177.487732 140.0
177.554031 96.0
177.734421 48.0
177.832611 48.0
178.076477 160.0
178.151245 176.0
178.302704 132.0
178.366486 104.0
179.073181 180.0
179.91153 44.0
180.037033 160.0
180.082291 2892.0
180.435165 164.0
180.459229 120.0
180.630386 52.0
181.088257 2100.0
181.632187 104.0
182.021347 156.0
182.097717 5052.0
182.190552 44.0
182.222794 44.0
182.271149 72.0
182.303406 100.0
182.336884 104.0
182.412003 88.0
183.072845 192.0
183.100739 780.0
183.258636 52.0
183.293671 28.0
183.520081 160.0
183.730453 124.0
183.959839 204.0
183.984131 128.0
184.072388 140.0
184.112366 2712.0
184.489319 32.0
184.583954 28.0
184.762466 64.0
185.115448 1052.0
186.091095 164.0
186.125763 344.0
187.32515 92.0
187.507706 124.0
189.420334 56.0
192.078461 184.0
193.092133 156.0
193.318985 76.0
194.069641 128.0
194.097504 544.0
194.813431 84.0
195.100403 288.0
196.112091 780.0
197.044952 72.0
197.083328 136.0
197.114868 324.0
198.084686 192.0
198.12764 168.0
199.124329 340.0
200.101624 176.0
200.558365 176.0
202.36351 108.0
203.074799 108.0
204.074387 216.0
204.094284 176.0
206.100937 148.0
207.102219 116.0
208.080231 168.0
208.114532 228.0
209.08075 160.0
209.106293 144.0
211.927628 60.0
212.055664 196.0
212.108185 1220.0
213.103607 652.0
213.323578 112.0
214.601639 116.0
217.40979 88.0
221.037369 80.0
222.095016 148.0
223.124115 196.0
224.108398 152.0
224.13443 128.0
225.0979 52.0
234.590195 36.0
237.283539 80.0
239.119232 344.0
240.16803 92.0
241.133469 980.0
242.13382 288.0
244.197647 236.0
248.847565 72.0
252.297379 144.0
258.301331 104.0
259.043976 68.0
266.061371 48.0
266.506317 76.0
271.572906 124.0
297.082489 88.0
314.263733 128.0
333.827087 48.0
339.766144 72.0
341.194763 128.0
348.390167 64.0
417.165619 44.0
477.230255 88.0
528.398987 100.0
616.921082 104.0
636.260803 60.0
666.569702 196.0
719.233337 84.0
728.910767 32.0
798.418701 180.0
817.130554 44.0
818.422546 80.0
826.916809 156.0
891.487 56.0
891.849487 20.0
892.176453 152.0
894.192871 84.0
896.187744 168.0
932.998291 44.0
945.000671 132.0
956.667297 152.0
960.6297 136.0
969.756165 80.0
971.33728 180.0
972.652771 76.0
975.392029 156.0
978.409058 196.0
986.437683 52.0
998.601807 172.0
1006.46637 156.0
1010.562073 52.0
1026.237305 212.0
1028.948853 68.0
1032.264893 56.0
1036.226929 156.0
1046.670532 164.0
1048.577271 160.0
1056.118408 140.0
1064.894165 160.0
1068.052979 160.0
1068.417236 144.0
1071.750732 148.0
1073.62146 156.0
1080.185425 172.0
1081.991577 148.0
1084.480835 172.0
1087.786621 300.0
1088.692627 104.0
1105.052856 176.0
1112.687744 172.0
1112.886963 132.0
1114.28833 64.0
1117.739136 152.0
1124.823486 176.0
1127.956299 216.0
1136.548584 188.0
1136.642456 104.0
1141.12915 52.0
1141.297241 192.0
1143.658569 192.0
1147.538696 80.0
1148.098389 88.0
1148.253418 140.0
1148.7323 160.0
1150.466675 144.0
1152.756226 192.0
1155.914185 156.0
1160.37085 196.0
1167.065308 184.0
1169.602783 56.0
1170.419678 180.0
1171.993042 136.0
1178.960083 184.0
1180.033203 172.0
1185.303467 200.0
1186.139648 144.0
1186.372681 164.0
1189.281006 164.0
1198.475464 104.0
1198.847534 188.0
1205.133545 88.0
1213.189331 228.0
1224.048706 52.0
1241.897339 192.0
1243.335571 156.0
1248.203735 136.0
1250.426636 212.0
1250.630737 64.0
1251.208008 68.0
1254.40625 180.0
1258.957031 148.0
1262.504517 132.0
1265.264038 188.0
1266.496094 148.0
1268.281616 180.0
1272.403076 204.0
1272.878784 132.0
1275.464722 232.0
1276.154297 152.0
1277.427368 156.0
1277.932373 172.0
1283.488037 168.0
1286.091919 200.0
1289.134277 248.0
1290.270752 228.0
1295.566528 196.0
1302.21582 208.0
1305.60791 136.0
1308.954102 140.0
1316.85791 160.0
1319.531616 140.0
1325.85791 120.0
1326.908936 128.0
1327.532471 192.0
1327.684814 84.0
1331.741699 172.0
1332.911377 180.0
1334.096069 220.0
1336.372314 176.0
1342.08252 224.0
1346.497437 116.0
1346.614258 272.0
1349.77124 164.0
1352.353638 160.0
1356.909912 176.0
1359.484375 196.0
1361.767578 172.0
1364.060059 164.0
1365.957153 100.0
1366.126343 184.0
1367.546509 204.0
1369.114624 132.0
1369.239868 168.0
1375.056641 240.0
1375.285522 144.0
1380.0354 156.0
1382.19519 44.0
1387.172119 136.0
1392.952515 168.0
1393.346313 180.0
1393.673218 188.0
1393.799438 188.0
1395.583374 128.0
1396.624512 176.0
1398.826904 240.0
1401.664429 152.0
1407.840942 56.0
1408.303223 164.0
1410.904297 148.0
1415.580566 152.0
1416.172241 192.0
1418.211426 144.0
1419.55957 236.0
1420.459595 144.0
1426.699829 256.0
1427.9104 236.0
1428.143555 260.0
1430.942871 184.0
1432.223022 40.0
1434.332886 56.0
1435.305298 220.0
1439.916138 176.0
1440.837646 248.0
1441.661255 264.0
1442.583252 208.0
1443.619141 140.0
1444.019897 92.0
1445.003296 164.0
1456.624634 160.0
1457.528687 160.0
1464.13147 96.0
1465.609253 160.0
1468.887451 124.0
1470.314209 200.0
1471.062256 148.0
1472.88916 76.0
1473.834473 68.0
1475.615356 52.0
1476.165771 128.0
1476.433472 156.0
1476.655273 196.0
1477.443115 136.0
1478.23877 264.0
1479.532349 220.0
1479.631836 192.0
1480.031738 68.0
1482.979248 208.0
1484.497192 160.0
1484.696533 152.0
1484.771484 184.0
1487.005859 128.0
1487.93457 160.0
1488.510498 144.0
1489.677856 120.0
1489.977417 160.0
1491.929443 160.0
1495.652466 152.0
1502.22522 156.0
1502.734375 172.0
1503.498291 200.0
