>compound MLS001240195-01!4-Chloro-N-(2-morpholin-4-yl-ethyl)-benzamide
>formula C13H17ClN2O2
>ionization [M+H]+
>parentmass 269.1051319160905
#inchi InChI=1S/C13H17ClN2O2/c14-12-3-1-11(2-4-12)13(17)15-5-6-16-7-9-18-10-8-16/h1-4H,5-10H2,(H,15,17)
#inchikey YHXISWVBGDMDLQ
#Ion_Source LC-ESI
#Instrument qTof
#Compound_Source NIH Pharmacologically Active Library
#PI Dorrestein
#Data_Collector VP/LMS
#Scan -1
#Precursor_MZ 269.108
#ExactMass 268.098
#Charge 1
#CAS_Number N/A
#Pubmed_ID N/A
#Smiles Clc1ccc(cc1)C(=O)NCCN2CCOCC2
#INCHI_AUX N/A
#Library_Class 1
#SpectrumID CCMSLIB00000085718
#IonMode Positive
#UpdateWorkflowName UPDATE-SINGLE-ANNOTATED-GOLD
#LibraryQualityString Gold
#TaskID d252d724072548979f1f6f1ced849daf
##Scan# 1245
#SpectrumFile p4-E07_GE7_01_18379.mzXML
#LibraryName Pharm_Active_Library.mgf
#MQScore -1
#Organism Pharm_Active_Library
#TIC_Query 0
#RT_Query -1
#MZErrorPPM -1
#SharedPeaks 0
#MassDiff 0
#LibMZ -1
#SpecMZ 269.108
#SpecCharge 0
#internalFilename spec-00000.mgf

>collision 10
44.911186 176.0
44.925861 144.0
45.02063 140.0
45.03532 136.0
45.059364 148.0
45.160965 248.0
45.178352 36.0
45.217159 172.0
45.328312 160.0
45.339035 180.0
45.355194 140.0
45.402046 76.0
45.544315 232.0
45.697571 128.0
45.778336 60.0
45.791805 208.0
45.836262 156.0
45.882088 140.0
45.944202 140.0
46.041683 204.0
46.058872 160.0
46.068329 148.0
46.199463 136.0
46.295563 144.0
46.314526 196.0
46.357731 180.0
46.471786 132.0
46.532864 128.0
46.561378 188.0
46.754436 300.0
46.769405 208.0
46.872913 180.0
46.924709 188.0
46.955467 144.0
47.044765 180.0
47.093925 124.0
47.119427 216.0
47.199703 160.0
47.245663 140.0
47.329151 108.0
47.381199 224.0
47.404491 148.0
47.457951 116.0
47.549866 208.0
47.607525 184.0
47.705082 88.0
47.773617 148.0
47.790352 168.0
47.893604 196.0
47.943295 184.0
47.954227 64.0
47.997971 176.0
48.032825 164.0
48.050758 144.0
48.086639 200.0
48.233051 224.0
48.268997 84.0
48.285591 76.0
48.417072 160.0
48.45586 148.0
48.479416 132.0
48.518166 180.0
48.744469 124.0
48.761147 152.0
48.826492 204.0
48.864048 120.0
48.957314 128.0
48.97681 148.0
49.006065 88.0
49.120388 164.0
49.218082 152.0
49.233444 144.0
49.244617 144.0
49.331253 148.0
49.345234 184.0
49.355019 44.0
49.466946 144.0
49.490749 120.0
49.504402 144.0
49.560783 136.0
49.601425 104.0
49.713631 120.0
49.723457 116.0
49.734684 152.0
49.795059 140.0
49.806297 168.0
49.817535 36.0
50.004604 212.0
50.049599 188.0
50.066498 40.0
50.368336 188.0
50.383873 196.0
50.42934 184.0
50.455952 80.0
50.513935 80.0
50.536572 112.0
50.560627 152.0
50.576199 116.0
50.611591 148.0
50.686665 324.0
50.730602 252.0
50.757542 216.0
50.958252 196.0
50.994625 180.0
51.062874 132.0
51.112663 212.0
51.143974 176.0
51.189533 140.0
51.297451 124.0
51.313499 132.0
51.323483 116.0
51.347137 156.0
51.401936 164.0
51.436188 160.0
51.526157 200.0
51.557564 184.0
51.628479 344.0
51.703152 268.0
51.732098 196.0
51.825191 136.0
51.852421 112.0
52.003017 204.0
52.023113 152.0
52.122215 164.0
52.152397 120.0
52.178272 232.0
52.251621 196.0
52.317825 108.0
52.327904 168.0
52.345181 44.0
52.368225 120.0
52.414326 208.0
52.427296 184.0
52.62925 120.0
52.642246 180.0
52.734711 172.0
52.91988 124.0
52.980709 136.0
52.990852 176.0
53.00824 156.0
53.074921 112.0
53.106827 200.0
53.196793 212.0
53.211311 176.0
53.275211 168.0
53.366776 96.0
53.40313 104.0
53.42495 128.0
53.455505 172.0
53.472969 172.0
53.487526 324.0
53.500626 196.0
53.611328 156.0
53.761135 116.0
53.806789 268.0
53.860821 52.0
54.146038 60.0
54.172405 168.0
54.194382 152.0
54.249836 148.0
54.254852 124.0
54.260792 180.0
54.437881 200.0
54.449631 136.0
54.459911 100.0
54.486355 160.0
54.524452 160.0
54.699593 164.0
54.71579 136.0
54.749657 124.0
54.829212 60.0
54.941277 88.0
54.985229 168.0
55.15984 144.0
55.184654 168.0
55.261883 112.0
55.292355 156.0
55.319603 68.0
55.366985 172.0
55.390682 168.0
55.448471 216.0
55.53743 104.0
55.580456 148.0
55.617874 188.0
55.63834 156.0
55.671005 176.0
55.702198 140.0
55.828537 152.0
55.844894 160.0
55.861259 212.0
55.920776 140.0
55.952038 228.0
55.977352 188.0
56.048851 160.0
56.138294 140.0
56.235268 180.0
56.338303 136.0
56.384327 180.0
56.428108 180.0
56.442596 72.0
56.456387 148.0
56.546154 140.0
56.595554 132.0
56.715405 192.0
56.746056 200.0
56.77388 108.0
56.811501 196.0
56.859394 156.0
56.962376 116.0
56.979523 196.0
57.028206 212.0
57.039635 172.0
57.124336 160.0
57.185539 244.0
57.196075 152.0
57.245762 164.0
57.387405 196.0
57.422089 188.0
57.435665 144.0
57.456783 176.0
57.523651 104.0
57.542812 152.0
57.61953 136.0
57.681801 92.0
57.692383 64.0
57.769508 36.0
57.795231 140.0
57.808849 84.0
57.822468 200.0
57.862888 208.0
57.901196 172.0
57.960278 140.0
58.02697 168.0
58.092182 136.0
58.106499 184.0
58.142254 180.0
58.177166 116.0
58.204498 132.0
58.32452 240.0
58.359486 64.0
58.462925 56.0
58.507065 184.0
58.532951 44.0
58.671864 188.0
58.735653 204.0
58.747856 188.0
58.776844 204.0
58.90815 144.0
58.926479 216.0
58.961555 172.0
58.990669 152.0
59.117619 204.0
59.273819 100.0
59.339729 188.0
59.501911 260.0
59.507732 184.0
59.680588 180.0
59.719036 152.0
59.749977 176.0
59.766727 160.0
59.781322 140.0
59.799046 224.0
59.892967 160.0
59.937649 156.0
59.970013 176.0
60.062527 176.0
60.087212 180.0
60.1968 160.0
60.233868 188.0
60.300312 88.0
60.540253 220.0
60.67802 164.0
60.883308 216.0
60.895271 200.0
60.915466 68.0
60.957417 132.0
61.047581 76.0
61.080242 192.0
61.094242 176.0
61.120693 168.0
61.379269 68.0
61.410461 148.0
61.4557 144.0
61.472866 168.0
61.510323 100.0
61.54467 128.0
61.563408 136.0
61.624329 132.0
61.674339 96.0
61.738441 216.0
61.782238 140.0
61.80571 148.0
61.816662 192.0
61.864468 228.0
62.021832 76.0
62.086117 156.0
62.101799 144.0
62.126896 160.0
62.326298 240.0
62.35144 180.0
62.379734 180.0
62.431145 172.0
62.467796 144.0
62.584259 140.0
62.733932 112.0
62.757584 156.0
62.88221 204.0
62.918514 120.0
62.935883 72.0
62.981682 156.0
63.035397 172.0
63.084396 172.0
63.271072 112.0
63.505604 132.0
63.55637 228.0
63.607155 76.0
63.677021 164.0
63.731033 156.0
63.778709 196.0
63.795471 124.0
64.079483 172.0
64.092232 176.0
64.232529 156.0
64.259651 216.0
64.275604 168.0
64.339447 124.0
64.366592 160.0
64.483215 148.0
64.496849 180.0
64.518379 168.0
64.545563 128.0
64.561554 144.0
64.577545 108.0
64.644745 196.0
64.662346 128.0
64.673553 144.0
64.753609 124.0
64.901039 44.0
64.926697 140.0
64.975502 184.0
65.050247 196.0
65.071121 160.0
65.146599 176.0
65.231773 156.0
65.265533 204.0
65.378143 260.0
65.442528 168.0
65.613312 152.0
65.681046 160.0
65.750427 212.0
65.827751 120.0
65.876373 164.0
65.890907 88.0
65.910301 200.0
65.954338 292.0
66.1092 264.0
66.141571 176.0
66.381355 152.0
66.702827 232.0
66.715836 108.0
66.836189 168.0
66.860603 144.0
66.92083 92.0
66.955025 160.0
67.049522 164.0
67.20118 68.0
67.313805 180.0
67.49028 180.0
67.557343 176.0
67.568794 196.0
67.603157 104.0
67.61985 180.0
67.730858 216.0
67.761986 156.0
67.871803 216.0
67.921005 196.0
67.939049 184.0
67.968582 40.0
68.004692 188.0
68.11618 156.0
68.180428 128.0
68.311966 140.0
68.336647 176.0
68.516106 192.0
68.535873 176.0
68.601799 36.0
68.654564 168.0
68.674355 140.0
68.7024 208.0
68.862518 176.0
68.91703 172.0
68.959999 160.0
69.029434 160.0
69.052589 172.0
69.090637 148.0
69.294273 156.0
69.443474 144.0
69.464729 152.0
69.501534 200.0
69.537399 432.0
69.60611 144.0
69.802162 200.0
69.855415 64.0
69.962135 160.0
70.016876 188.0
70.222176 156.0
70.238556 180.0
70.301956 44.0
70.335335 144.0
70.365387 68.0
70.400452 108.0
70.53244 152.0
70.559189 164.0
70.60434 128.0
70.622734 236.0
70.699699 168.0
70.808754 200.0
70.830299 188.0
70.880554 212.0
70.924133 132.0
70.954308 196.0
70.977242 136.0
71.020927 192.0
71.110313 144.0
71.370705 208.0
71.38752 96.0
71.466583 160.0
71.658524 156.0
71.697281 140.0
71.94355 136.0
71.9655 160.0
71.995895 168.0
72.011093 124.0
72.038116 148.0
72.147964 68.0
72.173332 196.0
72.205841 88.0
72.220451 148.0
72.316605 220.0
72.331123 164.0
72.362831 44.0
72.408554 44.0
72.493263 180.0
72.613632 192.0
72.666222 84.0
72.696381 212.0
72.800316 124.0
72.842781 120.0
72.856369 60.0
72.940659 140.0
72.954941 60.0
72.975342 52.0
72.990646 164.0
73.21698 184.0
73.235718 120.0
73.433434 156.0
73.450485 220.0
73.462425 160.0
73.49826 180.0
73.595505 144.0
73.621162 164.0
73.730507 148.0
73.769821 144.0
73.802299 180.0
73.836502 148.0
73.892471 240.0
73.956268 144.0
73.98024 108.0
74.112114 144.0
74.175522 60.0
74.18924 136.0
74.246712 108.0
74.269836 180.0
74.288704 124.0
74.300713 104.0
74.321304 144.0
74.359848 200.0
74.520477 148.0
74.535942 124.0
74.590942 140.0
74.688957 192.0
74.714149 136.0
74.886902 120.0
74.914459 228.0
74.943748 140.0
75.036819 180.0
75.069588 204.0
75.090279 208.0
75.12133 132.0
75.142029 208.0
75.250763 224.0
75.3423 72.0
75.368217 228.0
75.426514 268.0
75.492882 140.0
75.504784 176.0
75.601669 124.0
75.613785 148.0
75.646667 168.0
75.745377 192.0
75.838943 232.0
75.90136 136.0
76.062927 220.0
76.123474 48.0
76.172104 156.0
76.314613 60.0
76.351135 140.0
76.479889 220.0
76.565201 192.0
76.601776 92.0
76.622681 160.0
76.73423 168.0
76.91217 156.0
77.160233 208.0
77.184715 168.0
77.256424 144.0
77.273918 76.0
77.431465 196.0
77.576897 40.0
77.703171 160.0
77.768097 192.0
77.808479 136.0
77.996445 196.0
78.114265 208.0
78.162224 200.0
78.195206 92.0
78.279709 136.0
78.383636 52.0
78.445328 128.0
78.468246 164.0
78.528206 172.0
78.575829 260.0
78.667603 180.0
78.782394 136.0
78.86544 180.0
79.040527 164.0
79.102478 400.0
79.141426 268.0
79.215805 104.0
79.295471 184.0
79.330994 140.0
79.371773 52.0
79.391281 164.0
79.590034 148.0
79.659294 180.0
79.796143 204.0
79.872612 180.0
79.887032 188.0
79.934883 208.0
80.032784 104.0
80.109367 200.0
80.128967 132.0
80.166382 36.0
80.262642 232.0
80.330421 164.0
80.430351 240.0
80.555344 132.0
80.685806 172.0
80.777008 64.0
80.83963 68.0
80.875427 176.0
80.924263 100.0
81.015106 112.0
81.108284 152.0
81.174622 160.0
81.23381 188.0
81.258926 180.0
81.310966 172.0
81.354431 112.0
81.379181 172.0
81.528275 132.0
81.706291 204.0
81.763878 144.0
82.044876 168.0
82.183754 188.0
82.26136 144.0
82.44017 132.0
82.479935 32.0
82.505241 144.0
82.55587 48.0
82.680702 192.0
82.715088 192.0
82.746719 212.0
82.82917 100.0
82.861778 164.0
82.88533 84.0
82.943771 164.0
82.96508 180.0
83.014038 248.0
83.135582 80.0
83.28083 160.0
83.446198 432.0
83.502571 196.0
83.537132 152.0
83.569885 184.0
83.600815 196.0
83.629128 136.0
83.671806 116.0
83.684547 128.0
83.702759 344.0
83.771027 348.0
83.884956 172.0
83.988892 164.0
84.060043 152.0
84.186005 172.0
84.284653 208.0
84.313889 168.0
84.377869 140.0
84.434555 140.0
84.552124 340.0
84.591911 76.0
84.608391 248.0
84.756744 140.0
84.791565 184.0
84.864891 204.0
84.907066 132.0
84.958427 104.0
84.991455 164.0
85.092407 244.0
85.118111 116.0
85.17688 136.0
85.209953 136.0
85.259567 128.0
85.287132 200.0
85.393776 148.0
85.566757 164.0
85.600761 192.0
85.66436 136.0
85.69384 168.0
85.999962 196.0
86.014732 188.0
86.208252 144.0
86.219414 612.0
86.320625 232.0
86.338074 120.0
86.404663 84.0
86.419464 160.0
86.504822 136.0
86.542351 204.0
86.591629 184.0
86.778793 32.0
86.814026 124.0
86.930893 188.0
86.979149 164.0
86.997375 532.0
87.04599 172.0
87.112854 196.0
87.142128 164.0
87.181602 76.0
87.254929 188.0
87.317322 132.0
87.347076 184.0
87.469894 176.0
87.48204 168.0
87.512711 184.0
87.643097 184.0
87.663597 168.0
87.704597 32.0
87.730698 212.0
87.749664 160.0
87.82766 372.0
87.840721 160.0
87.861679 152.0
87.941483 228.0
88.031097 128.0
88.053505 128.0
88.165604 144.0
88.246506 128.0
88.388138 144.0
88.453644 304.0
88.610954 184.0
88.642807 160.0
88.790909 180.0
88.841553 128.0
88.979965 208.0
88.997086 152.0
89.034889 124.0
89.126511 192.0
89.209641 196.0
89.228439 172.0
89.559639 188.0
89.623695 132.0
89.672691 84.0
89.791473 120.0
89.880135 160.0
89.9077 184.0
90.01416 36.0
90.051933 164.0
90.078377 144.0
90.233345 160.0
90.403214 204.0
90.562622 108.0
90.655457 128.0
90.693359 152.0
90.73317 64.0
90.87162 164.0
91.015877 188.0
91.146942 144.0
91.166183 352.0
91.205856 96.0
91.234375 188.0
91.323746 232.0
91.399841 160.0
91.44236 188.0
91.501984 212.0
91.56356 156.0
91.605469 136.0
91.639763 120.0
91.683586 44.0
91.748398 128.0
91.797974 156.0
91.867599 160.0
91.996407 128.0
92.133904 208.0
92.147278 232.0
92.172119 152.0
92.207588 172.0
92.279991 184.0
92.296364 116.0
92.309753 128.0
92.336525 140.0
92.36338 196.0
92.495338 104.0
92.600647 100.0
92.615974 164.0
92.688774 132.0
92.788445 136.0
92.834465 144.0
92.857475 100.0
92.890083 236.0
92.984108 192.0
93.036148 180.0
93.05513 196.0
93.114662 160.0
93.287598 160.0
93.320282 176.0
93.341431 160.0
93.370277 164.0
93.383736 188.0
93.478012 292.0
93.499176 56.0
93.520348 200.0
93.568474 116.0
93.736046 112.0
93.791939 176.0
93.815071 60.0
93.990585 168.0
94.023392 208.0
94.040764 144.0
94.201035 60.0
94.295715 184.0
94.315041 332.0
94.425255 268.0
94.438789 92.0
94.481346 160.0
94.498764 48.0
94.529724 144.0
94.568428 200.0
94.651672 196.0
94.721397 172.0
94.8144 72.0
94.83107 180.0
95.007263 200.0
95.039352 180.0
95.27816 160.0
95.390877 204.0
95.472542 220.0
95.488098 164.0
95.507553 116.0
95.548401 184.0
95.651543 140.0
95.727478 148.0
95.782013 188.0
95.856049 152.0
95.959351 240.0
96.078323 168.0
96.10759 220.0
96.185654 204.0
96.226654 240.0
96.245102 80.0
96.35154 140.0
96.388771 136.0
96.42981 156.0
96.457176 136.0
96.590149 136.0
96.635139 172.0
96.785858 200.0
96.805443 176.0
96.848526 260.0
96.88575 148.0
97.209267 232.0
97.313301 76.0
97.462585 192.0
97.672943 192.0
97.879593 152.0
97.91993 172.0
97.967255 212.0
97.993835 176.0
98.137718 160.0
98.247749 188.0
98.265923 160.0
98.346832 196.0
98.514679 156.0
98.558151 132.0
98.651039 148.0
98.716286 108.0
98.755844 124.0
98.829041 176.0
98.860703 144.0
98.935913 228.0
98.975517 116.0
99.001259 224.0
99.086433 44.0
99.139931 92.0
99.276718 292.0
99.358047 116.0
99.373917 192.0
99.538666 168.0
99.737343 168.0
99.7771 124.0
99.858635 120.0
99.896423 200.0
99.91433 168.0
100.246849 148.0
100.438255 224.0
100.45105 164.0
100.506081 156.0
100.532028 152.0
100.561966 180.0
100.585915 68.0
100.635826 228.0
100.66378 196.0
100.677757 128.0
100.693733 128.0
100.715706 60.0
100.811607 124.0
100.843582 116.0
100.881569 184.0
100.926285 172.0
100.991547 60.0
101.019554 188.0
101.073044 136.0
101.17765 184.0
101.277779 152.0
101.359917 124.0
101.393982 152.0
101.418037 56.0
101.660713 120.0
101.781158 224.0
102.038345 184.0
102.064484 224.0
102.106712 108.0
102.203278 144.0
102.249557 152.0
102.285789 196.0
102.307938 180.0
102.36834 232.0
102.418686 176.0
102.721054 128.0
102.827995 156.0
102.872406 176.0
102.97538 48.0
103.005684 140.0
103.050125 148.0
103.066292 128.0
103.116814 204.0
103.141068 192.0
103.221939 120.0
103.254295 108.0
103.280594 220.0
103.389847 184.0
103.478996 96.0
103.543716 204.0
103.695213 180.0
103.715935 208.0
103.736206 168.0
103.776756 196.0
103.789864 188.0
104.07299 68.0
104.156258 140.0
104.257851 128.0
104.274109 144.0
104.326958 232.0
104.453041 172.0
104.501862 216.0
104.571053 140.0
104.646622 200.0
104.758392 188.0
104.78611 184.0
104.825623 144.0
104.888809 60.0
104.972397 152.0
104.994835 168.0
105.084587 224.0
105.14785 164.0
105.164177 128.0
105.242371 400.0
105.262169 60.0
105.331612 160.0
105.562561 212.0
105.656654 176.0
105.818336 156.0
105.933029 160.0
105.976402 232.0
106.084671 192.0
106.101074 188.0
106.154831 164.0
106.261047 136.0
106.41703 152.0
106.431404 136.0
106.445778 136.0
106.486855 160.0
106.595741 112.0
106.64917 136.0
106.801331 208.0
106.921257 196.0
106.984802 176.0
107.130692 156.0
107.256393 180.0
107.312057 168.0
107.353294 72.0
107.489449 116.0
107.543106 152.0
107.662857 132.0
107.70623 208.0
107.817802 160.0
107.859138 152.0
108.021072 168.0
108.041115 176.0
108.09446 200.0
108.157005 184.0
108.196335 168.0
108.24189 172.0
108.277092 188.0
108.376526 120.0
108.486374 252.0
108.760193 292.0
108.789253 176.0
108.841164 164.0
108.895157 192.0
109.017731 124.0
109.038513 120.0
109.261009 192.0
109.390038 132.0
109.410858 164.0
109.517059 172.0
109.589973 80.0
109.62748 224.0
109.722252 128.0
109.758812 212.0
109.902733 200.0
109.929863 160.0
109.996651 188.0
110.078079 156.0
110.381081 192.0
110.406174 188.0
110.640533 200.0
110.713814 168.0
110.802216 176.0
110.868843 128.0
110.96122 180.0
110.999603 5268.0
111.057541 28.0
111.093201 116.0
111.178902 128.0
111.231705 156.0
111.307281 136.0
111.338783 108.0
111.355583 112.0
111.374489 144.0
111.430855 164.0
111.52578 44.0
111.576233 40.0
111.637207 152.0
111.779976 120.0
111.8013 148.0
111.940239 136.0
112.004433 428.0
112.146706 112.0
112.332268 116.0
112.503204 196.0
112.553871 156.0
112.648918 128.0
112.714409 76.0
112.788383 84.0
112.868721 140.0
112.887749 156.0
112.904671 148.0
112.946976 132.0
112.978226 160.0
112.996475 1688.0
113.035828 136.0
113.076042 84.0
113.090858 76.0
113.139603 140.0
113.213654 208.0
113.253899 256.0
113.268723 120.0
113.319717 220.0
113.421288 68.0
113.525177 252.0
113.612144 148.0
113.686409 152.0
113.868988 116.0
114.005722 200.0
114.090019 1216.0
114.172905 40.0
114.187798 132.0
114.377167 160.0
114.40271 156.0
114.426132 108.0
114.803284 180.0
114.845398 224.0
114.899605 204.0
114.948349 204.0
114.994614 632.0
115.091362 316.0
115.15757 140.0
115.352013 136.0
115.55304 224.0
115.593697 228.0
115.645065 184.0
115.700722 160.0
115.803505 136.0
115.835632 216.0
115.998497 64.0
116.032799 52.0
116.077827 104.0
116.118568 96.0
116.148598 140.0
116.176491 140.0
116.354614 176.0
116.449097 112.0
116.526436 60.0
116.54792 80.0
116.708031 96.0
116.840546 276.0
116.89843 152.0
116.9916 308.0
117.139572 192.0
117.167572 176.0
117.181633 164.0
117.202835 164.0
117.260231 208.0
117.329216 100.0
117.352928 104.0
117.510384 160.0
117.53627 300.0
117.616127 160.0
117.809357 216.0
117.885086 128.0
117.916359 176.0
117.992012 164.0
118.01796 148.0
118.229218 408.0
118.255928 96.0
118.405319 128.0
118.514526 212.0
118.588432 240.0
118.604652 228.0
118.691376 88.0
118.772797 120.0
118.851891 272.0
118.999481 184.0
119.221054 128.0
119.264519 160.0
119.310173 144.0
119.340607 144.0
119.368874 92.0
119.386276 124.0
119.443779 164.0
119.470055 176.0
119.551613 208.0
119.575546 152.0
119.616905 168.0
119.749733 116.0
119.854301 168.0
119.908783 136.0
119.928398 152.0
120.061394 132.0
120.253387 188.0
120.445534 116.0
120.465195 212.0
120.491409 128.0
120.57663 48.0
120.629089 88.0
120.714363 140.0
120.788719 172.0
120.854355 104.0
120.961594 168.0
120.979103 96.0
121.040413 52.0
121.05574 144.0
121.081451 200.0
121.145546 192.0
121.233185 232.0
121.274826 156.0
121.316475 132.0
121.331825 144.0
121.393219 116.0
121.465599 188.0
121.500694 164.0
121.553352 152.0
121.67627 216.0
121.729027 156.0
121.764107 164.0
121.856369 204.0
121.915695 124.0
121.966248 156.0
122.02121 152.0
122.036598 244.0
122.269775 112.0
122.345314 164.0
122.40847 100.0
122.452515 36.0
122.476746 152.0
122.509789 144.0
122.635391 136.0
122.677269 36.0
122.923386 184.0
123.078819 220.0
123.255531 148.0
123.343933 132.0
123.47113 212.0
123.509781 176.0
123.529686 172.0
123.635895 200.0
123.732353 176.0
123.795288 100.0
123.852867 176.0
123.899391 144.0
123.917114 104.0
123.965866 176.0
124.022057 204.0
124.067825 72.0
124.11882 144.0
124.265213 228.0
124.449432 128.0
124.498283 108.0
124.582695 200.0
124.649345 144.0
124.681305 232.0
124.727135 196.0
124.787155 164.0
124.96064 156.0
124.996246 192.0
125.022949 48.0
125.163193 320.0
125.250053 128.0
125.274551 168.0
125.300644 124.0
125.48851 80.0
125.546486 96.0
125.616249 216.0
125.681839 224.0
125.733887 168.0
125.805313 196.0
125.865593 204.0
126.00631 184.0
126.086754 148.0
126.153816 144.0
126.220886 188.0
126.236542 172.0
126.37075 172.0
126.435646 192.0
126.556526 116.0
126.632668 156.0
126.805191 84.0
126.838814 124.0
126.894859 260.0
126.991066 164.0
127.292274 172.0
127.516426 220.0
127.705536 108.0
127.752777 196.0
127.777519 200.0
127.809669 112.0
127.833778 148.0
127.851776 108.0
127.919304 188.0
127.980087 152.0
127.996239 140.0
128.085938 144.0
128.327072 132.0
128.550385 132.0
128.575211 152.0
128.719696 128.0
128.807785 192.0
128.865189 136.0
129.009003 1688.0
129.055466 188.0
129.223755 136.0
129.239594 152.0
129.25769 192.0
129.316544 144.0
129.798325 240.0
129.835373 192.0
129.953323 48.0
129.989624 152.0
130.010406 200.0
130.128098 176.0
130.146255 220.0
130.164429 152.0
130.382507 168.0
130.42569 148.0
130.441605 228.0
130.721359 104.0
130.851105 128.0
130.944458 116.0
131.007172 412.0
131.031021 156.0
131.058365 164.0
131.085709 152.0
131.197403 144.0
131.242996 124.0
131.300003 180.0
131.336502 64.0
131.555573 204.0
131.573837 144.0
131.589813 152.0
131.788528 200.0
131.950806 144.0
132.177246 124.0
132.506958 112.0
132.612366 156.0
132.653625 176.0
132.704071 52.0
132.756805 156.0
132.896744 152.0
132.96788 152.0
133.1194 100.0
133.149246 84.0
133.188293 192.0
133.335342 108.0
133.560669 188.0
133.585968 176.0
133.606674 220.0
133.643494 104.0
133.765472 204.0
133.84375 176.0
133.878983 200.0
133.931259 152.0
134.131729 140.0
134.154785 152.0
134.170929 88.0
134.267776 56.0
134.454651 172.0
134.572372 224.0
134.600082 108.0
134.637024 96.0
134.9328 60.0
134.96286 268.0
135.198822 168.0
135.277512 80.0
135.34697 68.0
135.425705 112.0
135.513733 104.0
135.659744 172.0
135.680618 204.0
135.706116 100.0
135.819748 144.0
136.214828 160.0
136.458389 44.0
136.502563 276.0
136.542099 124.0
136.764511 216.0
136.868698 140.0
136.923798 32.0
137.053329 236.0
137.224396 108.0
137.436646 188.0
137.541672 172.0
137.616379 32.0
137.72551 104.0
137.859314 52.0
137.978516 148.0
138.009384 356.0
138.065033 128.0
138.116486 176.0
138.269882 148.0
138.333878 156.0
138.493347 160.0
138.580032 320.0
138.608521 152.0
138.675522 192.0
138.711273 168.0
138.727676 176.0
138.754547 172.0
138.779251 268.0
138.816772 180.0
138.853287 148.0
138.886337 152.0
138.902298 464.0
138.923676 280.0
138.940994 152.0
138.994522 137472.0
139.058029 196.0
139.078766 124.0
139.109497 136.0
139.144592 152.0
139.169174 84.0
139.193878 176.0
139.214523 164.0
139.255493 64.0
139.274429 48.0
139.297928 132.0
139.313736 60.0
139.332657 92.0
139.373566 20.0
139.397308 80.0
139.442169 92.0
139.474167 48.0
139.49762 176.0
139.536987 72.0
139.580444 212.0
139.601639 184.0
139.621063 208.0
139.638748 64.0
139.683777 56.0
139.752441 124.0
139.815201 48.0
139.85817 124.0
139.883469 156.0
139.917923 256.0
139.956085 160.0
139.997482 7660.0
140.036255 184.0
140.044662 140.0
140.067139 68.0
140.090958 348.0
140.148956 88.0
140.180222 72.0
140.201431 72.0
140.243484 152.0
140.265076 204.0
140.368805 80.0
140.429077 180.0
140.512695 204.0
140.551239 112.0
140.587936 180.0
140.623596 68.0
140.699783 44.0
140.720383 64.0
140.753448 64.0
140.783142 128.0
140.808197 240.0
140.834137 24.0
140.848923 196.0
140.870621 228.0
140.895874 232.0
140.925873 56.0
140.951874 200.0
140.99144 31816.0
141.049332 84.0
141.068329 260.0
141.089981 212.0
141.135605 104.0
141.159485 92.0
141.186768 220.0
141.219193 52.0
141.253372 144.0
141.289505 160.0
141.340759 156.0
141.380432 124.0
141.413025 144.0
141.429596 44.0
141.469849 64.0
141.538498 52.0
141.588226 100.0
141.608261 88.0
141.720886 72.0
141.801468 44.0
141.825165 36.0
141.844131 132.0
141.928177 88.0
141.955566 96.0
141.994781 2180.0
142.044067 228.0
142.067047 116.0
142.106018 112.0
142.168457 124.0
142.208405 160.0
142.262222 184.0
142.292496 76.0
142.309128 96.0
142.429688 52.0
142.480133 48.0
142.582306 148.0
142.598938 144.0
142.714233 72.0
142.7939 100.0
142.948532 56.0
142.975098 124.0
143.034897 128.0
143.074692 72.0
143.124695 124.0
143.153549 132.0
143.269974 60.0
143.350983 48.0
143.428635 152.0
143.496384 92.0
143.546463 244.0
143.566986 204.0
143.844696 48.0
143.937805 160.0
144.069183 68.0
144.174316 124.0
144.303391 144.0
144.578476 156.0
144.635925 104.0
144.729294 112.0
145.038345 176.0
145.09108 156.0
145.11026 152.0
145.299728 244.0
145.453323 68.0
145.493896 164.0
145.501923 148.0
145.509155 200.0
145.542145 72.0
145.741257 220.0
145.767944 132.0
145.837646 112.0
145.859283 108.0
145.897736 48.0
145.965057 108.0
146.244141 136.0
146.516251 72.0
146.98642 212.0
147.049164 52.0
147.150558 120.0
147.181946 108.0
147.206085 180.0
147.301437 176.0
147.401764 48.0
147.471848 112.0
147.510513 60.0
147.580627 176.0
147.604813 120.0
147.718491 44.0
148.042816 64.0
148.091248 184.0
148.280243 104.0
148.459641 80.0
148.513 160.0
148.529984 48.0
148.605194 112.0
148.78479 144.0
148.855194 88.0
148.894058 100.0
148.952347 88.0
149.141891 112.0
149.185638 44.0
149.382614 160.0
149.431274 72.0
149.453171 204.0
149.472641 36.0
149.993835 164.0
150.149887 68.0
150.257217 96.0
150.327972 124.0
150.824051 36.0
150.892227 140.0
150.936234 64.0
151.036499 44.0
151.499161 204.0
151.564224 160.0
151.705017 128.0
151.822723 132.0
151.911011 108.0
152.232544 128.0
152.281662 140.0
152.335709 188.0
152.537216 44.0
152.90863 124.0
153.204117 180.0
153.672546 188.0
153.884811 164.0
153.9021 136.0
154.002457 176.0
154.082397 48.0
154.589294 84.0
154.772461 132.0
154.965668 184.0
155.066956 128.0
155.565842 208.0
156.00058 72.0
156.038101 220.0
156.192062 144.0
156.249283 200.0
156.271667 100.0
156.75972 148.0
156.797104 140.0
156.876862 220.0
156.974106 152.0
157.363968 200.0
157.440765 208.0
158.223419 156.0
158.265991 144.0
158.441315 216.0
158.559082 120.0
158.701981 168.0
159.013046 160.0
159.035629 124.0
159.341995 152.0
159.364609 132.0
159.417389 160.0
159.824753 128.0
159.935486 152.0
160.013519 52.0
160.058853 212.0
160.315796 168.0
160.33847 36.0
160.888367 176.0
161.085342 124.0
161.214203 156.0
161.398743 132.0
161.49231 216.0
161.532776 84.0
161.550491 164.0
161.750397 180.0
162.193695 136.0
162.238312 20.0
162.287491 108.0
162.734055 128.0
163.293121 140.0
163.410141 176.0
164.715424 40.0
164.748627 116.0
164.781845 104.0
165.050217 64.0
165.101364 216.0
165.224136 156.0
165.380234 160.0
165.426315 104.0
165.774658 188.0
166.477554 156.0
166.688202 136.0
166.952988 260.0
167.17424 112.0
167.225708 156.0
167.26947 184.0
167.43425 116.0
167.490921 180.0
167.991013 152.0
168.078568 300.0
168.104538 140.0
168.342712 196.0
168.442764 140.0
168.520264 124.0
168.897003 160.0
169.032242 160.0
169.086594 412.0
169.812042 120.0
169.897644 116.0
170.081879 204.0
170.14418 92.0
170.59671 232.0
170.801651 156.0
170.988998 152.0
171.12175 216.0
171.741989 172.0
171.911575 160.0
172.049911 44.0
172.25882 180.0
172.520157 188.0
172.619507 32.0
172.674423 168.0
172.781677 128.0
172.936066 144.0
173.242447 76.0
173.315796 236.0
173.685455 140.0
174.213104 204.0
174.299805 212.0
174.399673 124.0
174.707336 260.0
174.74762 116.0
175.391998 176.0
175.413086 156.0
175.87471 144.0
176.109711 192.0
176.527283 128.0
176.643661 152.0
177.093643 60.0
177.276459 100.0
177.382477 184.0
177.554825 64.0
177.735214 184.0
178.061661 136.0
178.292877 224.0
178.332748 136.0
178.433762 200.0
178.486938 204.0
178.840775 148.0
178.963226 200.0
179.080414 144.0
179.376175 104.0
179.440155 240.0
179.472153 140.0
179.616165 148.0
179.736221 132.0
179.920395 140.0
179.979126 176.0
180.128693 76.0
180.334442 64.0
180.422653 116.0
180.55368 68.0
180.593796 112.0
180.880112 88.0
180.909546 204.0
180.952393 168.0
180.995224 96.0
181.086288 156.0
181.153244 228.0
181.352905 164.0
181.42392 144.0
181.448044 152.0
181.469498 116.0
181.541885 136.0
181.663315 184.0
181.694778 136.0
181.72966 128.0
181.775284 112.0
181.866272 164.0
181.888794 272.0
181.933762 88.0
181.958847 288.0
182.005066 496.0
182.036591 93976.0
182.079163 144.0
182.114014 368.0
182.151154 44.0
182.176727 156.0
182.226379 56.0
182.256027 124.0
182.280853 88.0
182.325027 248.0
182.354019 320.0
182.393723 96.0
182.451553 144.0
182.475998 284.0
182.549805 60.0
182.585083 236.0
182.605408 64.0
182.667282 56.0
182.696869 220.0
182.802261 48.0
182.835739 92.0
182.87294 204.0
182.918213 64.0
182.968689 256.0
183.006378 48.0
183.039703 7660.0
183.101303 208.0
183.127838 80.0
183.164246 96.0
183.241547 128.0
183.28212 152.0
183.308807 88.0
183.345795 96.0
183.372757 44.0
183.448761 40.0
183.49588 88.0
183.521011 48.0
183.610458 236.0
183.627762 96.0
183.666656 28.0
183.712509 80.0
183.752975 132.0
183.796936 164.0
183.852814 88.0
183.885208 44.0
183.906799 100.0
183.960037 144.0
183.986694 360.0
184.03299 30272.0
184.101868 64.0
184.117722 96.0
184.147095 96.0
184.168701 44.0
184.187622 32.0
184.237289 72.0
184.270172 108.0
184.2948 136.0
184.31427 68.0
184.341614 152.0
184.389679 112.0
184.398285 124.0
184.418533 96.0
184.447769 72.0
184.5065 116.0
184.525421 44.0
184.554916 88.0
184.590317 76.0
184.687683 172.0
184.706619 44.0
184.759628 40.0
184.898712 104.0
184.92308 84.0
185.036057 1052.0
185.107376 156.0
185.388901 100.0
185.56781 108.0
185.738663 60.0
185.820053 76.0
185.844467 64.0
185.890594 80.0
185.957031 92.0
186.001877 88.0
186.039871 40.0
186.058884 84.0
186.086029 44.0
186.107758 92.0
186.452042 92.0
186.549133 52.0
186.580505 72.0
186.822556 116.0
186.969482 48.0
187.247177 116.0
187.574158 180.0
188.40921 48.0
188.852066 80.0
189.018936 76.0
189.087357 104.0
189.391281 84.0
190.035522 48.0
190.148026 60.0
191.382339 128.0
191.608185 68.0
193.068405 172.0
193.156906 76.0
194.089584 200.0
194.592453 88.0
194.884094 72.0
195.086548 612.0
195.317795 44.0
196.094864 1236.0
196.591064 92.0
197.669739 112.0
203.496201 44.0
204.283432 60.0
206.914719 132.0
208.437775 136.0
209.102097 92.0
209.17981 104.0
210.109146 128.0
210.848923 108.0
211.677246 120.0
212.140823 180.0
215.245285 52.0
215.458511 68.0
216.002258 140.0
218.092972 180.0
219.827667 52.0
221.880432 132.0
222.129547 56.0
223.725372 124.0
228.050888 88.0
229.773392 128.0
230.038956 132.0
231.805298 80.0
233.228699 96.0
235.123184 132.0
241.381073 80.0
242.16716 100.0
246.747879 92.0
249.070038 212.0
257.08374 196.0
259.383392 72.0
262.563354 76.0
265.15625 184.0
266.262604 100.0
267.081665 164.0
267.159729 112.0
269.107697 528.0
271.109192 192.0
271.553223 44.0
272.038879 60.0
272.104523 120.0
273.511566 76.0
277.270294 64.0
278.424835 44.0
287.953552 56.0
288.872955 104.0
290.007324 28.0
293.127197 244.0
295.045441 72.0
299.203583 60.0
300.661652 64.0
308.714691 40.0
310.781433 72.0
312.869141 48.0
318.523804 92.0
322.085938 68.0
323.283691 88.0
325.19751 72.0
332.760437 44.0
334.196106 52.0
336.722382 52.0
337.467865 32.0
339.947754 60.0
348.173065 112.0
352.733673 68.0
353.144989 104.0
354.98761 48.0
367.268402 80.0
367.585052 44.0
369.143616 76.0
372.451172 64.0
373.181366 104.0
376.059052 80.0
377.693481 40.0
378.184906 64.0
380.76712 132.0
387.190643 108.0
405.916901 88.0
407.385895 116.0
408.748901 124.0
412.536163 136.0
420.816101 48.0
424.023224 76.0
438.047577 68.0
440.299957 32.0
441.08963 36.0
481.546417 72.0
484.950439 60.0
491.309052 108.0
498.242065 56.0
506.548767 136.0
508.010162 48.0
513.777588 84.0
519.681885 64.0
524.361267 52.0
527.053711 36.0
540.415955 48.0
565.117554 72.0
567.580566 68.0
576.372498 116.0
577.127686 32.0
615.420959 40.0
622.869507 88.0
648.313782 44.0
669.557068 140.0
679.49231 80.0
686.389343 208.0
688.038147 164.0
697.136536 60.0
699.582336 96.0
704.793213 220.0
739.156982 168.0
755.550964 80.0
760.329163 216.0
761.136108 232.0
771.041199 164.0
775.130859 92.0
779.136841 168.0
779.553589 224.0
780.376282 32.0
787.537354 164.0
805.648071 128.0
806.4505 60.0
807.179749 160.0
811.137268 128.0
818.062073 192.0
827.894348 176.0
835.724243 84.0
839.710632 196.0
841.17627 156.0
844.683899 132.0
844.747498 128.0
844.816956 116.0
845.80072 144.0
849.480347 208.0
856.502502 68.0
863.413147 152.0
865.92395 52.0
867.259827 128.0
868.802063 48.0
871.825989 140.0
874.00769 92.0
875.856323 164.0
880.917603 280.0
882.359558 144.0
885.460327 228.0
890.561096 172.0
891.428467 172.0
901.983826 116.0
908.079285 116.0
911.699585 84.0
912.739563 128.0
913.359009 104.0
914.815308 136.0
915.007935 184.0
917.327332 116.0
917.725281 184.0
918.424805 200.0
918.581665 140.0
920.56134 136.0
923.46228 72.0
925.108154 188.0
927.731323 112.0
934.95343 152.0
935.446472 156.0
938.23053 104.0
939.724792 172.0
941.287415 152.0
943.707092 128.0
946.136047 132.0
946.754517 156.0
946.889221 128.0
947.84491 160.0
950.598267 144.0
951.279541 144.0
955.895386 96.0
959.017822 164.0
959.134949 128.0
960.213989 200.0
961.565125 128.0
973.01709 168.0
974.718933 176.0
974.924011 192.0
975.321777 128.0
975.626404 112.0
976.633789 176.0
976.832825 168.0
980.045349 168.0
981.104919 164.0
983.225708 204.0
984.074707 160.0
992.308594 240.0
999.066345 224.0
999.764771 136.0
1002.239563 224.0
1003.456055 244.0
1006.080627 148.0
1007.659546 184.0
1009.049988 72.0
1009.593811 160.0
1016.454468 248.0
1019.432739 152.0
1019.884033 184.0
1020.068359 160.0
1020.27179 164.0
1021.015747 104.0
1021.168396 180.0
1022.141724 176.0
1023.262024 192.0
1024.440186 148.0
1025.625488 108.0
1028.712891 128.0
1029.606812 156.0
1030.079468 228.0
1035.311523 208.0
1035.375488 188.0
1035.83667 64.0
1037.272095 164.0
1037.522095 60.0
1038.881714 112.0
1040.672363 120.0
1041.481445 128.0
1049.880737 76.0
1050.616089 172.0
1052.77832 144.0
1053.81189 136.0
1053.857178 280.0
1053.999268 268.0
1054.671387 148.0
1056.520874 240.0
1056.585571 180.0
1057.200317 160.0
1060.846924 128.0
1061.300781 152.0
1061.97522 220.0
1063.967407 72.0
1066.793335 136.0
1067.37854 172.0
1068.178467 148.0
1068.907227 132.0
1073.564941 196.0
1074.745728 32.0
1076.671387 40.0
1078.729614 172.0
1079.906616 148.0
1080.214111 172.0
1081.660278 124.0
1081.981079 176.0
1082.249512 192.0
1083.579102 132.0
1086.949341 108.0
1088.098022 64.0
1088.623291 208.0
1089.845093 192.0
1090.022461 196.0
1090.567993 196.0
1090.896606 56.0
1091.488403 148.0
1094.607422 148.0
1099.598022 156.0
1099.835693 172.0
1100.792969 144.0
1101.090088 112.0
1102.993042 272.0
1103.561646 136.0
1104.09729 36.0
1104.957153 136.0
1105.235107 152.0
1107.47937 260.0
1107.916504 44.0
1108.174927 140.0
1108.817749 220.0
1109.109375 128.0
1110.269653 128.0
1111.842041 84.0
1112.080933 112.0
1112.970581 216.0
1113.422119 152.0
1114.026489 164.0
1114.29895 124.0
1114.564697 228.0
1117.164307 132.0
1117.26416 148.0
1120.199951 124.0
1121.232788 140.0
1121.372681 160.0
1121.599365 32.0
1124.741089 244.0
1125.268555 108.0
1126.083252 164.0
1131.901489 120.0
1132.685059 176.0
1133.100464 124.0
1133.408691 124.0
1139.465698 200.0
1140.025269 152.0
1140.14624 200.0
1141.678955 120.0
1142.439087 228.0
1144.505371 144.0
1144.592896 160.0
1146.229736 160.0
1147.17334 136.0
1148.602905 188.0
1150.019897 164.0
1150.992065 148.0
1151.485107 136.0
1151.66748 40.0
1152.903809 184.0
1153.072754 100.0
1153.295898 140.0
1153.870483 176.0
1154.255859 208.0
1159.427856 172.0
1161.353394 204.0
1162.140381 48.0
1162.384644 188.0
1164.366943 216.0
1166.099487 136.0
1166.425781 188.0
1167.221191 140.0
1167.506836 68.0
1169.262085 56.0
1169.432251 40.0
1169.71814 184.0
1169.833862 76.0
1171.713501 224.0
1172.013306 228.0
1174.481201 168.0
1176.255371 64.0
1177.156616 148.0
1177.327271 164.0
1177.819092 144.0
1178.768799 136.0
1179.452271 120.0
1180.676025 176.0
1180.963379 152.0
1181.688477 128.0
1183.41333 44.0
1183.65979 224.0
1184.125488 168.0
1185.893188 120.0
1186.133057 192.0
1186.839722 160.0
1188.876587 156.0
1189.006958 64.0
1191.733276 184.0
1191.891235 200.0
1192.880981 236.0
1194.297485 204.0
1194.723999 156.0
1196.78186 244.0
1197.429199 160.0
1198.793335 104.0
1199.351562 216.0
1200.330566 184.0
1200.827148 192.0
1202.738403 164.0
1204.471558 144.0
1205.065674 124.0
1205.770508 116.0
1209.311768 228.0
1210.059448 216.0
1210.800293 160.0
1211.049683 124.0
1211.589966 180.0
1211.797852 240.0
1212.061157 224.0
1212.594727 144.0
1213.23938 192.0
1213.53064 56.0
1215.854492 184.0
1215.986328 176.0
1216.423584 112.0
1216.645752 212.0
1217.972168 204.0
1218.131958 136.0
1219.02124 176.0
1219.417358 212.0
1219.848389 120.0
1220.515747 172.0
1221.113892 144.0
1223.103882 128.0
1225.290527 172.0
1227.842896 176.0
1227.988281 204.0
1228.804443 212.0
1229.048706 184.0
1230.046631 180.0
1230.661011 216.0
1230.996216 168.0
1232.002075 172.0
1232.323364 128.0
1233.518433 168.0
1233.588379 180.0
1233.881958 152.0
1234.46936 196.0
1235.126831 124.0
1235.175781 168.0
1236.582153 176.0
1237.303223 160.0
1238.248535 180.0
1239.747803 136.0
1240.44165 176.0
1243.050781 204.0
1244.349365 204.0
1245.620483 184.0
1247.834229 160.0
1251.887329 168.0
1252.267578 124.0
1252.51416 216.0
1253.02832 116.0
1253.281982 136.0
1255.516724 152.0
1256.969849 140.0
1257.555664 48.0
1258.099243 124.0
1258.44519 84.0
1259.207764 168.0
1259.857666 160.0
1260.839844 224.0
1262.80542 120.0
1263.753296 128.0
1264.135376 220.0
1264.312378 176.0
1265.536987 72.0
1266.245117 192.0
1267.895874 48.0
1268.498413 128.0
1269.959106 116.0
1270.086792 208.0
1270.455688 136.0
1271.70459 172.0
1275.056885 136.0
1275.213257 200.0
1276.080566 184.0
1276.573486 184.0
1278.171753 300.0
1279.153931 128.0
1279.203735 104.0
1280.670654 156.0
1280.919922 120.0
1281.07666 188.0
1281.232666 168.0
1281.347412 120.0
1283.785156 128.0
1284.191772 224.0
1284.619751 176.0
1287.110596 164.0
1288.267578 208.0
1288.550415 168.0
1289.639648 92.0
1290.633301 124.0
1290.883667 172.0
1291.763306 188.0
1291.935059 232.0
1292.557495 184.0
1292.686279 188.0
1293.008423 168.0
1293.437866 196.0
1293.602417 120.0
1294.067871 176.0
1294.812622 164.0
1295.399902 196.0
1295.571899 112.0
1295.844116 224.0
1295.930054 160.0
1296.001709 128.0
1298.14502 208.0
1298.503662 148.0
1298.984253 192.0
1300.598755 92.0
1301.351318 168.0
1301.575073 140.0
1301.84082 212.0
1302.056274 312.0
1303.737427 180.0
1303.931519 120.0
1304.075195 168.0
1305.110474 204.0
1305.182373 128.0
1306.606445 128.0
1307.254028 112.0
1307.397949 160.0
1308.038574 192.0
1308.614502 164.0
1308.974487 180.0
1309.039307 240.0
1310.602417 156.0
1310.732178 156.0
1311.697998 192.0
1311.849365 48.0
1311.986328 188.0
1313.731567 192.0
1314.113892 152.0
1314.777832 164.0
1315.182007 136.0
1317.673462 140.0
1318.338135 200.0
1318.757324 96.0
1319.630615 216.0
1320.290161 124.0
1320.839844 96.0
1321.049561 164.0
1321.194336 56.0
1323.437988 160.0
1324.118652 164.0
1324.379395 140.0
1325.118408 160.0
1326.190918 188.0
1327.474121 116.0
1328.17041 144.0
1328.286499 140.0
1328.511353 164.0
1328.569336 84.0
1328.772461 256.0
1329.171631 168.0
1330.064331 120.0
1330.311035 100.0
1331.545532 244.0
1334.081421 136.0
1335.746704 148.0
1336.35791 140.0
1337.303955 140.0
1337.995483 168.0
1338.141113 180.0
1338.425049 136.0
1339.166138 152.0
1339.240723 144.0
1339.590332 208.0
1340.012939 156.0
1340.158569 40.0
1340.275146 236.0
1340.450073 176.0
1341.208008 204.0
1341.805786 116.0
1343.475952 160.0
1343.928345 136.0
1344.256714 104.0
1345.409912 132.0
1345.61438 196.0
1346.278809 140.0
1346.490601 200.0
1346.709717 164.0
1346.994629 60.0
1347.133423 176.0
1347.301392 156.0
1348.127075 132.0
1349.40625 172.0
1349.55249 152.0
1349.647583 160.0
1349.713379 188.0
1350.85437 180.0
1350.993286 176.0
1351.117676 196.0
1353.928589 184.0
1354.045654 172.0
1355.217773 136.0
1355.884644 176.0
1356.229126 168.0
1357.196899 144.0
1357.387451 112.0
1359.265381 160.0
1359.595703 132.0
1359.82312 112.0
1360.843506 124.0
1361.129883 260.0
1361.291504 152.0
1361.35022 188.0
1361.6073 164.0
1362.077393 48.0
1363.429321 156.0
1363.789429 104.0
1365.046631 148.0
1367.091675 160.0
1367.629028 236.0
1367.783569 172.0
1369.889648 100.0
1370.022217 192.0
1370.213745 156.0
1371.193848 220.0
1374.224609 116.0
1374.351685 172.0
1375.058594 120.0
1375.671265 144.0
1376.069824 180.0
1376.328247 80.0
1376.837891 96.0
1377.333496 164.0
1378.098511 220.0
1378.566528 176.0
1379.187378 48.0
1379.557007 184.0
1380.510864 200.0
1380.828857 164.0
1380.887939 180.0
1381.527222 88.0
1381.598145 228.0
1382.14563 164.0
1383.307617 152.0
1384.233154 40.0
1385.047852 176.0
1386.270264 160.0
1386.55188 168.0
1386.766846 168.0
1388.019775 176.0
1388.501831 120.0
1389.250977 136.0
1389.607056 124.0
1389.703491 172.0
1390.267456 76.0
1390.720215 148.0
1390.816772 160.0
1391.49231 152.0
1392.026855 180.0
1392.301636 224.0
1392.40564 100.0
1392.576416 180.0
1392.687866 140.0
1393.38623 176.0
1393.921143 76.0
1394.530518 164.0
1395.199585 104.0
1395.266479 212.0
1395.951294 232.0
1396.262939 112.0
1396.791016 192.0
1397.244873 52.0
1397.609375 136.0
1397.69873 168.0
1398.331299 72.0
1398.852295 60.0
1399.306396 188.0
1399.418091 112.0
1399.492554 180.0
1400.661865 136.0
1400.877808 200.0
1401.40686 132.0
1402.37561 192.0
1402.571777 176.0
1402.81543 168.0
1402.934692 48.0
1403.039062 180.0
1404.786255 244.0
1405.052734 224.0
1405.283936 256.0
1407.105103 196.0
1407.463501 124.0
1408.553955 84.0
1409.771851 188.0
1410.30249 144.0
1410.496826 152.0
1410.586548 184.0
1411.18457 108.0
1411.453735 168.0
1411.565918 108.0
1412.108398 204.0
1413.278931 148.0
1413.65564 116.0
1413.952393 160.0
1414.191895 140.0
1414.497925 204.0
1415.483887 196.0
1416.033813 188.0
1416.355835 220.0
1416.655518 140.0
1417.307373 72.0
1417.599609 88.0
1418.341553 200.0
1419.638672 256.0
1420.561157 160.0
1422.279663 212.0
1423.142944 124.0
1423.263062 92.0
1423.330688 176.0
1424.427246 176.0
1424.720215 124.0
1425.118408 140.0
1425.403931 124.0
1425.982544 124.0
1426.042725 180.0
1426.456177 172.0
1427.012451 124.0
1427.365845 136.0
1427.982544 280.0
1429.532349 148.0
1429.713013 104.0
1430.247314 152.0
1430.480713 204.0
1430.668945 212.0
1430.78186 204.0
1431.53479 164.0
1431.730591 84.0
1432.325684 84.0
1432.56665 148.0
1432.792725 212.0
1432.943359 148.0
1433.169434 168.0
1433.425659 192.0
1434.299927 168.0
1434.767334 152.0
1434.872803 60.0
1434.985962 144.0
1435.513794 64.0
1436.03418 128.0
1437.278931 236.0
1437.69397 212.0
1437.776978 144.0
1438.131714 176.0
1438.856445 180.0
1439.105591 36.0
1439.860718 160.0
1440.054932 240.0
1440.155273 124.0
1441.62854 212.0
1442.716919 204.0
1442.853027 116.0
1443.019409 132.0
1443.087402 192.0
1443.246216 244.0
1443.518433 204.0
1444.599976 152.0
1445.734985 96.0
1445.977173 120.0
1446.522095 164.0
1447.082397 144.0
1447.491211 276.0
1448.271362 160.0
1448.43042 228.0
1450.218628 160.0
1451.348267 164.0
1451.590942 156.0
1451.932129 164.0
1453.069946 236.0
1453.138306 192.0
1453.585938 64.0
1453.80603 184.0
1454.200684 92.0
1455.476074 220.0
1455.779785 264.0
1456.413452 188.0
1457.291504 184.0
1457.572632 204.0
1457.678955 200.0
1457.770142 136.0
1458.309814 212.0
1458.530151 172.0
1458.727905 68.0
1458.925537 120.0
1459.588867 224.0
1459.959595 144.0
1460.279053 156.0
1460.895142 120.0
1461.291626 172.0
1462.158325 168.0
1462.561646 200.0
1462.942261 96.0
1463.353394 188.0
1463.657959 108.0
1463.909302 160.0
1463.962646 64.0
1464.061646 120.0
1464.114868 124.0
1464.328125 220.0
1464.861328 180.0
1465.013672 80.0
1465.470825 244.0
1466.042358 220.0
1467.094238 108.0
1467.582153 196.0
1467.749878 152.0
1467.83374 76.0
1468.857666 132.0
1469.03125 168.0
1469.191406 112.0
1470.213867 56.0
1470.404663 188.0
1470.626343 120.0
1471.328369 196.0
1471.549805 184.0
1471.702515 112.0
1471.76355 192.0
1471.931519 232.0
1472.611206 244.0
1472.802246 56.0
1473.207031 164.0
1473.527954 176.0
1474.17749 208.0
1474.383789 228.0
1474.452515 72.0
1474.544312 200.0
1474.949341 184.0
1475.385132 160.0
1476.501465 236.0
1477.327637 100.0
1477.855469 116.0
1478.773804 156.0
1478.888672 128.0
1479.057007 72.0
1479.524048 192.0
1480.756836 200.0
1480.940674 196.0
1481.660767 52.0
1482.955811 176.0
1483.3927 68.0
1484.366455 144.0
1484.496826 184.0
1484.97229 196.0
1485.133423 224.0
1485.639648 236.0
1486.905762 192.0
1487.788452 144.0
1488.502563 216.0
1490.031128 152.0
1491.030029 132.0
1491.69104 152.0
1492.47522 136.0
1492.84436 160.0
1493.067383 104.0
1493.498169 116.0
1494.529053 160.0
1495.39856 144.0
1495.475586 92.0
1495.798828 172.0
1496.784302 176.0
1497.207886 232.0
1497.331177 208.0
1497.415894 180.0
1498.293945 204.0
1498.756348 72.0
1499.141602 52.0
1499.815674 152.0
1499.935425 160.0
1500.405762 152.0
1501.022583 164.0
1501.315552 156.0
1502.102295 120.0
1503.143921 72.0
1503.213379 40.0
1504.178101 152.0
1504.258179 156.0
