>compound MLS000697724-01!(2R,3S,3aS)-2-(1,3-benzodioxol-5-yl)-5,7-dimethoxy-3-methyl-3a-prop-2-enyl-2,3-dihydro-1-benzofuran-6-one
>formula C21H22O6
>ionization [M+Na]+
>parentmass 393.131
#inchi InChI=1S/C21H22O6/c1-5-8-21-10-16(23-3)17(22)19(24-4)20(21)27-18(12(21)2)13-6-7-14-15(9-13)26-11-25-14/h5-7,9-10,12,18H,1,8,11H2,2-4H3/t12-,18-,21-/m1/s1
#inchikey GAIYJSQKRRARSH
#Ion_Source LC-ESI
#Instrument qTof
#Compound_Source NIH Natural Product Library
#PI Dorrestein
#Data_Collector VVP/LMS
#Scan -1
#Precursor_MZ 393.131
#ExactMass 370.142
#Charge 1
#CAS_Number N/A
#Pubmed_ID N/A
#Smiles COC1=C[C@]2(CC=C)[C@H](C)[C@@H](OC2=C(OC)C1=O)c3ccc4OCOc4c3
#INCHI_AUX N/A
#Library_Class 1
#SpectrumID CCMSLIB00000079377
#IonMode Positive
#UpdateWorkflowName UPDATE-SINGLE-ANNOTATED-GOLD
#LibraryQualityString Gold
#TaskID b1d8e8f6646f4e71acdff9ca3d919d08
##Scan# 2150
#SpectrumFile p1-D05_GD5_01_17913.mzXML
#LibraryName NIH_Natural_Products_Library.mgf
#MQScore -1
#Organism NIH_Natural_Products_Library
#TIC_Query 0
#RT_Query -1
#MZErrorPPM -1
#SharedPeaks 0
#MassDiff 0
#LibMZ -1
#SpecMZ 393.131
#SpecCharge 0
#internalFilename spec-00000.mgf

>collision 10
99.281418 148.0
103.134544 20.0
105.066689 168.0
123.06076 148.0
125.639648 156.0
128.750641 172.0
131.182922 188.0
137.044174 136.0
139.310806 216.0
139.745728 36.0
145.099152 228.0
155.050354 208.0
155.968658 160.0
156.510986 132.0
163.013535 244.0
176.905045 104.0
185.832581 196.0
187.360474 20.0
199.066864 64.0
205.075882 248.0
226.718155 44.0
226.981934 160.0
236.286789 196.0
239.02359 72.0
239.082062 100.0
246.021973 80.0
253.951614 180.0
266.432648 164.0
285.769348 120.0
286.203552 144.0
289.367126 116.0
290.109039 128.0
290.729736 96.0
291.025055 56.0
295.014465 132.0
296.095703 224.0
296.973083 168.0
319.047394 128.0
319.79895 56.0
322.041565 92.0
328.069824 112.0
331.206329 124.0
331.952881 168.0
334.248566 184.0
335.975525 92.0
337.067932 3632.0
337.209717 68.0
337.238953 92.0
337.266144 128.0
337.578949 92.0
337.666718 56.0
337.955688 196.0
338.003265 124.0
338.072144 636.0
338.827057 60.0
339.072235 156.0
339.835266 112.0
340.073792 120.0
342.54834 140.0
347.082977 80.0
347.847229 44.0
349.411713 84.0
350.957336 100.0
351.073761 128.0
351.509369 84.0
351.834106 84.0
351.990906 60.0
352.091888 1364.0
352.222443 40.0
352.562439 48.0
352.696991 64.0
353.101135 272.0
353.785492 80.0
354.103302 252.0
354.984436 196.0
355.081238 156.0
355.667236 84.0
356.076477 220.0
376.564392 20.0
393.212616 96.0
395.212097 128.0
422.824554 56.0
574.933533 108.0
614.272461 152.0
722.35022 108.0
746.023682 20.0
1065.54126 20.0
1308.294189 248.0
1474.783691 20.0
