>compound MLS002207103-01!Dehydroabietylamine acetate2026-24-6
>formula C20H31N
>ionization [M+H]+
>parentmass 286.253082
#inchi InChI=1S/C20H31N/c1-14(2)15-6-8-17-16(12-15)7-9-18-19(3,13-21)10-5-11-20(17,18)4/h6,8,12,14,18H,5,7,9-11,13,21H2,1-4H3/t18-,19-,20+/m0/s1
#inchikey JVVXZOOGOGPDRZ
#origInchi InChI=1S/C20H31N.C2H4O2/c1-14(2)15-6-8-17-16(12-15)7-9-18-19(3,13-21)10-5-11-20(17,18)4;1-2(3)4/h6,8,12,14,18H,5,7,9-11,13,21H2,1-4H3;1H3,(H,3,4)/p-1/t18-,19-,20+;/m0./s1
#Ion_Source LC-ESI
#Instrument qTof
#Compound_Source NIH Pharmacologically Active Library
#PI Dorrestein
#Data_Collector VP/LMS
#Scan -1
#Precursor_MZ 286.26
#ExactMass 285.246
#Charge 1
#CAS_Number N/A
#Pubmed_ID N/A
#Smiles CC(C)c1ccc2c(CC[C@H]3[C@](C)(CN)CCC[C@@]32C)c1.CC(=O)[O-]
#INCHI_AUX N/A
#Library_Class 1
#SpectrumID CCMSLIB00000086109
#IonMode Positive
#UpdateWorkflowName UPDATE-SINGLE-ANNOTATED-GOLD
#LibraryQualityString Gold
#TaskID d252d724072548979f1f6f1ced849daf
##Scan# 1963
#SpectrumFile p5-E04_GE4_01_18461.mzXML
#LibraryName Pharm_Active_Library.mgf
#MQScore -1
#Organism Pharm_Active_Library
#TIC_Query 0
#RT_Query -1
#MZErrorPPM -1
#SharedPeaks 0
#MassDiff 0
#LibMZ -1
#SpecMZ 286.26
#SpecCharge 0
#internalFilename spec-00000.mgf

>collision 10
44.902782 180.0
44.928123 192.0
44.980167 172.0
45.001656 228.0
45.012211 124.0
45.022892 104.0
45.045597 168.0
45.065639 208.0
45.111759 172.0
45.141827 164.0
45.159214 120.0
45.174625 336.0
45.202023 192.0
45.218082 184.0
45.227451 144.0
45.239498 84.0
45.255379 144.0
45.272972 124.0
45.289043 208.0
45.306458 172.0
45.317173 152.0
45.333252 168.0
45.373783 180.0
45.396957 260.0
45.407784 128.0
45.412704 212.0
45.446835 136.0
45.468262 208.0
45.526661 228.0
45.542393 108.0
45.552658 204.0
45.56538 76.0
45.574684 348.0
45.586033 216.0
45.61779 164.0
45.648651 172.0
45.663635 124.0
45.700527 96.0
45.714626 148.0
45.733471 64.0
45.750908 356.0
45.765778 176.0
45.818306 120.0
45.841209 180.0
45.85738 220.0
45.884342 160.0
45.90184 180.0
45.928841 84.0
45.938286 204.0
45.968426 200.0
45.985512 68.0
46.026009 196.0
46.050316 152.0
46.090843 100.0
46.111115 68.0
46.128536 144.0
46.140968 140.0
46.161133 72.0
46.185478 112.0
46.218533 332.0
46.245289 156.0
46.274792 140.0
46.285625 236.0
46.298489 264.0
46.310001 144.0
46.343868 208.0
46.362839 140.0
46.378197 280.0
46.401669 168.0
46.419094 160.0
46.463177 124.0
46.488956 152.0
46.506599 152.0
46.519062 176.0
46.562031 208.0
46.585354 140.0
46.59758 216.0
46.612442 128.0
46.636204 152.0
46.658741 112.0
46.695454 128.0
46.713589 192.0
46.734901 100.0
46.751232 116.0
46.760757 140.0
46.781174 100.0
46.793388 144.0
46.800461 168.0
46.842892 248.0
46.873787 240.0
46.88987 180.0
46.912682 172.0
46.926945 176.0
46.965008 180.0
46.975555 168.0
47.001255 100.0
47.027462 152.0
47.059902 172.0
47.071579 176.0
47.098892 188.0
47.109272 160.0
47.124847 276.0
47.141247 296.0
47.15218 200.0
47.178513 332.0
47.197266 220.0
47.210964 108.0
47.223957 136.0
47.287968 140.0
47.302395 292.0
47.316322 128.0
47.33823 228.0
47.360142 128.0
47.441376 184.0
47.460377 168.0
47.471333 152.0
47.503254 168.0
47.549347 136.0
47.572681 44.0
47.586868 168.0
47.609753 144.0
47.622112 160.0
47.640732 188.0
47.649727 176.0
47.68119 148.0
47.715557 224.0
47.74168 216.0
47.756809 160.0
47.769188 196.0
47.783146 192.0
47.807713 152.0
47.833862 40.0
47.84763 148.0
47.974884 388.0
48.007603 156.0
48.02953 160.0
48.041943 88.0
48.057121 132.0
48.074783 140.0
48.105423 140.0
48.164799 196.0
48.177231 208.0
48.189663 156.0
48.204865 208.0
48.222828 184.0
48.242779 176.0
48.264977 360.0
48.286427 252.0
48.296108 136.0
48.311008 140.0
48.347298 112.0
48.356987 80.0
48.376366 116.0
48.386684 176.0
48.398518 108.0
48.422058 168.0
48.437294 236.0
48.45182 156.0
48.469772 212.0
48.489944 196.0
48.513012 112.0
48.524456 196.0
48.550369 164.0
48.572815 172.0
48.588257 160.0
48.606682 156.0
48.659176 156.0
48.691113 148.0
48.714767 148.0
48.738342 316.0
48.756409 76.0
48.785358 164.0
48.809124 156.0
48.852348 136.0
48.869831 204.0
48.906303 160.0
48.924122 180.0
48.951164 108.0
48.969269 256.0
48.995533 164.0
49.027493 244.0
49.048687 168.0
49.06263 164.0
49.076183 360.0
49.10725 180.0
49.129528 148.0
49.142506 204.0
49.157471 140.0
49.181198 120.0
49.194191 156.0
49.209118 212.0
49.218891 136.0
49.238441 128.0
49.312489 248.0
49.348831 72.0
49.368801 128.0
49.385193 100.0
49.39996 136.0
49.404362 184.0
49.445351 152.0
49.469147 48.0
49.479507 220.0
49.49218 204.0
49.529751 156.0
49.572788 128.0
49.591007 120.0
49.605026 104.0
49.624653 104.0
49.641739 216.0
49.658974 260.0
49.706005 248.0
49.726612 152.0
49.758862 188.0
49.781349 332.0
49.791637 72.0
49.809849 232.0
49.828159 196.0
49.856419 176.0
49.89843 160.0
49.92902 176.0
49.94471 288.0
49.975266 184.0
50.005337 108.0
50.033672 184.0
50.095779 120.0
50.10701 156.0
50.130554 140.0
50.202568 108.0
50.222313 40.0
50.250526 56.0
50.261814 176.0
50.323792 168.0
50.360703 168.0
50.373344 136.0
50.388306 196.0
50.41856 140.0
50.442368 208.0
50.465984 80.0
50.475105 184.0
50.52602 104.0
50.543575 216.0
50.557575 200.0
50.57555 232.0
50.598198 212.0
50.650593 156.0
50.683826 184.0
50.708687 264.0
50.742706 76.0
50.75972 176.0
50.791992 212.0
50.803688 88.0
50.817875 104.0
50.851933 196.0
50.867546 164.0
50.895126 224.0
50.907112 208.0
50.924343 160.0
50.948742 180.0
50.972641 144.0
50.990471 172.0
51.007233 236.0
51.057938 108.0
51.079269 104.0
51.099186 160.0
51.128208 128.0
51.13903 144.0
51.153263 352.0
51.190281 156.0
51.205097 208.0
51.214493 204.0
51.228737 188.0
51.285736 176.0
51.299988 160.0
51.321373 144.0
51.352772 212.0
51.396324 140.0
51.41124 144.0
51.424614 352.0
51.457222 356.0
51.484047 92.0
51.50404 124.0
51.550434 228.0
51.594067 240.0
51.603683 176.0
51.640503 132.0
51.662056 140.0
51.681309 212.0
51.712585 84.0
51.71804 72.0
51.728806 128.0
51.733715 84.0
51.737888 180.0
51.760033 160.0
51.770058 56.0
51.787243 180.0
51.796555 176.0
51.813026 128.0
51.862503 196.0
51.906189 176.0
51.933437 80.0
51.951538 168.0
51.976475 112.0
51.996944 212.0
52.012535 128.0
52.027241 312.0
52.038036 184.0
52.060467 184.0
52.080261 136.0
52.104378 144.0
52.120384 232.0
52.16254 156.0
52.175762 260.0
52.207748 100.0
52.226444 156.0
52.258934 144.0
52.309902 172.0
52.330891 204.0
52.355976 132.0
52.366058 44.0
52.420803 116.0
52.445095 236.0
52.475574 128.0
52.490509 56.0
52.511024 144.0
52.551212 156.0
52.560673 168.0
52.589439 216.0
52.61552 188.0
52.693211 156.0
52.710846 156.0
52.736191 144.0
52.746429 164.0
52.75795 108.0
52.79324 152.0
52.814068 80.0
52.838081 84.0
52.848209 188.0
52.871399 188.0
52.892395 164.0
52.935055 144.0
52.96841 132.0
52.985752 176.0
53.027771 48.0
53.046616 120.0
53.09782 216.0
53.112411 180.0
53.133095 120.0
53.143539 48.0
53.155392 184.0
53.172806 68.0
53.185867 92.0
53.202301 248.0
53.243111 140.0
53.268635 60.0
53.288971 152.0
53.308136 192.0
53.319489 172.0
53.342743 192.0
53.394466 180.0
53.411663 212.0
53.434361 296.0
53.460552 128.0
53.500336 108.0
53.525082 192.0
53.540619 140.0
53.550816 132.0
53.57085 212.0
53.587231 152.0
53.625118 148.0
53.639153 168.0
53.652813 120.0
53.742641 176.0
53.778263 128.0
53.794319 152.0
53.823517 88.0
53.83334 116.0
53.860027 152.0
53.899475 108.0
53.925777 204.0
53.941856 52.0
53.956474 68.0
53.987179 144.0
54.017067 184.0
54.036911 116.0
54.053009 156.0
54.068058 168.0
54.121803 148.0
54.171597 144.0
54.189232 180.0
54.202366 120.0
54.225811 180.0
54.324097 128.0
54.340191 116.0
54.356331 152.0
54.388878 156.0
54.399677 112.0
54.428253 124.0
54.466438 164.0
54.483265 308.0
54.498756 192.0
54.525654 172.0
54.551071 188.0
54.581837 148.0
54.608341 132.0
54.628441 152.0
54.648727 168.0
54.659027 164.0
54.678158 156.0
54.719376 100.0
54.729679 240.0
54.742931 72.0
54.769444 40.0
54.791977 148.0
54.813641 40.0
54.831322 136.0
54.853123 152.0
54.870918 144.0
54.888817 128.0
54.930111 176.0
54.949287 296.0
54.979721 164.0
55.042274 152.0
55.058105 228.0
55.08215 248.0
55.104309 80.0
55.120564 92.0
55.166378 188.0
55.209255 180.0
55.234402 104.0
55.246002 152.0
55.271385 52.0
55.291901 176.0
55.304417 136.0
55.314999 136.0
55.333866 164.0
55.371983 176.0
55.394268 184.0
55.40715 172.0
55.417969 84.0
55.440197 196.0
55.472805 172.0
55.521732 192.0
55.534924 264.0
55.58107 104.0
55.633015 48.0
55.647861 228.0
55.668995 172.0
55.686367 176.0
55.701324 148.0
55.716179 136.0
55.731037 116.0
55.838066 236.0
55.867813 88.0
55.884178 152.0
55.899059 172.0
55.923016 124.0
55.936638 160.0
55.95562 72.0
55.96999 196.0
55.986889 508.0
56.010719 208.0
56.034958 220.0
56.052433 160.0
56.068825 36.0
56.093468 156.0
56.112862 140.0
56.13961 116.0
56.14933 328.0
56.162754 148.0
56.176178 112.0
56.211987 156.0
56.255268 184.0
56.27766 212.0
56.288342 132.0
56.305305 164.0
56.351559 176.0
56.376247 172.0
56.392689 184.0
56.406139 172.0
56.433239 156.0
56.452332 232.0
56.46759 196.0
56.493813 140.0
56.545238 88.0
56.576675 132.0
56.58865 228.0
56.599133 104.0
56.626087 152.0
56.656044 84.0
56.690506 120.0
56.701717 176.0
56.713692 148.0
56.729473 112.0
56.744057 248.0
56.769958 252.0
56.784954 196.0
56.811954 112.0
56.834415 140.0
56.839443 136.0
56.882481 200.0
56.897495 172.0
56.908005 160.0
56.93948 196.0
56.983635 236.0
57.022167 96.0
57.054363 172.0
57.074783 228.0
57.086811 156.0
57.160522 168.0
57.192329 208.0
57.239403 172.0
57.253448 104.0
57.265903 188.0
57.282471 296.0
57.300549 92.0
57.326164 148.0
57.343746 96.0
57.35421 164.0
57.368366 164.0
57.400024 112.0
57.434711 96.0
57.448288 152.0
57.504116 76.0
57.53249 208.0
57.552425 180.0
57.570545 52.0
57.594604 324.0
57.623413 52.0
57.641914 252.0
57.662701 348.0
57.673279 196.0
57.692932 168.0
57.720993 164.0
57.742607 164.0
57.771568 108.0
57.807407 192.0
57.824032 184.0
57.82848 124.0
57.848774 212.0
57.874371 164.0
57.924458 184.0
57.948471 188.0
57.959301 160.0
57.997189 128.0
58.018707 144.0
58.09272 212.0
58.131851 116.0
58.170109 104.0
58.182255 156.0
58.195919 180.0
58.216148 136.0
58.253628 88.0
58.274899 160.0
58.300728 216.0
58.329235 164.0
58.360012 240.0
58.376469 216.0
58.407154 104.0
58.419323 48.0
58.439426 224.0
58.475624 68.0
58.495174 156.0
58.5266 140.0
58.540409 180.0
58.564053 248.0
58.579708 312.0
58.627396 268.0
58.638584 172.0
58.676693 132.0
58.706734 200.0
58.726509 180.0
58.742268 148.0
58.755997 100.0
58.782406 260.0
58.800251 124.0
58.817039 76.0
58.838409 172.0
58.862434 136.0
58.888325 284.0
58.913242 120.0
58.936157 172.0
58.95908 88.0
59.008556 380.0
59.031738 264.0
59.047085 188.0
59.061516 164.0
59.084461 148.0
59.095417 124.0
59.125774 192.0
59.145672 124.0
59.157917 176.0
59.177559 180.0
59.217869 104.0
59.254398 172.0
59.268185 128.0
59.281979 240.0
59.330013 148.0
59.341755 192.0
59.358585 160.0
59.363419 156.0
59.375492 220.0
59.389294 132.0
59.406166 148.0
59.419975 144.0
59.441456 200.0
59.462704 156.0
59.514271 128.0
59.544991 172.0
59.56274 120.0
59.585865 152.0
59.604923 332.0
59.61805 212.0
59.654938 176.0
59.686264 128.0
59.692177 164.0
59.716442 84.0
59.734901 176.0
59.747208 160.0
59.787857 172.0
59.79385 180.0
59.798309 228.0
59.821075 176.0
59.843506 56.0
59.884205 128.0
59.917934 156.0
59.951851 176.0
59.968945 132.0
60.018276 184.0
60.061459 192.0
60.094379 176.0
60.148804 92.0
60.188465 196.0
60.209625 152.0
60.229961 144.0
60.288414 100.0
60.314686 96.0
60.334782 136.0
60.365829 200.0
60.391994 168.0
60.407463 160.0
60.426029 156.0
60.455429 136.0
60.510029 364.0
60.55426 124.0
60.590927 196.0
60.602531 176.0
60.622257 164.0
60.635071 132.0
60.65057 184.0
60.662971 156.0
60.676922 136.0
60.723442 132.0
60.734299 180.0
60.757568 124.0
60.780243 228.0
60.809395 200.0
60.825848 132.0
60.864658 128.0
60.885101 136.0
60.900379 132.0
60.926785 152.0
60.962521 124.0
60.995121 168.0
61.013813 104.0
61.046467 148.0
61.094681 152.0
61.109436 264.0
61.138248 116.0
61.166508 152.0
61.208298 140.0
61.228542 148.0
61.248791 124.0
61.269039 164.0
61.280983 168.0
61.297085 144.0
61.312962 156.0
61.344135 128.0
61.357872 156.0
61.384377 168.0
61.419258 164.0
61.443649 96.0
61.474854 164.0
61.516994 152.0
61.535648 156.0
61.590385 128.0
61.609131 140.0
61.622902 200.0
61.659081 208.0
61.673195 144.0
61.702984 148.0
61.715405 136.0
61.729477 140.0
61.745117 244.0
61.760223 212.0
61.818642 264.0
61.837585 272.0
61.876217 184.0
61.887516 380.0
61.897133 280.0
61.911003 292.0
61.941208 140.0
62.011806 152.0
62.032761 236.0
62.050079 232.0
62.09626 172.0
62.124165 180.0
62.16061 176.0
62.183792 112.0
62.196873 48.0
62.227573 260.0
62.240742 144.0
62.271713 188.0
62.288391 304.0
62.301559 84.0
62.321983 260.0
62.339478 120.0
62.381702 40.0
62.400414 164.0
62.424072 156.0
62.457043 228.0
62.491718 252.0
62.513817 192.0
62.55159 184.0
62.577106 256.0
62.591736 224.0
62.61142 232.0
62.631416 144.0
62.647648 168.0
62.66708 168.0
62.669956 200.0
62.728016 144.0
62.74786 320.0
62.770584 160.0
62.809013 152.0
62.830898 116.0
62.862072 108.0
62.899044 216.0
62.931282 416.0
62.967846 152.0
63.01466 132.0
63.061062 256.0
63.095837 80.0
63.131702 240.0
63.156528 84.0
63.181236 108.0
63.199944 140.0
63.242634 140.0
63.266289 220.0
63.299942 144.0
63.314629 160.0
63.345375 96.0
63.365952 396.0
63.402912 72.0
63.429581 92.0
63.448879 108.0
63.474247 368.0
63.492855 136.0
63.502464 156.0
63.528172 128.0
63.544037 156.0
63.580532 224.0
63.599281 172.0
63.609394 172.0
63.636089 120.0
63.658886 212.0
63.669853 212.0
63.71907 192.0
63.768871 204.0
63.814034 212.0
63.860149 180.0
63.906616 172.0
63.917419 240.0
63.946064 88.0
63.981083 156.0
63.996883 156.0
64.006668 236.0
64.032288 204.0
64.062302 100.0
64.092026 188.0
64.126038 160.0
64.162697 176.0
64.199371 124.0
64.232864 160.0
64.244034 148.0
64.258118 164.0
64.279755 204.0
64.327759 256.0
64.352661 176.0
64.374908 152.0
64.424011 124.0
64.436264 156.0
64.456734 216.0
64.489937 180.0
64.553146 148.0
64.576271 124.0
64.588425 176.0
64.621925 164.0
64.642868 128.0
64.66507 136.0
64.685081 136.0
64.741112 284.0
64.754265 304.0
64.764359 180.0
64.785057 188.0
64.815048 128.0
64.859673 160.0
64.875702 140.0
64.894943 152.0
64.914703 300.0
64.955887 56.0
64.979027 160.0
65.026421 212.0
65.071663 220.0
65.148735 148.0
65.171005 184.0
65.198326 188.0
65.219742 232.0
65.23851 156.0
65.266983 140.0
65.279137 196.0
65.315155 84.0
65.34304 112.0
65.373611 180.0
65.38488 232.0
65.40419 76.0
65.421898 148.0
65.448906 180.0
65.477356 244.0
65.494362 120.0
65.505249 164.0
65.539467 164.0
65.55558 188.0
65.594261 312.0
65.605156 200.0
65.615036 176.0
65.655525 72.0
65.682945 328.0
65.718437 148.0
65.781853 316.0
65.8395 148.0
65.910583 88.0
65.925125 188.0
65.940254 176.0
65.949135 168.0
65.954239 320.0
65.994629 208.0
66.005951 224.0
66.023026 184.0
66.062553 156.0
66.08197 224.0
66.097832 144.0
66.102516 132.0
66.108574 236.0
66.128899 100.0
66.156418 136.0
66.179077 140.0
66.190414 176.0
66.282745 212.0
66.305962 196.0
66.330513 176.0
66.34433 116.0
66.367027 188.0
66.41925 164.0
66.442535 72.0
66.457855 168.0
66.473152 220.0
66.485443 180.0
66.500053 200.0
66.53125 164.0
66.542725 180.0
66.57473 280.0
66.631966 220.0
66.686829 116.0
66.699837 180.0
66.717712 120.0
66.737221 88.0
66.816406 128.0
66.838066 44.0
66.85434 156.0
66.900459 160.0
66.93573 124.0
66.955276 176.0
66.992958 176.0
67.011696 188.0
67.035095 204.0
67.071709 156.0
67.088882 144.0
67.105186 260.0
67.136101 184.0
67.158806 164.0
67.202263 148.0
67.217216 216.0
67.239494 128.0
67.250374 172.0
67.271721 148.0
67.319931 160.0
67.363037 100.0
67.399765 108.0
67.411354 164.0
67.488304 156.0
67.510132 308.0
67.521736 208.0
67.585381 152.0
67.612793 136.0
67.624657 152.0
67.6623 76.0
67.6754 124.0
67.716339 204.0
67.727707 192.0
67.757294 92.0
67.813004 44.0
67.834312 152.0
67.883064 120.0
67.923508 132.0
67.937622 132.0
67.963547 152.0
68.005447 184.0
68.021935 284.0
68.047585 188.0
68.065643 140.0
68.093559 116.0
68.121483 152.0
68.141197 188.0
68.213455 140.0
68.241455 308.0
68.265633 204.0
68.293251 152.0
68.299698 76.0
68.308449 108.0
68.312424 156.0
68.335197 152.0
68.346718 120.0
68.371803 148.0
68.384857 392.0
68.402672 224.0
68.416565 148.0
68.4356 236.0
68.455978 224.0
68.474335 168.0
68.501678 208.0
68.52948 124.0
68.571442 180.0
68.651337 160.0
68.675659 196.0
68.695534 144.0
68.714134 120.0
68.729515 124.0
68.7668 140.0
68.83577 208.0
68.875916 164.0
68.931374 168.0
68.963486 100.0
68.976707 108.0
69.002304 124.0
69.040726 184.0
69.087502 192.0
69.100739 124.0
69.145416 164.0
69.171898 164.0
69.185791 132.0
69.24144 252.0
69.255768 104.0
69.271286 188.0
69.287613 132.0
69.329239 108.0
69.355759 140.0
69.379234 196.0
69.408806 84.0
69.453583 132.0
69.500038 244.0
69.51165 112.0
69.529907 176.0
69.544846 96.0
69.566208 124.0
69.584282 312.0
69.616234 216.0
69.629272 136.0
69.653236 172.0
69.66938 88.0
69.752472 112.0
69.764107 164.0
69.775742 152.0
69.789658 196.0
69.823967 108.0
69.837273 140.0
69.855568 224.0
69.88884 224.0
69.905479 108.0
69.932564 176.0
69.993706 232.0
70.010742 184.0
70.029015 176.0
70.042259 176.0
70.053658 232.0
70.078651 204.0
70.099281 136.0
70.105095 188.0
70.11071 248.0
70.142578 200.0
70.175194 164.0
70.194489 216.0
70.232018 156.0
70.245361 136.0
70.257042 172.0
70.276169 128.0
70.283188 172.0
70.33046 124.0
70.352158 192.0
70.387962 156.0
70.41642 148.0
70.457367 36.0
70.475517 172.0
70.504623 176.0
70.543465 264.0
70.631226 104.0
70.653877 332.0
70.675957 172.0
70.692245 168.0
70.713203 96.0
70.74836 168.0
70.784538 184.0
70.791412 112.0
70.795677 152.0
70.80864 176.0
70.829941 128.0
70.843811 148.0
70.855537 180.0
70.877319 192.0
70.89743 84.0
70.939293 164.0
70.962799 116.0
70.98024 120.0
70.996338 152.0
71.036331 188.0
71.093636 172.0
71.105385 148.0
71.118813 84.0
71.138954 192.0
71.169174 120.0
71.188278 112.0
71.236557 192.0
71.251472 164.0
71.308113 192.0
71.375847 144.0
71.414154 328.0
71.436394 140.0
71.461624 160.0
71.476768 64.0
71.528168 148.0
71.554192 40.0
71.572464 136.0
71.590614 220.0
71.603027 176.0
71.628639 212.0
71.654984 236.0
71.671173 96.0
71.687256 180.0
71.709885 196.0
71.768883 132.0
71.80864 180.0
71.822128 152.0
71.841133 152.0
71.86937 128.0
71.916618 372.0
71.945312 192.0
71.975746 160.0
71.999504 128.0
72.013802 136.0
72.036507 108.0
72.050018 52.0
72.07946 208.0
72.116852 320.0
72.129288 216.0
72.166634 240.0
72.2062 248.0
72.222443 152.0
72.234283 176.0
72.257195 176.0
72.315453 156.0
72.34597 264.0
72.3629 144.0
72.389992 164.0
72.40184 44.0
72.45002 308.0
72.466209 184.0
72.52552 144.0
72.544167 116.0
72.568268 184.0
72.654396 192.0
72.674759 204.0
72.698509 132.0
72.721733 308.0
72.738548 196.0
72.810555 156.0
72.827927 212.0
72.847923 120.0
72.887001 184.0
72.908493 252.0
72.914474 164.0
72.934799 128.0
72.954979 68.0
72.978783 100.0
72.996765 172.0
73.055313 80.0
73.067223 116.0
73.094955 288.0
73.138695 116.0
73.155716 196.0
73.201027 228.0
73.291962 164.0
73.314117 128.0
73.333199 184.0
73.353218 132.0
73.380592 152.0
73.407875 168.0
73.43647 172.0
73.455627 152.0
73.467567 136.0
73.491455 196.0
73.547867 224.0
73.58004 244.0
73.600693 204.0
73.620064 176.0
73.643387 184.0
73.71685 160.0
73.76812 136.0
73.795479 388.0
73.807442 152.0
73.824547 160.0
73.858864 340.0
73.891251 184.0
73.914352 144.0
73.921883 124.0
73.955299 168.0
73.987091 92.0
74.026474 152.0
74.042595 212.0
74.076141 320.0
74.1203 216.0
74.141251 232.0
74.208099 132.0
74.2201 76.0
74.302284 240.0
74.315872 172.0
74.372025 100.0
74.401962 108.0
74.45665 80.0
74.462708 128.0
74.501816 140.0
74.535934 148.0
74.54882 160.0
74.573738 136.0
74.59771 144.0
74.737152 164.0
74.81707 312.0
74.830482 144.0
74.838585 180.0
74.861046 244.0
74.88343 156.0
74.911781 188.0
74.936829 512.0
74.953621 140.0
74.991974 180.0
75.004044 216.0
75.051758 188.0
75.067833 160.0
75.0868 208.0
75.118774 148.0
75.13678 168.0
75.162125 136.0
75.183411 176.0
75.202393 188.0
75.216202 148.0
75.240303 212.0
75.255905 176.0
75.279373 136.0
75.30426 160.0
75.321533 140.0
75.340538 136.0
75.376816 228.0
75.392372 128.0
75.419128 232.0
75.453865 180.0
75.470154 216.0
75.483986 132.0
75.517693 156.0
75.54599 132.0
75.573936 64.0
75.591682 172.0
75.616028 184.0
75.641426 120.0
75.707321 136.0
75.744934 180.0
75.759178 132.0
75.783432 68.0
75.811157 164.0
75.830223 128.0
75.84243 176.0
75.857956 156.0
75.877022 76.0
75.920372 144.0
75.994965 196.0
76.030266 92.0
76.044334 168.0
76.068443 548.0
76.088684 188.0
76.137222 92.0
76.166824 308.0
76.188797 96.0
76.206779 116.0
76.227631 108.0
76.265083 124.0
76.309326 172.0
76.334541 112.0
76.366714 144.0
76.413681 132.0
76.435326 136.0
76.462402 108.0
76.474586 296.0
76.50766 216.0
76.519844 208.0
76.537216 180.0
76.559891 180.0
76.589142 212.0
76.615631 160.0
76.680099 120.0
76.709732 144.0
76.752693 236.0
76.805634 244.0
76.831802 48.0
76.85099 152.0
76.878914 160.0
76.930923 120.0
76.944466 144.0
76.974922 176.0
76.988892 108.0
77.030678 208.0
77.070992 168.0
77.104195 72.0
77.132156 172.0
77.147232 192.0
77.169861 168.0
77.183174 176.0
77.223083 148.0
77.285805 168.0
77.306343 168.0
77.406837 116.0
77.448189 128.0
77.478645 172.0
77.503174 120.0
77.522446 136.0
77.538223 136.0
77.557014 136.0
77.571526 152.0
77.599571 244.0
77.620613 228.0
77.6399 164.0
77.653931 128.0
77.691444 156.0
77.721786 164.0
77.739899 204.0
77.755692 132.0
77.78553 196.0
77.801331 36.0
77.825905 136.0
77.855759 156.0
77.906693 156.0
77.919975 152.0
77.96357 184.0
77.989998 176.0
78.034988 164.0
78.052567 124.0
78.110703 152.0
78.147552 160.0
78.173943 104.0
78.207329 128.0
78.244347 128.0
78.256676 120.0
78.277802 136.0
78.294228 172.0
78.355301 104.0
78.376602 136.0
78.404251 164.0
78.427551 180.0
78.439888 128.0
78.478973 188.0
78.549217 100.0
78.580009 88.0
78.612732 180.0
78.625084 220.0
78.683334 124.0
78.727478 128.0
78.743599 124.0
78.796364 124.0
78.852905 160.0
78.86705 140.0
78.879417 116.0
78.914719 116.0
78.919579 112.0
78.963669 196.0
78.997894 124.0
79.016823 172.0
79.04567 184.0
79.059822 56.0
79.089912 136.0
79.104073 196.0
79.123543 236.0
79.166039 164.0
79.242203 160.0
79.261696 216.0
79.316635 144.0
79.337509 152.0
79.396416 160.0
79.414154 44.0
79.431892 116.0
79.450775 180.0
79.470924 156.0
79.49221 176.0
79.509956 176.0
79.553444 124.0
79.577415 148.0
79.617966 356.0
79.638275 320.0
79.653778 176.0
79.691086 152.0
79.702606 148.0
79.738663 124.0
79.756081 280.0
79.766937 176.0
79.78994 308.0
79.838615 176.0
79.863518 84.0
79.877747 236.0
79.899094 172.0
79.931122 160.0
79.957817 164.0
80.005875 188.0
80.132317 156.0
80.146576 40.0
80.169128 176.0
80.200035 136.0
80.229698 156.0
80.248169 152.0
80.280151 132.0
80.308388 244.0
80.326637 208.0
80.350731 172.0
80.362892 240.0
80.376587 68.0
80.390862 152.0
80.451546 156.0
80.464043 148.0
80.483688 200.0
80.50985 276.0
80.567123 156.0
80.587967 148.0
80.610451 232.0
80.680931 240.0
80.694519 200.0
80.708939 180.0
80.7267 132.0
80.808067 172.0
80.839401 164.0
80.873405 156.0
80.88755 148.0
80.93248 212.0
80.970085 188.0
81.007698 148.0
81.022026 152.0
81.038155 120.0
81.075783 136.0
81.089401 184.0
81.134933 156.0
81.154655 148.0
81.181549 192.0
81.203072 172.0
81.224594 164.0
81.259308 180.0
81.284447 144.0
81.347809 204.0
81.375336 120.0
81.471329 180.0
81.497475 148.0
81.562164 136.0
81.593224 220.0
81.607857 164.0
81.635162 160.0
81.685745 176.0
81.69796 272.0
81.756409 208.0
81.821892 200.0
81.846664 144.0
81.882431 180.0
81.952095 160.0
81.972389 192.0
82.019409 152.0
82.045883 180.0
82.099991 188.0
82.116722 140.0
82.132957 184.0
82.15641 92.0
82.176254 168.0
82.190689 140.0
82.210533 124.0
82.235886 152.0
82.250244 152.0
82.289955 204.0
82.309822 96.0
82.327873 164.0
82.375381 132.0
82.397621 228.0
82.419998 140.0
82.455002 260.0
82.478577 116.0
82.501335 156.0
82.52388 144.0
82.531425 68.0
82.535027 188.0
82.561584 248.0
82.590523 208.0
82.608559 176.0
82.622498 128.0
82.6623 148.0
82.688858 184.0
82.718452 400.0
82.74556 140.0
82.770912 148.0
82.783691 140.0
82.808937 164.0
82.845932 180.0
82.875969 168.0
82.890762 168.0
82.910393 224.0
82.973083 140.0
82.993782 164.0
83.014145 172.0
83.062698 132.0
83.094643 144.0
83.192139 144.0
83.212608 156.0
83.226028 168.0
83.246002 152.0
83.263115 184.0
83.308342 160.0
83.402245 204.0
83.428886 164.0
83.452637 244.0
83.518616 100.0
83.548897 148.0
83.56955 192.0
83.611832 136.0
83.625961 204.0
83.657272 80.0
83.672394 128.0
83.70488 156.0
83.722649 184.0
83.862633 152.0
83.875496 172.0
83.90284 228.0
83.921074 188.0
84.003136 212.0
84.059692 208.0
84.076118 40.0
84.118095 148.0
84.172989 124.0
84.200264 176.0
84.213936 396.0
84.253632 148.0
84.273331 212.0
84.293427 144.0
84.324493 160.0
84.344604 144.0
84.364708 132.0
84.401276 152.0
84.43602 156.0
84.4506 136.0
84.470772 108.0
84.492722 152.0
84.511017 276.0
84.534805 136.0
84.550476 192.0
84.571411 220.0
84.592003 48.0
84.619476 156.0
84.640976 172.0
84.670769 164.0
84.700829 388.0
84.730293 204.0
84.793831 136.0
84.840393 180.0
84.87941 196.0
84.898438 184.0
84.934196 156.0
84.969055 160.0
84.991074 28.0
85.007584 228.0
85.06488 164.0
85.108543 132.0
85.157684 176.0
85.174416 124.0
85.179024 200.0
85.213234 196.0
85.233444 160.0
85.254822 152.0
85.259628 96.0
85.272995 368.0
85.297768 224.0
85.333679 180.0
85.450401 104.0
85.487534 156.0
85.521004 236.0
85.550629 200.0
85.599495 244.0
85.630798 68.0
85.668503 172.0
85.684219 184.0
85.700798 152.0
85.756805 164.0
85.775383 140.0
85.812836 132.0
85.84166 296.0
85.859779 164.0
85.894424 144.0
85.922043 112.0
85.94603 116.0
85.981842 152.0
86.013809 220.0
86.037773 180.0
86.062309 148.0
86.086311 160.0
86.112167 168.0
86.141724 148.0
86.184212 216.0
86.21563 128.0
86.259987 216.0
86.29229 120.0
86.306206 196.0
86.322845 288.0
86.34874 168.0
86.385727 124.0
86.404076 144.0
86.435005 164.0
86.454948 252.0
86.47023 84.0
86.507866 108.0
86.533348 172.0
86.596741 200.0
86.61573 268.0
86.656021 128.0
86.670845 60.0
86.698181 156.0
86.717171 160.0
86.732994 284.0
86.786774 124.0
86.813576 124.0
86.828743 132.0
86.851273 208.0
86.87883 152.0
86.908173 176.0
86.966782 228.0
86.993546 232.0
87.030678 184.0
87.074387 112.0
87.093819 228.0
87.110535 64.0
87.129112 220.0
87.157471 228.0
87.19043 68.0
87.217079 200.0
87.25177 184.0
87.275337 132.0
87.322426 220.0
87.37265 188.0
87.384827 124.0
87.443359 200.0
87.470596 164.0
87.495163 188.0
87.515961 112.0
87.549194 156.0
87.5681 152.0
87.5979 212.0
87.624672 304.0
87.660034 172.0
87.732071 204.0
87.758308 168.0
87.766983 188.0
87.7714 216.0
87.801018 152.0
87.827171 116.0
87.867233 168.0
87.896881 208.0
87.946587 148.0
87.974586 232.0
87.99913 136.0
88.050156 136.0
88.082077 100.0
88.12606 420.0
88.1595 192.0
88.190521 160.0
88.292229 120.0
88.315041 244.0
88.336388 268.0
88.352081 84.0
88.369827 128.0
88.411957 208.0
88.426933 168.0
88.458748 192.0
88.473724 140.0
88.511169 164.0
88.535515 112.0
88.582336 100.0
88.608147 180.0
88.657753 192.0
88.709335 140.0
88.739365 192.0
88.826431 196.0
88.848534 172.0
88.912331 148.0
88.928368 272.0
88.944237 140.0
88.968414 200.0
88.99305 80.0
89.019333 112.0
89.038826 260.0
89.112473 164.0
89.140068 220.0
89.175262 76.0
89.197823 160.0
89.216621 120.0
89.265503 204.0
89.285233 152.0
89.343582 364.0
89.362061 180.0
89.387772 152.0
89.440842 140.0
89.469147 188.0
89.498825 128.0
89.523842 140.0
89.540817 148.0
89.562859 156.0
89.59111 208.0
89.611786 144.0
89.641983 172.0
89.666481 116.0
89.694756 172.0
89.71666 180.0
89.743553 172.0
89.778038 140.0
89.798454 184.0
89.817314 44.0
89.856247 132.0
89.892784 236.0
89.907883 112.0
89.933434 104.0
89.9618 188.0
90.000374 160.0
90.045227 144.0
90.077805 120.0
90.116776 188.0
90.166779 132.0
90.192368 108.0
90.225243 192.0
90.233643 112.0
90.239067 132.0
90.259239 156.0
90.287605 184.0
90.320114 212.0
90.359482 148.0
90.386612 176.0
90.452606 172.0
90.47303 112.0
90.49263 160.0
90.535515 172.0
90.571671 176.0
90.588356 160.0
90.65107 136.0
90.673271 168.0
90.723091 168.0
90.745956 136.0
90.781868 112.0
90.819611 80.0
90.873833 180.0
90.893791 268.0
90.922966 192.0
90.945152 308.0
90.992485 128.0
91.014687 124.0
91.027206 200.0
91.03447 180.0
91.05529 11160.0
91.08744 88.0
91.112129 104.0
91.164543 212.0
91.189423 184.0
91.206863 136.0
91.254669 124.0
91.273682 76.0
91.290802 64.0
91.323128 156.0
91.356491 296.0
91.377838 100.0
91.393517 192.0
91.408737 64.0
91.423965 120.0
91.450996 168.0
91.47345 284.0
91.515327 192.0
91.555321 148.0
91.644844 216.0
91.667656 140.0
91.687988 120.0
91.707733 140.0
91.724892 300.0
91.737206 216.0
91.772545 104.0
91.822128 180.0
91.841202 148.0
91.86409 224.0
91.907967 192.0
91.923233 140.0
91.948044 164.0
91.98188 220.0
92.018669 176.0
92.032036 112.0
92.059486 1084.0
92.108429 164.0
92.123886 172.0
92.142815 56.0
92.164566 152.0
92.181023 148.0
92.224983 228.0
92.284836 176.0
92.326309 156.0
92.349258 176.0
92.390923 128.0
92.414299 112.0
92.437263 204.0
92.46788 132.0
92.50042 164.0
92.515572 188.0
92.522766 172.0
92.538506 196.0
92.592323 188.0
92.613388 184.0
92.640205 172.0
92.653572 160.0
92.664948 188.0
92.715805 272.0
92.745346 108.0
92.783432 136.0
92.805031 172.0
92.822281 132.0
92.906677 176.0
92.929695 140.0
92.968071 104.0
93.002617 92.0
93.035248 48.0
93.052528 104.0
93.074303 176.0
93.09861 136.0
93.113976 148.0
93.150467 220.0
93.173523 148.0
93.194237 164.0
93.200157 116.0
93.246544 196.0
93.298439 84.0
93.334969 228.0
93.35997 112.0
93.417511 148.0
93.44268 104.0
93.471542 100.0
93.494583 168.0
93.554298 132.0
93.5774 152.0
93.601334 204.0
93.63517 52.0
93.685249 244.0
93.707985 160.0
93.735344 260.0
93.747818 152.0
93.807518 152.0
93.824005 224.0
93.857063 164.0
93.887634 124.0
93.912704 196.0
93.97773 204.0
93.997589 216.0
94.030396 192.0
94.049698 176.0
94.086929 152.0
94.139252 144.0
94.179062 140.0
94.20224 156.0
94.215759 220.0
94.231216 164.0
94.273727 104.0
94.293053 128.0
94.320564 136.0
94.352913 132.0
94.387779 172.0
94.401314 172.0
94.447731 212.0
94.491158 116.0
94.561882 112.0
94.577782 168.0
94.629257 144.0
94.635979 116.0
94.646027 60.0
94.652061 144.0
94.676056 172.0
94.724525 144.0
94.748772 232.0
94.782646 144.0
94.838852 172.0
94.878304 204.0
94.916397 212.0
94.94548 136.0
95.027893 408.0
95.06382 124.0
95.087303 444.0
95.117447 152.0
95.135635 132.0
95.180237 164.0
95.213303 136.0
95.250092 144.0
95.281281 136.0
95.296829 84.0
95.310425 296.0
95.335686 132.0
95.350861 216.0
95.380386 232.0
95.443695 220.0
95.471146 212.0
95.497055 180.0
95.511345 184.0
95.537903 168.0
95.558815 176.0
95.594322 136.0
95.62587 172.0
95.662445 208.0
95.697563 108.0
95.761749 220.0
95.868896 100.0
95.903976 160.0
95.980705 124.0
96.025604 168.0
96.042419 140.0
96.059975 56.0
96.083382 164.0
96.108742 176.0
96.131859 208.0
96.151672 152.0
96.20047 184.0
96.259041 136.0
96.325447 208.0
96.366173 176.0
96.382103 160.0
96.409462 80.0
96.449844 236.0
96.470901 172.0
96.501328 40.0
96.532616 136.0
96.564583 184.0
96.593246 92.0
96.614372 180.0
96.636284 112.0
96.679329 64.0
96.705101 144.0
96.741966 200.0
96.759857 200.0
96.788956 76.0
96.813049 196.0
96.832161 64.0
96.863373 100.0
96.886108 136.0
96.927429 172.0
96.965256 140.0
96.992043 216.0
97.012299 100.0
97.038399 344.0
97.053963 144.0
97.077003 160.0
97.10141 332.0
97.182404 240.0
97.226097 168.0
97.252602 356.0
97.275162 104.0
97.319298 180.0
97.334061 128.0
97.359589 140.0
97.383156 144.0
97.413673 172.0
97.506935 112.0
97.536415 132.0
97.554108 276.0
97.568993 96.0
97.601288 128.0
97.689354 196.0
97.73111 184.0
97.774399 144.0
97.8396 192.0
97.848785 172.0
97.854881 176.0
97.878731 112.0
97.906425 124.0
97.973267 152.0
98.014641 100.0
98.057175 180.0
98.08165 156.0
98.101265 160.0
98.111984 180.0
98.121948 108.0
98.147903 132.0
98.179092 160.0
98.220711 84.0
98.270966 204.0
98.286751 188.0
98.374229 160.0
98.395363 128.0
98.418076 352.0
98.436661 228.0
98.463554 152.0
98.533989 180.0
98.555283 108.0
98.576233 176.0
98.627876 196.0
98.660034 148.0
98.676857 156.0
98.709457 136.0
98.731682 216.0
98.764832 328.0
98.792526 192.0
98.812309 128.0
98.875778 212.0
98.916855 328.0
98.942932 260.0
98.956787 180.0
98.997551 116.0
99.011261 188.0
99.071655 200.0
99.085526 116.0
99.101372 164.0
99.119209 268.0
99.178604 148.0
99.236145 400.0
99.255676 148.0
99.302277 104.0
99.332886 164.0
99.404747 132.0
99.440468 128.0
99.496048 124.0
99.513298 168.0
99.51841 136.0
99.571945 216.0
99.617188 148.0
99.641022 100.0
99.672195 88.0
99.697563 132.0
99.718521 112.0
99.735962 232.0
99.812843 152.0
99.85173 164.0
99.87957 204.0
99.905304 364.0
99.94323 180.0
99.983421 164.0
100.012886 168.0
100.074486 140.0
100.103592 164.0
100.141335 176.0
100.188347 176.0
100.221985 160.0
100.269814 180.0
100.307686 156.0
100.329613 88.0
100.357521 224.0
100.411362 292.0
100.445267 108.0
100.472153 136.0
100.518715 172.0
100.557007 100.0
100.572975 104.0
100.598923 172.0
100.618889 116.0
100.634857 180.0
100.660812 172.0
100.674149 160.0
100.720726 80.0
100.740707 172.0
100.754684 240.0
100.772667 132.0
100.794022 148.0
100.809113 148.0
100.854599 108.0
100.880585 148.0
100.968567 112.0
100.995728 124.0
101.009674 108.0
101.048943 176.0
101.084595 212.0
101.133102 196.0
101.152641 100.0
101.20269 156.0
101.216705 208.0
101.235069 164.0
101.261642 344.0
101.330109 148.0
101.392761 176.0
101.45713 100.0
101.48362 188.0
101.583878 176.0
101.611549 184.0
101.653687 48.0
101.708763 108.0
101.742859 144.0
101.781052 240.0
101.820312 156.0
101.868515 236.0
101.888832 176.0
101.91114 128.0
101.960938 152.0
102.008232 144.0
102.030289 120.0
102.045959 272.0
102.077034 176.0
102.09362 180.0
102.12178 184.0
102.183418 208.0
102.208282 104.0
102.226395 220.0
102.270668 128.0
102.312943 156.0
102.379219 48.0
102.449883 172.0
102.475159 432.0
102.508308 64.0
102.533279 184.0
102.57885 224.0
102.6353 76.0
102.663795 304.0
102.692894 240.0
102.750534 148.0
102.804741 188.0
102.857216 172.0
102.872231 144.0
102.893555 172.0
102.920517 136.0
102.935486 208.0
102.975822 140.0
102.994522 180.0
103.030884 220.0
103.055138 3916.0
103.081398 60.0
103.095543 144.0
103.11171 124.0
103.153229 140.0
103.200653 140.0
103.219124 148.0
103.249184 64.0
103.287613 180.0
103.312477 360.0
103.328072 108.0
103.352196 160.0
103.35881 144.0
103.397728 152.0
103.449493 236.0
103.473785 72.0
103.550735 64.0
103.565399 348.0
103.613525 108.0
103.652023 48.0
103.666206 116.0
103.692551 120.0
103.746239 148.0
103.787834 64.0
103.831764 108.0
103.852722 164.0
103.869965 128.0
103.889236 140.0
103.905464 136.0
103.96431 204.0
103.990692 156.0
104.004898 124.0
104.059082 592.0
104.082047 256.0
104.119789 340.0
104.123672 200.0
104.131119 240.0
104.163544 128.0
104.188972 136.0
104.197815 36.0
104.213982 164.0
104.242516 184.0
104.266899 60.0
104.306046 180.0
104.33419 176.0
104.350243 168.0
104.370575 152.0
104.38829 152.0
104.407181 188.0
104.521095 188.0
104.539406 80.0
104.563828 188.0
104.614342 220.0
104.673759 44.0
104.722633 100.0
104.789635 168.0
104.793503 172.0
104.816345 260.0
104.853836 224.0
104.869514 180.0
104.885201 168.0
104.893547 132.0
104.932335 132.0
104.9496 192.0
104.999817 192.0
105.026283 184.0
105.070374 2548.0
105.12793 132.0
105.166916 260.0
105.1763 136.0
105.184929 192.0
105.190186 276.0
105.207939 96.0
105.224937 160.0
105.263069 104.0
105.307991 176.0
105.326378 204.0
105.349838 156.0
105.371315 208.0
105.40197 348.0
105.508247 88.0
105.547096 112.0
105.593506 144.0
105.649254 112.0
105.673492 160.0
105.694366 160.0
105.711281 120.0
105.716621 32.0
105.726189 116.0
105.753716 136.0
105.772133 156.0
105.786461 124.0
105.815125 112.0
105.87104 168.0
105.915466 116.0
105.931854 112.0
105.952339 180.0
105.997414 124.0
106.024055 148.0
106.042503 164.0
106.075706 556.0
106.103081 108.0
106.159576 148.0
106.189835 144.0
106.202843 292.0
106.245499 216.0
106.274765 136.0
106.364655 172.0
106.385048 156.0
106.409683 140.0
106.442688 140.0
106.500038 260.0
106.524689 152.0
106.549339 200.0
106.590431 136.0
106.622917 272.0
106.669632 216.0
106.689087 112.0
106.724876 144.0
106.758995 200.0
106.781616 144.0
106.814026 100.0
106.855667 104.0
106.876244 168.0
106.934738 244.0
106.978645 116.0
107.018562 244.0
107.034279 164.0
107.055328 100.0
107.088257 312.0
107.112823 144.0
107.140747 212.0
107.169464 204.0
107.252113 188.0
107.312889 152.0
107.336983 292.0
107.356377 176.0
107.394287 180.0
107.422195 228.0
107.45314 148.0
107.49234 216.0
107.515045 140.0
107.531555 188.0
107.621048 192.0
107.641815 172.0
107.669876 136.0
107.688461 136.0
107.712517 136.0
107.732567 148.0
107.800026 140.0
107.821915 168.0
107.882698 84.0
107.94059 160.0
107.955711 152.0
108.041931 92.0
108.09597 172.0
108.12484 152.0
108.177269 140.0
108.203354 168.0
108.23027 196.0
108.282776 204.0
108.336426 156.0
108.366974 152.0
108.383545 196.0
108.398056 96.0
108.456078 132.0
108.476578 144.0
108.499611 80.0
108.523224 196.0
108.547302 168.0
108.61998 176.0
108.673958 192.0
108.739822 164.0
108.763062 140.0
108.7864 164.0
108.814957 32.0
108.834091 136.0
108.871025 104.0
108.88813 168.0
108.903252 208.0
108.925026 96.0
108.952026 188.0
109.006409 160.0
109.039299 48.0
109.054634 244.0
109.074631 204.0
109.102242 792.0
109.141159 316.0
109.188988 120.0
109.236061 96.0
109.297157 108.0
109.333458 160.0
109.364029 180.0
109.41201 132.0
109.479172 100.0
109.521355 324.0
109.565742 160.0
109.580841 160.0
109.600029 148.0
109.663673 160.0
109.698753 164.0
109.717445 156.0
109.741714 124.0
109.77417 164.0
109.830482 108.0
109.860672 168.0
109.880547 192.0
109.910004 200.0
109.928535 168.0
109.949509 156.0
109.982796 164.0
110.014107 172.0
110.041245 156.0
110.068275 144.0
110.073303 136.0
110.095436 136.0
110.113853 364.0
110.121742 168.0
110.14566 148.0
110.179085 168.0
110.210999 176.0
110.302376 156.0
110.342621 128.0
110.406387 204.0
110.454254 196.0
110.480125 200.0
110.503136 152.0
110.517784 140.0
110.568008 152.0
110.612823 204.0
110.653893 132.0
110.66922 296.0
110.706291 228.0
110.732918 156.0
110.758812 152.0
110.792053 164.0
110.868591 104.0
110.890533 68.0
110.913589 92.0
110.930359 204.0
110.951324 108.0
110.976479 112.0
111.046753 172.0
111.120842 428.0
111.16114 188.0
111.203033 152.0
111.219826 104.0
111.248199 396.0
111.305283 312.0
111.343849 172.0
111.360504 148.0
111.37941 152.0
111.396721 188.0
111.430351 160.0
111.513878 152.0
111.553947 188.0
111.568436 356.0
111.584518 132.0
111.686287 168.0
111.709427 192.0
111.724152 204.0
111.753601 92.0
111.770439 148.0
111.815773 272.0
111.890404 204.0
111.934624 204.0
111.953575 164.0
111.974121 164.0
112.079964 200.0
112.137306 192.0
112.179016 92.0
112.209618 144.0
112.238045 56.0
112.275795 160.0
112.281921 144.0
112.318184 148.0
112.343498 148.0
112.358269 124.0
112.390572 180.0
112.513397 120.0
112.548218 68.0
112.565109 172.0
112.624001 140.0
112.71077 180.0
112.723412 200.0
112.772148 124.0
112.792984 196.0
112.829216 176.0
112.867043 180.0
112.910324 208.0
112.947639 84.0
112.97937 120.0
113.006874 40.0
113.083054 184.0
113.099258 348.0
113.116295 164.0
113.159264 92.0
113.203888 212.0
113.253014 176.0
113.275734 100.0
113.313866 92.0
113.331482 268.0
113.364723 248.0
113.390152 112.0
113.410072 200.0
113.43042 128.0
113.449211 176.0
113.479073 160.0
113.502502 156.0
113.53643 84.0
113.551277 76.0
113.572487 108.0
113.588326 188.0
113.612793 172.0
113.670074 136.0
113.693092 156.0
113.701462 132.0
113.740112 144.0
113.808044 168.0
113.833527 140.0
113.86451 400.0
113.969475 120.0
113.991783 192.0
114.041725 148.0
114.089134 224.0
114.122292 212.0
114.150146 52.0
114.2799 228.0
114.323051 184.0
114.379478 192.0
114.424622 92.0
114.444 240.0
114.509796 152.0
114.587234 132.0
114.603531 124.0
114.650406 128.0
114.678246 132.0
114.720634 156.0
114.729095 148.0
114.737381 144.0
114.765518 40.0
114.795364 92.0
114.810295 40.0
114.842285 124.0
114.863617 108.0
114.880684 196.0
114.92762 212.0
114.969078 232.0
115.026596 196.0
115.05468 14528.0
115.086235 304.0
115.12336 148.0
115.139824 68.0
115.145798 172.0
115.1521 204.0
115.210014 44.0
115.233971 140.0
115.26638 116.0
115.292557 168.0
115.322311 228.0
115.346199 196.0
115.390022 184.0
115.436646 144.0
115.452522 164.0
115.47876 44.0
115.517265 148.0
115.551491 172.0
115.595207 176.0
115.632805 120.0
115.660629 124.0
115.750549 136.0
115.776245 232.0
115.797661 132.0
115.834076 132.0
115.861923 176.0
115.887627 80.0
115.920906 196.0
115.945488 248.0
115.974396 204.0
115.99308 196.0
116.037659 148.0
116.06218 9404.0
116.115768 188.0
116.141846 192.0
116.189926 132.0
116.236504 192.0
116.264618 232.0
116.282196 164.0
116.315773 180.0
116.355072 80.0
116.360359 136.0
116.399117 180.0
116.427063 432.0
116.453957 44.0
116.484024 144.0
116.504295 156.0
116.513977 68.0
116.519585 152.0
116.585007 176.0
116.612946 168.0
116.635384 200.0
116.664536 216.0
116.694633 184.0
116.728661 184.0
116.754379 148.0
116.791405 140.0
116.875305 144.0
116.895264 160.0
116.916656 128.0
116.954933 220.0
116.993721 92.0
117.012985 136.0
117.022041 272.0
117.046158 160.0
117.070824 42536.0
117.124107 196.0
117.144905 88.0
117.161743 196.0
117.199203 356.0
117.223259 128.0
117.249435 184.0
117.279861 140.0
117.301155 76.0
117.327591 160.0
117.356697 80.0
117.390121 128.0
117.423782 236.0
117.474236 60.0
117.497963 116.0
117.5336 332.0
117.567734 120.0
117.584869 188.0
117.608017 116.0
117.632599 144.0
117.672775 140.0
117.690048 184.0
117.707321 60.0
117.781685 204.0
117.857986 144.0
117.908226 252.0
117.927605 168.0
117.986618 368.0
118.026436 164.0
118.048744 256.0
118.073921 4776.0
118.134033 128.0
118.161217 176.0
118.186737 156.0
118.215309 32.0
118.238136 168.0
118.306213 132.0
118.326401 104.0
118.371719 188.0
118.390656 108.0
118.447449 164.0
118.485962 160.0
118.518463 48.0
118.544464 216.0
118.586365 132.0
118.613754 136.0
118.654266 188.0
118.712463 104.0
118.731506 220.0
118.779388 152.0
118.797447 88.0
118.81115 200.0
118.828506 156.0
118.845863 152.0
118.884926 72.0
118.904457 84.0
118.939926 256.0
118.973915 144.0
119.005737 152.0
119.011024 304.0
119.038071 208.0
119.05072 128.0
119.084732 1724.0
119.115852 176.0
119.125351 196.0
119.212013 180.0
119.230217 172.0
119.255211 160.0
119.286728 224.0
119.313942 128.0
119.331078 140.0
119.367172 148.0
119.423714 160.0
119.444809 296.0
119.471573 64.0
119.48719 292.0
119.507195 160.0
119.529083 368.0
119.549896 192.0
119.581596 92.0
119.602936 76.0
119.636963 216.0
119.682678 272.0
119.780685 108.0
119.798111 152.0
119.843857 244.0
119.873909 192.0
119.879982 152.0
119.917099 92.0
119.937569 176.0
119.998657 164.0
120.025383 256.0
120.059662 96.0
120.090073 204.0
120.14473 196.0
120.203636 212.0
120.225456 164.0
120.283981 172.0
120.362984 148.0
120.382637 136.0
120.439415 40.0
120.473549 224.0
120.556366 188.0
120.599373 136.0
120.681992 72.0
120.716972 172.0
120.745926 200.0
120.769463 152.0
120.789146 196.0
120.815399 96.0
120.853638 176.0
120.905106 148.0
120.94986 188.0
120.967354 188.0
121.001419 136.0
121.028381 204.0
121.046028 32.0
121.070297 264.0
121.102455 304.0
121.130623 156.0
121.181007 164.0
121.227028 184.0
121.25145 360.0
121.27816 176.0
121.293625 176.0
121.36293 204.0
121.406784 140.0
121.422134 104.0
121.485741 152.0
121.518654 48.0
121.54261 152.0
121.564728 104.0
121.58448 176.0
121.7118 164.0
121.748978 216.0
121.766937 188.0
121.781052 224.0
121.795967 144.0
121.826004 204.0
121.864212 164.0
121.884995 128.0
121.944656 56.0
122.054573 144.0
122.084579 224.0
122.105156 148.0
122.121742 104.0
122.197777 224.0
122.232292 308.0
122.294365 132.0
122.314018 112.0
122.35218 152.0
122.378281 136.0
122.413246 148.0
122.435272 160.0
122.468307 132.0
122.495583 128.0
122.518272 88.0
122.569649 204.0
122.606415 140.0
122.645363 156.0
122.669983 160.0
122.717636 172.0
122.804153 192.0
122.913628 64.0
122.934708 104.0
122.95237 140.0
122.967697 224.0
122.993118 196.0
123.045059 44.0
123.059303 140.0
123.080788 148.0
123.117973 816.0
123.149841 88.0
123.184853 212.0
123.22937 156.0
123.316322 216.0
123.342072 108.0
123.357544 96.0
123.408394 156.0
123.457039 36.0
123.481369 128.0
123.504257 204.0
123.57206 188.0
123.617935 120.0
123.689346 184.0
123.740845 152.0
123.763184 148.0
123.826149 188.0
123.895287 160.0
123.918045 180.0
123.939598 136.0
123.99057 168.0
124.061493 156.0
124.101402 144.0
124.123283 304.0
124.143532 248.0
124.185669 200.0
124.214508 348.0
124.236481 172.0
124.255135 200.0
124.276619 152.0
124.294205 160.0
124.323219 32.0
124.343628 144.0
124.398682 340.0
124.463066 168.0
124.567451 144.0
124.598549 96.0
124.653893 176.0
124.714104 76.0
124.736328 132.0
124.756332 104.0
124.809692 156.0
124.829704 72.0
124.929794 144.0
124.978737 88.0
124.996536 156.0
125.023239 164.0
125.055946 196.0
125.092239 152.0
125.109695 176.0
125.227562 212.0
125.270386 136.0
125.30603 176.0
125.328499 140.0
125.338371 132.0
125.444435 152.0
125.493248 52.0
125.531067 104.0
125.640442 160.0
125.66851 144.0
125.702911 188.0
125.749779 152.0
125.856934 132.0
125.923019 208.0
125.955193 152.0
126.047264 164.0
126.11499 132.0
126.165245 148.0
126.195717 172.0
126.227852 112.0
126.245598 188.0
126.261871 224.0
126.306129 140.0
126.363159 284.0
126.42247 116.0
126.496323 180.0
126.529907 144.0
126.620399 316.0
126.640579 480.0
126.666512 132.0
126.691147 104.0
126.706833 372.0
126.736153 140.0
126.798698 148.0
126.844933 160.0
126.865944 104.0
126.919273 168.0
126.94442 144.0
126.973572 204.0
126.991516 136.0
127.01619 116.0
127.054733 1888.0
127.083199 156.0
127.129471 136.0
127.168762 168.0
127.186722 44.0
127.20668 200.0
127.249573 180.0
127.270615 152.0
127.379829 148.0
127.398697 180.0
127.433739 212.0
127.529556 188.0
127.545425 356.0
127.63475 408.0
127.663017 156.0
127.687752 200.0
127.712494 184.0
127.727081 136.0
127.74398 112.0
127.786728 140.0
127.810806 188.0
127.833977 304.0
127.857536 196.0
127.880943 348.0
127.899246 132.0
127.927605 120.0
127.94223 256.0
127.974625 140.0
128.009567 188.0
128.063065 34696.0
128.102997 288.0
128.134644 132.0
128.141327 80.0
128.150421 172.0
128.167236 56.0
128.203293 132.0
128.239288 152.0
128.290771 216.0
128.320236 244.0
128.337189 224.0
128.373703 148.0
128.406754 352.0
128.446793 156.0
128.464828 240.0
128.493546 160.0
128.540359 152.0
128.578903 188.0
128.624756 152.0
128.668976 312.0
128.704575 196.0
128.749222 72.0
128.76503 48.0
128.798645 188.0
128.811356 156.0
128.84166 156.0
128.866241 144.0
128.882721 284.0
128.915573 340.0
128.942734 124.0
128.965347 424.0
129.00766 252.0
129.070587 45392.0
129.141464 220.0
129.163223 276.0
129.184128 212.0
129.197418 124.0
129.257111 160.0
129.27832 96.0
129.296188 128.0
129.301392 168.0
129.332535 196.0
129.379929 132.0
129.382828 168.0
129.417603 132.0
129.434204 216.0
129.468384 180.0
129.49057 180.0
129.548935 116.0
129.572678 160.0
129.592957 68.0
129.617493 92.0
129.630646 108.0
129.654144 116.0
129.701569 52.0
129.726669 152.0
129.781631 184.0
129.812836 212.0
129.84671 344.0
129.876328 100.0
129.89447 144.0
129.91716 32.0
129.935318 500.0
129.975525 116.0
130.021744 180.0
130.07547 7496.0
130.117676 180.0
130.149399 196.0
130.169098 284.0
130.183975 196.0
130.216782 148.0
130.246933 160.0
130.269028 156.0
130.305237 184.0
130.350815 52.0
130.373535 48.0
130.41217 96.0
130.460434 92.0
130.49469 40.0
130.508179 120.0
130.525848 100.0
130.548584 144.0
130.566101 176.0
130.603653 148.0
130.647781 196.0
130.700912 208.0
130.719086 204.0
130.726913 152.0
130.75946 172.0
130.784943 36.0
130.789062 160.0
130.804855 372.0
130.829529 336.0
130.862915 296.0
130.89444 336.0
130.929779 288.0
130.949615 240.0
130.968155 420.0
130.996597 284.0
131.037201 484.0
131.087036 203692.0
131.152252 96.0
131.169067 184.0
131.205215 244.0
131.239761 280.0
131.262466 100.0
131.298447 572.0
131.342041 196.0
131.352936 208.0
131.384293 120.0
131.416046 256.0
131.436859 400.0
131.462265 2548.0
131.495621 144.0
131.529999 200.0
131.551605 88.0
131.57901 180.0
131.599884 160.0
131.636322 120.0
131.679642 92.0
131.7155 56.0
131.752045 80.0
131.788696 96.0
131.81073 92.0
131.840897 208.0
131.858673 168.0
131.899658 192.0
131.93959 96.0
132.00943 164.0
132.015915 160.0
132.047256 52.0
132.089706 27692.0
132.129211 184.0
132.149109 188.0
132.177826 128.0
132.209351 48.0
132.236801 40.0
132.261978 76.0
132.284454 44.0
132.30368 144.0
132.320038 88.0
132.339188 104.0
132.359589 152.0
132.396103 172.0
132.423859 108.0
132.448257 68.0
132.472641 40.0
132.489151 140.0
132.511383 172.0
132.521118 52.0
132.529266 180.0
132.557327 204.0
132.575363 96.0
132.602188 224.0
132.630753 76.0
132.658463 252.0
132.68222 152.0
132.71637 140.0
132.735321 112.0
132.761444 56.0
132.809998 208.0
132.835098 300.0
132.852936 96.0
132.900452 324.0
132.931488 276.0
132.944336 116.0
132.960617 332.0
132.988129 112.0
133.043121 120.0
133.067261 404.0
133.099991 4300.0
133.140381 92.0
133.169403 364.0
133.195007 128.0
133.226578 160.0
133.266434 144.0
133.294006 52.0
133.326721 120.0
133.360657 44.0
133.404327 220.0
133.42189 144.0
133.442856 228.0
133.466797 116.0
133.51239 228.0
133.608994 140.0
133.628311 172.0
133.65271 104.0
133.668823 268.0
133.71254 32.0
133.728653 60.0
133.744766 36.0
133.776993 60.0
133.820724 88.0
133.851471 220.0
133.86908 64.0
133.89212 40.0
133.946121 160.0
133.965942 72.0
134.001404 216.0
134.016235 100.0
134.040314 120.0
134.081024 140.0
134.102264 360.0
134.129303 176.0
134.164001 156.0
134.272385 124.0
134.320816 140.0
134.422546 240.0
134.445709 180.0
134.506195 172.0
134.549271 108.0
134.567734 88.0
134.588516 200.0
134.634705 48.0
134.650864 116.0
134.694748 156.0
134.736328 80.0
134.7733 48.0
134.822876 292.0
134.884232 144.0
134.902725 144.0
134.948959 52.0
134.974396 60.0
135.005936 56.0
135.115906 144.0
135.158279 96.0
135.209015 104.0
135.25119 196.0
135.309891 64.0
135.335358 68.0
135.360825 180.0
135.423355 76.0
135.441879 92.0
135.486755 68.0
135.515625 168.0
135.522568 140.0
135.571625 136.0
135.596848 68.0
135.603348 64.0
135.768677 100.0
135.822021 52.0
135.866089 108.0
135.890411 100.0
135.931061 112.0
136.041595 128.0
136.058716 116.0
136.13533 128.0
136.235199 112.0
136.301041 192.0
136.372299 104.0
136.416458 124.0
136.453613 176.0
136.495514 128.0
136.621109 48.0
136.663559 212.0
136.702545 132.0
136.75087 160.0
136.770035 96.0
136.898087 124.0
136.921371 52.0
136.991241 204.0
137.02153 256.0
137.058807 96.0
137.1427 140.0
137.216202 152.0
137.24527 128.0
137.263931 32.0
137.34024 144.0
137.375885 52.0
137.499542 80.0
137.522888 152.0
137.539215 176.0
137.599915 176.0
137.62793 176.0
137.689758 160.0
137.761047 180.0
137.784409 72.0
137.847504 160.0
137.908264 176.0
137.973297 136.0
138.008041 156.0
138.039185 64.0
138.060226 184.0
138.099991 108.0
138.151443 36.0
138.20993 68.0
138.233337 196.0
138.26236 228.0
138.296524 148.0
138.355042 364.0
138.40889 100.0
138.469772 80.0
138.509598 192.0
138.583527 200.0
138.673615 204.0
138.692368 192.0
138.732208 160.0
138.748627 172.0
138.772064 124.0
138.797852 192.0
138.81427 68.0
138.830688 140.0
138.929199 160.0
138.97377 168.0
139.041824 160.0
139.059967 164.0
139.119278 144.0
139.152145 200.0
139.17421 132.0
139.199112 32.0
139.221237 124.0
139.241379 68.0
139.265961 188.0
139.297745 104.0
139.342392 180.0
139.386368 172.0
139.391647 124.0
139.402359 168.0
139.407547 212.0
139.469284 152.0
139.629166 136.0
139.657379 128.0
139.711487 104.0
139.833847 156.0
139.920929 164.0
139.970383 168.0
139.986862 120.0
140.059753 152.0
140.123474 32.0
140.263535 248.0
140.283783 168.0
140.314377 84.0
140.40416 156.0
140.460587 132.0
140.49054 200.0
140.527542 96.0
140.550232 80.0
140.585632 140.0
140.625748 188.0
140.670105 176.0
140.687607 136.0
140.720169 104.0
140.746399 144.0
140.765701 216.0
140.78685 184.0
140.895996 224.0
140.925644 168.0
140.96582 204.0
141.002136 164.0
141.07016 5364.0
141.121826 60.0
141.16391 140.0
141.226349 200.0
141.263718 212.0
141.282639 188.0
141.337067 48.0
141.401718 188.0
141.431717 188.0
141.462494 72.0
141.519318 168.0
141.560196 100.0
141.596619 204.0
141.623505 132.0
141.689835 32.0
141.789352 152.0
141.853821 164.0
141.910248 136.0
141.952103 148.0
142.007477 328.0
142.042175 204.0
142.078491 7836.0
142.128464 92.0
142.197281 56.0
142.215347 72.0
142.284729 100.0
142.302917 112.0
142.334961 56.0
142.356339 100.0
142.387207 44.0
142.503052 172.0
142.593903 36.0
142.620041 144.0
142.639069 120.0
142.665207 140.0
142.686615 120.0
142.705627 104.0
142.724655 144.0
142.780823 128.0
142.799561 160.0
142.828201 160.0
142.855453 60.0
142.874481 132.0
142.928467 168.0
142.977386 164.0
143.026978 200.0
143.086533 54112.0
143.177872 156.0
143.224411 48.0
143.24823 148.0
143.293091 64.0
143.306839 52.0
143.350128 52.0
143.370682 112.0
143.421555 168.0
143.452301 100.0
143.478226 216.0
143.551971 132.0
143.603378 124.0
143.620087 152.0
143.660629 152.0
143.694031 44.0
143.717896 80.0
143.746521 168.0
143.768005 72.0
143.806183 92.0
143.862579 140.0
143.927933 40.0
143.968521 84.0
144.021072 176.0
144.061676 152.0
144.089874 5036.0
144.158157 104.0
144.221985 132.0
144.269974 140.0
144.291092 60.0
144.350632 132.0
144.359375 204.0
144.384354 104.0
144.402359 68.0
144.429794 64.0
144.446533 44.0
144.512329 72.0
144.563766 44.0
144.585312 48.0
144.640366 28.0
144.705322 176.0
144.725922 92.0
144.743301 56.0
144.783188 360.0
144.824722 160.0
144.843887 92.0
144.869171 36.0
144.93013 88.0
145.007065 192.0
145.065201 836.0
145.101486 22208.0
145.165802 120.0
145.208405 172.0
145.240646 168.0
145.288925 140.0
145.306213 280.0
145.336441 244.0
145.367554 76.0
145.383621 68.0
145.415115 168.0
145.452942 116.0
145.472153 176.0
145.505753 148.0
145.542725 192.0
145.599396 128.0
145.700287 148.0
145.783936 88.0
145.88533 196.0
145.922195 60.0
146.003143 96.0
146.068298 216.0
146.105499 3040.0
146.136124 184.0
146.161911 80.0
146.20137 300.0
146.264008 104.0
146.315948 88.0
146.337616 52.0
146.359283 88.0
146.380951 224.0
146.400223 160.0
146.490189 148.0
146.523056 168.0
146.54715 144.0
146.624557 132.0
146.677292 44.0
146.770386 124.0
146.885773 148.0
146.903 276.0
146.944061 192.0
146.96669 164.0
147.012527 132.0
147.046326 72.0
147.07045 64.0
147.117783 792.0
147.270859 68.0
147.297424 140.0
147.340912 344.0
147.408463 204.0
147.456894 204.0
147.481064 44.0
147.575348 92.0
147.615189 100.0
147.692093 72.0
147.800278 156.0
147.819641 44.0
147.870468 152.0
147.904053 128.0
147.964859 36.0
148.059296 144.0
148.120804 152.0
148.138153 108.0
148.168304 76.0
148.274567 212.0
148.323395 144.0
148.364594 156.0
148.449463 192.0
148.50766 88.0
148.575592 92.0
148.611984 220.0
148.72847 140.0
148.806137 212.0
148.825562 120.0
148.876556 128.0
148.903275 220.0
148.927567 152.0
148.990723 100.0
149.031555 144.0
149.092773 200.0
149.126801 180.0
149.241043 224.0
149.258072 156.0
149.292114 160.0
149.311951 180.0
149.360214 172.0
149.462387 128.0
149.661987 204.0
149.696075 84.0
149.735031 108.0
149.917755 108.0
149.981934 156.0
150.045975 192.0
150.168579 180.0
150.178131 160.0
150.229843 192.0
150.28595 108.0
150.327423 160.0
150.35672 164.0
150.420166 104.0
150.53981 144.0
150.595978 84.0
150.696136 84.0
150.802246 152.0
150.864761 204.0
150.957672 164.0
151.013916 196.0
151.079971 184.0
151.181213 220.0
151.236572 144.0
151.263504 144.0
151.336945 188.0
151.415298 124.0
151.466736 152.0
151.513275 116.0
151.535324 272.0
151.564728 72.0
151.586777 52.0
151.616196 168.0
151.742294 196.0
151.771622 168.0
151.817047 116.0
151.890793 100.0
151.915314 164.0
152.082184 172.0
152.182831 136.0
152.21965 80.0
152.258347 132.0
152.281052 144.0
152.401428 116.0
152.524292 164.0
152.635208 72.0
152.730835 64.0
152.780045 104.0
152.821869 100.0
152.851395 164.0
152.986877 152.0
153.067337 524.0
153.124649 68.0
153.220703 180.0
153.371033 296.0
153.437592 100.0
153.459778 32.0
153.602295 252.0
153.657074 84.0
153.827362 208.0
153.93222 144.0
153.992798 100.0
154.076035 676.0
154.200684 140.0
154.262115 176.0
154.289307 36.0
154.437683 84.0
154.454987 144.0
154.47673 132.0
154.511887 116.0
154.546524 160.0
154.573746 152.0
154.74205 172.0
154.853485 124.0
154.894974 144.0
155.059647 1656.0
155.085419 3660.0
155.210342 104.0
155.249252 168.0
155.277298 100.0
155.300247 172.0
155.318634 132.0
155.374039 44.0
155.418686 68.0
155.454361 96.0
155.546616 96.0
155.599869 36.0
155.716583 140.0
155.741425 144.0
155.828369 160.0
155.846756 136.0
155.902908 112.0
155.984177 120.0
156.063522 248.0
156.093185 4084.0
156.146545 196.0
156.171417 104.0
156.265945 40.0
156.363495 196.0
156.407791 168.0
156.437653 192.0
156.472519 48.0
156.501923 172.0
156.522308 160.0
156.5746 112.0
156.671738 204.0
156.700394 112.0
156.868607 120.0
156.886063 68.0
156.988281 92.0
157.018219 68.0
157.043411 80.0
157.101181 11300.0
157.145432 140.0
157.182861 240.0
157.285187 32.0
157.325119 176.0
157.365067 104.0
157.424988 176.0
157.444977 72.0
157.479843 108.0
157.529892 208.0
157.575241 232.0
157.609833 48.0
157.659149 136.0
157.668076 196.0
157.784042 80.0
157.854797 68.0
157.872314 60.0
157.942917 188.0
157.972351 84.0
158.002365 120.0
158.059921 140.0
158.107697 3016.0
158.155014 108.0
158.199371 200.0
158.229736 132.0
158.287704 104.0
158.30423 72.0
158.347809 40.0
158.367844 128.0
158.415436 88.0
158.440491 144.0
158.505753 160.0
158.530685 56.0
158.578308 196.0
158.677704 128.0
158.732285 76.0
158.830368 180.0
158.879196 200.0
158.931885 52.0
158.949448 84.0
158.998428 124.0
159.042313 136.0
159.083801 176.0
159.117569 21788.0
159.161102 88.0
159.213623 408.0
159.245682 104.0
159.288376 64.0
159.306427 220.0
159.335144 124.0
159.383087 100.0
159.41507 132.0
159.451706 96.0
159.471802 48.0
159.50174 116.0
159.536926 124.0
159.574875 52.0
159.637726 40.0
159.688034 240.0
159.728271 144.0
159.753433 44.0
159.841492 52.0
159.879227 188.0
159.95726 112.0
159.989975 56.0
160.039963 136.0
160.071075 324.0
160.07663 68.0
160.087692 352.0
160.119736 2496.0
160.234268 140.0
160.2771 128.0
160.314896 32.0
160.385468 72.0
160.41571 120.0
160.486298 64.0
160.509003 48.0
160.537415 220.0
160.558929 80.0
160.630051 164.0
160.82637 136.0
160.867249 136.0
160.892502 132.0
160.946655 148.0
160.971298 152.0
161.069016 124.0
161.133194 1596.0
161.228439 100.0
161.302582 108.0
161.339645 168.0
161.397797 116.0
161.434845 80.0
161.475433 140.0
161.544495 60.0
161.630508 40.0
161.746918 40.0
161.795013 112.0
161.815277 160.0
161.876038 156.0
161.948242 204.0
162.135971 684.0
162.164841 164.0
162.278915 176.0
162.354996 160.0
162.43869 68.0
162.458984 64.0
162.485489 240.0
162.519867 88.0
162.580765 112.0
162.656845 148.0
162.679764 64.0
162.915924 168.0
162.969284 56.0
163.070923 204.0
163.114136 68.0
163.139557 120.0
163.528732 216.0
163.638184 108.0
163.717133 48.0
163.752777 116.0
163.86232 72.0
163.885239 136.0
163.959778 176.0
164.033051 228.0
164.050903 144.0
164.184296 200.0
164.216644 268.0
164.262558 156.0
164.336533 168.0
164.45137 152.0
164.57135 172.0
164.686264 144.0
164.714355 132.0
164.78334 160.0
164.903442 172.0
165.02359 120.0
165.0466 188.0
165.069016 172.0
165.099335 96.0
165.161682 64.0
165.192368 116.0
165.220505 132.0
165.271683 140.0
165.313095 108.0
165.471817 164.0
165.578857 144.0
165.598022 92.0
165.650574 140.0
165.704376 176.0
165.765869 176.0
165.809433 172.0
165.845322 52.0
165.919662 120.0
166.09404 132.0
166.250534 196.0
166.345505 272.0
166.373734 156.0
166.432785 192.0
166.597 124.0
166.79245 124.0
166.900421 160.0
167.034164 160.0
167.080307 64.0
167.093536 196.0
167.124207 164.0
167.175659 144.0
167.2117 160.0
167.291489 168.0
167.360992 108.0
167.456284 160.0
167.493362 152.0
167.724243 40.0
167.847992 128.0
168.089172 304.0
168.116257 136.0
168.144821 172.0
168.189163 192.0
168.222076 100.0
168.382172 132.0
168.471176 140.0
168.506149 184.0
168.542328 220.0
168.565582 112.0
168.637939 180.0
168.671539 120.0
168.705154 188.0
168.950821 212.0
169.023148 172.0
169.046555 156.0
169.101196 3240.0
169.196686 68.0
169.256668 188.0
169.367584 56.0
169.541168 116.0
169.580658 188.0
169.699295 168.0
169.771896 104.0
169.841919 116.0
169.976822 52.0
170.031326 188.0
170.109665 5544.0
170.150726 188.0
170.173523 164.0
170.223419 140.0
170.314316 140.0
170.459259 192.0
170.498795 176.0
170.522171 56.0
170.542969 116.0
170.574158 120.0
170.654755 180.0
170.743164 172.0
170.800385 236.0
170.914673 180.0
170.961685 76.0
171.00853 208.0
171.039764 108.0
171.117035 16004.0
171.172546 100.0
171.222031 32.0
171.253281 112.0
171.271515 36.0
171.315796 76.0
171.339233 84.0
171.414398 52.0
171.453888 152.0
171.472122 48.0
171.532074 80.0
171.56102 200.0
171.615494 68.0
171.66243 28.0
171.685913 36.0
171.782501 112.0
171.839798 128.0
171.900299 236.0
171.9245 96.0
171.965057 192.0
172.026382 236.0
172.089752 292.0
172.119278 1792.0
172.174683 124.0
172.207352 60.0
172.222565 128.0
172.292435 176.0
172.329117 116.0
172.353806 252.0
172.390228 220.0
172.435013 136.0
172.456924 160.0
172.482224 240.0
172.516205 216.0
172.533905 156.0
172.606567 264.0
172.633865 76.0
172.662659 276.0
172.692459 88.0
172.712326 136.0
172.740356 264.0
172.778427 176.0
172.810623 156.0
172.827591 188.0
172.888885 188.0
172.921631 160.0
172.952759 300.0
172.971436 148.0
173.000153 140.0
173.047211 676.0
173.077728 744.0
173.133911 201128.0
173.197769 148.0
173.224411 344.0
173.252701 124.0
173.2827 104.0
173.30278 224.0
173.323425 220.0
173.363403 380.0
173.405533 100.0
173.428146 112.0
173.44722 168.0
173.475784 108.0
173.504639 340.0
173.533249 148.0
173.564682 1448.0
173.608582 88.0
173.645096 256.0
173.678314 40.0
173.707687 48.0
173.737473 144.0
173.791138 132.0
173.842148 144.0
173.865219 288.0
173.90033 48.0
173.919846 164.0
173.962921 76.0
173.972107 80.0
173.99382 212.0
174.018494 148.0
174.040756 196.0
174.079254 172.0
174.097946 312.0
174.136337 32472.0
174.183075 76.0
174.2117 60.0
174.242157 148.0
174.267303 48.0
174.298401 112.0
174.330948 108.0
174.358841 76.0
174.382965 100.0
174.405823 64.0
174.446594 56.0
174.469238 52.0
174.506989 148.0
174.535965 120.0
174.563889 48.0
174.582291 32.0
174.602753 152.0
174.639954 52.0
174.702621 64.0
174.716599 92.0
174.748291 76.0
174.795364 80.0
174.826157 188.0
174.871689 40.0
174.912354 80.0
174.979614 64.0
175.019104 96.0
175.0439 96.0
175.080658 80.0
175.141083 984.0
175.181412 96.0
175.226929 136.0
175.257919 36.0
175.312119 184.0
175.339264 120.0
175.358749 100.0
175.36322 128.0
175.408737 220.0
175.438644 280.0
175.466309 436.0
175.489807 124.0
175.500229 80.0
175.518707 76.0
175.523483 96.0
175.559296 104.0
175.603668 88.0
175.636154 152.0
175.663116 176.0
175.71228 84.0
175.743057 96.0
175.76593 72.0
175.791443 68.0
175.833664 56.0
175.858582 92.0
175.886444 52.0
175.916534 168.0
175.971405 76.0
176.056519 116.0
176.145218 236.0
176.170486 92.0
176.199295 60.0
176.221832 60.0
176.24826 84.0
176.272034 84.0
176.309036 108.0
176.347519 92.0
176.367172 140.0
176.453552 140.0
176.494064 284.0
176.525803 52.0
176.570831 140.0
176.602493 164.0
176.628952 152.0
176.692429 68.0
176.721542 56.0
176.954453 104.0
177.084198 56.0
177.158371 140.0
177.199051 156.0
177.264343 76.0
177.290848 48.0
177.404816 128.0
177.426025 108.0
177.526779 52.0
177.547989 60.0
177.582474 48.0
177.651443 64.0
178.028336 28.0
178.052231 108.0
178.147858 68.0
178.558823 84.0
178.613861 116.0
178.674225 88.0
178.79129 40.0
178.921722 128.0
179.033554 48.0
179.122955 176.0
179.315948 168.0
179.614578 64.0
179.699936 68.0
179.953491 96.0
180.062973 112.0
180.204544 140.0
180.311432 176.0
180.485199 64.0
180.651001 80.0
180.696487 68.0
180.859726 56.0
180.9561 56.0
181.047134 96.0
181.101379 112.0
181.162308 104.0
181.427612 128.0
182.107773 268.0
182.160217 192.0
182.222 36.0
182.310669 80.0
182.579498 192.0
183.031586 60.0
183.061203 68.0
183.118484 1136.0
183.211594 172.0
183.465363 208.0
183.565109 152.0
183.594086 236.0
183.740433 108.0
183.81868 40.0
183.899643 76.0
183.919724 136.0
183.967117 92.0
183.988724 32.0
184.050812 68.0
184.124863 2000.0
184.202057 84.0
184.269592 128.0
184.314621 120.0
184.342545 72.0
184.391556 116.0
184.464172 192.0
184.485794 36.0
184.633057 224.0
184.701248 112.0
184.864456 176.0
184.923981 96.0
184.991043 140.0
185.022339 180.0
185.053925 136.0
185.088745 228.0
185.095123 324.0
185.133194 52628.0
185.197449 60.0
185.265167 72.0
185.289551 64.0
185.310089 48.0
185.330185 68.0
185.374649 116.0
185.398422 240.0
185.417236 64.0
185.444 108.0
185.468399 48.0
185.511627 80.0
185.614059 76.0
185.65004 52.0
185.679871 72.0
185.720566 40.0
185.791092 60.0
185.815506 72.0
185.896912 76.0
185.915894 60.0
185.953888 40.0
185.989182 68.0
186.046188 48.0
186.101242 168.0
186.135727 6800.0
186.214539 64.0
186.252167 84.0
186.285156 72.0
186.320465 60.0
186.368103 32.0
186.393829 52.0
186.426437 136.0
186.469925 108.0
186.540588 92.0
186.58522 152.0
186.657501 44.0
186.701004 80.0
186.768997 56.0
186.82341 64.0
186.869659 112.0
187.006287 240.0
187.079208 76.0
187.146835 6212.0
187.190842 56.0
187.231689 48.0
187.300461 152.0
187.338791 124.0
187.388199 96.0
187.470764 104.0
187.499313 68.0
187.570663 68.0
187.691299 72.0
187.706268 124.0
187.738571 84.0
187.771301 56.0
187.858582 48.0
188.008652 76.0
188.087799 68.0
188.150513 612.0
188.262527 36.0
188.363586 68.0
188.382706 36.0
188.563034 48.0
188.649597 96.0
188.689102 68.0
188.888412 64.0
188.935638 112.0
189.058044 76.0
189.161087 184.0
189.189423 48.0
189.211319 100.0
189.298935 80.0
189.572876 220.0
189.63591 96.0
189.682495 92.0
189.76474 80.0
190.434311 76.0
190.478256 52.0
190.654099 228.0
190.725555 184.0
190.896011 52.0
191.275681 44.0
191.614395 172.0
192.364502 88.0
192.510834 76.0
193.055237 52.0
193.373383 104.0
193.863571 200.0
193.913452 104.0
193.977203 64.0
194.024338 208.0
194.38768 36.0
194.501465 92.0
195.029205 164.0
195.085754 164.0
195.310028 72.0
195.374878 128.0
195.671799 80.0
195.727478 88.0
196.128647 196.0
196.15094 124.0
196.206696 92.0
196.558121 64.0
196.700455 60.0
197.129135 220.0
197.301071 104.0
197.370956 48.0
197.687042 48.0
198.028595 52.0
198.142349 368.0
198.272339 140.0
198.387253 152.0
198.622803 60.0
198.664886 124.0
198.830429 64.0
198.920242 132.0
199.000717 180.0
199.090179 168.0
199.148453 9500.0
199.207413 172.0
199.24881 44.0
199.383148 64.0
199.438461 196.0
199.591705 84.0
199.622635 84.0
199.659195 48.0
199.839218 116.0
199.901123 64.0
200.01651 96.0
200.069992 52.0
200.150986 1404.0
200.354431 60.0
200.444595 188.0
200.60524 48.0
200.715195 32.0
201.165771 476.0
201.214584 60.0
201.255203 104.0
201.660904 92.0
201.720261 84.0
201.889908 72.0
202.174698 248.0
202.203934 52.0
202.294495 32.0
202.368103 64.0
202.387924 88.0
202.637177 112.0
202.659836 88.0
202.750519 84.0
202.824203 76.0
202.960281 48.0
203.119095 36.0
203.212708 76.0
203.553314 152.0
204.35704 68.0
204.448776 116.0
204.667953 124.0
205.974121 56.0
207.559601 68.0
207.720215 88.0
208.027252 84.0
208.09903 68.0
208.28569 60.0
209.061951 48.0
209.542816 64.0
210.038651 152.0
211.144989 632.0
211.191132 140.0
211.309723 116.0
211.966995 48.0
212.152908 164.0
212.396057 60.0
212.585999 128.0
212.628174 84.0
212.686218 140.0
212.718155 108.0
212.744278 96.0
212.912674 180.0
213.16362 3708.0
213.240967 92.0
213.4561 84.0
213.566605 52.0
213.685883 36.0
213.720795 96.0
213.746979 100.0
214.038055 188.0
214.168518 136.0
214.956253 120.0
215.423401 64.0
216.136749 28.0
216.306503 104.0
216.441162 72.0
216.613968 64.0
216.950958 96.0
217.047714 48.0
218.931305 104.0
218.969589 108.0
219.656357 96.0
220.12561 60.0
220.147827 100.0
220.27919 96.0
220.778687 32.0
221.686646 180.0
221.904709 52.0
223.118149 56.0
223.707169 84.0
223.808395 72.0
224.532516 60.0
224.92038 128.0
225.162766 288.0
225.664246 76.0
226.088989 148.0
226.142868 164.0
226.169388 232.0
226.753845 88.0
226.862411 92.0
227.179825 1028.0
227.248627 52.0
227.996323 68.0
228.183151 300.0
233.793747 76.0
234.890579 76.0
235.864639 112.0
236.041962 72.0
236.926498 108.0
237.13179 116.0
237.275864 48.0
237.938538 36.0
238.036789 80.0
238.509903 136.0
239.177368 108.0
240.163361 128.0
240.990692 124.0
241.040131 120.0
242.194077 80.0
242.463623 76.0
243.108673 168.0
243.201767 144.0
243.384933 44.0
243.471878 40.0
244.255112 64.0
244.569366 72.0
245.635025 60.0
245.834702 60.0
245.915833 72.0
247.281647 76.0
247.992615 60.0
249.98056 64.0
250.049805 64.0
250.191437 100.0
250.213486 72.0
250.594559 96.0
250.947556 116.0
251.862732 72.0
253.197418 92.0
254.259476 52.0
254.742081 56.0
255.085281 88.0
255.309814 84.0
255.495499 44.0
258.120422 48.0
258.395508 80.0
261.009521 68.0
262.493927 56.0
263.882355 76.0
265.965332 128.0
266.904205 84.0
266.998505 52.0
267.122101 124.0
268.105377 116.0
269.2276 632.0
269.537933 68.0
269.969421 88.0
270.232178 388.0
270.420898 52.0
272.700348 52.0
276.516296 64.0
276.57254 68.0
277.672546 112.0
278.641815 104.0
278.821228 40.0
279.516266 44.0
280.998962 72.0
282.967468 40.0
283.808441 144.0
284.563354 36.0
286.062714 180.0
286.253082 300.0
287.107208 92.0
287.259003 124.0
287.299469 84.0
289.052979 104.0
289.195129 64.0
289.249268 148.0
290.530212 80.0
290.581085 84.0
292.490936 88.0
292.603271 104.0
292.977875 60.0
293.366364 120.0
293.570953 40.0
295.480286 108.0
295.548737 28.0
296.685791 88.0
297.502258 48.0
299.166077 72.0
300.610229 52.0
300.916931 100.0
301.40097 44.0
301.615234 84.0
303.640686 32.0
304.518768 124.0
305.572021 48.0
305.846954 72.0
306.944336 68.0
307.143127 80.0
307.230347 44.0
308.900146 60.0
309.894379 68.0
310.602509 48.0
315.914581 76.0
316.006561 68.0
316.077332 80.0
319.149048 36.0
322.0177 76.0
322.489319 56.0
323.100769 116.0
323.952789 60.0
325.663788 88.0
325.882904 36.0
327.116425 92.0
327.80072 84.0
327.970123 60.0
328.532654 52.0
329.897675 68.0
331.562653 104.0
332.930359 96.0
333.69339 60.0
333.962494 44.0
335.196625 92.0
337.755859 108.0
337.821716 72.0
338.890717 84.0
339.67157 52.0
341.287476 68.0
348.052948 44.0
350.52655 60.0
354.937347 124.0
367.258789 128.0
367.598328 32.0
368.201508 76.0
370.216888 60.0
370.653595 84.0
371.06369 32.0
371.546936 96.0
373.917236 136.0
375.736481 124.0
377.803314 60.0
379.112 76.0
379.208893 76.0
383.862335 52.0
384.20166 128.0
384.673828 80.0
385.419769 44.0
386.15863 160.0
386.287689 92.0
386.839996 140.0
387.489532 60.0
389.611969 76.0
390.551453 52.0
391.275513 60.0
392.883423 56.0
393.420135 44.0
395.341034 60.0
397.016754 36.0
397.393585 32.0
402.903656 72.0
405.228088 100.0
407.362335 84.0
408.435577 92.0
409.361237 40.0
409.449829 64.0
413.349457 88.0
416.158386 168.0
416.934235 144.0
419.205017 32.0
419.253906 88.0
420.089752 56.0
420.718201 56.0
422.786407 88.0
424.884277 72.0
424.978638 68.0
425.791412 116.0
429.479126 88.0
431.411621 76.0
431.928528 60.0
432.23053 124.0
434.75 56.0
435.227356 72.0
435.759003 96.0
436.952209 64.0
438.984802 52.0
440.119781 52.0
441.553131 64.0
442.645355 40.0
442.921753 72.0
445.984772 36.0
447.132965 52.0
447.815033 32.0
448.940277 44.0
451.059723 100.0
452.968109 72.0
454.664062 56.0
454.78714 88.0
455.373901 60.0
456.146362 64.0
457.516144 28.0
461.321381 120.0
461.804535 108.0
463.714081 52.0
471.236023 40.0
472.879242 72.0
475.553406 40.0
476.01358 48.0
482.855469 112.0
483.043549 64.0
483.61673 84.0
491.981812 84.0
493.563477 92.0
493.771332 60.0
495.572968 72.0
496.419586 84.0
498.768158 56.0
501.929047 68.0
503.745483 136.0
506.339691 96.0
506.7742 56.0
506.989288 96.0
507.459961 56.0
507.899414 56.0
507.948761 88.0
508.119232 64.0
508.352539 52.0
510.675201 64.0
513.08429 76.0
516.792236 52.0
516.82843 96.0
517.47113 48.0
517.733765 80.0
518.132324 44.0
519.501404 56.0
523.874573 68.0
523.992981 68.0
525.652649 168.0
543.608826 116.0
551.175659 116.0
551.9422 180.0
561.460815 252.0
561.574036 68.0
563.10321 104.0
570.247864 116.0
570.552063 88.0
570.670898 60.0
571.141724 64.0
573.341309 64.0
573.479553 136.0
576.849426 68.0
577.552307 48.0
587.775574 68.0
589.96344 60.0
594.880371 76.0
597.403992 64.0
601.227234 48.0
615.40863 172.0
615.660461 32.0
617.909485 100.0
618.874634 96.0
620.271667 64.0
628.143127 192.0
631.279602 80.0
633.627075 156.0
641.869995 84.0
642.364258 216.0
645.702881 92.0
657.989624 56.0
660.222595 172.0
662.454163 144.0
663.889221 80.0
664.155945 168.0
665.218079 116.0
669.686401 160.0
670.289185 88.0
674.469421 124.0
681.522583 152.0
682.54657 88.0
685.435425 108.0
687.542175 92.0
688.617676 56.0
694.967468 84.0
700.092529 48.0
700.619263 228.0
700.787842 124.0
702.258606 72.0
703.187134 144.0
704.02655 220.0
704.517761 128.0
706.410278 92.0
706.563721 128.0
706.632446 192.0
708.125244 212.0
711.50293 56.0
715.495483 144.0
715.761719 76.0
715.905457 88.0
716.608582 152.0
718.629272 68.0
721.267395 132.0
722.251221 100.0
725.437256 52.0
725.5177 152.0
730.748596 96.0
734.492615 116.0
735.863281 92.0
736.851685 144.0
738.181274 40.0
739.750305 184.0
743.609558 192.0
744.945251 196.0
745.374451 168.0
748.262573 184.0
750.207458 136.0
751.581848 228.0
751.925598 100.0
752.809998 180.0
753.858826 56.0
754.219543 180.0
755.15448 184.0
755.865662 60.0
759.020752 52.0
760.595276 92.0
761.199158 176.0
763.749207 112.0
764.112244 188.0
766.540405 88.0
766.75531 180.0
767.290039 152.0
767.43335 192.0
767.73114 48.0
772.602722 60.0
774.828247 116.0
777.328857 180.0
780.161438 160.0
781.167969 212.0
781.674255 176.0
782.319824 140.0
782.531372 200.0
784.104187 172.0
785.63562 208.0
785.76947 204.0
786.126587 184.0
786.383301 208.0
787.332397 152.0
788.472046 48.0
790.345398 56.0
790.636353 196.0
792.456177 48.0
795.574402 108.0
798.873108 148.0
798.951843 224.0
799.109375 148.0
802.697266 56.0
802.934143 172.0
805.423157 160.0
805.90332 92.0
807.231628 184.0
807.661499 164.0
807.797241 136.0
808.289429 64.0
808.708191 136.0
809.195068 180.0
809.642395 108.0
809.817932 136.0
809.99353 212.0
812.890625 136.0
813.055176 188.0
813.27655 204.0
813.560364 72.0
813.776062 236.0
814.622253 120.0
816.816467 208.0
819.173035 132.0
820.381165 56.0
820.592102 172.0
820.899963 188.0
822.280518 228.0
822.932434 184.0
824.639282 152.0
824.787903 184.0
826.103088 124.0
830.801514 232.0
831.506287 32.0
832.109009 200.0
832.442017 104.0
832.585571 56.0
832.637268 140.0
833.585144 124.0
835.223633 132.0
835.453735 76.0
835.672363 192.0
837.502991 212.0
837.65271 160.0
837.848572 176.0
840.229553 188.0
840.633484 216.0
841.949646 68.0
843.532776 192.0
845.464539 164.0
845.742371 80.0
846.691833 76.0
848.980957 172.0
850.698364 148.0
851.046692 208.0
851.627441 112.0
851.702942 140.0
852.231567 160.0
852.649963 192.0
856.070618 184.0
856.938538 180.0
858.658142 172.0
860.110901 148.0
860.782288 180.0
860.922485 108.0
861.535767 60.0
861.757751 144.0
862.09082 96.0
862.476562 144.0
864.090515 116.0
864.552795 72.0
864.652283 192.0
865.91687 180.0
866.467468 188.0
867.780273 216.0
867.9151 172.0
868.055847 144.0
868.513306 76.0
869.839417 164.0
870.344299 76.0
873.294312 212.0
873.529602 212.0
874.800659 164.0
874.947815 144.0
875.783997 180.0
876.956482 164.0
877.77594 68.0
878.094421 32.0
878.707886 144.0
878.908447 60.0
878.991089 68.0
881.045715 180.0
881.701599 132.0
882.050293 160.0
882.85437 48.0
883.410339 96.0
884.286072 160.0
884.688599 132.0
885.103027 92.0
885.653748 180.0
886.435791 152.0
887.087708 124.0
887.158875 112.0
887.425659 112.0
888.066101 112.0
888.813599 116.0
889.110291 208.0
890.083801 80.0
890.594543 84.0
891.562927 152.0
891.889832 164.0
895.459717 136.0
895.590759 160.0
896.490356 104.0
896.859863 188.0
896.919495 120.0
897.134094 192.0
898.535522 124.0
899.042725 252.0
899.818665 40.0
899.914185 172.0
901.819824 80.0
901.897522 144.0
905.140015 152.0
906.847351 140.0
908.568298 184.0
909.1203 164.0
909.396362 52.0
910.026672 60.0
910.152771 232.0
910.236816 208.0
910.69928 156.0
911.792725 100.0
912.886841 172.0
913.27771 164.0
913.380005 116.0
914.132019 236.0
914.80011 156.0
915.564758 224.0
915.739441 164.0
915.960083 144.0
916.793701 180.0
917.360291 120.0
919.610107 172.0
920.376831 132.0
922.062195 60.0
923.132202 172.0
923.791443 116.0
924.130249 124.0
924.372253 196.0
924.916992 136.0
925.498108 212.0
925.582886 172.0
926.473206 164.0
926.59436 236.0
927.594299 256.0
928.430969 140.0
928.552246 112.0
928.989014 192.0
929.674622 140.0
929.905212 72.0
930.912964 168.0
931.836243 196.0
931.915222 108.0
932.042786 40.0
932.650513 72.0
932.832886 160.0
934.000366 112.0
934.140259 160.0
934.188965 196.0
934.389709 28.0
934.566101 144.0
934.681763 140.0
935.199036 328.0
935.874756 132.0
936.112183 132.0
936.331421 192.0
936.459351 80.0
938.104492 168.0
938.244751 168.0
940.391846 128.0
940.617737 156.0
940.977905 96.0
941.106506 192.0
941.289307 208.0
941.478577 184.0
941.759521 132.0
941.820618 148.0
942.107666 156.0
942.44574 156.0
944.997498 148.0
945.14624 164.0
945.244141 192.0
945.911255 188.0
946.909302 132.0
947.1604 176.0
947.515686 192.0
947.687256 148.0
947.797546 244.0
948.723022 60.0
949.452637 204.0
949.912659 172.0
950.532288 108.0
950.587524 108.0
950.703369 160.0
950.814575 196.0
951.852051 248.0
952.060791 204.0
952.17749 136.0
952.982178 180.0
953.645874 160.0
953.934753 136.0
954.100769 152.0
954.389709 148.0
954.670105 188.0
955.324524 132.0
956.321655 156.0
956.407532 72.0
956.505981 208.0
956.647583 244.0
957.053894 144.0
957.20166 232.0
957.552734 108.0
958.723206 120.0
959.506042 96.0
959.974609 200.0
960.159668 112.0
960.597534 200.0
961.103455 156.0
963.085083 92.0
963.468079 204.0
964.258972 132.0
964.500061 88.0
966.157288 104.0
966.200562 144.0
967.165955 200.0
967.413513 172.0
968.329956 136.0
968.992737 136.0
969.085632 216.0
969.148071 168.0
969.420288 140.0
969.730103 48.0
970.289185 212.0
970.356201 108.0
970.473999 124.0
971.112732 64.0
971.633789 112.0
971.795105 216.0
972.31012 44.0
972.545959 124.0
972.626648 200.0
972.986694 144.0
974.247375 136.0
974.377869 108.0
975.710693 112.0
976.018677 52.0
976.149231 160.0
976.621887 144.0
976.771179 76.0
976.970215 184.0
978.61322 196.0
978.800049 56.0
978.862305 184.0
979.273315 104.0
979.36676 108.0
979.441528 52.0
980.145508 184.0
980.376038 128.0
981.604065 188.0
981.872253 168.0
982.383667 40.0
983.981323 164.0
984.34967 148.0
984.412109 152.0
984.942993 188.0
985.267822 148.0
985.711426 176.0
985.780151 88.0
985.855164 100.0
986.486389 140.0
986.717712 164.0
987.655701 112.0
987.699524 184.0
987.868408 84.0
988.575378 152.0
989.273193 148.0
989.445435 140.0
989.645752 56.0
989.821045 84.0
989.952576 120.0
990.059021 148.0
990.760559 140.0
990.89209 248.0
991.1427 96.0
991.474854 188.0
991.901062 140.0
992.477783 240.0
993.399719 172.0
993.882812 240.0
995.056458 80.0
995.106689 192.0
995.872803 60.0
995.935608 204.0
996.02356 68.0
996.614075 172.0
998.707458 188.0
998.776672 176.0
998.826965 188.0
999.978394 260.0
1000.173523 188.0
1000.249084 156.0
1000.859741 116.0
1000.973083 104.0
1001.445374 208.0
1001.804443 148.0
1002.27063 192.0
1002.636108 152.0
1003.821289 204.0
1004.022705 196.0
1004.180725 172.0
1004.250122 48.0
1004.357361 168.0
1004.445618 180.0
1004.60968 200.0
1005.291077 152.0
1005.979004 148.0
1006.282043 184.0
1006.862976 108.0
1006.995605 164.0
1007.545166 164.0
1008.802734 212.0
1009.321167 184.0
1009.378052 200.0
1009.720154 208.0
1010.00415 208.0
1010.693726 48.0
1011.149353 128.0
1011.304565 192.0
1013.365662 32.0
1013.713135 108.0
1014.290833 140.0
1014.360596 124.0
1014.531738 80.0
1015.458191 224.0
1015.647766 128.0
1016.415405 112.0
1016.732666 216.0
1017.253174 88.0
1017.634033 76.0
1018.02771 148.0
1018.180176 164.0
1019.234619 188.0
1019.590515 156.0
1020.467712 164.0
1020.957336 192.0
1021.567932 124.0
1023.04425 200.0
1024.120361 156.0
1024.668213 176.0
1025.056885 168.0
1025.222534 156.0
1026.612305 132.0
1026.733398 68.0
1026.867432 148.0
1027.109741 104.0
1027.333008 168.0
1027.620117 136.0
1027.817871 156.0
1027.92395 172.0
1028.923584 136.0
1029.171021 160.0
1029.477539 148.0
1029.528687 216.0
1029.643555 112.0
1030.103516 192.0
1030.288696 140.0
1030.684814 88.0
1031.010742 144.0
1031.566772 132.0
1031.66272 188.0
1032.187012 172.0
1032.606323 96.0
1033.018433 128.0
1033.536621 140.0
1033.89978 152.0
1034.829468 192.0
1036.033447 96.0
1036.270508 112.0
1036.494751 112.0
1036.629395 160.0
1036.879272 120.0
1036.994629 136.0
1037.404907 180.0
1037.763916 160.0
1038.167847 172.0
1039.367432 296.0
1039.855103 216.0
1040.400757 48.0
1041.466675 108.0
1041.852051 164.0
1042.198975 148.0
1042.828735 140.0
1043.555176 128.0
1044.005249 164.0
1044.082397 152.0
1044.230347 160.0
1044.963623 92.0
1045.44104 196.0
1045.619995 44.0
1045.832397 148.0
1046.134888 48.0
1046.405273 68.0
1046.456787 76.0
1046.952637 148.0
1047.287598 176.0
1047.603149 248.0
1048.447266 204.0
1048.614746 116.0
1049.046631 88.0
1049.820312 188.0
1050.026733 156.0
1050.484619 148.0
1051.013672 184.0
1051.162109 180.0
1051.368652 200.0
1051.652588 80.0
1052.194824 176.0
1052.278687 52.0
1052.81665 156.0
1053.531616 208.0
1054.24231 140.0
1054.778809 108.0
1055.645142 292.0
1055.729126 176.0
1056.117188 128.0
1056.16687 196.0
1056.550659 136.0
1056.809448 200.0
1057.424194 224.0
1057.676514 100.0
1057.883667 124.0
1058.013184 120.0
1058.187988 120.0
1058.757812 80.0
1058.90332 204.0
1059.112305 44.0
1059.25647 148.0
1059.547974 212.0
1060.306152 60.0
1060.442261 164.0
1060.656128 60.0
1061.090454 168.0
1062.225342 104.0
1063.282959 172.0
1064.029419 40.0
1064.717651 112.0
1064.782593 192.0
1064.970947 176.0
1065.334717 220.0
1067.076416 108.0
1067.154419 92.0
1067.401489 56.0
1068.390137 188.0
1068.702393 188.0
1069.243164 148.0
1069.619995 140.0
1070.381714 152.0
1070.557495 124.0
1070.642212 84.0
1071.05896 60.0
1071.150146 116.0
1072.147095 208.0
1072.674927 112.0
1073.105225 164.0
1073.509521 112.0
1073.829102 232.0
1074.409546 100.0
1074.605347 188.0
1074.8573 160.0
1074.94458 204.0
1075.551514 152.0
1075.649414 184.0
1075.910522 112.0
1076.015015 120.0
1076.07373 52.0
1076.191284 104.0
1076.445923 180.0
1076.5896 128.0
1076.85083 196.0
1076.922729 168.0
1077.02063 184.0
1077.112061 120.0
1077.380005 76.0
1077.497559 88.0
1077.88623 248.0
1078.090088 124.0
1078.190186 160.0
1078.922241 116.0
1079.164185 184.0
1079.628418 148.0
1079.759155 168.0
1080.020752 148.0
1080.516479 232.0
1080.661865 160.0
1080.731201 180.0
1080.923584 144.0
1080.989014 120.0
1081.237671 36.0
1081.695923 40.0
1082.12793 88.0
1082.239258 152.0
1082.343994 180.0
1082.527344 52.0
1082.579712 172.0
1082.782715 168.0
1083.084106 216.0
1083.175781 140.0
1083.293701 104.0
1083.562256 96.0
1084.197876 160.0
1084.335449 184.0
1084.446899 152.0
1084.67627 152.0
1084.768066 152.0
1085.115479 104.0
1085.653198 188.0
1085.82373 120.0
1086.35498 180.0
1086.722412 184.0
1086.847046 140.0
1087.188232 116.0
1087.595215 164.0
1087.91687 176.0
1088.225342 64.0
1088.277954 400.0
1088.424072 184.0
1088.935181 208.0
1089.210449 72.0
1089.630859 52.0
1090.314209 180.0
1090.445679 136.0
1090.609985 148.0
1090.761108 228.0
1090.912354 172.0
1091.431763 136.0
1091.550049 172.0
1092.003906 188.0
1092.405029 140.0
1092.516968 128.0
1092.595825 204.0
1092.661621 208.0
1093.049805 148.0
1093.115845 140.0
1093.339355 168.0
1093.385498 68.0
1093.707886 124.0
1094.096313 120.0
1094.195068 144.0
1094.412354 168.0
1094.537476 84.0
1094.583496 56.0
1094.669189 92.0
1094.761353 108.0
1095.156494 72.0
1095.230103 172.0
1095.334351 92.0
1096.335815 108.0
1096.671875 68.0
1096.770752 140.0
1096.988281 184.0
1097.09375 176.0
1097.608032 168.0
1098.080811 224.0
1098.603882 160.0
1098.729248 48.0
1098.867798 128.0
1099.078979 204.0
1099.263672 192.0
1099.329712 60.0
1099.389038 204.0
1099.798218 168.0
1099.880859 156.0
1100.016113 144.0
1100.068848 160.0
1100.280151 184.0
1100.432007 200.0
1100.484741 136.0
1100.643311 164.0
1100.734131 168.0
1100.867798 128.0
1101.330078 88.0
1101.435791 176.0
1101.600952 92.0
1101.713135 212.0
1101.799072 128.0
1102.512695 112.0
1102.565552 116.0
1102.757202 152.0
1103.444702 140.0
1103.505371 196.0
1103.557129 152.0
1103.895874 208.0
1103.986084 160.0
1104.403564 80.0
1104.535767 156.0
1104.69458 120.0
1104.77356 156.0
1105.409058 164.0
1105.607666 192.0
1105.879028 132.0
1106.044434 176.0
1106.163574 148.0
1106.243042 192.0
1106.44165 108.0
1106.553101 128.0
1106.588745 140.0
1106.699829 148.0
1107.229614 144.0
1107.368652 124.0
1107.640259 192.0
1108.276245 40.0
1108.459717 216.0
1108.587646 160.0
1108.726807 28.0
1108.852783 148.0
1109.022827 220.0
1109.087524 180.0
1109.595093 112.0
1109.986328 120.0
1110.145508 156.0
1110.191895 124.0
1110.417358 156.0
1110.924194 140.0
1111.31958 208.0
1111.58728 192.0
1111.671265 180.0
1111.730957 152.0
1111.790649 208.0
1111.883545 120.0
1112.003052 220.0
1112.52478 192.0
1112.607056 140.0
1112.859375 188.0
1112.912476 208.0
1112.97229 172.0
1113.260864 180.0
1113.447266 204.0
1114.061401 184.0
1114.300537 316.0
1114.386963 296.0
1114.646118 196.0
1114.991699 120.0
1115.698975 276.0
1115.849121 140.0
1116.321167 176.0
1116.61377 120.0
1116.839966 52.0
1117.172607 64.0
1117.671509 196.0
1117.758057 148.0
1117.811279 88.0
1118.110718 196.0
1118.776367 172.0
1119.002686 144.0
1119.089233 136.0
1119.193604 168.0
1119.532593 104.0
1119.848389 128.0
1119.89502 80.0
1120.128174 112.0
1120.287964 224.0
1120.661133 140.0
1121.074219 104.0
1121.294067 144.0
1121.940674 160.0
1122.847534 100.0
1122.907593 32.0
1123.020874 136.0
1123.074219 232.0
1123.154297 108.0
1123.28772 176.0
1123.514526 204.0
1124.001587 92.0
1124.101685 200.0
1124.190186 216.0
1124.55542 184.0
1124.648926 172.0
1124.893433 156.0
1124.995972 136.0
1125.069458 232.0
1125.223022 172.0
1125.790527 88.0
1125.850708 144.0
1126.067871 132.0
1126.358276 152.0
1126.652222 224.0
1127.052979 192.0
1127.133179 184.0
1127.600952 212.0
1127.667847 116.0
1128.162476 136.0
1128.215942 176.0
1128.516846 176.0
1128.784302 132.0
1129.177002 224.0
1129.646973 176.0
1129.941406 132.0
1130.296021 132.0
1130.617188 108.0
1130.811279 116.0
1130.991943 252.0
1131.239624 132.0
1131.587769 200.0
1131.654663 176.0
1131.902466 144.0
1132.391357 100.0
1132.491821 180.0
1132.558716 92.0
1132.647949 128.0
1132.806641 156.0
1132.886963 144.0
1132.953979 192.0
1133.074585 152.0
1133.396118 164.0
1133.664185 144.0
1133.764771 112.0
1133.885376 96.0
1134.307617 124.0
1134.416626 216.0
1135.132202 176.0
1136.025635 132.0
1136.21875 108.0
1136.514038 220.0
1136.641479 44.0
1136.916626 76.0
1136.997192 128.0
1137.245483 108.0
1137.614624 124.0
1137.776489 144.0
1137.910034 140.0
1138.400146 140.0
1139.112183 168.0
1139.165894 112.0
1139.474854 144.0
1139.743652 172.0
1140.227417 108.0
1140.341675 164.0
1140.437744 248.0
1140.503052 128.0
1140.839111 208.0
1141.111572 136.0
1141.30957 152.0
1141.645996 68.0
1141.921753 160.0
1141.989014 160.0
1142.043335 220.0
1142.123413 160.0
1142.177246 192.0
1142.251221 136.0
1142.34375 184.0
1142.580933 136.0
1142.769287 28.0
1142.876953 200.0
1143.186401 144.0
1143.273926 160.0
1143.610474 152.0
1143.71814 168.0
1144.229736 204.0
1144.465332 180.0
1144.566406 140.0
1144.694336 100.0
1144.795288 56.0
1145.000366 132.0
1145.159058 132.0
1145.4823 180.0
1146.108887 144.0
1146.270508 196.0
1146.324463 148.0
1146.418823 104.0
1146.499634 136.0
1146.937744 144.0
1147.355713 128.0
1147.483765 52.0
1147.618652 196.0
1147.780518 112.0
1147.834351 140.0
1147.968384 172.0
1148.137817 144.0
1148.684204 160.0
1149.021484 180.0
1149.156372 160.0
1149.993164 200.0
1150.211182 184.0
1150.357666 104.0
1150.97876 148.0
1151.309692 72.0
1151.512329 160.0
1151.636841 188.0
1151.978394 144.0
1152.349854 128.0
1152.775635 200.0
1152.951294 144.0
1153.268921 132.0
1153.329712 192.0
1153.944946 152.0
1154.086914 180.0
1154.736084 176.0
1154.979614 116.0
1155.040405 128.0
1155.398926 56.0
1155.547852 184.0
1155.656128 196.0
1155.832031 232.0
1156.190674 160.0
1156.711792 208.0
1156.936035 156.0
1157.070557 176.0
1157.239868 156.0
1157.335815 112.0
1157.45874 124.0
1157.77478 64.0
1157.883179 152.0
1157.984741 120.0
1158.099854 128.0
1158.34375 116.0
1158.60791 144.0
1158.709473 192.0
1159.47522 164.0
1160.180176 176.0
1160.980225 96.0
1161.203979 164.0
1161.251465 120.0
1161.563477 140.0
1161.678833 140.0
1161.950195 228.0
1162.75769 48.0
1162.832275 192.0
1163.06311 88.0
1163.164917 124.0
1163.361694 60.0
1163.538208 156.0
1163.714722 172.0
1164.11499 148.0
1164.583984 180.0
1164.772339 108.0
1164.844116 160.0
1165.011963 72.0
1165.093384 64.0
1165.261475 176.0
1165.33313 184.0
1165.446655 76.0
1165.501099 96.0
1165.779663 160.0
1165.963135 196.0
1166.180664 188.0
1166.262207 76.0
1166.63269 140.0
1166.724487 228.0
1167.241211 188.0
1168.064087 108.0
1168.496094 204.0
1168.621948 128.0
1168.669556 136.0
1168.751221 232.0
1168.81189 192.0
1169.111816 136.0
1169.330078 128.0
1169.983032 144.0
1170.126343 240.0
1170.343872 84.0
1170.405151 184.0
1170.554932 160.0
1170.670776 140.0
1170.718384 108.0
1170.779663 160.0
1171.045288 132.0
1171.096069 200.0
1171.19519 32.0
1171.474487 188.0
1171.665161 160.0
1172.653198 180.0
1173.19165 172.0
1173.388916 156.0
1173.61438 120.0
1173.964233 128.0
1174.122437 176.0
1174.425903 112.0
1174.473633 148.0
1174.528198 124.0
1174.712402 96.0
1174.760132 272.0
1175.17627 80.0
1175.290039 196.0
1175.694946 88.0
1176.002075 148.0
1176.124878 232.0
1176.295532 112.0
1176.511719 168.0
1176.677856 176.0
1176.780273 204.0
1176.88269 244.0
1176.959351 228.0
1177.447144 136.0
1177.592773 156.0
1177.697998 144.0
1177.77478 156.0
1178.282715 44.0
1178.351074 84.0
1178.467163 180.0
1178.82251 204.0
1179.00708 52.0
1179.464966 148.0
1179.553833 36.0
1179.834106 108.0
1179.977661 80.0
1180.68689 228.0
1180.921265 120.0
1181.682861 112.0
1181.790039 100.0
1181.906372 224.0
1182.050049 204.0
1182.364868 148.0
1182.556519 124.0
1182.618164 156.0
1182.700195 148.0
1183.316284 172.0
1183.55603 224.0
1183.8573 120.0
1184.192871 200.0
1184.377808 148.0
1184.494263 52.0
1184.576416 180.0
1184.706543 152.0
1184.960083 156.0
1185.432861 68.0
1185.706909 172.0
1185.864624 88.0
1186.049683 228.0
1186.193604 112.0
1186.241577 192.0
1186.755737 84.0
1186.999878 144.0
1187.043701 220.0
1187.146606 140.0
1187.256348 84.0
1187.311157 124.0
1187.53064 96.0
1188.429321 224.0
1188.505493 196.0
1188.800171 172.0
1188.92334 108.0
1189.403809 108.0
1189.685181 128.0
1189.80188 244.0
1189.957764 216.0
1190.049072 128.0
1190.124634 128.0
1190.200073 112.0
1190.268799 68.0
1190.351196 132.0
1190.564087 128.0
1190.655396 164.0
1190.84021 152.0
1191.333374 144.0
1191.457031 120.0
1191.663086 192.0
1191.745605 164.0
1191.822632 132.0
1192.137207 132.0
1192.467041 192.0
1192.522095 184.0
1192.796997 100.0
1192.982544 64.0
1193.129883 160.0
1193.745728 128.0
1193.800781 156.0
1193.848877 140.0
1194.525757 208.0
1194.880615 196.0
1195.472412 164.0
1195.665039 128.0
1195.837158 128.0
1196.009277 116.0
1196.546143 128.0
1196.656372 164.0
1196.842163 144.0
1197.324219 176.0
1197.470093 116.0
1197.529907 88.0
1197.591064 204.0
1197.668579 200.0
1197.964844 128.0
1198.260986 188.0
1198.355713 112.0
1198.481567 104.0
1198.784668 100.0
1198.901855 240.0
1199.101685 128.0
1199.257935 172.0
1199.64624 152.0
1199.797852 180.0
1199.873779 80.0
1200.004761 52.0
1200.337891 184.0
1200.439087 160.0
1200.528809 148.0
1200.618408 176.0
1200.74939 136.0
1200.818359 128.0
1201.0271 112.0
1201.349487 216.0
1201.78418 152.0
1201.935913 156.0
1202.253418 136.0
1202.384521 76.0
1202.895264 88.0
1203.212769 80.0
1203.268066 260.0
1203.95166 116.0
1204.151855 80.0
1204.324585 136.0
1204.372925 128.0
1204.531738 172.0
1204.711426 124.0
1204.828857 176.0
1205.084473 132.0
1205.201904 156.0
1205.31189 148.0
1205.754761 52.0
1205.92749 100.0
1206.283936 160.0
1206.992065 80.0
1207.158081 128.0
1207.351685 116.0
1207.5177 60.0
1207.600708 108.0
1207.690552 136.0
1207.794312 180.0
1207.856567 224.0
1207.932983 184.0
1208.195557 168.0
1208.252319 180.0
1208.555298 168.0
1209.150391 72.0
1209.198853 156.0
1209.261475 140.0
1209.503418 124.0
1209.558838 224.0
1209.801025 312.0
1209.877197 172.0
1210.091797 192.0
1210.174927 256.0
1210.313354 60.0
1210.396484 152.0
1210.56958 128.0
1211.026733 132.0
1211.123657 200.0
1211.456177 232.0
1211.622437 204.0
1211.892578 124.0
1212.329102 140.0
1212.426147 160.0
1212.550903 72.0
1212.828979 148.0
1213.133179 156.0
1213.320312 136.0
1213.549072 192.0
1213.70166 92.0
1213.84729 172.0
1213.895752 48.0
1213.953979 160.0
1214.096924 152.0
1214.304932 164.0
1214.520996 152.0
1214.977783 180.0
1215.192871 212.0
1215.421753 60.0
1215.789551 188.0
1215.865967 40.0
1216.192139 180.0
1216.590698 252.0
1216.650879 204.0
1217.195557 112.0
1217.27063 216.0
1217.802979 124.0
1217.865479 84.0
1217.997437 128.0
1218.184937 116.0
1218.490601 116.0
1218.803345 168.0
1218.984009 96.0
1219.032593 136.0
1219.115967 168.0
1219.463501 84.0
1219.706787 76.0
1219.824951 116.0
1220.029297 188.0
1220.209351 188.0
1220.707886 88.0
1220.86084 124.0
1221.076416 304.0
1221.190674 212.0
1221.250366 212.0
1221.445068 124.0
1221.504883 196.0
1221.625977 144.0
1221.876343 140.0
1221.987671 168.0
1222.036377 136.0
1222.231201 148.0
1222.307739 160.0
1222.746216 148.0
1223.177734 160.0
1223.309937 52.0
1223.456177 176.0
1223.609253 64.0
1223.699829 128.0
1223.896484 172.0
1223.985229 164.0
1224.20813 40.0
1224.326538 124.0
1224.416992 160.0
1224.716553 120.0
1224.814087 180.0
1224.935791 312.0
1225.045776 208.0
1225.336548 68.0
1225.489746 120.0
1225.538574 264.0
1225.893921 152.0
1226.20752 180.0
1226.799927 160.0
1226.894043 176.0
1227.113647 120.0
1227.476318 180.0
1227.615723 88.0
1227.706421 188.0
1227.796631 140.0
1227.873779 168.0
1228.006226 172.0
1228.131836 112.0
1228.27832 148.0
1228.438721 184.0
1228.557373 196.0
1228.62439 144.0
1228.822388 228.0
1229.108521 216.0
1229.192261 172.0
1229.282959 172.0
1229.610962 152.0
1229.766479 192.0
1229.923706 192.0
1230.159668 264.0
1230.483521 152.0
1230.699951 144.0
1230.83252 168.0
1231.230591 144.0
1231.558838 100.0
1231.824341 108.0
1231.915161 32.0
1232.14563 208.0
1232.257446 216.0
1232.488037 220.0
1232.746582 32.0
1232.963135 136.0
1233.249756 156.0
1233.354492 152.0
1233.557251 168.0
1233.753052 284.0
1233.920776 112.0
1234.025635 44.0
1234.108032 168.0
1234.647949 164.0
1235.084961 184.0
1235.4104 128.0
1235.543335 160.0
1235.702759 188.0
1235.730347 148.0
1235.760376 148.0
1235.776978 152.0
1235.980713 164.0
1236.161987 148.0
1236.886841 128.0
1237.355835 124.0
1237.446899 148.0
1237.509888 144.0
1237.726929 108.0
1237.790039 132.0
1238.070068 152.0
1238.380981 156.0
1238.910645 128.0
1239.22583 148.0
1239.28894 152.0
1239.394043 128.0
1239.744385 180.0
1239.926636 128.0
1240.199951 156.0
1240.337402 124.0
1240.403198 144.0
1240.554932 188.0
1241.099243 244.0
1241.616211 108.0
1242.399902 172.0
1242.728882 200.0
1242.998047 184.0
1243.496338 136.0
1243.875366 180.0
1244.254517 96.0
1244.387817 96.0
1244.493164 84.0
1244.577393 144.0
1244.766968 272.0
1244.977661 164.0
1245.026855 152.0
1245.423584 180.0
1245.637817 132.0
1245.820557 100.0
1245.989136 108.0
1246.228027 208.0
1246.424683 144.0
1246.544189 224.0
1246.742798 172.0
1246.90686 132.0
1247.169678 208.0
1247.303223 136.0
1247.363403 164.0
1247.664917 268.0
1248.19873 188.0
1248.33667 52.0
1248.414062 184.0
1248.625 212.0
1248.674316 228.0
1248.871216 168.0
1249.08313 176.0
1249.145508 176.0
1249.281128 304.0
1249.795898 196.0
1250.081299 168.0
1250.144531 216.0
1250.320557 48.0
1250.397949 132.0
1250.637207 284.0
1250.68335 200.0
1250.841309 100.0
1250.968018 212.0
1251.32373 264.0
1251.484863 184.0
1251.54541 188.0
1251.615723 148.0
1251.665039 136.0
1251.862183 116.0
1252.006836 168.0
1252.057373 240.0
1252.348145 140.0
1252.503174 228.0
1253.137085 124.0
1253.253296 204.0
1253.311523 152.0
1253.426025 144.0
1253.581055 160.0
1253.750122 140.0
1254.046143 148.0
1254.109619 128.0
1254.172974 144.0
1254.257568 112.0
1254.370361 184.0
1254.694702 120.0
1254.772217 180.0
1254.870972 100.0
1254.987427 152.0
1255.063965 204.0
1255.160034 148.0
1255.237549 192.0
1255.688843 124.0
1255.851074 164.0
1256.105103 152.0
1256.189697 144.0
1256.253174 204.0
1256.422485 136.0
1256.478882 168.0
1256.605957 184.0
1256.874023 120.0
1257.015137 216.0
1257.734985 172.0
1257.85498 188.0
1257.967896 160.0
1258.152222 160.0
1258.285645 268.0
1258.363281 40.0
1258.432007 192.0
1258.596313 152.0
1258.751587 208.0
1258.963501 236.0
1259.058838 300.0
1259.204712 124.0
1259.599121 104.0
1259.818115 44.0
1259.945312 128.0
1260.075317 108.0
1260.241943 168.0
1260.326782 200.0
1260.411621 168.0
1260.46106 100.0
1260.541626 136.0
1260.637695 140.0
1260.736572 124.0
1260.862061 224.0
1260.969849 136.0
1261.182373 148.0
1261.238403 100.0
1261.316162 136.0
1261.733276 192.0
1261.782715 160.0
1261.846313 180.0
1261.977173 264.0
1262.170288 156.0
1262.191528 128.0
1262.27063 200.0
1262.411987 272.0
1262.567627 164.0
1262.857544 148.0
1263.090942 96.0
1263.451782 248.0
1263.536621 116.0
1263.586182 116.0
1263.649902 104.0
1263.734741 176.0
1263.798462 168.0
1263.911621 116.0
1264.421143 36.0
1264.718384 124.0
1265.455688 184.0
1265.51123 124.0
1265.560791 168.0
1265.631592 160.0
1265.709473 168.0
1265.893555 132.0
1265.950317 160.0
1266.014038 132.0
1266.339722 156.0
1266.778931 164.0
1266.835571 156.0
1266.934814 100.0
1267.012695 160.0
1267.076416 152.0
1267.175659 180.0
1267.437744 208.0
1267.536255 184.0
1267.604248 252.0
1267.651611 164.0
1267.705811 156.0
1267.990479 120.0
1268.245728 136.0
1268.302368 196.0
1268.379639 128.0
1268.458374 152.0
1268.684448 160.0
1268.727295 156.0
1268.826904 80.0
1269.039673 220.0
1269.341553 208.0
1269.491821 144.0
1270.145996 144.0
1270.401367 372.0
1270.484985 40.0
1270.692139 132.0
1270.784424 176.0
1270.997314 140.0
1271.089233 124.0
1271.170288 156.0
1271.407959 160.0
1271.550781 196.0
1271.763672 96.0
1271.848877 120.0
1272.125732 76.0
1272.601318 124.0
1272.800171 116.0
1272.942139 104.0
1273.499512 196.0
1273.844116 152.0
1274.163818 144.0
1274.270386 48.0
1274.391235 156.0
1275.0271 288.0
1275.201294 108.0
1275.556641 148.0
1275.709229 196.0
1275.770386 140.0
1276.075684 124.0
1276.171875 252.0
1276.292358 184.0
1276.367188 108.0
1276.433716 216.0
1276.544922 152.0
1276.674072 172.0
1276.751099 164.0
1276.806396 84.0
1276.87207 220.0
1276.971558 136.0
1277.099609 160.0
1277.170776 184.0
1277.654419 80.0
1277.960449 112.0
1278.210083 164.0
1278.337158 144.0
1278.378784 192.0
1278.674438 164.0
1278.768188 156.0
1278.892578 164.0
1278.963745 44.0
1279.241455 120.0
1279.50647 240.0
1279.674194 188.0
1279.876587 160.0
1280.045898 136.0
1280.13855 220.0
1280.252441 144.0
1280.409058 136.0
1280.544434 112.0
1280.726196 236.0
1280.993164 156.0
1281.099487 196.0
1281.26062 132.0
1281.527466 132.0
1281.840942 84.0
1281.894775 144.0
1281.99939 108.0
1282.076172 204.0
1282.161621 144.0
1282.418213 200.0
1282.522095 232.0
1282.63208 132.0
1282.831665 160.0
1283.016968 192.0
1283.259399 176.0
1283.40918 116.0
1283.779907 140.0
1283.884399 152.0
1283.979614 116.0
1284.664307 104.0
1284.721436 168.0
1285.028198 148.0
1285.177979 196.0
1285.227905 40.0
1285.463379 168.0
1285.627563 72.0
1285.679077 184.0
1286.077148 40.0
1286.259277 88.0
1286.436401 208.0
1286.583984 176.0
1286.726807 164.0
1287.062378 148.0
1287.289307 136.0
1287.376465 152.0
1287.455811 76.0
1287.533569 188.0
1287.626465 148.0
1287.752075 140.0
1287.883545 76.0
1288.083618 172.0
1288.140747 208.0
1288.237549 100.0
1288.547974 132.0
1288.683716 40.0
1288.883789 164.0
1288.96228 140.0
1289.159912 340.0
1289.212402 392.0
1289.534058 160.0
1289.869995 124.0
1289.934326 136.0
1290.141602 296.0
1290.198853 148.0
1290.470459 152.0
1290.674683 172.0
1290.830444 208.0
1291.049683 140.0
1291.299927 112.0
1291.357178 96.0
1291.428711 184.0
1291.936523 112.0
1292.258545 132.0
1292.566162 156.0
1292.616211 112.0
1292.888184 168.0
1293.009888 128.0
1293.12439 216.0
1293.231689 160.0
1293.5896 132.0
1293.711304 124.0
1293.804321 140.0
1294.212524 144.0
1294.395874 320.0
1294.577637 96.0
1294.64209 164.0
1294.728027 196.0
1294.862549 164.0
1294.98584 120.0
1295.078979 68.0
1295.80249 132.0
1295.866943 120.0
1295.917114 92.0
1296.024536 132.0
1296.110596 188.0
1296.396851 156.0
1296.483154 156.0
1296.579712 196.0
1296.648071 52.0
1296.726807 260.0
1296.870239 128.0
1296.956177 64.0
1297.092407 132.0
1297.551147 88.0
1297.608521 160.0
1297.759155 84.0
1297.830811 180.0
1298.05127 200.0
1298.175049 120.0
1298.272339 236.0
1298.418823 120.0
1298.634033 176.0
1298.755859 104.0
1298.806152 220.0
1298.863892 156.0
1298.920898 316.0
1299.136108 144.0
1299.265259 148.0
1299.344116 60.0
1299.602417 164.0
1299.907471 160.0
1300.000122 172.0
1300.312866 276.0
1300.406128 132.0
1300.599976 236.0
1300.650146 144.0
1301.217285 216.0
1301.497314 120.0
1301.734253 124.0
1301.849121 140.0
1301.906616 140.0
1302.035889 60.0
1302.39502 188.0
1302.818726 152.0
1302.886475 160.0
1303.088501 152.0
1303.407959 116.0
1303.458252 164.0
1303.68811 232.0
1303.86438 144.0
1303.982788 80.0
1304.36377 180.0
1304.471558 348.0
1304.613525 172.0
1304.665649 100.0
1305.125854 176.0
1305.176147 136.0
1305.262451 144.0
1305.333008 176.0
1305.420654 140.0
1305.715454 172.0
1305.894653 96.0
1305.959961 88.0
1306.103882 120.0
1306.362793 116.0
1306.453491 172.0
1306.758423 152.0
1307.046265 188.0
1307.319702 120.0
1307.470825 140.0
1307.80188 104.0
1307.866699 136.0
1308.046631 164.0
1308.179565 156.0
1308.28418 252.0
1308.370605 120.0
1308.653564 148.0
1308.765991 224.0
1308.960938 132.0
1309.133789 196.0
1309.204346 176.0
1309.313843 148.0
1309.806396 120.0
1309.879028 192.0
1310.070068 108.0
1310.531372 176.0
1310.670898 160.0
1311.129272 92.0
1311.244629 112.0
1311.331055 136.0
1311.576172 48.0
1311.770752 152.0
1311.850098 96.0
1312.010132 168.0
1312.167236 136.0
1312.249634 160.0
1312.457886 180.0
1312.52771 132.0
1312.589233 196.0
1312.697388 348.0
1312.787354 84.0
1312.987671 176.0
1313.27771 32.0
1313.364258 164.0
1313.472534 128.0
1313.624023 48.0
1313.732178 108.0
1313.831177 160.0
1313.9198 164.0
1314.080444 332.0
1314.273315 280.0
1314.525879 144.0
1314.641235 72.0
1314.720703 144.0
1314.958862 256.0
1315.13208 176.0
1315.254761 80.0
1315.493774 136.0
1315.851318 212.0
1316.121094 216.0
1316.518188 172.0
1316.648193 72.0
1317.002075 376.0
1317.14209 232.0
1317.50769 144.0
1317.814209 528.0
1318.051392 192.0
1318.129028 180.0
1318.236084 144.0
1318.377808 204.0
1318.407471 84.0
1318.433838 128.0
1318.498291 120.0
1318.699951 72.0
1318.822876 192.0
1319.010742 112.0
1319.111938 132.0
1319.24939 120.0
1319.381104 124.0
1319.502319 112.0
1319.654175 208.0
1319.827759 68.0
1319.88562 132.0
1319.97229 260.0
1320.066284 112.0
1320.124146 148.0
1320.413452 128.0
1320.594238 168.0
1320.782349 188.0
1320.970337 240.0
1321.334595 180.0
1321.426147 192.0
1321.476807 108.0
1321.585327 124.0
1321.925415 180.0
1321.983276 156.0
1322.077393 208.0
1322.377563 224.0
1322.453735 116.0
1322.603394 160.0
1322.895264 244.0
1323.02832 196.0
1323.119629 192.0
1323.409302 88.0
1323.554077 192.0
1323.74231 152.0
1323.858154 148.0
1324.046509 136.0
1324.262451 192.0
1324.512207 244.0
1324.598022 156.0
1325.060547 112.0
1325.169312 164.0
1325.219971 140.0
1325.495361 196.0
1325.604004 120.0
1325.694946 136.0
1326.002563 168.0
1326.140015 108.0
1326.307007 196.0
1326.666992 200.0
1327.184204 128.0
1327.44519 180.0
1327.563599 252.0
1327.836792 152.0
1327.959717 128.0
1328.092529 140.0
1328.235718 64.0
1328.463013 132.0
1328.748535 488.0
1329.011963 144.0
1329.483643 148.0
1329.665039 188.0
1329.737671 168.0
1329.846558 148.0
1330.049683 64.0
1330.147461 148.0
1330.296509 204.0
1330.361816 148.0
1330.470703 136.0
1330.557861 144.0
1330.618652 164.0
1330.727417 180.0
1330.815918 224.0
1330.928101 176.0
1331.115723 172.0
1331.254883 200.0
1331.413452 184.0
1331.501831 40.0
1331.627441 180.0
1331.676147 256.0
1331.886719 112.0
1331.975586 192.0
1332.148315 176.0
1332.246582 192.0
1332.373413 176.0
1332.751221 156.0
1332.899536 180.0
1333.070923 144.0
1333.132324 112.0
1333.230835 280.0
1333.318115 108.0
1333.376221 180.0
1333.683594 188.0
1333.760132 184.0
1333.921387 212.0
1333.979492 336.0
1334.052124 116.0
1334.175781 92.0
1334.255737 172.0
1334.357544 164.0
1334.582886 160.0
1334.859253 132.0
1334.950439 220.0
1335.050171 200.0
1335.175415 188.0
1335.311768 136.0
1335.44104 64.0
1335.542847 88.0
1335.724609 124.0
1335.804688 212.0
1336.022949 76.0
1336.306641 256.0
1336.430298 180.0
1336.5177 152.0
1336.67041 152.0
1336.88147 228.0
1337.143433 156.0
1337.208984 108.0
1337.303101 164.0
1337.390869 148.0
1337.441895 124.0
1337.696655 176.0
1337.762207 152.0
1338.031494 100.0
1338.307739 132.0
1338.33728 176.0
1338.564453 156.0
1338.730469 272.0
1338.985352 48.0
1339.058228 96.0
1339.203857 92.0
1339.364136 108.0
1339.437012 196.0
1339.495239 116.0
1339.801147 104.0
1339.939575 192.0
1340.026978 108.0
1340.206665 332.0
1340.267456 144.0
1340.668213 104.0
1340.726562 132.0
1340.989624 208.0
1341.192993 116.0
1341.332031 144.0
1341.557495 128.0
1341.681396 140.0
1341.856567 144.0
1342.169922 100.0
1342.359497 156.0
1342.447021 104.0
1342.872925 160.0
1343.030396 168.0
1343.190918 120.0
1343.278442 124.0
1343.414795 228.0
1343.541016 72.0
1343.650513 128.0
1343.876587 172.0
1344.168457 176.0
1344.256104 136.0
1344.401978 96.0
1344.60022 356.0
1344.71167 168.0
1344.876343 144.0
1345.058838 144.0
1345.187744 124.0
1345.31897 172.0
1345.431152 104.0
1345.672119 88.0
1346.180908 168.0
1346.292603 200.0
1346.387695 148.0
1346.483521 156.0
1346.643311 80.0
1346.70166 104.0
1346.825562 200.0
1346.90625 172.0
1346.97229 300.0
1347.13269 136.0
1347.227661 108.0
1347.359131 204.0
1347.588745 244.0
1347.731689 112.0
1347.819458 164.0
1347.914429 196.0
1348.280273 128.0
1348.52832 200.0
1348.623291 104.0
1348.769531 244.0
1348.828003 176.0
1349.120361 196.0
1349.222656 196.0
1349.749146 216.0
1349.983154 144.0
1350.092773 156.0
1350.144043 168.0
1350.560913 148.0
1350.648682 100.0
1350.766968 184.0
1350.853516 112.0
1351.197266 104.0
1351.358276 148.0
1351.753418 104.0
1351.950928 300.0
1352.258301 96.0
1352.360718 116.0
1352.55835 172.0
1352.703491 112.0
1352.785278 308.0
1352.851196 88.0
1352.96106 152.0
1353.158691 280.0
1353.275879 144.0
1353.356323 228.0
1353.52478 224.0
1353.605347 84.0
1353.766357 164.0
1353.8396 80.0
1353.912842 252.0
1354.103271 132.0
1354.210815 196.0
1354.31958 172.0
1354.440186 72.0
1354.58667 132.0
1354.901733 200.0
1354.967651 156.0
1355.077515 92.0
1355.216797 120.0
1355.685669 164.0
1355.78833 92.0
1355.971558 72.0
1356.36731 76.0
1356.499268 176.0
1356.587158 112.0
1356.704468 60.0
1356.895142 120.0
1356.943848 188.0
1357.034424 196.0
1357.129761 172.0
1357.210327 136.0
1357.316528 184.0
1357.415649 184.0
1357.462524 168.0
1357.800171 160.0
1357.863037 164.0
1358.023071 160.0
1358.229736 288.0
1358.383789 176.0
1358.458618 164.0
1358.537842 132.0
1358.81665 156.0
1358.985352 136.0
1359.146729 156.0
1359.59436 104.0
1359.695068 184.0
1360.042114 212.0
1360.097168 112.0
1360.152222 156.0
1360.23291 64.0
1360.387085 68.0
1360.455688 180.0
1360.578003 156.0
1360.695435 208.0
1360.805542 124.0
1360.864258 152.0
1360.967041 144.0
1361.221313 148.0
1361.282837 164.0
1361.415039 144.0
1361.473755 140.0
1361.583862 84.0
1361.664673 28.0
1361.738159 144.0
1361.980469 96.0
1362.069336 204.0
1362.311035 148.0
1362.377197 148.0
1362.443237 132.0
1362.500732 180.0
1362.612305 228.0
1362.690674 144.0
1362.862061 128.0
1363.031006 176.0
1363.389771 208.0
1363.604248 164.0
1363.67041 196.0
1363.78064 116.0
1363.883545 256.0
1363.962524 236.0
1364.067261 132.0
1364.258423 132.0
1364.530396 188.0
1364.640747 152.0
1364.812134 184.0
1364.937378 180.0
1365.018921 164.0
1365.104004 224.0
1365.271606 180.0
1365.519409 140.0
1365.648193 196.0
1365.699707 116.0
1365.839478 148.0
1365.935059 164.0
1366.084717 172.0
1366.251343 236.0
1366.379517 292.0
1366.50415 128.0
1366.66333 176.0
1366.744263 200.0
1366.891479 244.0
1367.009155 140.0
1367.107422 116.0
1367.362427 188.0
1367.428711 128.0
1367.951294 136.0
1368.12793 252.0
1368.209595 140.0
1368.304565 124.0
1368.378296 180.0
1368.532837 148.0
1368.731689 104.0
1368.797974 124.0
1369.077759 188.0
1369.180908 188.0
1369.232422 96.0
1369.327759 176.0
1369.475464 156.0
1369.652222 272.0
1370.177979 164.0
1370.263672 188.0
1370.359741 128.0
1370.433105 152.0
1370.55188 188.0
1370.609985 180.0
1370.74939 112.0
1370.97937 188.0
1371.081543 44.0
1371.302612 128.0
1371.442749 116.0
1371.612183 148.0
1372.096924 200.0
1372.371582 132.0
1372.423096 72.0
1372.533813 104.0
1372.659058 72.0
1372.710693 124.0
1372.924561 160.0
1373.175293 112.0
1373.735962 328.0
1373.918823 244.0
1374.156372 172.0
1374.237549 204.0
1374.289185 176.0
1374.488403 200.0
1374.613892 36.0
1374.684448 160.0
1374.744385 128.0
1374.945923 156.0
1375.04187 156.0
1375.123047 92.0
1375.248535 136.0
1375.536377 128.0
1375.653809 204.0
1375.673096 184.0
1375.710571 116.0
1375.739746 252.0
1375.97937 88.0
1376.140503 192.0
1376.230347 96.0
1376.636475 180.0
1376.858032 140.0
1376.939331 232.0
1377.101807 268.0
1377.177979 340.0
1377.618774 128.0
1377.705933 208.0
1378.0177 156.0
1378.143311 116.0
1378.438843 200.0
1378.536621 164.0
1378.590698 308.0
1379.236816 152.0
1379.303589 188.0
1379.466187 172.0
1379.591919 32.0
1379.735474 244.0
1379.858032 220.0
1380.348999 200.0
1380.412598 124.0
1380.47168 156.0
1380.834106 128.0
1381.05603 156.0
1381.107788 196.0
1381.159546 232.0
1381.418457 148.0
1381.918701 176.0
1382.18042 136.0
1382.491211 108.0
1382.56958 180.0
1382.69104 160.0
1382.790527 100.0
1382.861328 140.0
1383.209106 148.0
1383.349854 144.0
1383.446045 104.0
1383.542236 272.0
1383.660767 228.0
1383.734863 176.0
1383.927246 76.0
1384.060547 200.0
1384.201172 156.0
1384.586304 140.0
1384.668091 176.0
1384.969971 124.0
1385.013428 172.0
1385.208496 128.0
1385.327026 56.0
1385.415894 152.0
1385.601074 108.0
1385.867798 108.0
1386.593994 40.0
1386.80896 172.0
1386.864502 160.0
1387.327759 120.0
1387.565063 160.0
1387.69104 156.0
1387.76062 84.0
1387.858032 168.0
1387.972778 164.0
1388.098877 292.0
1388.291626 56.0
1388.528931 136.0
1388.580933 188.0
1388.632812 124.0
1388.840454 136.0
1389.003662 184.0
1389.174316 184.0
1389.537842 200.0
1389.819702 124.0
1390.121582 344.0
1390.250122 212.0
1390.331787 168.0
1390.39856 192.0
1390.57666 96.0
1390.695435 144.0
1390.962891 160.0
1391.117188 220.0
1391.214966 180.0
1391.424316 184.0
1391.4823 436.0
1391.801514 180.0
1391.964844 172.0
1392.161499 140.0
1392.336304 204.0
1392.417847 152.0
1392.536743 200.0
1392.872559 164.0
1393.016846 252.0
1393.103149 216.0
1393.182983 112.0
1393.249756 156.0
1393.539551 104.0
1393.593018 196.0
1393.695557 172.0
1393.784668 180.0
1393.836792 80.0
1393.93335 164.0
1393.985352 168.0
1394.135498 132.0
1394.36438 112.0
1394.423828 132.0
1394.53833 204.0
1394.750854 60.0
1394.810303 176.0
1395.085327 160.0
1395.226318 104.0
1395.39209 136.0
1395.486816 188.0
1395.694946 180.0
1395.828857 64.0
1395.958008 192.0
1396.089233 164.0
1396.177979 84.0
1396.248291 128.0
1396.417725 104.0
1396.840332 152.0
1396.981567 204.0
1397.182495 172.0
1397.279175 176.0
1397.487549 60.0
1397.546997 124.0
1397.703247 72.0
1397.94873 180.0
1398.045532 148.0
1398.157227 120.0
1398.328369 168.0
1398.451782 156.0
1398.678223 48.0
1398.9104 204.0
1399.013184 136.0
1399.147339 144.0
1399.432495 160.0
1399.63855 220.0
1399.832153 132.0
1399.943848 120.0
1400.107666 32.0
1400.271484 164.0
1400.453857 244.0
1400.52478 112.0
1401.113281 120.0
1401.19519 128.0
1401.560303 136.0
1401.660522 88.0
1401.896729 288.0
1401.962646 96.0
1402.052124 168.0
1402.242798 176.0
1402.380005 136.0
1402.533813 248.0
1402.789917 168.0
1402.879395 116.0
1403.048218 112.0
1403.11792 124.0
1403.296875 172.0
1403.617554 144.0
1403.808716 168.0
1403.930664 168.0
1404.216187 224.0
1404.348389 184.0
1404.460205 212.0
1404.572144 160.0
1404.640137 164.0
1404.833252 172.0
1405.019653 92.0
1405.178955 196.0
1405.342529 216.0
1405.489746 56.0
1405.556885 192.0
1405.661377 184.0
1406.049438 132.0
1406.198608 60.0
1406.276123 192.0
1406.430054 164.0
1406.578613 128.0
1406.713745 160.0
1406.767578 160.0
1406.87793 140.0
1407.116821 176.0
1407.4729 240.0
1407.713501 192.0
1408.094971 128.0
1408.177124 124.0
1408.244141 164.0
1408.333984 132.0
1408.416138 68.0
1408.700073 192.0
1408.759766 112.0
1408.856934 68.0
1408.916626 128.0
1409.02124 180.0
1409.081055 132.0
1409.205566 180.0
1409.282715 108.0
1409.38269 188.0
1409.45459 196.0
1409.521851 196.0
1409.872437 148.0
1410.052368 124.0
1410.201904 212.0
1410.272827 144.0
1410.351318 76.0
1410.411133 96.0
1410.463501 136.0
1410.58313 176.0
1410.77002 136.0
1410.859619 144.0
1410.947021 176.0
1411.06897 72.0
1411.233521 156.0
1411.566528 192.0
1411.667114 168.0
1411.842896 240.0
1412.108398 160.0
1412.419434 128.0
1412.542236 204.0
1412.826538 108.0
1412.981689 212.0
1413.103271 152.0
1413.163208 124.0
1413.329468 256.0
1413.402588 140.0
1414.210815 136.0
1414.345581 152.0
1414.480225 176.0
1414.532715 212.0
1414.76062 88.0
1415.026733 168.0
1415.191406 112.0
1415.331665 164.0
1415.753052 180.0
1415.816406 164.0
1415.946899 200.0
1416.367188 116.0
1416.4646 168.0
1416.831665 180.0
1417.057251 68.0
1417.243652 172.0
1417.322388 140.0
1417.483521 120.0
1417.633301 124.0
1417.685791 188.0
1417.768188 92.0
1417.828125 64.0
1418.015503 116.0
1418.18042 168.0
1418.247925 132.0
1418.53125 148.0
1418.615234 68.0
1418.720093 172.0
1418.802612 144.0
1418.930054 132.0
1419.037598 200.0
1419.192505 92.0
1419.289917 200.0
1419.664795 160.0
1419.814819 32.0
1420.002319 140.0
1420.122314 112.0
1420.354858 128.0
1420.488159 164.0
1420.594849 144.0
1420.831543 168.0
1420.887451 184.0
1420.998657 180.0
1421.195068 156.0
1421.315063 92.0
1421.463623 188.0
1421.660278 120.0
1421.832886 140.0
1422.028076 280.0
1422.203979 208.0
1422.346191 168.0
1422.771118 152.0
1422.913818 128.0
1423.093994 132.0
1423.169067 120.0
1423.290649 128.0
1423.409302 196.0
1423.484131 96.0
1423.545654 180.0
1423.920044 168.0
1423.995117 168.0
1424.085205 92.0
1424.149292 228.0
1424.378174 184.0
1424.795654 292.0
1424.873901 172.0
1424.994141 140.0
1425.121826 224.0
1425.174438 184.0
1425.242065 196.0
1425.419556 212.0
1425.57959 184.0
1425.971069 200.0
1426.234131 108.0
1426.557251 112.0
1426.873047 196.0
1427.113647 152.0
1427.456543 164.0
1427.484131 228.0
1427.549805 136.0
1427.737793 160.0
1427.831299 188.0
1427.940796 128.0
1428.038574 120.0
1428.17395 64.0
1428.309326 180.0
1428.377075 180.0
1428.444702 120.0
1428.504883 164.0
1428.813354 164.0
1428.88855 156.0
1429.171631 228.0
1429.279785 156.0
1429.42688 132.0
1429.550781 176.0
1429.621582 224.0
1429.701294 208.0
1429.911987 172.0
1429.987183 52.0
1430.0625 148.0
1430.311646 168.0
1430.51416 192.0
1430.589355 80.0
1430.82312 144.0
1430.882935 156.0
1431.184204 104.0
1431.417847 116.0
1431.503418 128.0
1431.628418 128.0
1431.809204 132.0
1431.899536 224.0
1432.140503 140.0
1432.200806 100.0
1432.25354 100.0
1432.360229 172.0
1432.517212 148.0
1432.735596 112.0
1432.916382 156.0
1432.969116 180.0
1433.145386 212.0
1433.481567 104.0
1433.790527 208.0
1433.869751 352.0
1434.189941 176.0
1434.470825 156.0
1434.64978 136.0
1435.00415 172.0
1435.199463 144.0
1435.22522 132.0
1435.257446 188.0
1435.277222 244.0
1435.35144 60.0
1435.370361 220.0
1435.401855 144.0
1435.690308 80.0
1435.795898 84.0
1435.865234 192.0
1435.931641 160.0
1436.074951 200.0
1436.127686 44.0
1436.595337 172.0
1436.670776 112.0
1436.776367 192.0
1436.987671 176.0
1437.123413 100.0
1437.259277 148.0
1437.349854 172.0
1437.470581 84.0
1437.530884 96.0
1437.674316 140.0
1437.938477 140.0
1437.994019 144.0
1438.119629 176.0
1438.202637 112.0
1438.482788 140.0
1438.934814 132.0
1439.100952 160.0
1439.18396 160.0
1439.334961 192.0
1439.440674 56.0
1439.606812 308.0
1439.720093 320.0
1440.082642 172.0
1440.165649 112.0
1440.399902 180.0
1440.50354 176.0
1440.581909 196.0
1440.668457 152.0
1440.785156 40.0
1440.898438 120.0
1441.049561 56.0
1441.37439 488.0
1441.586426 144.0
1441.805176 136.0
1441.903442 164.0
1441.956299 184.0
1442.077271 156.0
1442.184814 172.0
1442.240967 120.0
1442.432495 108.0
1442.613892 44.0
1442.66687 44.0
1442.946533 192.0
1443.052368 164.0
1443.112915 100.0
1443.170166 156.0
1443.566528 132.0
1443.90686 88.0
1444.007446 244.0
1444.080811 136.0
1444.247192 148.0
1444.406006 176.0
1444.474121 184.0
1444.778198 184.0
1444.980957 108.0
1445.119385 208.0
1445.385498 152.0
1445.477295 156.0
1445.707397 116.0
1445.775513 224.0
1445.825317 108.0
1446.108521 208.0
1446.38855 208.0
1446.520996 288.0
1446.623169 164.0
1446.933594 176.0
1446.986572 136.0
1447.062256 168.0
1447.213745 128.0
1447.440796 96.0
1447.834595 128.0
1448.190552 132.0
1448.364746 204.0
1448.614746 404.0
1448.796509 168.0
1449.03894 176.0
1449.13623 200.0
1449.410278 212.0
1449.584473 124.0
1449.839233 388.0
1449.895264 176.0
1449.978638 144.0
1450.066284 112.0
1450.345215 196.0
1450.487671 252.0
1450.577393 132.0
1450.880615 144.0
1451.236938 160.0
1451.297607 136.0
1451.373413 136.0
1451.457764 208.0
1451.631592 284.0
1451.790405 192.0
1451.889038 228.0
1452.094971 132.0
1452.162109 128.0
1452.37439 168.0
1452.440063 224.0
1452.552124 160.0
1452.806763 92.0
1453.057129 132.0
1453.292358 112.0
1453.482056 116.0
1453.603516 44.0
1453.720459 192.0
1453.800781 104.0
1454.028442 88.0
1454.146362 164.0
1454.256714 196.0
1454.381836 140.0
1454.526978 212.0
1454.840576 124.0
1454.901367 288.0
1455.004883 212.0
1455.166992 48.0
1455.301514 184.0
1455.387939 252.0
1455.489014 204.0
1455.546631 148.0
1455.619263 268.0
1455.774536 140.0
1456.007812 344.0
1456.116211 64.0
1456.275757 136.0
1456.359253 128.0
1456.518799 52.0
1456.602295 92.0
1456.723877 180.0
1456.837769 184.0
1456.947998 336.0
1457.056152 204.0
1457.141724 64.0
1457.460815 168.0
1457.521606 92.0
1457.711548 168.0
1458.070068 228.0
1458.220703 404.0
1458.338745 180.0
1458.457397 148.0
1458.570312 152.0
1458.669189 128.0
1458.881958 116.0
1459.16333 188.0
1459.274292 168.0
1459.459839 104.0
1459.535889 140.0
1459.604248 144.0
1459.748779 136.0
1460.058594 96.0
1460.088013 144.0
1460.115479 184.0
1460.248291 208.0
1460.4104 160.0
1460.570068 144.0
1460.767944 104.0
1460.821167 144.0
1461.018921 212.0
1461.551514 160.0
1461.61792 144.0
1461.724121 188.0
1462.007202 100.0
1462.15271 44.0
1462.22876 104.0
1462.327759 176.0
1462.457031 112.0
1462.540771 96.0
1462.860474 180.0
1462.923462 76.0
1462.997559 116.0
1463.050781 144.0
1463.171875 204.0
1463.256348 144.0
1463.393433 196.0
1463.469604 120.0
1463.530518 216.0
1463.598999 164.0
1463.664795 208.0
1463.781738 152.0
1463.926392 140.0
1464.147217 176.0
1464.284302 332.0
1464.429077 188.0
1464.611816 104.0
1464.709351 200.0
1464.832764 188.0
1465.046021 64.0
1465.129883 156.0
1465.428833 328.0
1465.609863 140.0
1465.846069 156.0
1466.07959 136.0
1466.310913 236.0
1466.509033 224.0
1466.611938 44.0
1466.768188 124.0
1467.080688 148.0
1467.198975 272.0
1467.622803 160.0
1467.726196 108.0
1467.775024 176.0
1467.868042 224.0
1467.972778 252.0
1468.074707 144.0
1468.201538 88.0
1468.5448 188.0
1468.689087 156.0
1468.717285 144.0
1468.811768 152.0
1468.888062 104.0
1469.034424 180.0
1469.200806 212.0
1469.460205 116.0
1469.829468 172.0
1470.062744 156.0
1470.07373 152.0
1470.109619 68.0
1470.135986 160.0
1470.192627 140.0
1470.375854 116.0
1470.452148 128.0
1470.6604 156.0
1470.869629 200.0
1471.146729 124.0
1471.215454 144.0
1471.383423 128.0
1471.463623 220.0
1471.726074 200.0
1471.818604 156.0
1472.272705 192.0
1472.376099 48.0
1472.437134 128.0
1472.566528 268.0
1472.719727 188.0
1472.864868 116.0
1472.918335 48.0
1473.040527 176.0
1473.109253 104.0
1473.208496 212.0
1473.338501 108.0
1473.434448 92.0
1473.613525 176.0
1473.666992 428.0
1473.77417 128.0
1473.858032 192.0
1474.018433 156.0
1474.285889 148.0
1474.392944 132.0
1474.499878 132.0
1474.614502 112.0
1474.668091 172.0
1474.775024 152.0
1474.862061 208.0
1475.034912 172.0
1475.088379 104.0
1475.164917 156.0
1475.217896 132.0
1475.424805 196.0
1475.535156 156.0
1475.585327 208.0
1475.709473 164.0
1475.791748 116.0
1475.944702 156.0
1476.103882 156.0
1476.174072 160.0
1476.319336 204.0
1476.476929 136.0
1476.579346 176.0
1476.816528 160.0
1477.00769 164.0
1477.084229 132.0
1477.29541 144.0
1477.348145 300.0
1477.37854 152.0
1477.392578 220.0
1477.488037 164.0
1477.608154 160.0
1477.711426 92.0
1478.153931 164.0
1478.23938 120.0
1478.377197 140.0
1478.500244 136.0
1478.62207 76.0
1478.730347 180.0
1478.889893 92.0
1479.06604 104.0
1479.226685 140.0
1479.301025 164.0
1479.532959 124.0
1479.640137 156.0
1479.739624 56.0
1479.834839 184.0
1479.938721 208.0
1480.03064 188.0
1480.505859 220.0
1480.5896 160.0
1480.673828 116.0
1480.779907 164.0
1480.849976 184.0
1480.941895 132.0
1481.003174 132.0
1481.079712 244.0
1481.156372 100.0
1481.33252 216.0
1481.466309 140.0
1481.56897 116.0
1481.655151 184.0
1481.828491 140.0
1481.960693 164.0
1482.060303 124.0
1482.244263 212.0
1482.297852 148.0
1482.357056 220.0
1482.474121 160.0
1482.550781 152.0
1482.746826 176.0
1483.07959 168.0
1483.285278 172.0
1483.415771 196.0
1483.501099 148.0
1483.612061 316.0
1483.685181 144.0
1483.807861 80.0
1483.93042 168.0
1484.080688 220.0
1484.198853 204.0
1484.275269 192.0
1484.528564 160.0
1484.582275 128.0
1484.681885 160.0
1484.750977 236.0
1484.873657 112.0
1484.950317 140.0
1485.057739 28.0
1485.25708 264.0
1485.326172 136.0
1485.52832 204.0
1485.694336 136.0
1485.801758 232.0
1485.901489 72.0
1485.9552 160.0
1486.131714 192.0
1486.345703 156.0
1486.5 160.0
1486.671875 92.0
1486.720459 132.0
1486.834839 212.0
1486.991089 116.0
1487.280151 300.0
1487.397949 112.0
1487.467041 320.0
1487.610229 188.0
1487.682007 172.0
1487.896851 180.0
1488.023926 204.0
1488.15271 152.0
1488.21936 120.0
1488.54187 172.0
1488.687744 124.0
1488.848999 124.0
1488.9104 132.0
1489.343506 316.0
1489.570923 108.0
1489.652222 192.0
1489.948975 160.0
1490.008911 164.0
1490.113892 236.0
1490.466309 200.0
1490.623535 156.0
1490.723389 136.0
1490.815674 84.0
1491.092285 76.0
1491.23291 136.0
1491.39209 148.0
1491.476562 128.0
1491.645752 84.0
1491.737915 164.0
1491.813721 172.0
1491.960815 96.0
1492.114136 188.0
1492.391357 264.0
1492.537476 192.0
1492.629761 136.0
1492.763306 244.0
1492.991211 116.0
1493.080933 164.0
1493.275757 136.0
1493.399414 216.0
1493.472656 196.0
1493.524414 204.0
1493.637207 168.0
1493.706421 116.0
1493.77478 284.0
1493.800781 248.0
1494.071777 204.0
1494.47229 404.0
1494.624634 104.0
1494.654785 140.0
1494.734253 164.0
1495.045166 104.0
1495.314575 136.0
1495.799438 168.0
1495.914917 148.0
1496.176636 156.0
1496.345337 380.0
1496.607788 184.0
1496.72229 160.0
1496.831177 308.0
1497.015869 48.0
1497.108276 144.0
1497.169922 108.0
1497.239258 116.0
1497.370117 112.0
1497.507202 160.0
1497.901611 156.0
1498.279053 124.0
1498.348389 104.0
1498.510254 352.0
1498.583618 180.0
1498.82605 148.0
1499.003296 156.0
1499.249878 180.0
1499.493164 164.0
1499.750854 148.0
1499.851074 208.0
1500.177979 128.0
1500.506348 100.0
1500.575439 148.0
1500.593018 144.0
1500.625854 40.0
1500.860962 196.0
1500.953491 156.0
1501.084595 176.0
1501.285034 140.0
1501.539551 108.0
1502.022095 200.0
1502.125732 168.0
1502.264648 168.0
1502.361206 196.0
1502.44873 144.0
1502.511475 60.0
1502.56543 212.0
1502.804321 168.0
1502.91272 156.0
1502.974365 180.0
1503.043823 160.0
1503.213623 176.0
1503.337036 244.0
1503.591797 176.0
1503.653442 128.0
1503.890137 368.0
1503.995239 244.0
1504.150635 164.0
1504.417603 124.0
1504.579712 72.0
1504.643677 180.0
1504.934937 180.0
1505.025391 140.0
1505.120239 136.0
1505.212891 156.0
