>compound MLS001333595-01!(R)-(+)-Propranolol hydrochloride13071-11-9
>formula C16H21NO2
>ionization [M+H]+
>parentmass 260.163422
#inchi InChI=1S/C16H21NO2/c1-12(2)17-10-14(18)11-19-16-9-5-7-13-6-3-4-8-15(13)16/h3-9,12,14,17-18H,10-11H2,1-2H3/t14-/m1/s1
#inchikey AQHHHDLHHXJYJD
#origInchi InChI=1S/C16H21NO2.ClH/c1-12(2)17-10-14(18)11-19-16-9-5-7-13-6-3-4-8-15(13)16;/h3-9,12,14,17-18H,10-11H2,1-2H3;1H/t14-;/m1./s1
#Ion_Source LC-ESI
#Instrument qTof
#Compound_Source NIH Pharmacologically Active Library
#PI Dorrestein
#Data_Collector VP/LMS
#Scan -1
#Precursor_MZ 260.169
#ExactMass 259.157
#Charge 1
#CAS_Number N/A
#Pubmed_ID N/A
#Smiles CC(C)NC[C@@H](O)COc1cccc2ccccc12.Cl
#INCHI_AUX N/A
#Library_Class 1
#SpectrumID CCMSLIB00000084847
#IonMode Positive
#UpdateWorkflowName UPDATE-SINGLE-ANNOTATED-GOLD
#LibraryQualityString Gold
#TaskID d252d724072548979f1f6f1ced849daf
##Scan# 1595
#SpectrumFile p3-B07_GB7_01_18240.mzXML
#LibraryName Pharm_Active_Library.mgf
#MQScore -1
#Organism Pharm_Active_Library
#TIC_Query 0
#RT_Query -1
#MZErrorPPM -1
#SharedPeaks 0
#MassDiff 0
#LibMZ -1
#SpecMZ 260.169
#SpecCharge 0
#internalFilename spec-00000.mgf

>collision 10
45.175129 96.0
45.246059 148.0
45.275517 204.0
45.325081 160.0
45.394787 204.0
45.658005 212.0
45.802021 184.0
45.857265 128.0
45.904453 200.0
45.954361 128.0
45.9827 164.0
46.193485 136.0
46.257088 180.0
46.306194 120.0
46.54044 208.0
46.571674 128.0
46.616508 164.0
46.68856 184.0
46.812401 160.0
47.083786 132.0
47.340893 180.0
47.649521 172.0
47.69212 56.0
47.760872 156.0
47.7705 144.0
47.802147 72.0
47.822788 148.0
47.855827 152.0
48.083282 140.0
48.101227 128.0
48.156456 144.0
48.206192 176.0
48.435863 92.0
48.492672 172.0
48.817539 116.0
49.029144 104.0
49.122562 164.0
49.182564 228.0
49.221657 196.0
49.619026 404.0
49.690556 72.0
49.79303 132.0
49.80286 172.0
49.880142 160.0
49.942013 60.0
50.154629 156.0
50.410084 152.0
50.425629 172.0
50.490665 172.0
50.618027 216.0
50.640686 232.0
50.833496 148.0
50.849106 152.0
50.962711 152.0
51.002506 160.0
51.215939 160.0
51.364182 136.0
51.395569 172.0
51.415546 144.0
51.439674 208.0
51.505497 124.0
51.564079 152.0
51.58123 176.0
51.81163 64.0
51.833122 204.0
51.963604 188.0
52.164661 52.0
52.18335 224.0
52.266773 156.0
52.595364 164.0
53.045231 132.0
53.124989 100.0
53.139496 32.0
53.25563 172.0
53.376255 192.0
53.39225 200.0
53.600422 212.0
53.775425 128.0
53.939018 216.0
53.991035 164.0
54.072121 160.0
54.350555 84.0
54.556175 216.0
54.634117 196.0
54.85796 120.0
55.298138 148.0
55.603451 136.0
55.655407 172.0
55.701447 180.0
56.016808 112.0
56.200184 128.0
56.21212 216.0
56.280785 172.0
56.491516 172.0
56.534908 100.0
56.594784 260.0
56.626232 108.0
57.124569 156.0
57.187767 156.0
57.403202 128.0
57.481644 168.0
57.560139 160.0
57.6674 164.0
57.72031 176.0
57.742996 168.0
57.780811 128.0
58.061039 220.0
58.23254 148.0
58.249249 156.0
58.335865 172.0
58.405815 152.0
58.678406 148.0
58.837074 208.0
58.852875 148.0
59.017357 156.0
59.03112 108.0
59.374157 168.0
59.467747 228.0
59.49691 120.0
59.63055 136.0
59.727417 188.0
59.836678 136.0
60.22374 76.0
60.423153 268.0
60.443268 264.0
60.616699 180.0
60.638393 160.0
60.692654 176.0
60.940998 72.0
61.133812 48.0
61.253696 164.0
61.277065 116.0
61.61562 196.0
61.70314 212.0
61.795418 44.0
61.839233 56.0
61.983311 124.0
62.009953 140.0
62.182476 236.0
62.341095 188.0
62.402397 208.0
62.416546 224.0
62.47002 152.0
62.504635 168.0
62.775578 164.0
62.800812 216.0
62.97776 184.0
63.122093 232.0
63.357235 212.0
63.480865 172.0
63.542725 144.0
63.731667 164.0
63.820675 124.0
64.040283 116.0
64.360832 172.0
64.376801 172.0
64.463058 168.0
64.662964 112.0
64.714188 96.0
64.858368 152.0
64.938538 116.0
64.989876 216.0
65.238319 208.0
65.354607 192.0
65.528496 220.0
65.651001 128.0
65.97393 144.0
66.232841 136.0
66.391678 176.0
66.586426 64.0
66.768448 244.0
66.831894 280.0
67.165863 120.0
67.260506 132.0
67.597176 168.0
67.631546 168.0
67.778938 176.0
67.831383 144.0
67.88549 172.0
68.126762 200.0
68.190849 180.0
68.287849 216.0
68.317459 200.0
68.648521 56.0
68.712845 156.0
68.942368 200.0
69.167297 128.0
69.337898 144.0
69.404205 64.0
69.468887 156.0
69.531937 172.0
69.618271 84.0
69.806046 72.0
69.827667 164.0
69.934151 176.0
70.074036 168.0
70.377586 260.0
70.44606 188.0
70.472588 192.0
70.743729 196.0
70.978287 208.0
71.040344 136.0
71.105782 164.0
71.127602 36.0
71.827599 124.0
71.841095 220.0
71.933907 172.0
72.273605 176.0
72.502907 196.0
72.541199 124.0
72.756638 88.0
73.118698 60.0
73.297508 100.0
73.362267 172.0
73.570396 156.0
73.659195 148.0
73.797623 176.0
73.826691 160.0
73.937889 148.0
73.997803 168.0
74.283997 128.0
74.598251 108.0
74.9235 196.0
75.154526 204.0
75.232193 108.0
75.297806 160.0
75.558823 172.0
75.580612 268.0
75.681702 212.0
75.72673 64.0
75.822021 140.0
76.002365 92.0
76.195084 180.0
76.210724 136.0
76.264595 136.0
76.424583 84.0
76.586487 168.0
76.610878 224.0
76.762512 180.0
76.935242 88.0
77.050507 136.0
77.127396 164.0
77.260292 252.0
77.367043 188.0
78.053062 164.0
78.086472 144.0
78.223717 148.0
78.267731 172.0
78.687363 104.0
78.750931 140.0
78.888756 148.0
79.028473 156.0
79.521118 388.0
79.585022 164.0
79.599617 164.0
79.691589 232.0
80.405655 232.0
80.477058 200.0
80.634262 88.0
80.670006 252.0
80.950905 124.0
80.967026 108.0
80.992096 200.0
81.044052 200.0
81.253822 176.0
81.29689 188.0
81.834343 148.0
81.855949 92.0
81.913582 220.0
82.19664 44.0
82.33744 148.0
82.389824 88.0
82.565155 140.0
82.76059 200.0
83.159409 140.0
83.201157 152.0
83.235657 208.0
83.266525 56.0
83.519165 164.0
83.546448 84.0
83.704796 200.0
84.281197 184.0
84.504265 112.0
84.951271 48.0
85.077896 144.0
85.090752 88.0
85.193596 156.0
85.316719 144.0
86.048119 136.0
86.123825 184.0
86.393707 196.0
86.639175 148.0
86.702927 96.0
86.875366 188.0
86.938446 144.0
87.254219 140.0
87.334175 76.0
87.354637 160.0
87.67675 128.0
87.708435 200.0
87.751312 136.0
88.262909 104.0
88.541733 108.0
88.584808 152.0
89.825478 156.0
89.904716 256.0
90.108643 164.0
90.18045 72.0
90.394157 216.0
90.541817 100.0
90.587273 176.0
91.089958 124.0
91.314247 124.0
91.510246 168.0
91.531189 192.0
91.571526 156.0
91.733139 176.0
91.759827 196.0
91.822754 120.0
92.187386 172.0
92.281052 28.0
92.391975 160.0
92.686829 148.0
92.880455 124.0
92.951439 140.0
93.276009 152.0
93.726349 160.0
94.094742 180.0
94.137222 156.0
94.311096 144.0
94.342026 172.0
94.736801 36.0
94.754242 144.0
94.976479 204.0
95.390762 132.0
95.567741 168.0
95.626122 164.0
95.696198 172.0
95.947525 100.0
96.128922 100.0
96.636948 132.0
96.767593 176.0
96.883629 92.0
97.128662 160.0
97.735718 184.0
97.830185 188.0
97.926666 96.0
98.097252 720.0
98.249939 84.0
98.694321 136.0
98.737823 156.0
99.100075 144.0
99.215027 184.0
99.504677 336.0
99.629791 148.0
99.705299 112.0
99.774864 164.0
99.834518 112.0
100.112816 784.0
100.242607 80.0
100.422028 140.0
100.465912 148.0
100.527763 124.0
100.659508 168.0
100.725418 128.0
100.771362 116.0
101.005264 56.0
101.11499 228.0
101.339584 104.0
101.662415 124.0
101.7146 180.0
101.754745 196.0
102.049576 212.0
102.088295 160.0
102.279427 88.0
102.480804 116.0
102.619873 156.0
102.781235 172.0
102.835724 160.0
103.053978 2484.0
103.133354 200.0
103.181145 44.0
103.221581 236.0
103.284279 96.0
103.719612 184.0
103.763672 180.0
103.985321 188.0
104.056366 180.0
104.139618 136.0
104.180244 144.0
104.534019 228.0
104.660225 232.0
104.855782 148.0
104.921013 184.0
105.086205 84.0
105.431297 192.0
105.654167 148.0
106.051422 184.0
106.490494 200.0
106.895493 164.0
107.089005 116.0
107.303314 88.0
107.581825 200.0
107.674736 136.0
107.720177 168.0
108.212372 92.0
108.247574 80.0
108.336632 208.0
108.469254 168.0
108.581215 156.0
109.019257 180.0
109.035881 168.0
109.062904 160.0
109.083687 84.0
109.100319 160.0
109.164772 108.0
109.412369 36.0
109.624825 236.0
109.706108 196.0
109.747803 116.0
109.960541 208.0
110.117165 180.0
110.244606 156.0
110.313576 184.0
110.386757 292.0
110.407669 148.0
110.721581 172.0
110.811653 64.0
110.847275 168.0
110.870323 156.0
110.975136 160.0
111.079994 216.0
111.378479 180.0
111.594513 188.0
111.708076 156.0
111.811172 224.0
112.287308 112.0
112.380119 212.0
112.679924 204.0
112.717957 180.0
113.223541 116.0
113.373955 180.0
113.448143 120.0
113.946861 148.0
114.055237 140.0
114.216843 64.0
114.410484 56.0
114.461586 132.0
114.478615 156.0
114.83239 148.0
114.885712 256.0
114.94545 180.0
115.054077 5156.0
115.826271 44.0
115.961258 168.0
116.057457 860.0
116.079605 196.0
116.106766 4552.0
116.137489 164.0
116.160667 52.0
116.182121 80.0
116.207863 68.0
116.222885 48.0
116.241547 120.0
116.282967 32.0
116.308723 60.0
116.446136 72.0
116.475929 188.0
116.695404 104.0
116.71476 52.0
116.794327 48.0
116.845955 180.0
117.069855 1420.0
117.113853 368.0
117.470695 228.0
117.777206 156.0
117.958717 60.0
118.213928 44.0
118.670959 128.0
118.79892 192.0
118.896553 140.0
118.933449 36.0
119.05069 144.0
119.24839 152.0
119.35273 176.0
119.707413 132.0
119.740082 148.0
119.918732 132.0
120.058266 156.0
120.518845 236.0
120.573479 188.0
120.798683 124.0
120.87088 120.0
121.087608 208.0
121.249725 168.0
121.51741 160.0
121.637947 196.0
122.321571 68.0
122.493324 148.0
122.715912 236.0
122.817352 156.0
122.916626 176.0
122.989456 160.0
123.13076 240.0
123.334023 140.0
123.349495 192.0
123.599403 144.0
123.661369 240.0
123.931534 176.0
124.03791 156.0
124.177597 80.0
124.512718 212.0
124.546036 148.0
124.679337 220.0
124.989304 92.0
125.040733 168.0
125.226631 76.0
125.888992 152.0
126.000671 188.0
126.02301 200.0
126.047066 620.0
126.246544 180.0
126.633713 184.0
126.956436 176.0
127.009064 460.0
127.054047 3372.0
127.111214 28.0
127.140388 124.0
127.421066 40.0
127.457016 128.0
127.571632 144.0
127.641335 176.0
127.911301 132.0
128.061951 7600.0
128.097687 156.0
128.12088 60.0
128.147766 36.0
128.175552 60.0
128.258194 92.0
128.297607 212.0
128.393463 104.0
128.418274 80.0
128.549118 196.0
128.567169 176.0
128.750031 176.0
129.033234 192.0
129.070236 10156.0
129.145401 60.0
129.208145 148.0
129.287567 72.0
129.523544 148.0
129.54393 68.0
129.763748 260.0
129.804565 204.0
129.831772 64.0
130.073166 1192.0
130.140381 108.0
130.590332 168.0
130.640366 84.0
130.701797 184.0
130.749588 76.0
130.915771 140.0
130.963593 116.0
130.99321 72.0
131.053177 316.0
131.494827 164.0
132.075165 116.0
132.755371 92.0
132.787994 180.0
133.030701 168.0
133.104172 192.0
133.147797 200.0
133.5914 68.0
133.667328 160.0
133.83075 168.0
133.853775 196.0
133.959717 176.0
134.065155 232.0
134.335464 124.0
134.600876 72.0
134.986771 208.0
135.057083 180.0
135.1138 196.0
135.35701 120.0
135.535355 164.0
135.609512 136.0
135.743973 184.0
135.927231 212.0
136.175629 108.0
136.270874 140.0
136.449829 140.0
136.76207 212.0
138.634583 156.0
138.779922 192.0
139.054123 148.0
139.681717 200.0
140.063431 184.0
140.546326 200.0
140.631287 168.0
140.754044 84.0
140.857956 116.0
140.961914 160.0
141.044632 144.0
141.070816 3068.0
141.276367 172.0
141.664597 56.0
141.856537 124.0
141.899216 28.0
141.951385 52.0
142.046249 116.0
142.075882 408.0
142.174362 88.0
142.556702 148.0
142.856277 116.0
143.051254 744.0
143.088348 396.0
143.175217 68.0
143.337204 192.0
143.387253 160.0
143.809387 48.0
143.888168 48.0
144.056473 952.0
144.849503 148.0
145.065796 4004.0
145.096146 52.0
145.156265 60.0
145.297775 48.0
145.544998 268.0
145.590622 132.0
145.864517 144.0
146.067932 412.0
146.124237 56.0
146.207947 152.0
147.107483 48.0
147.206467 56.0
147.617264 176.0
147.818039 168.0
148.581253 144.0
148.865234 120.0
149.210266 36.0
149.263748 240.0
149.558121 200.0
149.72612 128.0
150.576218 188.0
151.047989 176.0
151.651321 124.0
152.06163 1088.0
152.227844 192.0
152.41452 192.0
152.434189 112.0
152.58165 176.0
152.817764 64.0
153.069504 7340.0
153.130386 148.0
153.154282 68.0
153.357056 124.0
153.408813 52.0
153.428543 40.0
153.496323 100.0
153.514832 160.0
153.652969 200.0
153.697372 208.0
154.076782 2828.0
154.18631 184.0
154.203613 268.0
154.376663 100.0
154.629013 148.0
154.666138 56.0
154.732971 104.0
154.898895 180.0
155.005417 188.0
155.022522 184.0
155.060791 4168.0
155.086456 20052.0
155.159088 44.0
155.1828 72.0
155.212814 60.0
155.340118 220.0
155.372375 52.0
155.407104 44.0
155.475601 112.0
155.559799 76.0
155.582794 192.0
155.759232 100.0
155.874283 104.0
155.921127 88.0
155.992188 88.0
156.061203 568.0
156.089493 2560.0
156.207047 36.0
156.515656 32.0
156.627716 144.0
156.690002 68.0
156.762253 72.0
156.812103 140.0
156.926773 48.0
157.064835 9732.0
157.158722 76.0
157.229721 124.0
157.293488 80.0
157.335922 136.0
157.380859 88.0
157.428299 48.0
157.46077 68.0
157.548187 248.0
157.65564 80.0
157.679077 84.0
157.858124 88.0
157.988174 48.0
158.067917 1152.0
158.250961 92.0
158.346115 60.0
158.36615 252.0
158.772156 64.0
158.802261 100.0
158.849915 60.0
158.900085 48.0
159.00798 40.0
159.071274 324.0
159.15358 80.0
159.198776 116.0
159.249008 200.0
159.771851 88.0
160.083954 128.0
160.174622 136.0
160.456863 72.0
160.608154 40.0
160.91098 176.0
161.039764 184.0
161.075119 84.0
161.302536 128.0
162.627258 140.0
163.023453 52.0
163.443008 88.0
163.898788 120.0
164.06543 140.0
164.140945 56.0
164.230194 144.0
164.518539 184.0
164.947693 220.0
165.011597 180.0
165.070618 7644.0
165.124115 152.0
165.177826 52.0
165.221573 40.0
165.244339 52.0
165.300629 88.0
165.436279 100.0
165.479797 216.0
165.533569 72.0
165.684692 40.0
165.756424 36.0
165.896027 116.0
166.072113 1144.0
166.11792 188.0
166.141006 36.0
166.346298 44.0
167.076721 332.0
167.114716 152.0
167.256241 112.0
167.328323 112.0
167.403 28.0
167.421021 120.0
167.774017 92.0
167.939041 184.0
168.03334 108.0
168.056946 2784.0
168.132538 56.0
168.222885 128.0
168.271927 48.0
168.380386 116.0
168.625824 136.0
168.705948 68.0
169.060471 356.0
169.8116 188.0
170.065857 120.0
170.090805 216.0
170.286545 80.0
170.38266 32.0
170.483994 76.0
170.754364 64.0
171.079575 692.0
171.14209 76.0
171.796249 72.0
172.082565 324.0
172.109421 128.0
173.061157 188.0
173.118774 144.0
174.972504 64.0
175.483612 124.0
177.891037 140.0
178.223022 204.0
178.241623 108.0
178.552643 224.0
180.071762 172.0
180.167923 136.0
181.066635 552.0
182.072067 584.0
182.564133 60.0
182.693237 136.0
182.773575 148.0
182.849289 124.0
182.870819 176.0
182.948883 72.0
183.080582 8400.0
183.121216 152.0
183.150848 180.0
183.174652 172.0
183.207413 52.0
183.299011 104.0
183.345886 80.0
183.401428 52.0
183.490372 28.0
183.657562 64.0
183.754684 48.0
184.083115 712.0
184.416275 68.0
184.537918 72.0
185.095703 184.0
185.107925 120.0
185.246964 56.0
185.385132 88.0
185.610123 112.0
186.930267 60.0
187.395874 64.0
187.551193 80.0
188.315155 76.0
192.099213 196.0
192.663483 116.0
193.072556 120.0
194.199753 80.0
195.099426 116.0
196.040176 100.0
196.349625 128.0
197.054443 128.0
200.85408 40.0
213.942627 112.0
216.884171 40.0
217.409149 148.0
217.729141 56.0
218.119385 816.0
219.020294 188.0
223.130646 112.0
228.147186 64.0
232.815414 148.0
242.151215 120.0
242.94783 152.0
243.276764 116.0
243.74263 48.0
245.124207 48.0
247.964874 100.0
248.965652 160.0
252.947739 144.0
258.357513 84.0
259.625885 108.0
260.163422 1580.0
260.566376 32.0
260.656342 44.0
260.743103 116.0
260.810577 60.0
261.160675 312.0
262.160614 152.0
263.811584 144.0
272.84201 52.0
272.878174 216.0
281.436432 112.0
294.280853 84.0
324.669617 92.0
328.922302 56.0
344.179718 96.0
362.275146 136.0
387.210938 124.0
406.193604 52.0
415.285217 52.0
425.729034 56.0
541.090332 180.0
542.313232 56.0
564.476562 88.0
581.651978 44.0
596.79248 40.0
601.176392 120.0
626.421143 44.0
630.137756 160.0
634.496826 164.0
670.621582 48.0
690.674316 220.0
696.655273 72.0
732.204468 40.0
733.050232 176.0
744.925964 76.0
750.27533 136.0
776.571228 212.0
812.416382 180.0
833.46106 128.0
842.870422 212.0
862.496338 84.0
868.357239 156.0
879.300232 140.0
887.232239 128.0
913.159668 72.0
914.176392 148.0
918.846008 76.0
919.714966 184.0
925.458008 160.0
928.548462 148.0
935.456909 164.0
940.662659 92.0
940.882446 332.0
941.09613 232.0
949.209595 204.0
950.424072 136.0
954.478027 164.0
955.738953 96.0
957.333252 140.0
959.076782 140.0
966.283264 160.0
966.425537 164.0
967.038147 144.0
974.150208 156.0
975.125732 80.0
978.403809 212.0
979.935852 160.0
981.749756 180.0
981.849487 152.0
984.233276 132.0
989.516479 128.0
993.138489 160.0
1000.72345 180.0
1006.347412 164.0
1012.018799 184.0
1012.094788 172.0
1023.441223 168.0
1025.613525 52.0
1033.897217 196.0
1045.847534 92.0
1047.631226 112.0
1056.895752 160.0
1062.169189 136.0
1063.473389 232.0
1064.167969 120.0
1068.12561 140.0
1071.074341 160.0
1079.598022 68.0
1080.081909 144.0
1080.402466 160.0
1085.766968 108.0
1086.239258 180.0
1087.111816 176.0
1095.224609 168.0
1099.958984 200.0
1105.967285 180.0
1109.07373 76.0
1116.436523 116.0
1118.732056 148.0
1123.743652 60.0
1124.03064 164.0
1124.611206 120.0
1130.960815 176.0
1137.415649 44.0
1140.155884 100.0
1142.273804 160.0
1143.43103 184.0
1146.272949 152.0
1147.607544 148.0
1148.605591 100.0
1151.967163 152.0
1159.762207 220.0
1161.104614 152.0
1162.373169 236.0
1163.615356 192.0
1166.264648 196.0
1166.346191 140.0
1170.244141 84.0
1171.70166 184.0
1172.383057 192.0
1181.128906 140.0
1184.140503 168.0
1189.15918 188.0
1189.522949 48.0
1190.099609 132.0
1190.889282 228.0
1191.713623 128.0
1191.906006 200.0
1192.435181 164.0
1192.964478 108.0
1193.101929 100.0
1196.830933 168.0
1198.456421 144.0
1200.331299 124.0
1208.253418 104.0
1214.030029 152.0
1215.577026 160.0
1218.020752 180.0
1234.126099 200.0
1236.126587 128.0
1236.85437 152.0
1237.043457 160.0
1237.505493 168.0
1238.913208 316.0
1245.268188 232.0
1245.422729 164.0
1248.747192 200.0
1250.583496 144.0
1251.949341 164.0
1252.33667 152.0
1252.526855 216.0
1253.957153 152.0
1255.437622 124.0
1255.719727 144.0
1256.594482 136.0
1256.735474 144.0
1259.389893 148.0
1262.145996 220.0
1263.503906 136.0
1263.893066 188.0
1264.678589 56.0
1268.893433 200.0
1269.524414 88.0
1272.192261 120.0
1273.811279 224.0
1274.003052 172.0
1274.990723 40.0
1276.092529 144.0
1277.1521 108.0
1279.301025 124.0
1280.340576 164.0
1282.321167 164.0
1286.215454 196.0
1286.97937 220.0
1287.136475 180.0
1288.457764 168.0
1292.418701 140.0
1295.382568 216.0
1296.868652 160.0
1297.589722 160.0
1297.797729 180.0
1299.002563 212.0
1299.189087 28.0
1299.46167 200.0
1303.7771 160.0
1305.178833 208.0
1308.325928 168.0
1313.576294 196.0
1314.838989 88.0
1315.705078 60.0
1317.069946 168.0
1318.840088 108.0
1319.411133 180.0
1320.228271 224.0
1322.789551 216.0
1325.62854 204.0
1325.838745 248.0
1327.390015 180.0
1328.862427 224.0
1331.831543 160.0
1332.637817 184.0
1333.887817 148.0
1335.843872 192.0
1338.7771 204.0
1340.394287 188.0
1342.880127 104.0
1343.930664 184.0
1345.550903 192.0
1345.988892 96.0
1347.82959 188.0
1348.73584 240.0
1349.371826 224.0
1351.141724 172.0
1351.361206 208.0
1352.898071 68.0
1354.509033 176.0
1354.911987 144.0
1355.593384 228.0
1355.94519 204.0
1356.480225 168.0
1357.13269 104.0
1359.171753 248.0
1362.725464 160.0
1363.195679 124.0
1364.018799 164.0
1365.658569 192.0
1369.397461 232.0
1369.846802 76.0
1371.696289 232.0
1374.749756 152.0
1375.39917 160.0
1375.480347 196.0
1375.92334 112.0
1378.863159 196.0
1378.973999 108.0
1380.489502 240.0
1384.581909 160.0
1386.53772 184.0
1387.101074 180.0
1388.176147 108.0
1388.687866 92.0
1392.807129 40.0
1394.419434 44.0
1395.779907 208.0
1395.980713 144.0
1397.475708 192.0
1398.361328 132.0
1400.073608 112.0
1403.687744 212.0
1405.142212 228.0
1409.543945 144.0
1413.143921 192.0
1414.026855 172.0
1417.621582 132.0
1418.655884 192.0
1418.828247 248.0
1419.40564 164.0
1419.615601 128.0
1427.635742 96.0
1431.609131 80.0
1434.027466 196.0
1434.396729 108.0
1434.91687 184.0
1435.286377 196.0
1436.953247 164.0
1438.039917 96.0
1438.492798 180.0
1442.050293 128.0
1442.526489 156.0
1443.169189 28.0
1443.774048 204.0
1444.33374 184.0
1446.126953 156.0
1447.050415 156.0
1447.360962 72.0
1448.201538 172.0
1449.663696 152.0
1449.838013 216.0
1450.095581 280.0
1452.0896 156.0
1452.518433 184.0
1452.840576 156.0
1453.682739 160.0
1454.56311 140.0
1456.203125 160.0
1457.988525 168.0
1461.501709 200.0
1462.574707 148.0
1463.06189 164.0
1463.975586 108.0
1465.174805 196.0
1465.963745 116.0
1468.121094 172.0
1468.914307 244.0
1469.552856 240.0
1471.264771 164.0
1472.012939 172.0
1472.914917 172.0
1475.848755 92.0
1478.885742 136.0
1479.398682 88.0
1479.903931 180.0
1480.661987 168.0
1481.190552 160.0
1492.210449 160.0
1492.840942 136.0
1493.986938 196.0
1494.364014 200.0
1495.849243 224.0
1496.595947 188.0
1496.89624 208.0
1498.744995 204.0
1503.973511 52.0
