>compound MLS001142640-01!methyl 1-[1-[(2S)-3-methyl-2-[(4-methylphenyl)sulfonylamino]pentanoyl]piperidine-4-carbonyl]piperidine-4-carboxylate
>formula C26H39N3O6S
>ionization [M+H]+
>parentmass 522.264
#inchi InChI=1S/C26H39N3O6S/c1-5-19(3)23(27-36(33,34)22-8-6-18(2)7-9-22)25(31)29-14-10-20(11-15-29)24(30)28-16-12-21(13-17-28)26(32)35-4/h6-9,19-21,23,27H,5,10-17H2,1-4H3/t19?,23-/m0/s1
#inchikey OAWCVDIHMTVSBA
#Ion_Source LC-ESI
#Instrument qTof
#Compound_Source NIH Natural Product Library
#PI Dorrestein
#Data_Collector VVP/LMS
#Scan -1
#Precursor_MZ 522.264
#ExactMass 521.256
#Charge 1
#CAS_Number N/A
#Pubmed_ID N/A
#Smiles CCC(C)[C@H](NS(=O)(=O)c1ccc(C)cc1)C(=O)N2CCC(CC2)C(=O)N3CCC(CC3)C(=O)OC
#INCHI_AUX N/A
#Library_Class 1
#SpectrumID CCMSLIB00000079742
#IonMode Positive
#UpdateWorkflowName UPDATE-SINGLE-ANNOTATED-GOLD
#LibraryQualityString Gold
#TaskID b1d8e8f6646f4e71acdff9ca3d919d08
##Scan# 2158
#SpectrumFile p1-E10_GE10_01_17930.mzXML
#LibraryName NIH_Natural_Products_Library.mgf
#MQScore -1
#Organism NIH_Natural_Products_Library
#TIC_Query 0
#RT_Query -1
#MZErrorPPM -1
#SharedPeaks 0
#MassDiff 0
#LibMZ -1
#SpecMZ 522.264
#SpecCharge 0
#internalFilename spec-00000.mgf

>collision 10
94.980698 204.0
95.045738 160.0
95.069946 160.0
95.370979 84.0
95.581009 140.0
95.693901 68.0
95.734787 120.0
96.029068 208.0
96.056374 228.0
96.093445 112.0
96.228111 140.0
96.380455 164.0
96.467384 108.0
96.71682 152.0
96.730522 216.0
96.887184 192.0
97.065964 188.0
97.091034 156.0
97.238174 208.0
97.297066 224.0
97.633057 196.0
97.942055 112.0
98.046478 144.0
98.062241 196.0
98.097725 244.0
98.208145 72.0
98.330467 132.0
98.494347 176.0
98.636612 228.0
98.654404 132.0
98.804703 144.0
99.062057 88.0
99.168892 196.0
99.208702 148.0
99.343544 196.0
99.530106 68.0
99.671135 108.0
99.806297 152.0
99.909714 204.0
100.200378 172.0
100.355835 180.0
100.558258 152.0
100.609207 176.0
100.639153 144.0
100.743011 144.0
100.888893 116.0
100.964867 140.0
100.992867 140.0
101.038879 172.0
101.132927 124.0
101.664024 152.0
101.780449 244.0
101.997421 120.0
102.084785 176.0
102.482422 212.0
102.550941 204.0
103.043312 96.0
103.059029 164.0
103.128181 164.0
103.293983 168.0
103.403244 124.0
103.421463 76.0
103.524712 160.0
103.89563 112.0
103.950409 236.0
104.003174 224.0
104.279404 144.0
104.427818 160.0
104.737198 164.0
104.875748 164.0
104.926712 172.0
105.01236 160.0
105.130684 160.0
105.304214 216.0
105.396141 216.0
105.488106 212.0
105.600571 108.0
105.643524 192.0
105.827713 144.0
105.864571 128.0
105.897339 124.0
106.059204 156.0
106.108398 168.0
106.18808 168.0
106.364822 148.0
106.455162 232.0
106.506508 120.0
106.672943 60.0
106.839272 236.0
106.90947 196.0
107.236923 188.0
107.276093 92.0
107.434875 188.0
107.490585 152.0
107.653664 160.0
107.723885 124.0
108.220222 156.0
108.290634 124.0
108.404572 72.0
108.456383 204.0
108.583549 120.0
108.829796 132.0
108.901962 160.0
108.929482 220.0
109.064674 128.0
109.141464 112.0
109.183052 144.0
109.386955 220.0
109.653122 132.0
109.907974 160.0
109.935097 112.0
109.995628 168.0
110.058075 272.0
110.104195 152.0
110.719048 124.0
110.76722 112.0
110.79026 120.0
110.851021 180.0
110.874069 92.0
111.026917 172.0
111.205437 104.0
111.297997 176.0
111.465851 120.0
111.509979 60.0
111.706573 132.0
111.749702 176.0
111.842293 164.0
111.928612 104.0
112.003311 196.0
112.023384 168.0
112.042343 300.0
112.076378 27000.0
112.143486 36.0
112.207253 84.0
112.276306 84.0
112.329041 120.0
112.413429 76.0
112.470413 200.0
112.498558 48.0
112.616104 180.0
112.639336 168.0
112.671021 76.0
112.711166 52.0
112.764 72.0
112.827408 80.0
112.958519 196.0
112.994484 168.0
113.047379 68.0
113.078392 1888.0
113.398933 176.0
113.511292 112.0
113.619461 200.0
113.691605 100.0
113.725563 208.0
113.75528 236.0
113.774384 208.0
113.886925 44.0
113.940033 208.0
114.014397 100.0
114.067535 140.0
114.131317 160.0
114.4739 180.0
114.718918 172.0
114.84259 72.0
114.979492 120.0
115.058113 164.0
115.132843 204.0
115.308029 148.0
115.466232 100.0
115.87722 124.0
115.990799 140.0
116.16449 144.0
116.286797 156.0
116.367363 120.0
116.626144 164.0
116.867004 52.0
117.131798 156.0
117.48317 152.0
117.553802 184.0
117.575951 376.0
117.701149 148.0
118.109604 36.0
118.703011 216.0
118.729034 196.0
119.062744 140.0
119.09272 168.0
119.130577 104.0
119.210968 48.0
119.332687 144.0
119.985832 232.0
120.003273 176.0
120.075233 196.0
120.133408 208.0
120.169029 196.0
120.455009 168.0
120.648125 172.0
120.837578 112.0
121.052086 172.0
121.139687 128.0
121.196655 136.0
121.534317 180.0
121.597954 156.0
121.62429 132.0
121.809837 240.0
122.019699 136.0
122.052681 188.0
122.149445 204.0
122.270462 172.0
122.409149 140.0
122.444382 52.0
122.536896 132.0
122.69117 108.0
122.845535 144.0
123.123642 104.0
123.457344 116.0
123.477249 76.0
123.60334 96.0
124.030762 128.0
124.157143 32.0
124.534431 248.0
124.5522 204.0
124.678841 32.0
124.878937 68.0
125.014641 256.0
125.194962 60.0
125.217232 112.0
125.259552 188.0
125.292961 116.0
125.920959 208.0
125.968903 44.0
126.038155 116.0
126.069443 148.0
126.210266 100.0
126.810211 220.0
127.020973 132.0
127.346436 128.0
127.580124 328.0
127.931061 96.0
128.084183 176.0
128.248672 148.0
128.510254 180.0
128.618576 124.0
129.147308 228.0
129.341888 164.0
129.822205 136.0
130.303406 120.0
130.364746 72.0
130.573898 48.0
130.712662 172.0
130.899323 120.0
130.922089 68.0
131.07016 112.0
131.113785 140.0
131.325485 144.0
131.631302 164.0
131.681534 152.0
131.788895 228.0
131.994614 244.0
132.234818 88.0
132.326385 120.0
132.658569 168.0
132.885605 204.0
133.060028 140.0
133.429916 176.0
133.634598 156.0
134.039841 196.0
134.235779 52.0
134.618835 148.0
134.736633 164.0
135.041763 148.0
135.083389 60.0
135.284714 156.0
135.421341 140.0
135.515656 140.0
135.912796 96.0
136.04509 136.0
136.110092 148.0
136.30986 160.0
136.393524 92.0
136.55162 136.0
136.695862 172.0
137.070755 132.0
137.122025 208.0
137.783585 120.0
137.801071 164.0
137.892197 172.0
137.981033 180.0
138.203217 100.0
138.257034 232.0
138.479446 164.0
138.498184 204.0
138.552063 152.0
138.594238 68.0
138.854431 168.0
138.948273 172.0
139.020691 728.0
139.222885 172.0
139.283951 36.0
139.406128 92.0
139.478989 144.0
139.533051 136.0
139.575378 152.0
140.024719 304.0
140.368896 156.0
140.74881 116.0
140.994476 40.0
141.078323 204.0
141.155228 80.0
141.183609 128.0
141.39415 132.0
141.908173 152.0
141.967453 112.0
142.086609 940.0
142.112152 212.0
142.209946 152.0
142.335266 180.0
142.515778 176.0
142.618866 96.0
142.889053 124.0
142.946167 240.0
142.988998 156.0
143.034225 184.0
143.084213 156.0
143.1604 48.0
143.177078 180.0
143.260437 172.0
143.324768 96.0
143.408173 140.0
143.515442 112.0
143.641846 132.0
143.787384 128.0
143.835709 180.0
143.853348 172.0
143.882095 136.0
143.91391 112.0
144.00943 112.0
144.026138 184.0
144.071396 144.0
144.101807 40092.0
144.169922 44.0
144.209244 76.0
144.2388 48.0
144.293793 52.0
144.328064 72.0
144.353561 96.0
144.384644 64.0
144.410965 100.0
144.426041 72.0
144.449707 100.0
144.493683 64.0
144.568863 52.0
144.652618 160.0
144.734024 88.0
144.813049 44.0
144.869019 76.0
144.887314 84.0
144.91127 52.0
144.969635 56.0
145.038269 84.0
145.065536 204.0
145.105133 3400.0
145.134171 176.0
145.179733 52.0
145.254074 156.0
145.302719 72.0
145.41243 40.0
145.46524 92.0
145.599701 32.0
145.63092 208.0
145.871201 60.0
145.900055 160.0
145.986603 104.0
146.010651 68.0
146.107574 352.0
146.152588 36.0
146.188675 140.0
146.342728 60.0
146.371628 116.0
146.392761 72.0
146.641434 152.0
146.810196 196.0
147.184219 172.0
147.222855 160.0
147.382278 44.0
147.493454 252.0
147.536957 44.0
147.742523 104.0
147.923462 88.0
148.657135 196.0
149.455383 188.0
149.518661 76.0
149.944855 68.0
150.069122 176.0
150.137451 204.0
150.235016 144.0
150.781952 148.0
150.826355 168.0
151.386215 200.0
151.574829 156.0
152.006393 144.0
152.136475 216.0
152.362411 156.0
152.44841 144.0
152.642609 132.0
152.903366 180.0
152.955048 116.0
153.302322 108.0
153.598175 152.0
153.632706 116.0
153.682053 60.0
153.728928 44.0
153.839996 132.0
153.894318 140.0
153.941223 212.0
154.195679 160.0
154.237701 116.0
154.378616 56.0
154.42067 176.0
154.475082 152.0
154.527023 56.0
154.720062 172.0
154.799423 156.0
154.845917 112.0
154.868637 144.0
154.925613 108.0
154.952316 132.0
155.016296 36220.0
155.047653 48.0
155.10965 140.0
155.138733 76.0
155.156082 108.0
155.185181 76.0
155.223038 60.0
155.282547 208.0
155.312317 56.0
155.332031 40.0
155.396484 60.0
155.462158 60.0
155.493439 96.0
155.51825 180.0
155.647339 56.0
155.734268 60.0
155.821701 80.0
155.87587 60.0
155.957886 100.0
156.019989 3344.0
156.102066 124.0
156.181656 32.0
156.281158 116.0
156.301071 64.0
156.482773 96.0
156.635406 176.0
156.72934 40.0
156.749283 76.0
156.804108 32.0
156.826538 104.0
156.893829 68.0
157.011185 2460.0
157.052383 76.0
157.103317 108.0
157.16069 148.0
157.185654 128.0
157.252563 148.0
157.367859 172.0
157.57016 56.0
157.865097 160.0
157.92012 92.0
157.985153 200.0
158.027679 216.0
158.062714 64.0
158.200363 144.0
158.270462 52.0
158.698929 84.0
158.81427 52.0
159.100342 136.0
159.135483 148.0
159.220856 196.0
159.44194 72.0
159.504776 212.0
159.685806 216.0
159.967621 108.0
160.486603 200.0
160.516861 136.0
160.673233 208.0
160.776688 44.0
160.940765 60.0
161.339951 180.0
161.438553 76.0
161.549835 40.0
161.755981 148.0
161.924454 140.0
162.078979 88.0
162.127823 176.0
162.708954 104.0
162.735504 128.0
162.786682 60.0
163.353455 92.0
163.577393 228.0
163.666489 108.0
163.987473 68.0
164.069046 104.0
165.090195 396.0
165.161972 180.0
165.527939 156.0
165.691864 192.0
167.235153 84.0
167.850861 212.0
168.35405 196.0
168.47287 204.0
168.943359 192.0
169.933014 208.0
170.082275 300.0
170.148422 152.0
170.644638 224.0
170.998413 52.0
171.063492 132.0
171.092117 116.0
171.48024 184.0
172.042435 832.0
173.034485 136.0
173.786682 188.0
174.036026 128.0
174.087555 376.0
174.130875 100.0
174.256653 112.0
174.782501 216.0
174.966736 48.0
175.101028 160.0
175.177414 124.0
175.211655 144.0
175.670364 140.0
175.9897 128.0
176.335754 148.0
176.742996 176.0
177.349442 124.0
177.641113 148.0
177.810928 240.0
177.99675 108.0
178.118927 124.0
178.148148 156.0
178.413879 188.0
178.480347 80.0
178.826187 212.0
178.943314 236.0
179.033844 152.0
179.124741 156.0
179.6362 216.0
180.140854 232.0
180.801132 112.0
180.945679 148.0
181.034027 132.0
181.141159 152.0
181.320679 188.0
182.257217 180.0
182.569031 52.0
182.805756 212.0
183.10997 140.0
183.336258 72.0
183.379379 216.0
183.444077 168.0
183.913422 156.0
183.987839 204.0
184.042053 9928.0
184.091599 72.0
184.121307 156.0
184.453644 52.0
184.523926 52.0
184.926987 88.0
185.044113 1228.0
185.425323 180.0
185.848343 112.0
186.011185 108.0
186.039856 456.0
186.13063 124.0
186.424011 36.0
186.698578 128.0
186.761124 220.0
187.042603 196.0
187.101273 164.0
188.115372 188.0
188.186356 120.0
189.233505 60.0
189.559448 104.0
189.897003 160.0
190.503265 120.0
191.154877 164.0
192.574646 172.0
193.130188 132.0
194.679428 188.0
195.071182 56.0
196.968185 144.0
197.097321 136.0
197.156006 128.0
197.454727 136.0
197.743301 224.0
197.793686 224.0
198.056519 648.0
198.091934 164.0
198.124115 84.0
199.057693 196.0
199.086182 128.0
199.159195 60.0
199.884521 192.0
200.059021 164.0
200.120331 196.0
200.143478 196.0
200.709824 132.0
200.963684 196.0
202.054245 256.0
203.187454 128.0
203.300964 168.0
203.533722 220.0
203.888809 52.0
204.204391 132.0
204.841965 92.0
205.646042 100.0
205.817322 132.0
206.034378 132.0
206.609009 84.0
208.047623 164.0
208.832077 144.0
208.878098 192.0
209.266602 92.0
209.707352 96.0
210.910934 152.0
212.068695 104.0
212.486267 188.0
212.712616 128.0
212.883911 96.0
213.086395 248.0
213.456375 108.0
213.703613 236.0
214.387894 104.0
215.119827 540.0
215.783127 96.0
215.838684 144.0
216.025864 252.0
216.122406 92.0
216.24823 44.0
216.365326 44.0
216.41217 52.0
216.831055 164.0
217.109558 108.0
217.667114 204.0
218.151886 40.0
218.437119 180.0
220.959396 152.0
220.988983 108.0
222.090988 180.0
222.29866 88.0
222.957916 120.0
223.09761 116.0
223.142319 160.0
224.103622 140.0
225.046036 140.0
225.11174 148.0
225.162506 92.0
225.249115 240.0
226.110214 100.0
226.343719 48.0
226.715164 160.0
227.170898 132.0
228.501755 140.0
228.697342 164.0
229.206299 236.0
229.287659 212.0
229.565002 68.0
230.488693 192.0
230.688156 144.0
230.790955 176.0
230.902832 108.0
231.114594 124.0
231.335526 200.0
231.386978 176.0
231.923157 184.0
233.112839 224.0
233.467804 104.0
233.581039 76.0
233.632751 140.0
234.95491 132.0
235.000671 80.0
235.17157 172.0
235.315033 164.0
236.387894 128.0
236.997223 136.0
237.15126 320.0
237.711243 144.0
237.748505 248.0
238.012497 140.0
238.081802 220.0
238.141312 1372.0
238.559357 80.0
238.611618 204.0
238.940689 168.0
239.042236 64.0
239.097626 180.0
239.148026 364.0
239.479385 44.0
239.608765 116.0
239.645737 80.0
239.707367 112.0
239.728928 44.0
239.765915 152.0
239.86763 112.0
239.93544 116.0
239.957016 128.0
239.994919 220.0
240.056992 152.0
240.1035 14024.0
240.161545 112.0
240.194473 104.0
240.237656 164.0
240.277771 60.0
240.303482 60.0
240.348724 80.0
240.407364 56.0
240.496857 64.0
240.54007 68.0
240.575943 116.0
240.612228 128.0
240.691345 80.0
240.783997 104.0
240.857239 140.0
240.910629 40.0
240.95697 64.0
241.02803 44.0
241.107681 2820.0
241.191833 76.0
241.244385 44.0
241.324753 96.0
241.37114 76.0
241.491745 68.0
241.522675 56.0
241.606201 68.0
241.736145 68.0
241.825897 60.0
242.102371 1116.0
242.170181 176.0
242.374023 56.0
242.4422 88.0
242.698486 100.0
243.101593 140.0
243.549789 132.0
243.60881 108.0
243.79834 144.0
243.941315 228.0
244.121643 136.0
244.507401 44.0
244.618454 112.0
244.815598 176.0
245.894257 92.0
246.100281 32.0
246.692841 40.0
247.685822 116.0
249.427307 204.0
249.45874 164.0
249.527893 72.0
249.770035 204.0
250.062653 116.0
251.480942 188.0
251.588272 132.0
252.109421 112.0
252.786148 80.0
253.118515 212.0
253.151093 500.0
253.226196 124.0
253.311707 80.0
253.476456 88.0
254.157928 332.0
254.217804 188.0
254.281952 92.0
254.327972 120.0
254.358124 168.0
254.500992 56.0
254.562576 212.0
254.608948 40.0
254.805893 148.0
254.853546 132.0
254.901215 204.0
254.951569 156.0
255.028336 164.0
255.088715 104.0
255.170242 33724.0
255.25177 160.0
255.282669 72.0
255.305801 116.0
255.343094 40.0
255.371704 52.0
255.413055 88.0
255.469604 124.0
255.523941 112.0
255.557602 64.0
255.607132 132.0
255.645752 116.0
255.677139 104.0
255.70134 148.0
255.86026 120.0
255.872101 64.0
255.880157 92.0
255.928604 104.0
255.966812 44.0
256.001831 132.0
256.036865 60.0
256.078278 72.0
256.172577 5116.0
256.259857 48.0
256.291718 32.0
256.377258 84.0
256.419189 80.0
256.441498 68.0
256.546692 32.0
256.572174 88.0
256.713867 100.0
256.812225 144.0
256.926178 64.0
256.967651 80.0
257.170898 1028.0
257.270813 76.0
257.382568 72.0
257.606812 76.0
257.630005 72.0
257.660248 64.0
257.756287 112.0
257.935272 116.0
257.99472 116.0
258.018372 88.0
258.069519 84.0
258.10434 104.0
258.175049 172.0
258.203827 72.0
258.265808 108.0
258.681274 92.0
258.862549 48.0
259.026398 124.0
259.106506 52.0
259.170563 132.0
259.301971 96.0
259.327606 76.0
259.571228 148.0
259.648193 60.0
259.972229 52.0
260.007507 116.0
260.591949 52.0
261.131989 120.0
262.494202 48.0
263.895538 156.0
264.345154 96.0
265.261719 56.0
266.082489 172.0
266.105164 200.0
266.335754 72.0
267.499817 84.0
269.080536 156.0
269.10379 176.0
269.136414 124.0
269.283386 132.0
269.332367 76.0
269.485901 148.0
270.100494 60.0
270.699432 184.0
273.088562 152.0
273.667755 120.0
273.842285 44.0
274.033325 108.0
274.511261 84.0
277.071655 144.0
277.603149 120.0
277.997925 44.0
280.605652 184.0
281.052582 52.0
281.150787 1360.0
281.833893 48.0
282.154083 844.0
283.108368 120.0
283.149811 180.0
284.138214 2076.0
284.456177 76.0
285.140289 528.0
287.282867 56.0
289.605072 136.0
290.028595 204.0
290.069275 176.0
290.124512 136.0
290.272705 28.0
290.797394 60.0
292.766968 48.0
293.840668 36.0
297.107849 180.0
298.141357 140.0
298.619965 132.0
302.251831 56.0
305.165375 160.0
307.105011 132.0
308.120819 132.0
308.148773 120.0
308.30603 44.0
309.005341 44.0
309.210968 200.0
309.659943 76.0
310.437927 52.0
312.132233 740.0
313.144806 256.0
314.180298 100.0
315.451599 68.0
316.038666 88.0
316.477539 72.0
316.817535 96.0
317.109406 176.0
318.005432 36.0
318.122559 132.0
319.280853 40.0
322.23941 108.0
322.264435 68.0
322.879272 84.0
323.235229 172.0
324.16803 188.0
326.990723 108.0
328.435486 60.0
329.012878 164.0
329.153687 60.0
329.561829 72.0
333.203003 84.0
337.196716 104.0
337.236908 176.0
348.14975 124.0
348.48407 140.0
350.248169 132.0
351.167633 116.0
351.233765 192.0
352.172028 180.0
352.22821 364.0
352.325165 40.0
354.836365 80.0
355.15509 184.0
356.908875 72.0
357.221039 116.0
357.277466 88.0
362.684937 72.0
366.713806 68.0
372.672089 192.0
375.162109 60.0
379.174469 196.0
382.121521 140.0
384.592133 96.0
390.013031 44.0
396.216339 160.0
399.189178 96.0
400.223755 128.0
400.825226 104.0
401.490936 56.0
402.241028 52.0
403.207581 128.0
405.420685 52.0
408.946838 96.0
410.155182 144.0
410.877014 76.0
411.938721 76.0
417.373535 128.0
418.11795 120.0
421.903168 52.0
423.29425 48.0
428.279968 84.0
432.247345 92.0
435.235931 168.0
437.172028 708.0
437.585052 80.0
437.876556 56.0
438.178741 272.0
439.181091 140.0
439.402161 96.0
439.948883 100.0
440.19104 136.0
447.204773 128.0
449.235779 148.0
450.176971 72.0
454.558228 124.0
457.19928 20.0
461.018158 72.0
472.299744 84.0
473.667542 64.0
476.248657 188.0
477.269623 152.0
478.260681 108.0
484.212463 128.0
500.886475 112.0
512.913269 52.0
519.297607 56.0
520.336731 180.0
522.252869 684.0
523.150757 124.0
523.244873 236.0
523.276001 156.0
523.60614 84.0
524.258545 336.0
524.316833 148.0
525.269714 208.0
528.865723 84.0
530.849487 68.0
531.078796 68.0
546.857605 56.0
554.048645 108.0
555.145386 80.0
557.257629 160.0
560.659729 84.0
563.249939 92.0
574.204529 56.0
581.740601 72.0
584.196228 68.0
585.29834 164.0
607.563965 108.0
608.422791 60.0
661.287048 20.0
671.764038 48.0
679.119446 56.0
687.172119 84.0
698.997986 52.0
710.717896 68.0
715.772766 56.0
722.289062 160.0
733.910583 60.0
736.257935 168.0
740.568359 60.0
753.138123 132.0
759.635498 144.0
760.930603 64.0
761.254578 168.0
778.134155 104.0
783.651367 52.0
791.577332 68.0
791.86853 56.0
793.902893 168.0
804.328247 264.0
807.440247 76.0
808.646484 204.0
810.146973 76.0
821.448059 180.0
827.448486 44.0
835.506042 240.0
842.966919 280.0
847.972778 104.0
848.668396 160.0
865.724182 208.0
868.953857 144.0
885.28125 164.0
897.420837 184.0
907.249634 124.0
908.838928 188.0
913.356567 168.0
915.884644 140.0
917.469421 56.0
920.47406 104.0
924.68158 88.0
927.279785 80.0
939.886047 120.0
944.804382 52.0
960.845032 232.0
961.215271 164.0
970.015991 96.0
972.695679 184.0
980.389282 196.0
987.093628 144.0
991.26886 184.0
992.704346 204.0
997.413025 188.0
1000.369446 176.0
1012.555664 192.0
1015.172913 212.0
1021.028137 172.0
1021.231628 172.0
1022.987793 52.0
1025.771484 144.0
1030.270386 160.0
1031.906494 184.0
1032.507568 216.0
1036.136841 64.0
1038.245728 228.0
1041.666626 204.0
1068.456055 188.0
1069.672974 52.0
1073.282227 240.0
1074.815063 180.0
1078.485229 120.0
1089.211426 152.0
1091.294678 192.0
1093.708862 224.0
1094.986206 152.0
1096.758545 188.0
1098.651001 120.0
1101.549072 96.0
1102.176636 112.0
1107.820068 104.0
1116.096191 196.0
1118.5177 236.0
1119.313354 20.0
1123.215332 156.0
1123.922485 196.0
1125.143921 108.0
1126.112183 236.0
1129.233398 132.0
1134.637085 204.0
1136.313721 148.0
1136.877441 60.0
1138.394531 224.0
1140.725952 120.0
1141.613403 164.0
1146.682739 168.0
1149.204712 132.0
1150.966431 160.0
1151.344482 228.0
1159.523804 272.0
1159.94397 152.0
1161.97168 216.0
1163.688721 132.0
1164.523926 144.0
1168.085571 224.0
1173.097412 116.0
1175.532227 208.0
1176.870117 132.0
1177.074951 136.0
1179.295166 220.0
1180.094971 84.0
1184.762573 164.0
1185.694458 140.0
1186.729492 184.0
1187.881592 36.0
1188.409912 180.0
1191.114746 164.0
1194.716797 172.0
1197.64917 160.0
1199.371704 188.0
1200.054199 136.0
1201.895752 216.0
1206.101562 132.0
1207.069336 132.0
1211.11792 176.0
1213.051147 204.0
1213.106567 108.0
1215.77002 52.0
1216.880615 104.0
1221.689819 180.0
1222.10022 176.0
1223.394775 116.0
1225.665161 164.0
1226.682739 164.0
1227.080078 276.0
1227.261353 200.0
1228.78186 232.0
1230.491699 68.0
1234.327637 208.0
1235.887329 192.0
1235.950317 192.0
1236.90918 216.0
1240.299316 156.0
1245.526733 184.0
1246.657959 168.0
1247.107666 176.0
1247.269409 192.0
1247.761475 184.0
1249.484497 88.0
1252.138184 196.0
1253.723267 56.0
1255.640869 172.0
1257.912842 232.0
1258.258667 132.0
1259.098999 212.0
1261.388184 204.0
1264.804688 112.0
1265.264771 208.0
1267.077759 176.0
1268.977173 64.0
1269.70752 108.0
1271.08374 64.0
1271.509521 96.0
1273.937866 184.0
1276.091187 204.0
1277.371338 208.0
1277.990234 128.0
1278.246338 188.0
1279.612915 192.0
1279.705566 172.0
1280.524414 120.0
1285.457642 152.0
1290.572021 72.0
1290.765015 196.0
1290.936646 204.0
1291.329956 108.0
1295.689209 136.0
1296.033203 204.0
1297.445068 104.0
1298.104736 208.0
1298.972534 224.0
1300.587036 200.0
1303.854858 120.0
1305.328613 184.0
1305.824829 172.0
1307.184448 88.0
1308.141602 140.0
1312.904175 120.0
1314.779907 176.0
1315.075806 196.0
1321.463745 220.0
1321.73877 92.0
1323.98999 200.0
1324.656372 64.0
1326.431763 140.0
1327.671509 144.0
1330.152832 52.0
1331.706665 160.0
1331.764771 132.0
1331.931885 148.0
1333.893799 192.0
1334.119141 224.0
1335.915283 208.0
1336.61377 96.0
1337.341431 156.0
1340.072266 164.0
1340.137817 164.0
1341.369507 224.0
1341.682861 212.0
1343.498779 108.0
1344.315918 204.0
1346.783569 172.0
1349.472778 192.0
1350.035889 168.0
1352.369629 132.0
1352.757568 180.0
1354.302612 112.0
1354.866699 144.0
1355.789917 60.0
1355.89978 132.0
1356.354248 44.0
1356.522827 188.0
1357.637207 76.0
1361.137573 176.0
1361.703003 168.0
1361.81311 216.0
1362.165771 124.0
1364.362915 228.0
1367.952881 220.0
1368.328369 116.0
1368.401978 120.0
1372.166748 76.0
1372.793457 136.0
1373.744873 168.0
1373.82605 160.0
1374.121094 272.0
1374.290771 76.0
1374.549072 156.0
1377.317627 76.0
1378.74353 156.0
1379.268311 136.0
1380.783936 60.0
1383.040527 184.0
1383.144165 124.0
1384.854614 208.0
1388.293335 152.0
1389.999512 168.0
1391.47644 100.0
1392.731445 220.0
1393.147461 128.0
1399.893433 132.0
1401.532104 100.0
1401.889771 140.0
1403.402954 64.0
1405.633179 148.0
1406.804932 156.0
1407.641235 216.0
1407.992188 108.0
1408.395508 192.0
1410.121338 92.0
1410.435303 192.0
1410.816528 132.0
1411.190308 112.0
1414.047852 204.0
1414.504395 88.0
1414.579346 96.0
1415.769775 204.0
1416.323975 164.0
1417.635132 152.0
1420.83667 40.0
1423.891724 160.0
1424.387451 136.0
1425.243896 92.0
1427.096069 132.0
1430.064209 184.0
1433.831055 228.0
1435.146362 248.0
1435.292358 56.0
1436.212402 172.0
1437.132812 80.0
1437.721313 128.0
1437.804443 176.0
1438.740356 160.0
1439.638794 76.0
1441.731445 200.0
1444.649902 140.0
1445.330811 192.0
1445.815186 148.0
1446.942993 96.0
1447.889404 152.0
1448.237793 152.0
1451.708862 176.0
1452.596191 220.0
1453.089355 56.0
1453.279053 100.0
1453.711548 188.0
1454.303467 188.0
1455.206787 192.0
1456.315552 96.0
1456.452271 212.0
1457.477783 224.0
1457.584229 64.0
1458.45813 188.0
1459.530029 168.0
1459.628906 136.0
1462.474121 156.0
1463.783569 140.0
1464.080566 280.0
1466.381348 224.0
1469.622314 180.0
1471.58374 212.0
1473.454956 40.0
1474.761597 224.0
1474.945068 128.0
1475.12854 180.0
1475.342529 224.0
1476.114746 140.0
1476.435913 208.0
1478.692871 136.0
1479.343506 160.0
1481.947266 208.0
1482.000977 132.0
1482.912842 164.0
1483.395752 212.0
1483.687012 112.0
1483.823853 184.0
1484.047363 148.0
1484.783569 48.0
1485.734619 112.0
1486.37146 156.0
1488.513062 176.0
1488.705078 192.0
1488.943115 156.0
1489.050659 100.0
1489.588257 48.0
1491.002075 208.0
1491.294067 172.0
1495.447388 132.0
1496.763794 220.0
1498.712524 152.0
1499.113159 168.0
1500.184448 36.0
1503.23877 176.0
1503.508789 188.0
1504.071411 192.0
