>compound MLS001157954-01!(2S)-1-[2-[[(2Z)-2-[(3,4-dimethoxyphenyl)methylidene]-3-oxo-1-benzofuran-6-yl]oxy]acetyl]pyrrolidine-2-carboxylic acid
>formula C24H23NO8
>ionization [M+H]+
>parentmass 454.1496431480906
#inchi InChI=1S/C24H23NO8/c1-30-18-8-5-14(10-20(18)31-2)11-21-23(27)16-7-6-15(12-19(16)33-21)32-13-22(26)25-9-3-4-17(25)24(28)29/h5-8,10-12,17H,3-4,9,13H2,1-2H3,(H,28,29)/b21-11-/t17-/m0/s1
#inchikey LFMFUNZQJXVTSG
#Ion_Source LC-ESI
#Instrument qTof
#Compound_Source NIH Natural Product Library
#PI Dorrestein
#Data_Collector VVP/LMS
#Scan -1
#Precursor_MZ 454.15
#ExactMass 453.142
#Charge 1
#CAS_Number N/A
#Pubmed_ID N/A
#Smiles COc1ccc(/C=C/2\Oc3cc(OCC(=O)N4CCC[C@H]4C(=O)O)ccc3C2=O)cc1OC
#INCHI_AUX N/A
#Library_Class 1
#SpectrumID CCMSLIB00000080262
#IonMode Positive
#UpdateWorkflowName UPDATE-SINGLE-ANNOTATED-GOLD
#LibraryQualityString Gold
#TaskID b1d8e8f6646f4e71acdff9ca3d919d08
##Scan# 1953
#SpectrumFile p2-C06_GC6_01_18006.mzXML
#LibraryName NIH_Natural_Products_Library.mgf
#MQScore -1
#Organism NIH_Natural_Products_Library
#TIC_Query 0
#RT_Query -1
#MZErrorPPM -1
#SharedPeaks 0
#MassDiff 0
#LibMZ -1
#SpecMZ 454.15
#SpecCharge 0
#internalFilename spec-00000.mgf

>collision 10
95.049423 188.0
95.072708 116.0
95.134819 172.0
95.98114 100.0
96.051353 280.0
96.098991 152.0
96.426231 204.0
96.531799 204.0
96.774429 108.0
97.101677 216.0
97.160522 132.0
97.578842 184.0
97.64373 184.0
97.94487 196.0
98.060707 1656.0
98.145683 200.0
98.262253 180.0
98.526802 192.0
98.677002 156.0
98.706657 132.0
98.89856 228.0
98.950027 148.0
99.064491 180.0
99.411858 176.0
99.495224 60.0
99.618347 128.0
99.654106 116.0
99.769379 156.0
99.833 176.0
99.91256 272.0
99.994148 152.0
100.076797 2292.0
100.125542 68.0
100.146149 184.0
100.428482 136.0
100.731888 44.0
100.867767 76.0
100.901749 96.0
101.077896 296.0
101.22789 172.0
101.759239 72.0
101.909874 120.0
102.050568 40.0
102.1129 156.0
102.269836 196.0
102.296005 236.0
102.551811 164.0
102.569954 108.0
102.612289 128.0
103.017929 160.0
103.044189 216.0
103.106834 128.0
103.187683 188.0
103.327232 72.0
104.142128 124.0
105.03717 176.0
105.634193 48.0
105.656693 112.0
105.834755 168.0
105.926918 160.0
106.043709 108.0
106.165359 188.0
106.241295 100.0
107.003151 172.0
107.048157 172.0
107.147171 160.0
107.299675 156.0
107.576111 208.0
108.022469 152.0
108.036949 96.0
108.37027 128.0
108.68335 84.0
108.704102 92.0
108.73938 124.0
108.961563 180.0
109.265099 64.0
109.662827 212.0
109.810852 172.0
109.827538 136.0
110.038307 232.0
110.061272 324.0
110.163612 56.0
110.385155 128.0
110.48555 168.0
111.051117 144.0
111.258858 232.0
111.330246 136.0
111.353348 184.0
111.407959 116.0
111.454178 76.0
111.555061 176.0
111.910599 192.0
112.076859 1760.0
112.169724 100.0
112.758606 228.0
113.077896 132.0
113.832664 104.0
114.034485 136.0
114.055832 532.0
114.545143 68.0
114.785973 180.0
114.911812 40.0
115.841774 184.0
116.028214 104.0
116.485306 176.0
116.753967 148.0
116.84861 204.0
117.305161 220.0
117.628731 188.0
117.643837 104.0
117.689178 184.0
118.040382 328.0
118.058678 168.0
118.220924 188.0
118.255554 144.0
118.350807 184.0
118.402771 268.0
118.530586 220.0
118.649796 92.0
119.008675 48.0
119.053375 164.0
119.59037 208.0
119.725349 204.0
119.845161 140.0
120.056602 156.0
120.191086 136.0
120.429802 188.0
120.595848 128.0
120.670174 164.0
120.786079 160.0
121.025566 324.0
121.050896 180.0
121.140694 60.0
121.204231 204.0
121.618713 224.0
121.81292 168.0
122.032753 188.0
122.099869 128.0
122.707611 128.0
123.049957 212.0
123.219635 244.0
123.334549 120.0
123.721657 208.0
124.053665 196.0
124.280167 120.0
125.470055 164.0
125.744415 124.0
125.912216 176.0
125.974396 156.0
126.005676 72.0
126.244843 188.0
126.795563 100.0
126.921097 144.0
127.073608 196.0
127.286842 156.0
127.554192 116.0
127.603653 88.0
127.727333 92.0
128.071442 3088.0
128.166336 100.0
128.281265 160.0
128.901932 132.0
128.94487 76.0
129.073135 516.0
129.229156 200.0
129.27504 168.0
129.392746 116.0
129.67363 216.0
129.721237 92.0
130.179535 208.0
130.199966 60.0
130.60907 88.0
130.961868 184.0
131.511139 204.0
131.755692 116.0
131.837692 172.0
131.860809 168.0
132.049942 132.0
133.028854 332.0
133.046997 140.0
133.527573 100.0
134.038681 160.0
134.691513 148.0
134.830139 52.0
135.042847 148.0
135.146942 144.0
135.586914 196.0
135.830368 148.0
136.017258 156.0
136.056442 188.0
136.176208 112.0
136.85524 180.0
136.997299 212.0
137.024445 1452.0
137.062408 564.0
137.129013 160.0
137.50795 108.0
137.547623 132.0
137.610657 48.0
137.743774 164.0
138.023911 168.0
138.058914 220.0
138.07399 184.0
138.447769 128.0
138.827408 160.0
138.901337 144.0
138.947021 140.0
139.02446 44.0
139.057312 216.0
139.649384 172.0
139.792892 112.0
140.745193 124.0
140.882187 132.0
141.042862 60.0
141.072083 156.0
141.359772 128.0
141.551514 124.0
141.906937 96.0
141.930649 128.0
142.087173 120.0
142.241425 92.0
143.56189 156.0
144.792633 144.0
144.869278 48.0
145.420776 96.0
146.034683 240.0
146.093582 52.0
146.370361 108.0
146.478745 192.0
146.498001 220.0
146.823395 76.0
147.042572 320.0
147.228836 124.0
147.888855 236.0
148.052261 1752.0
148.123734 92.0
148.421814 124.0
148.463043 176.0
148.560059 116.0
148.851303 180.0
149.025116 584.0
149.04454 152.0
149.116104 56.0
149.227921 72.0
149.257095 100.0
149.480881 116.0
149.673187 100.0
149.794952 148.0
149.89241 148.0
150.441162 192.0
150.665833 168.0
151.036194 284.0
151.076538 192.0
151.120575 60.0
151.2258 208.0
151.321274 68.0
151.458405 128.0
152.019836 176.0
152.063126 176.0
153.068222 164.0
153.340469 148.0
153.537689 176.0
153.784409 152.0
154.031326 128.0
154.137558 180.0
154.315521 120.0
154.392166 140.0
154.471313 112.0
154.656906 192.0
154.716309 148.0
155.082916 220.0
155.464844 176.0
155.616257 148.0
156.065155 1280.0
156.610962 164.0
156.999756 148.0
157.071915 224.0
157.184357 160.0
157.226776 164.0
157.329117 120.0
157.491425 152.0
157.551376 60.0
158.211594 112.0
158.376862 180.0
158.457016 136.0
158.752792 52.0
159.028748 144.0
159.337616 100.0
159.500961 264.0
159.999039 260.0
160.150131 180.0
160.982376 136.0
161.06076 120.0
161.345062 96.0
161.439774 140.0
161.712997 124.0
162.031342 312.0
162.295654 152.0
162.828552 156.0
163.039352 1396.0
163.07428 396.0
163.174133 152.0
163.240234 216.0
163.424759 172.0
163.728928 236.0
164.046143 144.0
164.072388 228.0
164.118713 60.0
164.26918 108.0
164.287033 60.0
164.825745 176.0
165.057831 240.0
165.079575 240.0
165.204132 76.0
165.728973 168.0
165.754593 176.0
166.051971 104.0
166.082748 136.0
166.103256 256.0
166.937958 168.0
167.031967 80.0
167.079422 144.0
167.339371 124.0
168.102325 48.0
169.066223 172.0
169.470169 100.0
170.061417 164.0
170.347046 124.0
170.427582 164.0
170.567917 232.0
170.747314 164.0
170.934616 208.0
171.069962 220.0
171.184509 260.0
171.677032 120.0
171.950958 112.0
172.622345 144.0
173.641052 108.0
173.911301 180.0
173.9953 108.0
174.037308 180.0
174.255295 224.0
174.307846 136.0
174.604904 136.0
174.704849 96.0
175.039841 372.0
175.347321 60.0
175.551041 176.0
175.589874 140.0
176.043701 352.0
176.823669 152.0
176.855423 224.0
176.892487 136.0
176.993088 140.0
177.019669 168.0
177.054001 156.0
177.07254 152.0
177.242081 184.0
178.062164 1200.0
178.808853 112.0
179.032471 136.0
179.073959 168.0
179.474808 136.0
179.546814 196.0
179.832275 224.0
180.043198 176.0
180.179413 76.0
180.604446 36.0
181.062775 508.0
181.370224 88.0
181.616913 160.0
181.64563 180.0
181.812759 96.0
182.074951 280.0
182.183289 184.0
182.317642 140.0
182.79361 200.0
182.828598 160.0
183.022415 100.0
183.083679 808.0
184.047012 160.0
184.095612 140.0
184.633392 224.0
185.05426 232.0
185.825241 216.0
186.060059 168.0
186.582977 216.0
186.713486 180.0
187.026367 164.0
187.129822 200.0
187.214233 152.0
187.293213 160.0
187.609299 128.0
188.032089 112.0
188.083939 168.0
188.463547 188.0
188.654846 200.0
188.952942 20.0
189.054184 156.0
189.349854 204.0
189.818451 160.0
190.655716 88.0
191.068161 148.0
191.186478 96.0
191.679398 36.0
191.745529 88.0
192.018478 200.0
192.404785 144.0
193.034744 92.0
193.067917 148.0
193.178558 144.0
194.074783 180.0
194.306061 168.0
194.625244 148.0
194.964142 164.0
195.050781 208.0
195.078461 388.0
195.256042 176.0
195.292206 212.0
195.567642 208.0
196.052246 392.0
196.091492 568.0
196.13028 116.0
196.448166 272.0
196.707687 36.0
196.984131 84.0
197.061508 356.0
197.089737 164.0
198.06105 168.0
198.080658 164.0
198.161896 184.0
198.635666 164.0
199.028564 144.0
199.074631 252.0
199.105789 328.0
199.582092 96.0
200.049118 168.0
200.102615 168.0
200.53923 168.0
201.046875 64.0
201.086395 152.0
202.061264 180.0
202.500015 100.0
203.010147 124.0
203.029999 224.0
204.883224 176.0
205.564651 152.0
205.721634 192.0
205.795868 192.0
207.048325 240.0
207.529724 132.0
207.828018 148.0
208.17247 176.0
208.497101 148.0
208.626434 156.0
208.744324 136.0
208.792419 204.0
209.061508 536.0
209.311188 220.0
209.342865 232.0
209.629959 144.0
209.780792 120.0
210.065063 836.0
211.079514 392.0
211.656235 256.0
212.086212 512.0
212.360031 68.0
212.47316 216.0
212.693695 116.0
212.949203 148.0
213.053223 332.0
213.081085 140.0
213.795212 196.0
213.853424 40.0
214.063034 196.0
214.867493 192.0
215.068832 168.0
215.168091 184.0
215.986313 148.0
216.407715 136.0
216.703537 168.0
216.794373 200.0
216.8647 188.0
216.940582 160.0
217.718445 36.0
217.827118 152.0
217.947571 120.0
218.156235 72.0
218.409119 120.0
218.516586 272.0
218.573868 136.0
218.641556 72.0
218.785782 144.0
218.882935 208.0
218.947723 188.0
219.273026 48.0
220.301559 180.0
221.059204 536.0
221.3367 80.0
221.469971 84.0
221.807755 120.0
222.062744 132.0
222.086472 196.0
222.448471 168.0
222.962311 124.0
223.053482 124.0
223.073776 152.0
223.265549 152.0
223.59874 188.0
223.810089 184.0
224.040436 472.0
224.087479 464.0
224.199982 156.0
224.516327 92.0
224.564041 180.0
224.671417 100.0
224.722137 48.0
224.778839 236.0
225.050262 292.0
225.086288 140.0
226.036835 180.0
226.062576 172.0
226.248993 140.0
226.845474 56.0
226.980377 148.0
227.074326 332.0
227.106125 1644.0
227.142334 160.0
227.214325 52.0
227.340347 160.0
227.475403 144.0
227.61351 176.0
227.652542 212.0
227.718613 80.0
228.04776 156.0
228.078003 328.0
228.10939 168.0
228.49115 156.0
228.560349 168.0
228.620529 188.0
228.799225 184.0
228.870377 140.0
229.083908 604.0
229.554382 56.0
229.626755 220.0
229.741379 116.0
230.055222 220.0
230.092484 128.0
230.272614 176.0
230.874023 200.0
230.973831 80.0
231.088791 140.0
231.173523 168.0
231.34906 160.0
231.651886 160.0
231.979156 120.0
232.983627 108.0
234.215607 172.0
235.493591 176.0
235.566895 124.0
236.050888 292.0
236.389328 40.0
236.75975 172.0
236.946594 56.0
237.056229 3412.0
237.161713 40.0
237.213196 60.0
237.276398 124.0
237.299042 156.0
237.453568 132.0
237.956085 100.0
238.020081 148.0
238.062027 3188.0
238.142914 40.0
238.281143 68.0
238.42186 156.0
238.447083 88.0
238.514694 168.0
238.939072 164.0
239.066742 840.0
239.225266 52.0
239.619461 140.0
239.702652 120.0
239.847488 128.0
239.918396 144.0
239.964645 52.0
240.049622 220.0
240.079681 1320.0
240.242203 212.0
240.340927 108.0
240.569305 56.0
240.638947 40.0
240.844131 132.0
240.870544 72.0
241.052917 1272.0
241.378769 72.0
241.756165 152.0
242.050308 108.0
242.084305 176.0
242.635818 120.0
243.054535 156.0
243.102478 2064.0
243.489136 116.0
243.52951 80.0
243.591629 184.0
243.762512 304.0
243.921005 92.0
244.105713 516.0
244.39682 108.0
245.116333 156.0
245.346741 140.0
246.723465 52.0
246.776611 144.0
247.991211 156.0
248.057037 152.0
248.549423 100.0
248.602768 108.0
248.747131 112.0
248.885269 124.0
248.951218 96.0
249.053925 460.0
249.746338 88.0
250.062653 180.0
250.391541 224.0
251.037262 184.0
251.067825 360.0
251.324615 176.0
251.592896 104.0
252.041565 1048.0
252.306854 96.0
252.382736 40.0
252.461792 180.0
252.604111 176.0
252.667389 40.0
252.873062 180.0
252.939529 236.0
253.050339 1156.0
253.087555 556.0
253.604691 124.0
253.804413 156.0
253.99469 124.0
254.057556 224.0
254.229462 168.0
255.017075 72.0
255.067795 2064.0
255.103836 480.0
255.220535 76.0
255.439972 48.0
255.602234 40.0
255.637238 76.0
255.812286 28.0
256.071167 824.0
256.102875 216.0
256.197601 36.0
256.497131 64.0
257.045685 120.0
257.075378 404.0
257.2659 136.0
257.719421 92.0
258.538025 44.0
258.682037 176.0
258.931793 220.0
260.163055 112.0
260.455261 196.0
260.612671 176.0
260.699432 164.0
260.738007 92.0
262.134644 152.0
262.747253 124.0
262.792419 180.0
263.040924 196.0
263.224945 144.0
263.486572 136.0
263.877625 72.0
264.07486 112.0
264.524628 148.0
264.903503 124.0
265.052765 3064.0
265.11084 128.0
265.140015 112.0
265.282623 40.0
265.438263 56.0
266.058289 6540.0
266.168335 168.0
266.207306 120.0
266.270935 128.0
266.619873 136.0
266.676849 128.0
266.788879 48.0
266.847412 72.0
266.876678 44.0
266.931946 132.0
266.970978 152.0
267.064423 4540.0
267.156372 140.0
267.248779 108.0
267.314819 68.0
267.359039 152.0
267.445435 100.0
267.537109 84.0
267.712921 80.0
267.8367 36.0
267.973511 48.0
268.071167 728.0
268.133179 48.0
268.20163 92.0
268.341797 96.0
268.536987 172.0
268.618988 84.0
268.720612 136.0
268.988678 48.0
269.045746 1028.0
269.079865 740.0
269.183624 128.0
269.261993 132.0
269.307709 188.0
270.049713 144.0
270.091949 372.0
270.147766 172.0
270.168793 160.0
270.291718 104.0
270.350616 140.0
270.393158 44.0
270.535767 92.0
270.845001 224.0
271.065125 156.0
271.09848 320.0
271.252319 180.0
271.880188 220.0
272.059448 292.0
272.094391 272.0
272.442505 152.0
272.876312 60.0
273.011108 264.0
273.442078 196.0
273.929382 96.0
274.097412 160.0
274.318237 76.0
275.234467 52.0
276.071411 156.0
276.518036 216.0
276.610687 68.0
277.90979 168.0
277.992767 188.0
278.051178 336.0
278.899414 116.0
278.932648 52.0
279.066437 992.0
279.507996 88.0
280.031738 136.0
280.0737 540.0
280.577148 156.0
281.043701 364.0
281.081696 936.0
281.126007 172.0
281.49469 64.0
281.785278 96.0
281.868805 220.0
282.054993 340.0
282.089111 1736.0
282.142853 152.0
282.414185 84.0
283.002686 120.0
283.063477 4568.0
283.095642 760.0
283.143341 52.0
283.203613 96.0
283.361053 68.0
283.434753 72.0
283.464935 44.0
283.501801 144.0
283.749817 80.0
283.815125 76.0
283.914124 92.0
283.997955 148.0
284.069153 4452.0
284.137787 124.0
284.211578 160.0
284.293213 132.0
284.326752 64.0
284.356964 72.0
284.753143 108.0
284.904297 40.0
285.074219 428.0
285.109863 196.0
285.358002 264.0
285.391602 56.0
285.709015 80.0
285.741394 36.0
285.781769 148.0
286.001373 172.0
286.076904 172.0
286.21933 148.0
286.34729 136.0
286.391083 116.0
286.468536 156.0
286.657227 68.0
286.701019 144.0
286.852692 68.0
287.078583 112.0
287.22699 220.0
287.365295 60.0
287.611664 52.0
287.682526 104.0
288.280365 72.0
288.777313 52.0
289.098724 144.0
289.318726 140.0
289.628662 188.0
291.112335 136.0
291.499573 68.0
292.077545 180.0
292.827026 96.0
292.908081 112.0
292.989838 68.0
294.002502 120.0
294.108307 144.0
294.316559 108.0
294.490723 120.0
294.842621 244.0
295.062012 1224.0
295.11264 180.0
295.263123 124.0
295.440979 100.0
296.002777 220.0
296.064301 700.0
296.132416 152.0
296.396179 84.0
296.546967 120.0
296.845215 240.0
297.072388 356.0
297.363251 96.0
297.871399 112.0
297.916077 44.0
298.084961 2872.0
298.144836 220.0
298.173767 56.0
298.259705 188.0
298.534729 76.0
298.696381 172.0
298.85202 84.0
298.902802 112.0
299.093292 22368.0
299.205688 64.0
299.233215 240.0
299.257324 44.0
299.343414 48.0
299.384735 100.0
299.453613 72.0
299.499939 44.0
299.543152 140.0
299.618958 44.0
299.684418 64.0
299.732635 56.0
299.76709 36.0
299.894623 116.0
299.935974 76.0
300.046295 108.0
300.096436 4796.0
300.173859 200.0
300.218689 56.0
300.263519 228.0
300.291107 48.0
300.355347 60.0
300.48996 56.0
300.627899 32.0
300.73172 68.0
300.860443 32.0
301.015808 164.0
301.102234 896.0
301.140137 48.0
301.45108 40.0
301.501099 88.0
301.554749 68.0
301.596222 104.0
301.883179 64.0
301.914307 80.0
301.962708 104.0
302.033752 140.0
302.110474 144.0
302.226898 176.0
302.253296 56.0
302.556824 208.0
302.61673 200.0
302.665192 28.0
302.748291 172.0
302.800262 100.0
303.035797 80.0
303.087769 108.0
303.118958 64.0
303.375427 48.0
303.410095 56.0
303.614685 36.0
303.656281 56.0
303.708313 40.0
303.899109 124.0
304.117737 180.0
304.499634 112.0
305.034729 84.0
305.090332 92.0
305.873016 180.0
306.061035 148.0
306.740356 48.0
307.068115 256.0
308.069885 176.0
308.118805 188.0
308.905365 96.0
308.95166 84.0
309.084839 536.0
309.563324 60.0
309.776978 164.0
310.001221 296.0
310.085938 4080.0
310.319458 76.0
310.492004 160.0
310.52005 188.0
310.569153 148.0
310.705963 44.0
310.839294 204.0
310.891937 68.0
310.94809 108.0
310.972656 104.0
311.01828 240.0
311.093079 10772.0
311.214874 84.0
311.279694 112.0
311.32724 116.0
311.351807 224.0
311.421173 48.0
311.467712 52.0
311.555542 72.0
311.602661 68.0
311.708282 76.0
311.769867 72.0
311.868256 52.0
311.942078 96.0
312.061127 116.0
312.097504 2588.0
312.220428 96.0
312.437927 56.0
312.497742 44.0
312.578644 76.0
312.621368 88.0
312.663116 92.0
312.775726 88.0
312.800385 88.0
312.920074 80.0
313.001068 56.0
313.025696 28.0
313.073822 1176.0
313.23349 128.0
313.458984 148.0
313.631653 72.0
313.688049 36.0
313.998322 40.0
314.071381 576.0
314.128845 172.0
314.167633 72.0
314.248779 144.0
314.344055 56.0
314.393463 60.0
315.000732 72.0
315.064331 92.0
315.523743 68.0
316.149811 44.0
316.974884 44.0
317.613037 124.0
318.347687 128.0
320.10434 132.0
320.788391 204.0
321.141388 40.0
323.055969 120.0
323.385162 64.0
323.990295 124.0
324.061676 332.0
324.170166 144.0
324.427521 64.0
325.06781 168.0
326.077515 180.0
327.046143 144.0
327.427765 44.0
327.629486 64.0
329.079285 40.0
329.111786 128.0
331.720184 128.0
333.088196 144.0
334.138794 136.0
334.451721 64.0
335.099945 100.0
336.088013 48.0
336.139099 132.0
336.248566 168.0
336.350769 72.0
338.852081 72.0
339.08609 996.0
339.735596 184.0
340.095184 272.0
340.139252 80.0
340.44397 188.0
341.05545 176.0
341.065887 248.0
342.06958 168.0
342.448303 84.0
343.074707 104.0
343.266449 80.0
344.081848 140.0
346.100555 180.0
347.112122 128.0
348.013763 168.0
348.132568 340.0
348.868256 144.0
350.137054 148.0
351.091064 148.0
351.125671 188.0
351.184326 152.0
352.15625 176.0
353.171356 116.0
355.711823 56.0
357.097229 804.0
358.107452 268.0
358.619354 40.0
359.108612 156.0
360.529022 64.0
362.133118 136.0
363.126099 156.0
364.128052 172.0
368.512482 84.0
372.804047 96.0
375.89624 108.0
376.081482 112.0
376.135529 212.0
377.139771 216.0
377.688812 52.0
380.067474 196.0
380.094635 96.0
380.150055 1216.0
380.929321 72.0
381.155212 624.0
382.126709 44.0
382.161713 308.0
384.399933 76.0
385.198639 64.0
386.054565 68.0
390.147949 168.0
390.86377 108.0
391.497528 100.0
392.127869 172.0
393.11673 144.0
394.124634 112.0
395.132812 152.0
404.056488 108.0
404.496704 160.0
408.141388 292.0
409.143555 196.0
409.15152 116.0
411.132385 128.0
411.164673 92.0
412.230774 52.0
413.261871 140.0
420.111542 188.0
420.980896 56.0
421.12793 240.0
421.225952 136.0
422.130371 184.0
423.160278 144.0
424.409912 68.0
425.842072 120.0
426.15564 308.0
427.157349 320.0
428.157501 144.0
429.492859 80.0
430.483368 140.0
430.520508 120.0
430.908783 136.0
434.568756 84.0
435.328339 56.0
435.43631 92.0
438.681763 72.0
439.135315 72.0
440.108582 132.0
446.019684 80.0
446.503174 36.0
451.065186 120.0
451.25119 152.0
451.703674 80.0
452.643219 96.0
453.219299 96.0
453.350647 200.0
453.630371 76.0
453.702454 104.0
453.927155 104.0
454.075592 148.0
454.151886 4880.0
454.236084 184.0
454.588898 116.0
454.635803 72.0
454.771393 120.0
454.91571 164.0
455.153076 2200.0
456.155884 412.0
456.236847 64.0
456.355896 104.0
457.134277 88.0
457.317291 64.0
458.12204 44.0
458.420288 48.0
458.765533 88.0
459.004272 56.0
460.139221 76.0
461.510681 52.0
462.721466 68.0
466.926605 48.0
468.450287 52.0
470.075684 48.0
472.81546 60.0
500.01001 52.0
504.635742 84.0
506.309265 104.0
506.810974 152.0
519.266357 96.0
519.624756 104.0
520.428101 40.0
526.909058 60.0
527.663147 80.0
539.177673 44.0
551.283691 48.0
560.683472 76.0
575.693604 68.0
584.595581 96.0
593.856812 64.0
618.696411 88.0
635.983826 76.0
653.929199 20.0
700.945068 108.0
707.504822 52.0
708.797119 148.0
708.987854 64.0
726.766235 52.0
729.365417 100.0
733.31604 64.0
742.252014 40.0
744.444275 60.0
745.541565 84.0
769.362732 44.0
803.090027 144.0
810.64856 56.0
812.582031 124.0
839.800171 68.0
844.414795 40.0
849.337891 84.0
870.153442 52.0
870.634949 140.0
876.876831 192.0
878.504211 72.0
887.131958 100.0
887.606262 20.0
896.1474 124.0
901.010376 180.0
905.082642 36.0
906.32251 112.0
906.76593 60.0
907.52124 144.0
914.856689 140.0
915.802002 80.0
924.701355 44.0
926.948059 76.0
927.905701 88.0
950.644714 84.0
964.718201 44.0
982.447632 176.0
1007.375793 96.0
1018.721069 128.0
1031.363159 184.0
1048.815186 104.0
1049.65979 52.0
1051.040161 196.0
1081.669922 160.0
1088.041626 104.0
1096.500488 116.0
1108.348877 164.0
1110.078857 140.0
1122.226929 172.0
1129.432373 52.0
1159.307983 196.0
1170.832886 120.0
1175.611694 152.0
1179.962524 188.0
1183.855835 196.0
1191.20813 164.0
1192.169922 164.0
1209.522217 76.0
1214.129517 100.0
1219.287598 164.0
1222.465698 156.0
1238.515869 128.0
1239.202393 140.0
1253.669922 152.0
1269.185547 116.0
1273.095947 248.0
1278.199219 152.0
1280.477173 68.0
1283.954956 184.0
1292.90625 44.0
1296.522705 44.0
1298.006592 140.0
1316.355469 116.0
1317.070435 116.0
1321.783936 132.0
1336.127808 60.0
1340.94812 172.0
1342.909302 32.0
1354.66272 128.0
1355.087646 204.0
1366.562866 156.0
1370.295654 168.0
1374.269531 132.0
1379.512939 188.0
1382.826538 172.0
1390.578735 160.0
1403.44043 180.0
1408.462769 144.0
1414.175049 156.0
1416.810791 144.0
1424.95813 172.0
1434.191284 216.0
1437.185181 164.0
1438.973877 48.0
1442.078491 72.0
1448.858276 200.0
1451.829468 220.0
1453.680298 120.0
1464.102417 152.0
1464.620239 244.0
1467.836304 48.0
1474.431763 244.0
1477.29895 68.0
1483.072388 160.0
1485.081177 160.0
1489.00293 164.0
1496.500244 168.0
1500.267456 176.0
1503.198242 168.0
