>compound MLS001141247-01!3-(4-chlorophenyl)-2-[[2-[(4-methyl-6-oxo-7,8,9,10-tetrahydrobenzo[c]chromen-3-yl)oxy]acetyl]amino]propanoic acid
>formula C25H24ClNO6
>ionization [M+H]+
>parentmass 470.138123
#inchi InChI=1S/C25H24ClNO6/c1-14-21(11-10-18-17-4-2-3-5-19(17)25(31)33-23(14)18)32-13-22(28)27-20(24(29)30)12-15-6-8-16(26)9-7-15/h6-11,20H,2-5,12-13H2,1H3,(H,27,28)(H,29,30)
#inchikey GLDJVJZHWUUVDR
#Ion_Source LC-ESI
#Instrument qTof
#Compound_Source NIH Natural Product Library
#PI Dorrestein
#Data_Collector VVP/LMS
#Scan -1
#Precursor_MZ 470.137
#ExactMass 469.129
#Charge 1
#CAS_Number N/A
#Pubmed_ID N/A
#Smiles Cc1c(OCC(=O)NC(Cc2ccc(Cl)cc2)C(=O)O)ccc3c4CCCCc4c(=O)oc13
#INCHI_AUX N/A
#Library_Class 1
#SpectrumID CCMSLIB00000079558
#IonMode Positive
#UpdateWorkflowName UPDATE-SINGLE-ANNOTATED-GOLD
#LibraryQualityString Gold
#TaskID b1d8e8f6646f4e71acdff9ca3d919d08
##Scan# 2379
#SpectrumFile p1-B08_GB8_01_17892.mzXML
#LibraryName NIH_Natural_Products_Library.mgf
#MQScore -1
#Organism NIH_Natural_Products_Library
#TIC_Query 0
#RT_Query -1
#MZErrorPPM -1
#SharedPeaks 0
#MassDiff 0
#LibMZ -1
#SpecMZ 470.137
#SpecCharge 0
#internalFilename spec-00000.mgf

>collision 10
94.995331 152.0
95.014732 144.0
95.080704 36.0
95.129227 176.0
95.291443 144.0
95.379807 64.0
95.407021 132.0
95.436188 128.0
95.449799 184.0
95.478966 188.0
95.656021 148.0
95.743637 156.0
95.757271 136.0
95.819603 152.0
95.975525 152.0
96.078888 192.0
96.190125 108.0
96.281891 184.0
96.430367 192.0
96.522247 232.0
96.608299 156.0
96.64547 120.0
96.858864 156.0
96.884323 200.0
96.909798 144.0
96.961884 220.0
97.037193 116.0
97.149666 228.0
97.229424 168.0
97.268677 252.0
97.410057 180.0
97.427734 120.0
97.474892 48.0
97.525986 184.0
97.594788 176.0
97.653786 152.0
97.933266 156.0
97.970078 192.0
98.104698 196.0
98.167786 180.0
98.236816 168.0
98.342224 172.0
98.4589 116.0
98.538864 44.0
98.653488 224.0
98.667328 64.0
98.691048 148.0
98.704895 156.0
98.762245 168.0
98.787956 140.0
98.801804 72.0
98.837418 100.0
98.930435 180.0
99.01162 160.0
99.082924 112.0
99.114624 120.0
99.306915 132.0
99.596703 116.0
99.669426 132.0
99.711937 48.0
99.761627 132.0
99.876961 208.0
100.075966 64.0
100.165581 156.0
100.275162 116.0
100.338951 136.0
100.37883 92.0
100.430679 160.0
100.586311 48.0
100.689369 208.0
100.712105 204.0
100.75206 136.0
100.776031 144.0
100.935936 108.0
100.957245 164.0
100.997932 176.0
101.023933 176.0
101.071953 96.0
101.135986 124.0
101.154007 160.0
101.204056 160.0
101.236092 160.0
101.278152 128.0
101.464508 184.0
101.488571 192.0
101.508621 168.0
101.530678 232.0
101.556747 112.0
101.659065 128.0
101.677132 144.0
101.74939 200.0
101.950249 176.0
101.974365 60.0
102.051331 168.0
102.103035 100.0
102.173431 172.0
102.223732 160.0
102.284111 148.0
102.461319 140.0
102.531845 152.0
102.547966 108.0
102.574173 168.0
102.678444 184.0
102.723389 152.0
102.771805 132.0
102.809052 140.0
102.872719 212.0
103.020126 156.0
103.054581 1892.0
103.123184 256.0
103.234375 136.0
103.264709 168.0
103.301117 188.0
103.341576 60.0
103.430618 280.0
103.444786 112.0
103.491348 60.0
103.597992 128.0
103.683792 80.0
103.736488 188.0
103.77906 188.0
103.811501 48.0
103.839897 172.0
104.004242 148.0
104.055428 356.0
104.083412 208.0
104.245918 100.0
104.424812 136.0
104.441086 164.0
104.475029 192.0
104.518394 208.0
104.535652 160.0
104.642548 64.0
104.750481 152.0
104.772888 152.0
104.809563 124.0
104.866623 148.0
104.882645 144.0
105.036011 160.0
105.073524 184.0
105.111343 136.0
105.156235 96.0
105.172562 100.0
105.276688 72.0
105.419685 172.0
105.632309 152.0
105.652771 144.0
105.679367 140.0
105.781693 172.0
105.798065 200.0
105.818542 176.0
106.080765 168.0
106.127914 144.0
106.199692 180.0
106.281746 180.0
106.400787 112.0
106.429527 124.0
106.528107 124.0
106.978455 112.0
107.003159 96.0
107.049011 284.0
107.233864 112.0
107.273033 120.0
107.393608 204.0
107.526726 128.0
107.553558 116.0
107.594849 104.0
107.656792 100.0
107.702225 160.0
108.022614 88.0
108.110489 212.0
108.146767 96.0
108.275124 92.0
108.409782 156.0
108.453308 208.0
108.654449 128.0
108.679344 128.0
108.754051 136.0
108.80204 136.0
108.826706 136.0
108.858063 196.0
108.901466 136.0
108.940933 124.0
108.963783 112.0
109.040665 156.0
109.064522 176.0
109.215317 128.0
109.383278 172.0
109.509476 144.0
109.571274 156.0
109.637955 56.0
109.740089 148.0
109.754684 212.0
109.788048 184.0
109.946594 124.0
109.988342 172.0
110.136589 112.0
110.266129 120.0
110.370651 84.0
110.391556 140.0
110.573563 124.0
110.975754 264.0
110.992523 124.0
111.382874 92.0
111.399681 128.0
111.490028 204.0
111.532059 184.0
111.580406 140.0
111.688965 328.0
111.744453 132.0
111.797058 164.0
111.822311 212.0
111.841255 144.0
111.948624 236.0
111.984428 216.0
112.100296 136.0
112.249908 156.0
112.317444 188.0
112.396576 152.0
112.659409 208.0
112.779854 148.0
112.828476 168.0
112.885559 160.0
113.013641 220.0
113.029404 204.0
113.193428 228.0
113.234741 192.0
113.342781 220.0
113.359734 124.0
113.588707 112.0
113.671448 120.0
113.743607 220.0
113.762711 200.0
113.777115 168.0
113.864624 168.0
113.909233 160.0
114.017593 132.0
114.050888 208.0
114.084366 144.0
114.138756 60.0
114.191925 100.0
114.208138 192.0
114.364258 172.0
114.415344 140.0
114.624077 140.0
114.734901 160.0
114.839386 216.0
114.864983 140.0
114.999405 176.0
115.014351 264.0
115.031425 104.0
115.055016 872.0
115.104012 28.0
115.144234 192.0
115.236443 48.0
115.522911 176.0
115.55928 108.0
115.805008 192.0
115.903999 188.0
115.942566 140.0
115.978333 64.0
116.035469 328.0
116.061172 792.0
116.114075 220.0
116.16555 180.0
116.456398 120.0
116.474655 148.0
116.627213 160.0
116.676651 156.0
116.788467 148.0
117.001503 152.0
117.03595 176.0
117.068024 2124.0
117.094093 164.0
117.223351 216.0
117.279922 128.0
117.423836 116.0
117.466972 188.0
117.516594 184.0
117.625984 232.0
117.661194 228.0
117.687103 264.0
117.702217 112.0
117.784279 156.0
117.85125 156.0
117.903114 132.0
118.066422 896.0
118.145279 204.0
118.257797 144.0
118.333565 108.0
118.36171 72.0
118.565338 124.0
118.641197 160.0
118.688896 44.0
118.820351 184.0
118.875443 180.0
118.903656 132.0
118.99482 100.0
119.020927 176.0
119.04998 2988.0
119.072632 1544.0
119.346794 216.0
119.366364 92.0
119.55127 180.0
119.583908 184.0
119.65139 132.0
119.782051 216.0
119.821259 104.0
119.862656 184.0
120.002151 108.0
120.017418 52.0
120.050743 492.0
120.067017 204.0
120.137367 180.0
120.229012 168.0
120.375267 160.0
120.412392 32.0
120.450867 204.0
120.473549 140.0
120.663681 160.0
120.681168 232.0
120.703415 116.0
120.834267 212.0
121.066269 840.0
121.169235 160.0
121.254692 156.0
121.329216 236.0
121.379646 92.0
121.397186 280.0
121.511246 156.0
121.640717 68.0
121.658279 128.0
121.715363 112.0
121.873512 52.0
121.943832 184.0
121.987785 216.0
122.068199 204.0
122.212112 56.0
122.366173 36.0
122.442291 120.0
122.501999 136.0
122.509781 172.0
122.674599 176.0
122.791458 180.0
122.809097 172.0
122.833366 68.0
122.848808 52.0
122.941475 128.0
123.04467 1068.0
123.071968 172.0
123.162254 168.0
123.281555 92.0
123.350067 172.0
123.398705 136.0
123.473885 144.0
123.644234 220.0
124.007446 212.0
124.044464 160.0
124.062859 200.0
124.078377 132.0
124.187035 164.0
124.304611 144.0
124.324585 112.0
124.505737 160.0
124.526611 48.0
124.648796 148.0
124.731026 160.0
124.774162 228.0
124.884445 120.0
124.948952 184.0
125.016129 2572.0
125.049088 172.0
125.065262 364.0
125.401566 168.0
125.598389 112.0
125.715439 408.0
125.806274 160.0
125.871689 104.0
125.936455 204.0
126.026138 180.0
126.054863 136.0
126.399216 248.0
126.499931 264.0
126.672356 152.0
126.777657 180.0
126.895393 196.0
126.961479 160.0
126.995911 192.0
127.013756 564.0
127.080368 76.0
127.156189 172.0
127.253181 128.0
127.439598 160.0
127.545219 132.0
127.594673 160.0
127.635147 148.0
127.950134 124.0
128.033447 224.0
128.063202 868.0
128.234955 180.0
128.292557 60.0
128.581268 88.0
128.653503 156.0
128.676071 68.0
128.707687 324.0
128.761887 124.0
128.908234 128.0
128.96225 152.0
129.070435 2780.0
129.128006 60.0
129.182297 148.0
129.610184 184.0
129.644913 176.0
129.680435 168.0
129.725769 176.0
129.909454 160.0
129.958649 104.0
130.018448 216.0
130.066315 7180.0
130.113693 136.0
130.174988 52.0
130.204514 92.0
130.243134 156.0
130.294373 164.0
130.330139 160.0
130.377167 164.0
130.414627 100.0
130.438538 140.0
130.574966 156.0
130.602631 72.0
130.645477 156.0
130.695526 88.0
130.831268 180.0
130.907211 56.0
131.029144 196.0
131.049988 884.0
131.072906 8952.0
131.125916 160.0
131.215652 76.0
131.317429 80.0
131.351639 36.0
131.43605 72.0
131.527328 68.0
131.593536 160.0
131.616364 76.0
131.694397 188.0
131.860794 184.0
131.906509 144.0
131.958466 160.0
131.965088 116.0
132.009399 168.0
132.076599 576.0
132.119186 216.0
132.154663 180.0
132.212997 140.0
132.391556 160.0
132.454391 184.0
132.476303 104.0
132.670166 160.0
132.737579 88.0
132.831604 52.0
133.088638 196.0
133.134567 96.0
133.424072 204.0
133.617249 128.0
133.63797 108.0
133.67984 100.0
133.849716 160.0
133.875046 180.0
134.015564 192.0
134.038605 144.0
134.070862 128.0
134.08699 136.0
134.257599 124.0
134.296799 128.0
134.342926 184.0
134.368301 148.0
134.419067 60.0
134.548325 164.0
134.610657 124.0
134.693802 116.0
134.800079 148.0
134.963348 196.0
135.043152 460.0
135.065948 172.0
135.096024 172.0
135.207077 128.0
135.368149 160.0
135.468719 212.0
135.535904 144.0
135.779297 132.0
135.841644 192.0
135.89064 208.0
135.915619 136.0
136.006683 180.0
136.048462 196.0
136.076324 200.0
136.167862 180.0
136.234238 144.0
136.373657 148.0
136.40155 168.0
136.648056 184.0
136.848206 132.0
136.878479 140.0
136.94136 124.0
137.01384 560.0
137.060577 728.0
137.244293 56.0
137.275543 180.0
137.300262 188.0
137.416901 40.0
137.435562 48.0
137.454819 140.0
137.563919 140.0
137.582596 56.0
137.657303 224.0
137.830154 168.0
137.907288 52.0
138.011078 220.0
138.028183 168.0
138.063919 124.0
138.087311 120.0
138.213623 56.0
138.290863 180.0
138.330643 32.0
138.450058 216.0
138.546082 184.0
138.75798 192.0
138.876602 168.0
138.984512 136.0
139.030899 6268.0
139.092468 68.0
139.26387 196.0
139.315552 40.0
139.50119 56.0
139.522354 176.0
139.628357 48.0
139.790482 76.0
139.839142 212.0
139.870499 164.0
140.03418 772.0
140.127182 64.0
140.221436 100.0
140.440704 208.0
140.459579 148.0
140.56102 108.0
140.608215 104.0
140.638901 76.0
140.709717 160.0
140.730972 132.0
140.806534 208.0
140.969528 28.0
141.027206 1808.0
141.067795 872.0
141.158646 136.0
141.206253 152.0
141.326584 176.0
141.426392 160.0
141.482788 184.0
141.58934 40.0
141.663284 128.0
141.701401 232.0
141.776489 152.0
141.824173 100.0
141.892288 140.0
142.031647 176.0
142.078125 3384.0
142.201004 68.0
142.291199 44.0
142.317322 168.0
142.388565 100.0
142.557236 132.0
142.578613 228.0
142.852051 68.0
142.954346 208.0
143.008575 472.0
143.04866 332.0
143.083847 484.0
143.104874 272.0
143.211472 216.0
143.354416 172.0
143.466431 104.0
143.495041 112.0
143.568954 144.0
143.607117 96.0
143.62619 124.0
143.650055 108.0
143.671524 56.0
143.688217 212.0
143.740707 240.0
143.845993 172.0
143.929276 128.0
144.000916 128.0
144.033737 168.0
144.057587 608.0
144.094086 508.0
144.134705 92.0
144.174271 128.0
144.256592 156.0
144.280487 224.0
144.356995 148.0
144.435928 168.0
144.474197 132.0
144.761414 64.0
145.027344 144.0
145.065201 992.0
145.10405 144.0
145.128021 72.0
145.264725 68.0
145.399078 216.0
145.497498 172.0
145.5215 136.0
145.670395 56.0
145.728424 156.0
145.838593 144.0
145.905899 172.0
146.072372 692.0
146.122345 156.0
146.15123 120.0
146.261917 188.0
146.57019 128.0
146.787125 176.0
146.972855 160.0
147.02594 156.0
147.074554 340.0
147.125412 208.0
147.245636 136.0
147.267365 128.0
147.298767 172.0
147.320511 144.0
147.535583 200.0
147.588776 112.0
147.620209 164.0
147.690338 60.0
147.862122 128.0
147.879059 40.0
148.079391 124.0
148.191452 144.0
148.210831 172.0
148.232635 204.0
148.259293 152.0
148.352234 220.0
148.453232 80.0
148.690964 244.0
148.722519 96.0
148.792923 168.0
148.831757 164.0
148.857208 108.0
148.914337 160.0
148.966232 76.0
149.016357 304.0
149.060516 29172.0
149.112259 112.0
149.137451 48.0
149.201065 60.0
149.264267 36.0
149.447922 72.0
149.480759 276.0
149.523941 156.0
149.629227 132.0
149.6828 44.0
149.826492 140.0
150.021454 160.0
150.062698 2512.0
150.176682 260.0
150.314133 56.0
150.375137 92.0
150.401978 168.0
150.443481 92.0
150.506958 96.0
150.658386 212.0
150.704803 68.0
150.892548 156.0
150.927216 188.0
151.032089 2176.0
151.056992 236.0
151.116226 132.0
151.184067 132.0
151.23056 148.0
151.257492 204.0
151.319092 172.0
151.468079 172.0
152.036819 508.0
152.059967 1112.0
152.294662 72.0
152.331512 76.0
152.50351 196.0
152.606766 164.0
152.631622 180.0
152.746933 40.0
152.835495 144.0
152.969589 156.0
153.025589 524.0
153.070282 176.0
153.106277 152.0
153.282364 116.0
153.752182 148.0
153.786728 160.0
153.924973 196.0
153.969421 216.0
154.001541 84.0
154.042099 6468.0
154.079666 236.0
154.110229 36.0
154.153992 168.0
154.552811 112.0
154.661697 164.0
154.956375 64.0
155.042786 524.0
155.086014 392.0
155.114975 164.0
155.142242 200.0
155.210434 100.0
155.429947 120.0
155.472137 244.0
155.675507 160.0
155.730331 168.0
155.760132 124.0
155.782486 120.0
155.842117 148.0
155.864471 108.0
155.906723 40.0
155.934067 120.0
155.976318 128.0
156.038132 1544.0
156.089233 560.0
156.11882 188.0
156.140411 40.0
156.195908 128.0
156.324493 52.0
156.41658 172.0
156.593369 208.0
156.625748 136.0
156.691925 204.0
156.751083 260.0
157.007065 220.0
157.041245 348.0
157.067947 964.0
157.101715 3012.0
157.156738 280.0
157.446304 156.0
157.518723 224.0
157.631149 88.0
157.656143 192.0
157.686127 120.0
157.826126 112.0
157.908646 68.0
157.957993 152.0
158.073074 476.0
158.107269 284.0
158.13382 228.0
158.196701 164.0
158.231445 84.0
158.266495 152.0
158.375107 172.0
158.455231 212.0
158.514465 136.0
158.54454 136.0
158.597168 196.0
158.634766 132.0
158.830353 120.0
158.895584 152.0
159.016022 156.0
159.04277 220.0
159.080444 1324.0
159.118134 432.0
159.196777 36.0
159.252029 128.0
159.276642 120.0
159.327393 156.0
159.392715 216.0
159.422867 140.0
159.593796 68.0
159.737137 168.0
159.925934 144.0
159.99382 56.0
160.052155 332.0
160.082291 292.0
160.122238 148.0
160.364105 152.0
160.398636 188.0
160.441711 96.0
160.50528 172.0
161.056976 664.0
161.0952 476.0
161.196899 112.0
161.255035 76.0
161.335922 156.0
161.391098 96.0
161.634354 56.0
161.664719 148.0
161.684967 104.0
161.897614 188.0
161.96347 132.0
161.986267 32.0
162.025787 212.0
162.076462 316.0
162.093781 164.0
162.171234 140.0
162.584625 200.0
162.729309 116.0
162.777618 160.0
162.825806 220.0
162.992859 216.0
163.035019 184.0
163.502045 168.0
163.591141 204.0
163.789749 104.0
163.929871 236.0
164.026138 1744.0
164.215408 88.0
164.373566 132.0
164.631393 152.0
164.845978 84.0
164.866425 208.0
164.968658 68.0
165.009033 456.0
165.034821 432.0
165.069717 516.0
165.096497 156.0
165.114395 60.0
165.165543 176.0
165.237167 144.0
165.270432 72.0
165.308823 68.0
165.457275 164.0
165.54689 248.0
165.567368 152.0
165.649338 176.0
165.715942 100.0
165.774872 168.0
165.813309 80.0
165.946609 212.0
165.967117 116.0
166.04245 29144.0
166.154343 112.0
166.216019 212.0
166.23645 56.0
166.277847 76.0
166.29805 76.0
166.315948 136.0
166.358276 88.0
166.380249 112.0
166.458496 20.0
166.482895 120.0
166.585632 120.0
166.685822 152.0
166.739792 60.0
166.839142 176.0
166.930023 52.0
166.953171 108.0
166.984024 68.0
167.014572 272.0
167.044464 3016.0
167.084122 1012.0
167.17955 68.0
167.213272 188.0
167.267059 72.0
167.302811 72.0
167.331406 96.0
167.362152 148.0
167.391266 196.0
167.418961 128.0
167.444717 72.0
167.594116 212.0
167.661118 64.0
167.694626 168.0
167.743591 144.0
167.800308 44.0
167.826096 48.0
167.882812 112.0
167.906525 144.0
167.933975 204.0
167.970505 224.0
167.996307 176.0
168.03949 10248.0
168.086609 108.0
168.125305 236.0
168.220627 116.0
168.297806 92.0
168.378311 76.0
168.40538 108.0
168.422211 136.0
168.528137 188.0
168.608231 156.0
168.626328 84.0
168.649597 212.0
168.670273 128.0
168.701294 48.0
168.92627 68.0
168.977997 60.0
169.043198 804.0
169.070221 532.0
169.103241 272.0
169.195389 112.0
169.366623 160.0
169.516571 36.0
169.743927 180.0
169.822479 40.0
169.853607 64.0
170.048203 156.0
170.074539 596.0
170.12088 80.0
170.29744 128.0
170.409149 112.0
170.552078 72.0
170.648254 76.0
170.666458 72.0
170.687256 56.0
170.923965 84.0
170.968201 112.0
171.076111 600.0
171.124374 192.0
171.384827 168.0
171.507309 204.0
171.614197 60.0
171.653305 128.0
171.752411 172.0
171.942871 80.0
172.055115 208.0
172.088226 1324.0
172.133987 132.0
172.316269 48.0
172.669159 56.0
172.773788 96.0
172.886292 180.0
173.057861 376.0
173.091446 476.0
173.187363 120.0
173.224045 164.0
173.26857 128.0
173.638168 224.0
173.840164 92.0
173.858536 96.0
173.911026 84.0
174.037033 112.0
174.066666 1664.0
174.093658 184.0
174.170959 112.0
174.336487 84.0
174.381165 36.0
174.866898 168.0
175.072998 560.0
175.111618 1208.0
175.162109 104.0
175.166168 160.0
175.236374 204.0
175.299622 212.0
175.341782 164.0
175.46254 228.0
175.724121 200.0
176.019043 120.0
176.078613 96.0
176.27861 68.0
176.310318 68.0
176.372437 40.0
176.537674 124.0
176.741348 148.0
176.795792 112.0
176.976913 192.0
177.05513 260.0
177.078659 180.0
177.170258 148.0
177.209991 72.0
177.345139 128.0
177.363693 176.0
177.456482 168.0
177.6315 68.0
177.65007 120.0
178.016342 68.0
178.044708 120.0
178.109299 256.0
178.319199 168.0
178.398941 68.0
178.425522 116.0
178.64093 136.0
178.779282 176.0
179.02951 220.0
179.085297 148.0
179.189331 52.0
179.207977 136.0
179.335892 156.0
179.367874 128.0
179.535843 108.0
179.711899 88.0
179.746582 76.0
180.037552 132.0
180.296677 80.0
180.336777 92.0
180.636246 108.0
180.87706 80.0
181.005035 564.0
181.032349 164.0
181.099304 100.0
181.761459 144.0
181.863434 160.0
182.013107 804.0
182.077484 136.0
182.516235 136.0
182.575394 124.0
182.787918 40.0
182.833664 148.0
183.018585 160.0
183.049011 40.0
183.082108 560.0
183.167511 184.0
183.245636 68.0
183.269882 184.0
183.350723 148.0
183.474716 164.0
183.787567 228.0
183.84964 188.0
184.013351 284.0
184.054138 1380.0
184.088364 116.0
184.35463 84.0
184.438416 196.0
184.487061 80.0
184.505981 140.0
184.64119 84.0
184.716919 152.0
184.737991 96.0
184.762909 152.0
184.917145 136.0
184.949615 140.0
184.976807 208.0
185.011871 224.0
185.056213 392.0
185.096497 15264.0
185.144974 128.0
185.2556 136.0
185.289902 132.0
185.315201 36.0
185.347717 52.0
185.426697 84.0
185.475311 144.0
185.51033 192.0
185.534729 52.0
185.556412 68.0
185.598938 76.0
185.606018 108.0
185.651321 40.0
185.727249 64.0
185.773361 48.0
185.795074 184.0
185.846619 76.0
185.873749 68.0
185.892746 56.0
186.048004 416.0
186.100922 1904.0
186.153336 144.0
186.194077 104.0
186.278275 136.0
186.332611 80.0
186.384232 128.0
186.476624 84.0
186.506516 160.0
186.577194 96.0
186.683243 220.0
186.740356 152.0
186.7621 48.0
186.876358 248.0
186.919891 192.0
186.955276 184.0
187.023315 128.0
187.075348 1204.0
187.110641 2568.0
187.156708 48.0
187.257462 104.0
187.287415 64.0
187.454971 40.0
187.502655 124.0
187.52446 136.0
187.788925 116.0
188.002609 232.0
188.080353 252.0
188.11348 168.0
188.173691 136.0
188.239212 92.0
188.709183 104.0
188.74472 176.0
188.854111 52.0
189.01825 188.0
189.054321 568.0
189.085205 308.0
189.642654 56.0
189.678284 96.0
189.988144 128.0
190.053268 336.0
190.092407 160.0
190.30925 48.0
190.614136 116.0
190.729568 84.0
190.86702 152.0
190.930267 156.0
190.949524 148.0
191.032028 208.0
191.062302 72.0
191.260422 100.0
191.424713 184.0
191.5578 176.0
191.589523 156.0
191.775482 232.0
191.797531 168.0
191.998795 96.0
192.258118 152.0
192.313324 80.0
192.563522 132.0
192.796341 152.0
192.915482 192.0
192.995651 224.0
193.252884 60.0
193.524124 52.0
193.618271 104.0
193.676422 232.0
193.956284 152.0
194.00618 208.0
194.030609 128.0
194.083801 212.0
194.47496 100.0
194.769272 196.0
195.044861 1344.0
195.082397 232.0
195.241745 108.0
195.787201 164.0
196.039642 272.0
196.10202 192.0
196.135468 204.0
196.358521 48.0
196.386414 32.0
196.620758 128.0
196.726822 164.0
196.989319 200.0
197.048294 108.0
197.096085 232.0
197.33934 160.0
197.4505 228.0
197.607147 160.0
197.783447 184.0
197.954224 128.0
198.048004 360.0
198.097366 208.0
198.612823 148.0
198.842896 80.0
199.078278 132.0
199.393356 152.0
199.694168 300.0
199.913605 160.0
200.009308 120.0
200.049698 356.0
200.080856 912.0
200.200745 200.0
200.251434 124.0
200.837692 120.0
201.051849 300.0
201.090805 1568.0
201.405014 136.0
201.436096 92.0
201.506714 84.0
201.59996 240.0
201.650833 56.0
201.761063 68.0
201.90979 148.0
201.984467 100.0
202.062988 1000.0
202.098343 1312.0
202.14856 216.0
202.185349 88.0
202.366501 56.0
202.400482 100.0
202.62706 48.0
202.748901 136.0
202.845276 164.0
202.907639 248.0
202.972855 168.0
202.998367 156.0
203.068665 612.0
203.107498 2476.0
203.168549 208.0
203.192886 76.0
203.21962 36.0
203.364334 100.0
203.631226 56.0
203.890747 168.0
203.919922 52.0
204.108963 488.0
204.33902 48.0
204.444305 100.0
204.549606 228.0
204.580917 120.0
204.800171 88.0
204.825806 148.0
205.021347 96.0
205.110748 88.0
205.213379 88.0
205.310333 104.0
205.395889 216.0
205.441528 52.0
205.752594 156.0
206.049606 116.0
206.092468 164.0
206.292511 92.0
206.406876 156.0
206.604218 64.0
206.753006 108.0
207.182495 40.0
207.979675 160.0
208.249557 96.0
208.286896 208.0
208.689224 208.0
208.766861 116.0
208.930817 192.0
209.659286 220.0
209.950455 168.0
210.345718 128.0
210.885849 104.0
210.930054 136.0
211.084137 156.0
211.394836 60.0
211.571396 156.0
211.820435 112.0
211.86969 160.0
212.047836 780.0
212.080948 308.0
212.240662 108.0
212.998108 272.0
213.04364 316.0
213.091812 1136.0
213.370071 120.0
213.457291 204.0
213.602707 48.0
214.04422 592.0
214.094498 984.0
214.327621 92.0
214.502487 172.0
214.587021 100.0
214.689072 152.0
214.901062 124.0
214.936752 216.0
214.961456 208.0
214.982941 144.0
215.013138 100.0
215.069885 4136.0
215.107391 44160.0
215.155319 96.0
215.202148 252.0
215.26059 52.0
215.282852 76.0
215.345505 128.0
215.35376 48.0
215.361862 76.0
215.452972 140.0
215.474243 44.0
215.502274 64.0
215.588638 136.0
215.634964 108.0
215.658783 80.0
215.677032 152.0
215.743118 80.0
215.830826 84.0
215.889313 76.0
215.909775 68.0
215.930252 40.0
215.950729 36.0
216.005325 36.0
216.032623 48.0
216.070511 576.0
216.109955 6176.0
216.186752 76.0
216.246216 52.0
216.272568 116.0
216.37912 60.0
216.485214 56.0
216.528961 56.0
216.577072 52.0
216.697174 44.0
216.805588 44.0
216.908173 52.0
217.081635 168.0
217.112656 652.0
217.170593 76.0
217.198471 160.0
217.292343 80.0
217.336197 164.0
217.421066 92.0
217.456665 40.0
217.518295 92.0
217.549362 144.0
217.58876 156.0
217.621048 108.0
217.68309 124.0
217.719803 152.0
217.761307 136.0
217.82785 148.0
217.897125 60.0
217.964706 60.0
218.091064 148.0
218.16951 64.0
218.186996 120.0
218.405685 52.0
218.526291 172.0
218.73909 44.0
218.788223 144.0
218.808014 116.0
218.882431 80.0
219.321396 120.0
219.386246 48.0
219.533661 52.0
219.807999 76.0
219.926041 48.0
220.454681 128.0
220.611328 140.0
221.123047 128.0
221.188156 124.0
221.223679 132.0
221.291779 112.0
222.219437 208.0
222.795395 128.0
222.935043 96.0
222.967728 60.0
223.036087 136.0
223.059875 192.0
223.315582 164.0
223.607452 192.0
223.830414 56.0
223.943573 192.0
224.044846 132.0
224.095505 176.0
224.162384 160.0
224.310074 128.0
225.08432 200.0
225.112625 200.0
225.208191 40.0
225.468124 128.0
225.790985 108.0
225.862778 208.0
226.099136 144.0
226.129059 116.0
226.248795 128.0
226.340988 196.0
226.802963 80.0
227.074326 108.0
227.219788 44.0
227.513885 112.0
227.573929 148.0
227.772141 180.0
227.97644 120.0
228.042557 80.0
228.077499 160.0
228.10347 120.0
228.583862 84.0
228.701233 176.0
229.013504 188.0
229.044495 184.0
229.085007 4244.0
229.117767 160.0
229.148193 208.0
229.177048 108.0
229.240326 92.0
229.282516 28.0
229.338684 176.0
229.400055 168.0
229.517639 52.0
229.538742 40.0
229.864517 100.0
229.964111 128.0
229.988251 72.0
230.030304 180.0
230.093399 14276.0
230.129776 176.0
230.184479 56.0
230.222107 148.0
230.300537 84.0
230.32869 96.0
230.365189 96.0
230.410614 60.0
230.470535 80.0
230.492584 132.0
230.540939 40.0
230.577194 80.0
230.598358 40.0
230.643692 36.0
230.788803 148.0
230.859421 132.0
230.897659 112.0
230.92186 184.0
230.967224 112.0
231.037628 160.0
231.101593 28616.0
231.206238 32.0
231.250122 88.0
231.294022 96.0
231.332001 44.0
231.360443 148.0
231.368225 140.0
231.445389 52.0
231.47821 108.0
231.542084 152.0
231.592392 24.0
231.614975 112.0
231.707047 132.0
231.739288 72.0
231.869476 108.0
231.908875 36.0
231.949677 104.0
232.014969 68.0
232.066147 100.0
232.10466 3636.0
232.169601 40.0
232.196899 48.0
232.244919 88.0
232.262207 208.0
232.307037 112.0
232.326126 172.0
232.421387 68.0
232.454758 104.0
232.538406 128.0
232.644821 116.0
232.689957 156.0
232.727936 60.0
232.775146 48.0
232.837265 156.0
232.86763 52.0
232.951843 116.0
233.049896 88.0
233.103256 616.0
233.220078 84.0
233.250473 72.0
233.323425 144.0
233.362946 44.0
233.730972 124.0
233.810104 72.0
233.84053 96.0
233.886185 84.0
233.950104 36.0
233.992737 100.0
234.037704 176.0
234.141937 116.0
234.321655 116.0
234.455719 76.0
234.480103 84.0
234.586777 80.0
234.69043 60.0
234.757523 48.0
234.791061 68.0
234.913071 76.0
236.220474 92.0
237.292313 96.0
237.359772 64.0
237.813797 124.0
238.923096 156.0
239.067703 100.0
239.89621 144.0
240.050369 216.0
240.562531 96.0
241.047424 64.0
241.095108 220.0
241.192673 80.0
241.569916 56.0
241.693665 80.0
241.758652 140.0
241.839111 64.0
242.08989 48.0
242.111557 228.0
242.142532 184.0
242.216873 180.0
242.272629 112.0
242.297409 144.0
242.371918 164.0
242.607315 120.0
242.650711 72.0
242.681717 60.0
242.71582 96.0
242.787155 128.0
242.82428 156.0
242.873535 328.0
242.895706 124.0
242.977768 220.0
243.035309 176.0
243.10231 36912.0
243.174942 80.0
243.214172 148.0
243.245651 72.0
243.30423 88.0
243.341019 168.0
243.374969 120.0
243.401566 92.0
243.463013 76.0
243.538208 36.0
243.582367 116.0
243.668671 60.0
243.691666 100.0
243.752563 80.0
243.855118 56.0
243.903244 140.0
243.953781 80.0
244.02298 28.0
244.067444 200.0
244.106277 6872.0
244.268661 40.0
244.333984 64.0
244.39621 48.0
244.548691 76.0
244.586044 76.0
244.67009 64.0
244.724335 76.0
244.765671 120.0
244.84758 108.0
244.875595 72.0
244.934784 48.0
244.971207 52.0
245.028229 68.0
245.111298 744.0
245.187149 64.0
245.237015 40.0
245.308701 84.0
245.346115 44.0
245.408463 64.0
245.455231 88.0
245.558151 48.0
245.726593 80.0
245.756683 68.0
245.81395 236.0
245.926422 104.0
245.958771 60.0
245.982483 124.0
246.007462 84.0
246.091095 456.0
246.194794 32.0
246.235397 76.0
246.622818 80.0
246.757233 48.0
246.829147 84.0
246.882309 76.0
246.907318 108.0
247.063721 196.0
247.088745 200.0
247.295273 60.0
247.689789 104.0
247.99057 56.0
248.435837 88.0
248.75592 100.0
249.484711 52.0
250.120132 204.0
250.151611 20.0
250.198822 92.0
251.273499 164.0
251.829071 240.0
252.151321 120.0
253.676941 84.0
254.098709 116.0
254.41925 64.0
254.670105 120.0
254.76857 136.0
255.102814 180.0
256.104553 96.0
258.111908 196.0
258.883087 80.0
259.0336 80.0
259.131836 60.0
261.115234 120.0
261.448059 60.0
262.082672 148.0
262.117859 84.0
263.233948 108.0
263.34375 60.0
266.814178 196.0
268.096619 160.0
269.097992 108.0
269.810211 84.0
270.106171 120.0
270.497192 48.0
271.037567 132.0
271.095978 1328.0
271.286652 100.0
272.097809 140.0
272.136353 184.0
273.102478 176.0
274.103271 88.0
276.100433 132.0
277.153076 44.0
277.792938 192.0
281.961609 52.0
285.101746 120.0
287.347656 52.0
287.418518 20.0
288.12262 692.0
288.282959 116.0
289.10672 1076.0
290.106934 232.0
291.376465 96.0
292.34552 92.0
295.096771 164.0
295.255463 120.0
297.070801 172.0
300.055817 100.0
305.305084 88.0
305.70166 76.0
306.126343 56.0
306.945221 28.0
309.096924 36.0
310.126526 144.0
312.074829 124.0
316.913788 88.0
319.996674 88.0
321.11557 96.0
322.029236 56.0
322.075684 92.0
326.365356 112.0
328.38916 168.0
328.598389 56.0
330.263702 68.0
330.661682 92.0
332.147186 76.0
333.036438 80.0
333.13089 128.0
333.196289 48.0
334.767578 104.0
337.098541 180.0
337.939545 60.0
339.113831 220.0
341.100739 124.0
341.630249 92.0
342.620544 80.0
346.784973 80.0
348.3508 72.0
348.480835 80.0
349.110046 216.0
350.877625 148.0
352.064178 144.0
354.10611 80.0
355.557007 136.0
358.053284 144.0
358.132385 120.0
361.598328 60.0
362.283691 116.0
365.083649 264.0
365.14563 172.0
365.970398 124.0
366.112274 112.0
366.53891 64.0
366.710419 72.0
367.112396 624.0
368.102661 152.0
368.225067 100.0
369.105865 364.0
370.18689 68.0
370.635071 76.0
371.43631 160.0
371.527466 204.0
371.662659 124.0
372.119385 36.0
372.215393 36.0
373.137512 128.0
373.487427 124.0
374.503571 108.0
374.565186 148.0
375.883698 44.0
378.039917 52.0
378.763916 96.0
379.11261 100.0
381.107086 116.0
382.553833 56.0
383.99939 92.0
390.386841 36.0
393.693085 60.0
396.121521 132.0
398.136383 128.0
401.507141 80.0
403.223816 60.0
406.12439 136.0
407.013428 68.0
407.109772 248.0
408.129547 164.0
411.470459 48.0
411.835724 44.0
413.294983 84.0
418.272797 56.0
418.981354 64.0
422.737701 120.0
422.913696 88.0
423.523743 32.0
423.851501 128.0
423.900665 40.0
424.130737 1352.0
424.396637 60.0
424.987244 80.0
425.130554 888.0
425.208832 68.0
425.360718 48.0
425.471558 60.0
425.717896 28.0
425.820557 44.0
425.931458 104.0
426.127228 552.0
426.661255 196.0
426.856171 72.0
427.130249 124.0
427.308594 48.0
427.481415 40.0
427.740692 44.0
428.078308 32.0
429.458893 52.0
430.007629 76.0
430.507172 116.0
435.11145 132.0
440.316406 44.0
452.147003 168.0
453.112427 144.0
462.840424 140.0
465.013824 124.0
469.291168 144.0
469.66922 136.0
470.138123 1060.0
470.342316 184.0
470.450226 56.0
470.894989 172.0
471.133636 520.0
471.971008 68.0
472.125031 416.0
472.338593 52.0
472.416473 32.0
473.117523 120.0
473.178131 144.0
473.225739 140.0
479.292786 24.0
485.334137 68.0
495.147797 116.0
504.78241 72.0
505.838287 20.0
510.337952 48.0
518.42688 76.0
522.895569 76.0
539.079834 28.0
540.846497 80.0
541.758728 88.0
546.0755 100.0
546.889709 56.0
558.7052 60.0
570.821777 92.0
571.702881 60.0
579.989197 64.0
580.530945 60.0
585.028076 116.0
596.43927 84.0
603.772095 92.0
612.848389 84.0
613.627136 60.0
615.946472 108.0
622.185974 96.0
626.407959 80.0
630.76416 48.0
639.949707 32.0
657.764404 116.0
674.685791 28.0
674.86676 64.0
680.207947 96.0
683.85675 152.0
690.83313 108.0
691.953003 32.0
701.345581 132.0
723.373962 160.0
731.054321 164.0
734.162598 120.0
741.30365 68.0
744.797546 92.0
748.974854 32.0
753.382385 36.0
757.852173 88.0
765.228333 64.0
774.118103 80.0
775.037598 80.0
788.068481 100.0
801.748901 196.0
812.492065 108.0
820.653381 92.0
821.337708 84.0
826.622314 172.0
828.190918 72.0
844.450623 116.0
850.749084 96.0
851.974426 80.0
856.540833 68.0
863.392883 228.0
871.305847 84.0
887.643311 112.0
890.592834 52.0
891.709778 60.0
903.091553 144.0
909.274536 64.0
920.393066 152.0
929.46637 136.0
941.128601 120.0
946.809326 76.0
958.511658 36.0
963.44751 180.0
966.792542 152.0
970.32312 92.0
970.558716 96.0
971.284302 136.0
972.686646 156.0
980.766541 128.0
986.64679 156.0
988.85553 188.0
989.606018 156.0
1006.14093 108.0
1016.59082 192.0
1016.819275 148.0
1019.403931 140.0
1030.446045 176.0
1031.366333 240.0
1040.359741 132.0
1045.463135 156.0
1045.559692 232.0
1046.6604 136.0
1049.166748 216.0
1052.231079 48.0
1060.36853 140.0
1063.897095 160.0
1079.351196 148.0
1083.559692 176.0
1083.644897 164.0
1086.254028 180.0
1095.199951 72.0
1097.156982 216.0
1097.209717 176.0
1099.082886 140.0
1100.904785 184.0
1101.518921 204.0
1106.511841 168.0
1106.94873 184.0
1110.898926 148.0
1113.235107 148.0
1115.646973 260.0
1119.086548 244.0
1120.638306 140.0
1120.918213 52.0
1123.565186 128.0
1124.425903 116.0
1127.979248 252.0
1129.209473 216.0
1129.617432 204.0
1132.549316 136.0
1132.756958 164.0
1134.666748 96.0
1136.296509 176.0
1136.819824 188.0
1139.142944 216.0
1140.231323 76.0
1140.345581 236.0
1143.028809 160.0
1144.657837 136.0
1148.553101 148.0
1149.369507 124.0
1150.408813 132.0
1154.307129 32.0
1159.759521 52.0
1159.878906 176.0
1160.281006 180.0
1162.625732 140.0
1163.175537 120.0
1164.139648 236.0
1171.335205 176.0
1173.154663 124.0
1174.006958 120.0
1180.077148 164.0
1187.24646 72.0
1188.625244 80.0
1189.661621 128.0
1190.842651 168.0
1191.378418 208.0
1195.46936 156.0
1196.219482 172.0
1197.286743 164.0
1197.989258 140.0
1198.890625 160.0
1198.911255 132.0
1200.608398 124.0
1204.784302 128.0
1206.187012 136.0
1206.574219 164.0
1207.058105 84.0
1207.943359 236.0
1210.109497 132.0
1213.74707 148.0
1214.724854 124.0
1216.438843 180.0
1216.973389 176.0
1219.147583 136.0
1224.978027 276.0
1228.763428 64.0
1229.949707 152.0
1231.416016 192.0
1232.876099 36.0
1233.561035 168.0
1238.928345 156.0
1240.264526 160.0
1241.935547 204.0
1242.05481 176.0
1244.349487 180.0
1248.016968 128.0
1248.192749 148.0
1251.014038 156.0
1251.513916 120.0
1252.056152 196.0
1260.52124 88.0
1261.263306 164.0
1262.804688 148.0
1263.950684 212.0
1265.755737 212.0
1265.953979 132.0
1267.299805 156.0
1268.398315 52.0
1270.681763 148.0
1272.306885 172.0
1272.470215 60.0
1272.953003 80.0
1273.187378 184.0
1274.323853 172.0
1275.311646 36.0
1275.595947 192.0
1275.823364 192.0
1275.901611 180.0
1277.437622 176.0
1277.900024 132.0
1278.355469 164.0
1278.732666 48.0
1283.034912 92.0
1283.526855 164.0
1283.826416 164.0
1284.553833 176.0
1285.260132 168.0
1287.430176 176.0
1287.487305 96.0
1292.491211 176.0
1295.705811 140.0
1305.812622 220.0
1306.20105 92.0
1308.906982 164.0
1309.159058 196.0
1310.585327 60.0
1312.509766 212.0
1313.216553 140.0
1316.760132 132.0
1318.233887 180.0
1321.19104 148.0
1322.551514 148.0
1323.087158 152.0
1323.333252 64.0
1324.419556 148.0
1324.629517 180.0
1325.064209 48.0
1325.238159 136.0
1327.840454 168.0
1328.471558 52.0
1328.88501 48.0
1331.127808 88.0
1332.064697 136.0
1333.815918 140.0
1334.411987 160.0
1334.651978 156.0
1335.066406 152.0
1335.29187 60.0
1338.304565 212.0
1339.578979 188.0
1340.934204 96.0
1342.749634 80.0
1343.748901 100.0
1345.004028 160.0
1345.814453 180.0
1348.824219 184.0
1349.950195 168.0
1350.688843 180.0
1351.486206 216.0
1352.91333 236.0
1354.941895 148.0
1355.923828 112.0
1361.007446 104.0
1362.197144 168.0
1363.064087 52.0
1363.549072 48.0
1363.754883 112.0
1366.549194 164.0
1368.124146 192.0
1370.399902 104.0
1370.849365 168.0
1371.918091 148.0
1373.068237 132.0
1374.071411 140.0
1374.551025 152.0
1374.97168 96.0
1376.204468 176.0
1377.518921 168.0
1378.449829 56.0
1378.612427 132.0
1379.78772 164.0
1382.146973 208.0
1386.819946 164.0
1387.071899 132.0
1387.620483 208.0
1387.886963 220.0
1391.233398 160.0
1393.030518 92.0
1394.538818 160.0
1394.59082 200.0
1395.408569 140.0
1395.966187 80.0
1397.498535 132.0
1398.510498 220.0
1400.6698 212.0
1403.539062 220.0
1406.329102 132.0
1406.515747 100.0
1406.799316 192.0
1408.083618 136.0
1408.636353 92.0
1409.077026 132.0
1409.488037 128.0
1410.452026 224.0
1411.065063 52.0
1411.446411 208.0
1413.361206 128.0
1414.42395 156.0
1415.030273 236.0
1415.599365 216.0
1415.749146 148.0
1416.498047 72.0
1418.476318 196.0
1419.960815 100.0
1421.453735 228.0
1422.158081 144.0
1422.316772 124.0
1423.27771 160.0
1424.006104 124.0
1424.524414 64.0
1424.809814 204.0
1424.982666 176.0
1425.177979 132.0
1425.779175 172.0
1427.583374 136.0
1428.531006 44.0
1428.628784 76.0
1429.366089 76.0
1429.765015 184.0
1430.336914 108.0
1430.434204 236.0
1431.714722 140.0
1432.321533 148.0
1432.980225 156.0
1433.500122 180.0
1433.590576 132.0
1434.593018 136.0
1436.674316 68.0
1437.406128 212.0
1438.032471 224.0
1438.87793 140.0
1439.610352 148.0
1440.101196 160.0
1441.241577 204.0
1441.536621 180.0
1442.957642 180.0
1444.054077 136.0
1444.212891 160.0
1445.014771 44.0
1445.173584 148.0
1445.415771 128.0
1446.255737 232.0
1447.414062 148.0
1447.550293 124.0
1447.81543 52.0
1450.69458 96.0
1450.997803 60.0
1452.491699 224.0
1452.590332 112.0
1453.318604 172.0
1453.531006 208.0
1454.145752 208.0
1454.593628 156.0
1456.719727 124.0
1456.909668 96.0
1457.487061 140.0
1458.824707 204.0
1459.706543 136.0
1460.261719 148.0
1460.824585 124.0
1461.524536 208.0
1467.450195 188.0
1468.769409 148.0
1469.173706 224.0
1469.63916 124.0
1470.730347 224.0
1470.997559 192.0
1471.127319 188.0
1472.074097 144.0
1472.432983 108.0
1472.715576 176.0
1472.998169 60.0
1473.456543 188.0
1474.060059 64.0
1475.030762 68.0
1475.257568 160.0
1475.603394 148.0
1476.406982 192.0
1477.049438 144.0
1477.164185 176.0
1477.722534 116.0
1478.089844 144.0
1478.20459 148.0
1478.426514 120.0
1478.671387 268.0
1478.893433 44.0
1479.153687 112.0
1479.314331 216.0
1480.761475 180.0
1481.328369 176.0
1481.680664 144.0
1482.546509 44.0
1482.630859 92.0
1482.937378 112.0
1486.703003 220.0
1488.568359 164.0
1489.090576 124.0
1489.197998 152.0
1491.572266 108.0
1492.863892 208.0
1493.256104 180.0
1493.609863 116.0
1493.909912 164.0
1494.656128 212.0
1495.61499 216.0
1496.357178 216.0
1496.973145 152.0
1497.550781 168.0
1499.754272 180.0
1499.823608 136.0
1501.73584 200.0
1502.784912 196.0
