>compound MLS001074886-01!BIO
>formula C16H10BrN3O2
>ionization [M+H]+
>parentmass 356.0029151120905
#inchi InChI=1S/C16H10BrN3O2/c17-8-5-6-9-12(7-8)19-16(21)13(9)15-14(20-22)10-3-1-2-4-11(10)18-15/h1-7,19,21-22H
#inchikey JBFAMTBDRIBCKO
#Ion_Source LC-ESI
#Instrument qTof
#Compound_Source NIH Pharmacologically Active Library
#PI Dorrestein
#Data_Collector VP/LMS
#Scan -1
#Precursor_MZ 356.005
#ExactMass 354.996
#Charge 1
#CAS_Number N/A
#Pubmed_ID N/A
#Smiles ON=C1C(=Nc2ccccc12)c3c(O)[nH]c4cc(Br)ccc34
#INCHI_AUX N/A
#Library_Class 1
#SpectrumID CCMSLIB00000084934
#IonMode Positive
#UpdateWorkflowName UPDATE-SINGLE-ANNOTATED-GOLD
#LibraryQualityString Gold
#TaskID d252d724072548979f1f6f1ced849daf
##Scan# 2323
#SpectrumFile p3-C09_GC9_01_18254.mzXML
#LibraryName Pharm_Active_Library.mgf
#MQScore -1
#Organism Pharm_Active_Library
#TIC_Query 0
#RT_Query -1
#MZErrorPPM -1
#SharedPeaks 0
#MassDiff 0
#LibMZ -1
#SpecMZ 356.005
#SpecCharge 0
#internalFilename spec-00000.mgf

>collision 10
45.680386 160.0
45.727482 140.0
45.948483 156.0
46.128098 156.0
46.449039 192.0
46.978222 176.0
49.097038 192.0
50.310818 172.0
50.701221 164.0
51.261154 144.0
51.954632 112.0
52.956501 96.0
53.037643 144.0
53.12175 144.0
53.149315 128.0
53.313412 160.0
53.834961 120.0
54.224125 92.0
54.294498 180.0
54.347309 88.0
54.725063 276.0
54.940243 48.0
55.121857 184.0
55.139591 240.0
55.423725 144.0
55.557167 168.0
55.650669 148.0
56.554096 160.0
56.810341 188.0
57.008541 40.0
57.342651 52.0
57.828999 56.0
58.112385 156.0
58.300682 208.0
58.606548 156.0
59.605762 104.0
59.66571 132.0
62.005108 164.0
63.439529 132.0
63.85556 148.0
64.009933 164.0
64.831047 100.0
65.054001 80.0
66.202026 160.0
67.25885 264.0
67.340492 200.0
67.57283 160.0
67.60862 220.0
67.764183 184.0
67.934692 212.0
68.52655 124.0
68.790428 132.0
69.336273 264.0
69.528656 80.0
69.543594 200.0
69.671455 88.0
69.703026 176.0
69.811081 188.0
69.965828 172.0
70.359283 180.0
70.545662 208.0
70.829193 116.0
70.88784 168.0
71.01693 176.0
71.037056 124.0
71.497452 200.0
71.780464 112.0
72.265251 112.0
73.006538 124.0
73.500549 132.0
73.884987 108.0
73.982536 204.0
74.177834 164.0
75.232368 196.0
75.52095 132.0
75.72187 140.0
75.787552 128.0
76.76796 80.0
76.909279 160.0
77.67746 136.0
78.116623 68.0
79.290833 132.0
79.667007 128.0
79.946167 120.0
81.607979 204.0
82.072533 184.0
82.980194 164.0
83.865517 180.0
83.974915 208.0
84.513824 144.0
84.872841 156.0
85.109543 164.0
85.335541 168.0
85.572891 128.0
85.959976 192.0
86.610764 144.0
87.585953 200.0
88.216682 144.0
88.694023 132.0
89.257256 148.0
89.503548 180.0
90.107323 176.0
90.944344 188.0
91.451836 104.0
91.470871 112.0
92.530403 148.0
92.618492 56.0
92.907959 136.0
93.001984 72.0
93.301659 188.0
93.393959 116.0
93.780983 112.0
94.045227 140.0
94.78981 132.0
94.964294 160.0
95.750237 200.0
96.352249 232.0
96.426498 172.0
97.190247 148.0
97.331573 84.0
97.447456 196.0
97.52607 136.0
97.699112 144.0
97.980637 36.0
98.65361 48.0
98.887024 164.0
99.041458 164.0
99.081078 164.0
99.17025 124.0
99.374512 140.0
99.912926 140.0
100.231499 72.0
101.336456 160.0
101.98867 196.0
102.679276 104.0
102.729698 164.0
102.846741 144.0
103.040146 192.0
103.479492 172.0
103.601006 176.0
103.639503 144.0
104.051231 164.0
104.400726 120.0
105.336266 124.0
105.618355 160.0
107.640694 160.0
107.927917 240.0
107.965141 124.0
108.706787 88.0
108.818871 124.0
108.947639 128.0
109.211632 136.0
109.269882 112.0
109.475952 152.0
109.615524 100.0
109.68222 168.0
109.711403 180.0
111.060181 236.0
111.911293 184.0
112.071373 120.0
112.126167 196.0
112.36866 108.0
112.844238 188.0
112.955963 168.0
113.438774 148.0
114.209587 140.0
114.311707 92.0
114.921127 192.0
115.369629 100.0
116.50116 72.0
116.608597 64.0
116.860199 212.0
116.929062 104.0
117.351273 220.0
117.590721 132.0
117.6231 136.0
118.470795 204.0
118.882759 124.0
118.90229 100.0
119.885292 88.0
120.677666 64.0
120.73452 168.0
120.940178 192.0
121.022186 132.0
121.135063 208.0
121.529694 172.0
122.320869 156.0
123.039536 180.0
123.452728 172.0
123.60537 76.0
123.780243 168.0
123.94194 68.0
124.117058 216.0
124.156967 168.0
124.509842 108.0
125.217087 132.0
125.524628 172.0
126.512184 120.0
126.772003 100.0
127.326126 84.0
127.382278 272.0
129.047745 196.0
129.319214 144.0
129.468643 220.0
129.586426 180.0
130.035431 204.0
130.899323 152.0
130.958527 148.0
131.031418 140.0
131.053833 192.0
131.457809 172.0
131.613037 236.0
132.221115 116.0
132.878754 36.0
133.064667 132.0
133.906296 208.0
134.000748 176.0
134.085999 60.0
134.307343 148.0
134.360397 128.0
136.600601 124.0
136.75882 156.0
137.047592 164.0
137.76384 128.0
137.836273 168.0
138.077057 164.0
138.105652 224.0
138.320404 100.0
138.47493 128.0
138.716278 48.0
139.388535 176.0
139.453323 100.0
139.914383 152.0
140.053314 164.0
140.531876 76.0
140.914719 132.0
141.103439 144.0
141.335236 176.0
141.910797 144.0
142.378281 120.0
142.8703 204.0
142.920273 144.0
142.946442 220.0
143.101166 120.0
143.649292 196.0
144.193695 152.0
144.581146 168.0
144.805695 196.0
144.947525 28.0
145.052979 136.0
146.285309 160.0
146.43219 140.0
146.697235 116.0
146.870865 136.0
146.921509 252.0
147.994614 124.0
148.338638 152.0
149.047318 116.0
149.065384 176.0
149.241776 212.0
150.086685 148.0
150.540558 204.0
150.955994 136.0
151.536102 164.0
152.082977 204.0
152.129608 144.0
152.876816 116.0
154.035614 156.0
154.069717 204.0
154.280273 124.0
154.485519 176.0
154.700821 64.0
155.712494 160.0
155.886398 104.0
156.061035 200.0
157.037033 492.0
157.10144 124.0
157.825729 128.0
158.020813 212.0
158.055847 172.0
158.554184 180.0
158.857574 156.0
158.957932 128.0
159.025696 156.0
159.061386 180.0
159.279297 196.0
160.051392 208.0
160.278076 192.0
160.338562 160.0
161.014694 156.0
161.353302 36.0
162.12532 112.0
163.016068 176.0
163.087219 112.0
163.463623 180.0
163.50943 152.0
163.695267 44.0
164.05452 184.0
164.769104 144.0
165.055359 164.0
166.261932 92.0
166.387695 180.0
166.672806 216.0
167.030151 172.0
167.104767 164.0
168.055496 168.0
168.076141 188.0
168.460831 160.0
168.502167 148.0
168.76062 144.0
169.609756 136.0
169.942795 180.0
170.307755 172.0
170.463623 232.0
170.546799 180.0
170.786011 72.0
170.99675 80.0
171.116501 148.0
171.559387 132.0
172.075958 184.0
172.216965 140.0
172.449509 172.0
172.760681 192.0
172.80777 128.0
172.907211 232.0
172.959549 108.0
173.106171 40.0
173.575226 212.0
173.916275 148.0
174.562576 168.0
174.646729 248.0
174.778275 88.0
174.891434 40.0
175.0336 112.0
175.339188 216.0
175.705704 36.0
175.755844 164.0
175.924759 60.0
175.993393 244.0
176.027725 184.0
176.143936 96.0
176.188843 212.0
177.165039 132.0
177.36113 120.0
177.647522 148.0
178.70224 172.0
179.360031 120.0
179.487991 168.0
179.528 236.0
180.040375 136.0
180.069763 188.0
180.633743 176.0
180.950592 120.0
181.013794 176.0
181.059311 76.0
181.959854 164.0
182.107986 72.0
182.470764 156.0
182.521851 132.0
182.957718 128.0
183.445312 164.0
183.957855 156.0
184.133362 136.0
184.352188 108.0
184.765884 188.0
184.946976 148.0
185.594681 128.0
185.969055 172.0
186.593842 148.0
186.849487 68.0
186.922958 116.0
187.031815 268.0
187.176102 104.0
187.364044 168.0
188.892792 140.0
189.53891 160.0
189.601944 124.0
190.064224 480.0
190.397552 80.0
190.474457 156.0
190.581589 156.0
190.675034 128.0
190.834457 196.0
191.059982 124.0
191.197571 220.0
191.346207 32.0
191.478378 228.0
192.06546 168.0
192.145462 52.0
192.178574 104.0
193.048691 176.0
193.068039 132.0
193.955856 152.0
194.217438 36.0
194.647614 236.0
194.914276 156.0
195.078262 128.0
195.464844 36.0
195.542603 128.0
196.311691 156.0
196.336792 144.0
196.409302 196.0
196.746964 120.0
196.959183 172.0
197.812057 92.0
197.84285 200.0
198.097687 192.0
198.386322 52.0
198.669571 148.0
199.281601 168.0
200.0522 116.0
200.094421 128.0
200.263382 108.0
200.300003 104.0
200.488785 80.0
200.559235 160.0
200.911728 132.0
201.047165 140.0
201.490036 52.0
201.696762 164.0
202.29364 32.0
202.593811 104.0
203.052414 172.0
203.060852 136.0
203.507034 152.0
203.833694 180.0
204.073441 548.0
204.185059 180.0
204.25589 192.0
204.428009 44.0
205.014648 152.0
205.07515 4820.0
205.125809 48.0
205.151474 28.0
205.328247 176.0
205.465164 92.0
206.077103 840.0
206.41629 200.0
206.739548 160.0
207.057327 32.0
207.088837 160.0
207.306564 136.0
207.484283 80.0
207.555954 76.0
207.716568 124.0
208.552139 152.0
208.583755 176.0
208.948975 64.0
208.974869 236.0
209.075592 172.0
209.890823 44.0
209.953812 872.0
209.99472 160.0
210.260071 100.0
210.568985 140.0
210.962875 164.0
211.241959 152.0
211.317688 152.0
211.947891 460.0
211.986557 192.0
212.01265 116.0
212.064819 76.0
212.119888 108.0
212.954132 148.0
213.260635 120.0
214.200485 100.0
214.943924 204.0
215.358475 104.0
215.676971 36.0
215.867004 148.0
215.902084 176.0
216.072388 540.0
216.830154 164.0
216.910782 188.0
217.075989 3028.0
217.129196 60.0
217.184921 120.0
217.337463 228.0
217.548782 132.0
217.995224 208.0
218.075867 928.0
218.236267 116.0
218.368591 92.0
219.039688 68.0
219.060318 124.0
219.090057 464.0
219.116287 172.0
219.472916 52.0
219.980362 168.0
220.090118 652.0
220.157516 56.0
220.207733 212.0
220.328842 128.0
220.39679 44.0
221.068176 172.0
221.075439 176.0
221.086685 252.0
221.112427 128.0
221.491425 60.0
221.565475 132.0
221.950211 484.0
222.069046 216.0
222.363129 112.0
222.588745 80.0
222.960251 140.0
223.072968 500.0
223.569748 84.0
223.917892 136.0
223.952423 316.0
224.065353 188.0
224.260696 124.0
224.958694 132.0
225.084091 84.0
225.149796 136.0
225.929672 136.0
226.079544 76.0
227.098175 160.0
227.533295 140.0
228.113098 156.0
228.431854 100.0
228.470963 176.0
228.925446 76.0
229.07605 364.0
229.687973 128.0
230.069443 820.0
230.188965 128.0
230.469894 88.0
230.560547 164.0
230.636108 96.0
230.763077 140.0
230.880997 176.0
231.077744 1720.0
231.116959 200.0
231.540756 108.0
231.598297 56.0
231.731598 56.0
232.085007 3216.0
232.192352 92.0
232.261108 192.0
232.295486 68.0
232.359192 96.0
232.59552 64.0
232.72644 52.0
232.747696 60.0
232.880539 236.0
232.948135 60.0
233.085739 636.0
233.616928 76.0
233.769058 68.0
234.003433 144.0
234.0737 100.0
234.097824 176.0
234.402451 176.0
234.957367 168.0
235.053482 128.0
235.087997 312.0
235.564865 212.0
235.964371 180.0
236.063065 112.0
236.102814 132.0
236.702606 108.0
237.052811 148.0
237.371338 104.0
237.861511 112.0
238.448166 144.0
238.564972 100.0
239.094025 96.0
239.528152 128.0
240.166214 108.0
240.592056 112.0
240.900864 168.0
240.984283 176.0
241.058441 120.0
241.766617 132.0
242.084396 220.0
242.708313 124.0
242.928528 152.0
243.065033 56.0
243.170547 136.0
244.880569 124.0
245.083832 144.0
245.572495 104.0
246.053055 184.0
246.127991 160.0
246.393463 104.0
246.80603 176.0
247.083694 884.0
248.086258 640.0
248.607224 40.0
249.062469 160.0
249.09613 268.0
249.800293 204.0
249.955322 128.0
250.068619 204.0
250.537796 124.0
250.61026 68.0
250.704788 176.0
250.786743 64.0
251.168259 204.0
253.412811 168.0
254.154755 196.0
254.824707 236.0
255.126617 188.0
256.183167 212.0
256.878113 208.0
257.484558 48.0
258.067688 444.0
258.120514 164.0
258.189117 168.0
258.539551 88.0
258.565155 160.0
258.853271 168.0
258.875702 128.0
258.95578 172.0
258.97818 176.0
259.003815 148.0
259.073517 5088.0
259.166046 152.0
259.228088 92.0
259.413971 160.0
259.465271 56.0
259.555969 164.0
259.715393 128.0
259.840912 212.0
259.885406 144.0
259.956024 168.0
259.989929 192.0
260.032532 152.0
260.081451 34528.0
260.135925 116.0
260.15152 132.0
260.167999 176.0
260.248108 104.0
260.273804 44.0
260.32196 148.0
260.381775 84.0
260.423798 68.0
260.430084 48.0
260.444763 52.0
260.482544 56.0
260.525269 160.0
260.559662 60.0
260.603119 84.0
260.649628 68.0
260.672119 116.0
260.697815 56.0
260.742828 108.0
260.841553 124.0
260.903534 56.0
260.968353 148.0
261.0 88.0
261.025726 200.0
261.085022 6524.0
261.157837 96.0
261.214233 84.0
261.266724 56.0
261.408508 76.0
261.486542 144.0
261.514709 72.0
261.624146 88.0
261.698212 92.0
261.733643 72.0
261.759399 60.0
261.810913 92.0
261.863312 60.0
261.981628 64.0
262.086761 344.0
262.126617 152.0
262.174957 72.0
262.290985 68.0
262.352234 76.0
262.436066 120.0
262.458618 48.0
262.536011 104.0
262.606964 52.0
262.648895 116.0
262.692688 140.0
262.729553 40.0
262.784393 96.0
262.842468 80.0
262.865051 40.0
262.900543 104.0
262.923157 128.0
262.977997 160.0
263.00061 104.0
263.081299 120.0
263.304108 112.0
263.749969 104.0
263.913666 152.0
263.969818 88.0
264.056335 112.0
264.086243 92.0
264.141235 48.0
264.429199 80.0
265.018585 100.0
265.115784 192.0
265.174133 124.0
265.550232 128.0
266.238251 44.0
267.099548 152.0
267.180878 52.0
267.958984 124.0
268.947083 96.0
269.986053 112.0
270.755768 100.0
271.187592 52.0
272.598785 188.0
272.634949 76.0
273.582245 168.0
274.069672 180.0
274.620209 136.0
275.075562 76.0
275.376038 100.0
275.660156 108.0
275.924591 56.0
275.96756 32.0
276.080383 292.0
276.943787 132.0
277.086761 1092.0
277.119385 164.0
277.17569 76.0
278.083588 280.0
278.333344 40.0
279.736359 100.0
280.192596 64.0
280.339203 36.0
281.693817 128.0
282.730316 48.0
282.986572 560.0
283.125366 80.0
283.185669 220.0
283.995453 324.0
284.89975 104.0
284.991821 220.0
285.067749 92.0
285.878174 48.0
285.993286 524.0
286.261932 124.0
286.905487 176.0
287.040344 120.0
288.762665 56.0
291.061096 384.0
291.36261 60.0
292.073181 128.0
292.430359 212.0
293.077393 248.0
293.561432 148.0
293.998077 204.0
294.985168 312.0
295.419464 40.0
295.993103 200.0
296.299286 188.0
297.0 248.0
297.043182 120.0
298.000397 228.0
298.6026 212.0
298.667938 140.0
298.988831 140.0
299.228882 128.0
299.962646 236.0
300.007568 124.0
301.619537 132.0
302.487793 116.0
303.936462 92.0
303.978088 152.0
308.596863 52.0
308.980072 312.0
309.174042 136.0
309.762268 148.0
309.965454 48.0
309.997375 272.0
310.089508 56.0
310.578979 52.0
311.006042 1316.0
311.491638 156.0
311.516205 44.0
312.00235 124.0
312.933502 200.0
313.004913 1252.0
313.09903 48.0
313.207428 144.0
313.645142 72.0
313.996948 180.0
315.519623 120.0
315.752991 100.0
316.036102 124.0
319.17511 176.0
320.616821 68.0
324.18338 148.0
324.351837 112.0
326.006378 80.0
326.998749 116.0
328.988708 136.0
330.069 100.0
330.991394 140.0
331.930237 160.0
332.187714 156.0
332.3909 128.0
333.040741 112.0
333.931244 108.0
334.935822 168.0
335.555328 44.0
335.9711 156.0
336.292206 72.0
336.343292 68.0
336.690155 76.0
336.986053 120.0
337.029877 124.0
337.223572 140.0
337.545288 164.0
337.662292 92.0
337.790314 124.0
337.913757 200.0
337.990967 5900.0
338.185516 124.0
338.222107 68.0
338.26236 56.0
338.357544 68.0
338.519836 120.0
338.573578 236.0
338.665161 152.0
338.690796 68.0
338.731079 32.0
338.822662 108.0
338.888611 100.0
338.925262 212.0
338.996613 1328.0
339.090179 64.0
339.134155 40.0
339.159821 136.0
339.269775 84.0
339.321106 84.0
339.519104 64.0
339.651154 44.0
339.739197 104.0
339.779541 108.0
339.988708 4740.0
340.093933 180.0
340.247894 52.0
340.282349 44.0
340.330078 112.0
340.42923 68.0
340.572449 96.0
340.7341 76.0
340.925171 100.0
340.997253 1960.0
341.094238 84.0
341.178955 92.0
341.278046 76.0
341.373657 60.0
341.981812 492.0
342.275208 52.0
342.695099 48.0
342.724579 72.0
342.983826 140.0
343.04892 80.0
343.196381 56.0
343.406586 104.0
343.915741 152.0
346.911987 112.0
347.939606 132.0
348.056366 188.0
349.51178 116.0
349.943542 128.0
350.263824 64.0
355.996307 548.0
356.053741 36.0
357.015839 152.0
357.997406 416.0
358.265472 120.0
358.989136 124.0
359.233795 176.0
359.619202 48.0
360.684357 32.0
361.455872 52.0
361.607239 124.0
366.711853 60.0
371.200104 56.0
373.854553 116.0
375.939423 152.0
386.748016 36.0
387.217865 128.0
396.908447 60.0
396.991699 84.0
397.9758 56.0
399.947632 108.0
407.108215 124.0
411.965729 176.0
414.741638 160.0
416.372681 144.0
431.977478 120.0
436.73114 128.0
441.055054 84.0
489.455841 32.0
494.80719 84.0
498.950928 124.0
499.226624 32.0
514.127014 36.0
526.411438 80.0
538.286682 108.0
550.733337 84.0
554.120178 48.0
556.150696 76.0
558.716431 92.0
582.56842 108.0
588.593628 116.0
658.453003 60.0
664.359924 56.0
683.107361 84.0
713.622498 60.0
774.552246 52.0
853.507263 108.0
867.0448 116.0
910.373047 44.0
985.0802 32.0
987.724365 168.0
1023.210449 44.0
1052.932251 64.0
1080.592041 60.0
1109.445435 212.0
1115.971802 92.0
1125.112671 100.0
1127.691162 68.0
1187.91272 40.0
1204.398926 104.0
1228.41687 184.0
1319.156738 48.0
1320.935669 140.0
1326.794312 136.0
1335.428223 152.0
1355.050659 196.0
1362.276855 136.0
1365.76123 76.0
1394.003662 176.0
1410.773926 192.0
1420.449097 96.0
1464.944946 160.0
1467.864014 264.0
1476.76123 164.0
1479.447021 124.0
1486.675049 112.0
