>compound Napsamycin A
>formula C39H48N8O12S 
>ionization [M+H]+
>parentmass 853.3185164280904
#inchi InChI=1S/C39H48N8O12S/c1-20(45(2)33(52)28-16-23-15-25(49)8-7-22(23)18-41-28)32(40)35(54)47(19-26-17-30(50)36(59-26)46-11-9-31(51)44-39(46)58)34(53)27(10-12-60-3)42-38(57)43-29(37(55)56)14-21-5-4-6-24(48)13-21/h4-9,11,13,15,19-20,27-30,32,36,41,48-50H,10,12,14,16-18,40H2,1-3H3,(H,55,56)(H2,42,43,57)(H,44,51,58)/b26-19+/t20?,27-,28?,29?,30?,32?,36?/m0/s1
#inchikey AUSWKQLLJQGJQP
#Ion_Source LC-ESI
#Instrument LTQ-FTICR
#Compound_Source Isolated
#PI Dorrestein
#Data_Collector Peng
#Scan -1
#Precursor_MZ 853.0
#ExactMass 852.311
#Charge 1
#CAS_Number N/A
#Pubmed_ID ChemSpider ID:?2301469
#Smiles N/A
#INCHI_AUX N/A
#Library_Class 2
#SpectrumID CCMSLIB00000075013
#IonMode Positive
#UpdateWorkflowName UPDATE-SINGLE-ANNOTATED-SILVER
#LibraryQualityString Silver
#TaskID 57d156df513b468a82f4fc631178998b
##Scan# 1
#SpectrumFile 1057_853.mzXML
#LibraryName gnps_library.mgf
#MQScore -1
#Organism compounds from Streptomyces roseosporus
#TIC_Query 0
#RT_Query -1
#MZErrorPPM -1
#SharedPeaks 0
#MassDiff 0
#LibMZ -1
#SpecMZ 853
#SpecCharge 0
#internalFilename spec-00000.mgf

>collision 10
243.274139 0.253131
244.331894 0.269748
245.919373 0.500332
250.088745 0.577809
253.362915 0.967861
261.050415 0.204607
263.383606 1.576524
264.180481 0.31519
267.112518 0.926697
268.278931 0.457105
270.941772 2.412519
272.304565 1.036535
275.480286 1.275957
276.255951 0.480547
277.065613 0.274583
279.342255 0.817687
288.258026 1.727865
290.220062 2.846171
291.338531 0.472501
292.13266 0.48813
293.16217 2.244319
295.054626 1.322461
296.064697 0.352498
296.747681 0.704895
300.081421 2.484541
301.02478 0.444648
302.363312 1.009972
305.288635 1.138042
307.23053 2.005181
309.719391 1.950847
310.35022 5.452921
310.998077 0.676543
314.489136 2.412658
321.073578 4.351951
326.021851 1.672442
328.113068 2.59615
332.011444 0.2508
336.559021 2.866067
337.201721 4.590296
339.009277 16.748905
340.138824 0.955079
341.281189 0.40302
343.046997 0.222904
347.281006 1.998627
350.232239 2.581751
350.874695 1.091672
353.335297 0.720666
356.155701 6.463744
357.061707 0.197132
358.253204 0.890312
359.237427 0.6287
360.174988 0.543189
361.2547 1.862679
362.116211 2.572874
365.015869 0.529885
366.002625 0.591658
368.132874 1.239204
369.27948 0.704721
371.005981 0.582995
371.932007 0.931288
373.247253 0.545659
374.304688 1.956647
375.666351 2.344125
376.981262 0.363411
378.428955 0.379117
382.225769 1.345751
385.758118 0.908961
387.162903 0.149035
388.644104 0.986281
393.178955 0.526096
394.078857 2.226605
395.14856 4.072977
396.205383 8.33671
399.282288 0.463697
400.191772 0.850464
402.327759 1.179049
403.300537 0.762488
404.209351 6.119922
408.316833 0.860762
409.101685 0.260764
411.193298 2.289386
412.102661 0.191318
413.05365 0.603485
413.998962 1.676909
414.910767 1.616751
415.573303 1.14307
417.994141 0.621634
420.119812 12.398571
421.056274 12.189304
422.162842 13.811411
423.92981 2.230186
424.790161 0.519323
426.151428 0.890287
429.059143 2.331094
429.961975 2.351045
433.062775 1.07374
435.386719 0.555758
436.348938 2.064843
437.008087 0.814384
439.514526 1.252306
440.296814 4.422041
441.381775 0.891158
442.344543 0.693224
444.253052 0.692032
445.044891 2.788385
446.147339 2.892206
446.956665 3.906449
448.251587 1.875685
450.037781 0.362169
453.165588 8.290782
453.939758 1.536857
456.681335 1.315834
457.392029 0.763476
458.100769 4.297396
460.188538 0.383812
463.414551 1.342806
464.418762 0.345426
465.707733 1.748494
466.317444 2.593487
468.105591 0.288303
469.087616 1.142809
470.612305 2.38861
471.230347 5.506573
472.531555 0.713933
473.27948 0.326987
474.021057 0.72762
477.213257 1.86852
478.149323 0.222127
479.148926 3.532365
480.274902 0.322889
481.658264 2.141039
483.156342 0.776094
484.340973 0.578095
486.390198 0.212319
487.211945 0.70249
487.968048 1.032625
490.395355 1.018613
491.339264 0.340751
493.024261 1.312676
495.367981 2.31463
497.087463 42.800499
498.32666 1.563409
500.337433 0.746246
502.334198 2.390475
504.29071 0.643668
506.084747 1.372454
507.291046 0.452055
508.386078 0.697816
509.681763 1.310495
511.086243 2.827103
511.722321 0.692287
512.584473 0.530048
513.868286 0.921236
515.15387 8.788898
516.183716 4.32065
517.115784 5.731099
518.237061 1.463571
519.380676 1.272821
520.310303 0.791817
521.819946 0.682041
523.324707 0.821277
524.200989 1.651999
525.652954 1.35648
526.402954 1.678481
527.169189 3.432136
528.271423 0.281051
529.162781 1.742445
530.230347 1.394397
531.186768 1.541038
532.469482 3.284126
534.363281 4.679782
535.040405 1.591709
536.048218 1.8546
537.201721 0.667926
538.227905 1.175799
539.53186 2.070169
540.512146 0.754145
541.361206 0.846566
542.20874 3.472802
543.231079 1.073551
544.453796 6.265553
545.260315 14.567834
546.260376 8.94183
547.351562 1.647118
548.093567 0.799724
549.606201 0.229334
553.032471 0.459809
554.586121 0.656275
556.249695 1.51584
557.122681 3.551587
558.199829 9.909387
559.38855 1.260364
560.195129 7.819943
560.966431 1.496722
562.191528 5.103297
563.23938 4.489361
564.188477 3.337199
566.182129 1.584389
567.574951 1.912529
569.144958 1.445601
570.014404 2.626822
571.157654 3.828563
572.208496 4.43974
573.255371 0.290024
574.731934 1.837336
576.25238 2.054665
577.255127 8.588408
578.007202 2.243619
579.303711 2.423477
581.023865 2.450617
582.322266 3.321998
583.483765 0.753339
584.155518 1.843297
585.374146 2.792829
586.567139 1.671618
587.393555 6.080045
589.167175 3.052578
590.107178 0.530568
591.357239 0.844781
592.210327 1.429245
593.322693 1.934975
594.318237 4.345837
595.297729 6.037053
596.273926 1.244912
598.395142 0.32172
599.443848 0.979216
600.264221 2.634671
601.276062 49.804371
602.323303 40.774151
603.217041 5.975725
604.136597 0.53253
605.485718 0.808334
606.364868 0.984424
608.224609 2.480574
610.144165 3.424615
611.586548 2.610703
612.660156 0.536028
613.316895 1.39792
614.099609 6.534614
615.458252 0.205093
616.740234 2.988875
619.017822 1.13926
620.959229 9.85765
622.111267 1.362767
622.896362 0.467904
624.148804 0.586924
626.209961 25.145603
627.328857 4.84846
628.138794 28.39575
629.266052 1.057069
630.206909 3.067586
631.255371 3.088529
632.043823 0.476532
633.849609 0.405222
635.612427 0.693963
636.519287 2.46897
638.468933 1.754368
639.289185 0.978876
641.037231 2.212434
641.930115 2.353443
644.359497 22.664673
646.211182 171.644287
647.236938 3.179609
648.076233 0.324323
650.319458 1.636026
651.168701 1.166691
652.25415 3.696096
654.162292 38.211754
655.108643 2.020526
657.0354 4.654083
658.183167 0.395597
659.531433 4.134029
660.184509 7.065788
660.952637 3.120109
663.262573 1.966648
665.23999 2.797022
670.112305 12.17355
672.135498 761.123535
672.999268 10.146501
674.071167 2.486241
675.192566 13.927649
676.137268 18.986618
677.447815 25.057528
678.24939 87.297852
679.422974 2.037699
680.832947 1.41177
681.52063 0.305462
682.342224 0.955161
684.156372 0.356993
685.491394 1.981036
686.398499 0.231389
687.179443 0.782394
688.263733 4.341626
689.608887 4.880282
690.262085 11.385122
691.250122 3.084125
692.256897 2.117831
693.490173 5.675256
695.473022 0.518867
696.204651 0.999514
697.05127 0.208054
699.003601 0.187847
700.133057 1.070285
702.307251 1.110356
703.125977 3.120541
704.656128 0.350618
705.345886 1.473296
706.864258 0.896362
708.264099 0.93829
709.843994 5.967777
711.200317 11.464193
712.241455 1.389013
713.550964 1.613304
714.548889 1.087946
715.450623 1.240449
716.216736 2.184325
717.299316 1.591203
719.276428 1.060397
720.115356 2.947951
721.242737 11.205639
722.19574 1.670591
723.320251 3.899556
725.277588 2.386986
726.242615 1.273413
727.377014 0.64732
728.467957 0.232969
729.121582 1.882682
731.2948 5.781849
732.216553 7.417807
733.360718 7.204566
734.15564 2.411795
736.505005 1.58106
737.310913 2.824405
738.02002 1.566357
739.154053 59.322937
740.257935 1.744039
741.386475 2.259155
742.478394 0.726829
743.21228 2.193265
744.152344 1.832909
745.276123 1.804406
746.384644 0.600006
747.244629 0.734257
748.171143 0.289835
750.04248 3.339339
751.415405 1.372882
752.25415 0.186201
753.31897 5.281787
754.457153 0.668258
755.159058 1.765868
755.88269 1.23409
756.675171 0.519709
758.556763 1.441648
762.085083 8.315231
763.315552 7.900957
764.335938 2.273769
765.221802 0.741141
766.414062 1.889629
767.338379 1.847879
768.420898 3.835943
769.409302 2.104783
770.536255 3.796622
771.187866 10.229059
771.875 1.307171
772.838623 1.277914
773.925293 1.896508
775.168701 4.308978
776.329468 0.653256
778.616333 0.251137
779.320923 1.007148
780.115479 2.179339
781.223999 1.942569
784.713989 0.671107
785.31604 0.849952
787.242432 26.137424
788.217896 38.957405
789.223389 97.064842
790.297485 4.972322
791.591187 3.034999
792.289673 5.814732
793.013306 4.35068
794.161743 3.326223
795.143555 1.245495
795.877075 1.076179
798.099731 2.41161
798.922119 1.733297
803.963867 1.270327
805.754639 4.089503
806.45813 1.399854
807.980469 11.359316
808.610718 2.286592
809.312866 1.575835
810.310303 4.255046
814.514648 2.13304
815.531128 3.60912
816.44104 12.838654
817.263794 3.57681
818.177002 0.13831
820.269897 4.778572
822.048828 1.139965
822.997314 1.153396
824.052368 4.090298
824.94812 0.719693
830.601318 1.800551
831.850708 0.698239
833.303467 43.503227
834.249878 72.375313
835.316895 105.904144
836.278687 8.363214
837.100098 1.991359
844.907837 2.544364
847.994263 0.592897
852.716797 1.10036
853.641846 1.044833
855.588135 2.927912
871.557861 0.242699
914.340454 1.322264
976.425659 0.217285
981.858887 0.518963
1058.48999 0.466011
1090.088379 0.524592
1130.106079 0.219959
1135.312744 0.912936
1223.512085 0.641945
1276.506348 1.573264
1287.039551 0.754964
1289.124146 2.044806
1308.946167 0.505315
1330.975708 0.279754
1365.625 0.444013
1409.750854 0.492191
1427.864014 1.056124
1591.760498 0.706085
