>compound MLS000028844-01!
>formula C11H14N4O2
>ionization [M+H]+
>parentmass 235.117355
#inchi InChI=1S/C11H14N4O2/c1-7-5-9(16-3)13-11(12-7)15-10(17-4)6-8(2)14-15/h5-6H,1-4H3
#inchikey RHAXSHUQNIEUEY
#Ion_Source LC-ESI
#Instrument qTof
#Compound_Source NIH Pharmacologically Active Library
#PI Dorrestein
#Data_Collector VP/LMS
#Scan -1
#Precursor_MZ 235.119
#ExactMass 234.112
#Charge 1
#CAS_Number N/A
#Pubmed_ID N/A
#Smiles COc1cc(C)nn1c2nc(C)cc(OC)n2
#INCHI_AUX N/A
#Library_Class 1
#SpectrumID CCMSLIB00000085069
#IonMode Positive
#UpdateWorkflowName UPDATE-SINGLE-ANNOTATED-GOLD
#LibraryQualityString Gold
#TaskID d252d724072548979f1f6f1ced849daf
##Scan# 1530
#SpectrumFile p3-E06_GE6_01_18275.mzXML
#LibraryName Pharm_Active_Library.mgf
#MQScore -1
#Organism Pharm_Active_Library
#TIC_Query 0
#RT_Query -1
#MZErrorPPM -1
#SharedPeaks 0
#MassDiff 0
#LibMZ -1
#SpecMZ 235.119
#SpecCharge 0
#internalFilename spec-00000.mgf

>collision 10
44.952385 144.0
45.24646 140.0
45.282616 196.0
45.318787 260.0
45.413975 40.0
45.448856 220.0
45.490463 188.0
45.589863 220.0
45.735123 180.0
45.958847 176.0
46.142056 176.0
46.184467 96.0
46.219646 76.0
46.242653 168.0
46.421494 144.0
46.555641 156.0
46.655045 164.0
46.794575 152.0
46.887817 192.0
46.980545 180.0
47.020115 176.0
47.18541 160.0
47.324974 144.0
47.385242 120.0
47.407166 208.0
47.434578 36.0
47.483944 196.0
47.650051 180.0
47.857746 180.0
47.925243 204.0
47.991405 184.0
48.412888 180.0
48.451675 184.0
48.697216 144.0
48.779781 144.0
49.144104 184.0
49.160847 168.0
49.205517 224.0
49.232048 64.0
49.259983 120.0
49.335449 100.0
49.437561 192.0
49.496361 192.0
49.671558 164.0
49.858307 92.0
50.307198 168.0
50.380161 176.0
50.519642 180.0
50.625801 68.0
50.802986 160.0
50.92791 132.0
50.990429 160.0
51.060555 136.0
51.155434 176.0
51.184376 208.0
51.349228 144.0
51.368973 152.0
51.466251 188.0
51.509834 140.0
51.536243 148.0
51.564827 52.0
51.812393 112.0
51.859684 96.0
51.963646 148.0
52.107952 76.0
52.197075 156.0
52.211456 172.0
52.54277 72.0
52.617825 160.0
52.704487 176.0
52.846195 96.0
52.904087 192.0
53.046062 184.0
53.131626 248.0
53.151939 100.0
53.264481 172.0
53.50806 116.0
53.661049 128.0
53.674171 164.0
53.844921 224.0
54.090572 68.0
54.386684 136.0
54.69096 56.0
54.718929 104.0
54.799938 36.0
54.823517 176.0
55.049236 168.0
55.327225 164.0
55.390903 160.0
55.482788 136.0
55.509476 152.0
55.8139 116.0
55.849594 180.0
55.937389 212.0
56.11319 152.0
56.143013 72.0
56.174339 156.0
56.196716 96.0
56.226562 36.0
56.239998 92.0
56.317642 40.0
56.440193 140.0
56.453651 156.0
56.614166 220.0
56.660221 200.0
56.747028 144.0
56.780148 184.0
56.888184 200.0
56.930229 192.0
57.011356 188.0
57.063969 168.0
57.173782 128.0
57.205391 88.0
57.357544 148.0
57.497818 112.0
57.583881 152.0
57.69117 176.0
57.724434 160.0
57.75317 136.0
57.844723 188.0
57.860619 228.0
57.884846 172.0
57.957558 204.0
58.037895 200.0
58.154713 60.0
58.311161 136.0
58.41608 184.0
58.57946 212.0
58.59573 208.0
58.638401 132.0
58.803127 128.0
58.891685 176.0
59.012417 184.0
59.171543 152.0
59.22361 52.0
59.372284 148.0
59.407566 184.0
59.465878 396.0
59.488903 196.0
59.694351 248.0
59.760941 100.0
59.804031 160.0
59.853298 160.0
59.982719 40.0
60.072163 136.0
60.133884 84.0
60.382645 200.0
60.468342 220.0
60.582329 176.0
60.78545 56.0
60.875488 32.0
61.033997 196.0
61.058876 160.0
61.189594 156.0
61.272141 152.0
61.355637 224.0
61.454567 148.0
61.484215 196.0
61.535732 132.0
61.546661 188.0
61.82716 176.0
62.0019 128.0
62.365692 216.0
62.44466 160.0
62.583149 184.0
62.644573 256.0
62.691841 100.0
62.917408 172.0
62.960045 148.0
63.202888 416.0
63.301643 188.0
63.47279 148.0
63.598125 112.0
63.77285 128.0
63.863487 144.0
63.920761 224.0
63.976471 172.0
64.2155 232.0
64.394264 168.0
64.480545 252.0
64.613266 88.0
64.643669 108.0
64.795006 196.0
64.831047 116.0
64.877525 132.0
64.89196 192.0
64.904785 264.0
65.023499 164.0
65.214638 168.0
65.227501 88.0
65.258041 160.0
65.620323 216.0
65.765518 192.0
65.786499 252.0
66.134056 36.0
66.200439 140.0
66.253891 112.0
66.338165 156.0
66.471161 156.0
66.532845 140.0
66.571815 92.0
66.747322 96.0
66.846558 140.0
66.859573 144.0
67.055016 192.0
67.069687 100.0
67.209946 188.0
67.33075 124.0
67.423882 144.0
67.536697 136.0
67.864235 184.0
68.029945 224.0
68.149841 128.0
68.187645 200.0
68.329308 136.0
68.34716 60.0
68.383369 140.0
68.44593 76.0
68.495338 136.0
68.826851 108.0
68.899521 180.0
68.927612 172.0
68.976517 156.0
69.563629 136.0
69.580231 88.0
69.673241 204.0
69.778275 180.0
69.909355 164.0
70.022568 144.0
70.104202 180.0
70.339378 92.0
70.396149 224.0
70.551544 176.0
70.626801 180.0
70.670296 164.0
70.805893 76.0
70.913124 120.0
71.012047 88.0
71.304199 192.0
71.403397 168.0
71.676125 212.0
71.957817 240.0
72.033852 160.0
72.111542 168.0
72.177475 180.0
72.280663 100.0
72.427956 184.0
72.45845 132.0
72.54319 164.0
72.618637 204.0
72.72979 156.0
72.85376 164.0
72.909836 164.0
72.95063 140.0
73.005035 140.0
73.027145 92.0
73.050591 128.0
73.144562 48.0
73.15818 92.0
73.182014 196.0
73.202446 104.0
73.502472 188.0
73.551971 96.0
73.676636 220.0
73.698845 48.0
73.796272 212.0
73.986191 148.0
74.114647 36.0
74.349594 136.0
74.394218 292.0
74.516159 124.0
74.569435 28.0
74.674911 208.0
74.799927 220.0
74.863632 172.0
74.984238 200.0
75.113556 184.0
75.139435 172.0
75.241264 112.0
75.612923 152.0
75.775703 168.0
75.796494 160.0
76.106995 52.0
76.143463 140.0
76.214691 124.0
76.318985 152.0
76.338112 112.0
76.59745 48.0
76.897362 164.0
76.939262 180.0
77.192619 172.0
77.231102 152.0
77.341339 148.0
77.365845 104.0
77.386856 196.0
77.719826 200.0
77.723221 192.0
77.771729 164.0
77.888435 64.0
77.976295 184.0
78.055595 148.0
78.106407 144.0
78.166229 120.0
78.266563 56.0
78.426888 140.0
78.698578 168.0
78.984879 116.0
79.014954 212.0
79.3302 236.0
79.484512 192.0
79.530701 144.0
79.654953 32.0
79.870049 88.0
80.05159 128.0
80.129967 452.0
80.2369 216.0
80.313583 168.0
80.365326 112.0
80.458138 200.0
80.540283 184.0
80.558144 152.0
80.661797 176.0
80.745834 40.0
80.965973 116.0
81.173859 52.0
81.493378 124.0
81.653374 124.0
81.745125 104.0
82.285889 84.0
82.358772 180.0
82.406906 104.0
82.645576 160.0
82.784966 268.0
82.80127 196.0
82.813942 228.0
82.873726 40.0
83.027817 132.0
83.07135 192.0
83.22744 56.0
83.255562 176.0
83.398209 172.0
83.598274 84.0
83.651062 176.0
83.829559 176.0
83.886063 132.0
83.986359 88.0
84.238266 144.0
84.313187 132.0
84.375336 196.0
84.413734 148.0
84.479576 144.0
84.53447 188.0
84.591209 196.0
84.679108 96.0
84.87336 196.0
84.9981 208.0
85.128433 172.0
85.507164 132.0
85.623154 188.0
85.779778 176.0
85.849846 204.0
85.91256 180.0
86.198753 140.0
86.352196 140.0
86.622452 232.0
86.644684 116.0
86.6595 44.0
86.679886 164.0
86.746613 152.0
86.794815 204.0
86.828194 164.0
86.867149 120.0
87.299927 212.0
87.392937 208.0
87.411545 140.0
87.618225 44.0
87.670403 160.0
87.909111 208.0
87.931503 180.0
87.974442 88.0
88.024849 192.0
88.168701 88.0
88.527901 176.0
88.570984 44.0
88.775276 144.0
88.82592 152.0
88.991074 144.0
89.250374 220.0
89.273666 176.0
89.374527 188.0
89.540192 244.0
89.60424 92.0
89.641922 120.0
89.700218 220.0
89.926704 128.0
89.975784 56.0
90.03244 216.0
90.053215 136.0
90.206268 84.0
90.249756 176.0
90.563911 160.0
90.853951 144.0
91.003891 168.0
91.053261 172.0
91.066559 156.0
91.12735 160.0
91.374519 136.0
91.395882 160.0
91.416382 108.0
91.742096 156.0
91.953835 124.0
92.034012 180.0
92.05349 160.0
92.150528 156.0
92.236526 92.0
92.269028 112.0
92.404823 196.0
92.43544 224.0
92.467972 108.0
92.485199 192.0
92.586678 172.0
93.002739 124.0
93.045326 1056.0
93.1045 52.0
93.164558 164.0
93.190941 44.0
93.32357 144.0
93.398575 136.0
93.533272 212.0
93.569199 260.0
93.829948 128.0
94.029831 200.0
94.045883 180.0
94.06498 416.0
94.130959 208.0
94.389908 156.0
94.562088 72.0
94.579506 120.0
94.668571 56.0
94.74218 144.0
94.763489 148.0
94.994202 208.0
95.042702 152.0
95.059715 1472.0
95.102867 156.0
95.122276 84.0
95.464241 80.0
95.483696 156.0
95.5401 164.0
95.602371 220.0
95.736702 144.0
95.771759 160.0
96.023193 180.0
96.043388 680.0
96.064682 540.0
96.146111 56.0
96.32003 160.0
96.41954 228.0
96.484047 128.0
96.544662 248.0
96.573997 200.0
96.68161 208.0
96.771652 172.0
96.851952 188.0
97.042046 152.0
97.061653 340.0
97.077347 136.0
97.289253 116.0
97.379585 108.0
97.40905 76.0
97.680328 152.0
98.042625 52.0
98.057205 148.0
98.071152 232.0
98.302612 120.0
98.609062 136.0
98.711868 340.0
99.060219 140.0
99.087952 128.0
99.13353 188.0
99.327835 152.0
99.417122 140.0
99.705093 152.0
99.75013 140.0
99.842278 140.0
99.945717 96.0
100.035286 160.0
100.103943 248.0
100.208549 160.0
100.274315 156.0
100.577499 172.0
100.703293 168.0
100.759224 88.0
100.779205 176.0
100.805183 228.0
100.843155 228.0
100.865143 72.0
100.883133 172.0
100.913124 136.0
100.937119 128.0
100.999123 108.0
101.153198 100.0
101.197243 148.0
101.509842 152.0
101.652267 140.0
101.682373 80.0
102.034958 160.0
102.090218 196.0
102.195267 200.0
102.265251 192.0
102.35585 252.0
102.547241 48.0
102.724686 104.0
102.80629 136.0
103.02549 104.0
103.318634 208.0
103.377312 176.0
103.458282 220.0
103.655281 184.0
103.745956 136.0
103.782455 168.0
103.806786 152.0
104.050278 160.0
104.149788 144.0
104.353012 176.0
104.479111 152.0
104.548294 72.0
104.593071 192.0
104.825256 168.0
104.92514 108.0
104.959801 188.0
105.045174 168.0
105.178101 208.0
105.318993 220.0
105.368027 204.0
105.513138 48.0
106.006439 88.0
106.038879 428.0
106.063828 192.0
106.098679 180.0
106.449547 160.0
106.613899 148.0
106.784538 160.0
106.914162 96.0
107.019142 124.0
107.042877 304.0
107.06189 372.0
107.223091 144.0
107.241638 148.0
107.30761 204.0
107.641884 40.0
107.805084 44.0
107.842285 136.0
107.943588 180.0
108.032379 1120.0
108.054802 2160.0
108.256073 104.0
108.418953 148.0
108.442535 64.0
108.51368 200.0
108.620857 132.0
108.963402 156.0
109.03933 1372.0
109.060852 352.0
109.23159 208.0
109.368927 144.0
109.479279 180.0
109.950447 124.0
109.988014 64.0
110.006805 140.0
110.038841 176.0
110.069962 1184.0
110.134186 204.0
110.537689 232.0
110.786858 164.0
110.881149 112.0
110.983871 176.0
111.052612 704.0
111.22934 148.0
111.430946 108.0
111.506599 192.0
111.586479 228.0
111.618019 164.0
111.649567 260.0
111.68322 144.0
111.779999 52.0
111.794731 164.0
111.864189 256.0
111.895767 72.0
111.982109 192.0
111.998955 156.0
112.022133 172.0
112.057205 228.0
112.084122 424.0
112.114838 48.0
112.348892 160.0
112.383545 168.0
112.424858 96.0
112.750092 176.0
112.783913 132.0
112.853676 64.0
112.906548 208.0
112.942505 144.0
112.967888 40.0
113.081902 420.0
113.099083 220.0
113.188004 152.0
113.264252 212.0
113.325691 192.0
113.340523 156.0
113.5504 176.0
113.633133 196.0
113.862396 100.0
113.983482 140.0
114.068504 160.0
114.45359 144.0
114.553696 124.0
114.584244 272.0
114.604828 196.0
114.87133 128.0
115.050591 136.0
115.112511 112.0
115.180862 208.0
115.520752 116.0
115.614899 164.0
115.831154 124.0
115.882576 164.0
116.25354 152.0
116.476837 172.0
116.595322 168.0
116.757965 136.0
116.936989 76.0
116.960663 168.0
117.040321 160.0
117.0877 188.0
117.109238 200.0
117.191101 168.0
117.54689 112.0
117.695839 80.0
117.825432 148.0
117.855682 188.0
118.035095 168.0
118.052399 168.0
118.31205 96.0
118.361961 240.0
118.895142 196.0
119.059196 312.0
119.131821 64.0
119.21656 136.0
119.338295 152.0
119.362213 60.0
119.725639 180.0
119.788803 120.0
120.054604 244.0
120.181244 160.0
120.458511 124.0
120.510948 180.0
120.983368 36.0
121.009644 184.0
121.05172 576.0
121.074127 372.0
121.215546 140.0
121.601532 124.0
121.641037 152.0
122.012314 192.0
122.045296 1000.0
122.068916 752.0
122.210266 64.0
122.809486 104.0
122.873459 136.0
122.910973 164.0
122.948486 240.0
122.983803 92.0
123.054642 8880.0
123.149803 44.0
123.195793 60.0
123.295227 136.0
123.399124 52.0
123.474312 96.0
123.507484 32.0
123.549515 124.0
123.724358 44.0
123.799644 348.0
123.914825 40.0
123.976875 184.0
124.06205 7012.0
124.086876 620.0
124.305946 124.0
124.356133 76.0
124.39257 100.0
124.447151 140.0
124.504883 76.0
124.553749 152.0
124.720406 56.0
124.74041 152.0
124.800438 80.0
124.90052 64.0
124.947235 48.0
125.007317 96.0
125.035576 280.0
125.067543 896.0
125.109703 136.0
125.194313 40.0
125.44136 192.0
125.609283 68.0
125.700363 100.0
125.720451 92.0
125.876717 92.0
125.901283 60.0
125.981598 92.0
126.044258 116.0
126.069405 188.0
126.095657 124.0
126.189545 104.0
126.254395 120.0
126.513954 244.0
126.693115 180.0
126.740166 164.0
126.773781 56.0
127.050385 212.0
127.069771 176.0
127.283012 128.0
127.34346 244.0
127.55262 132.0
127.669533 88.0
127.694275 152.0
127.721268 124.0
127.89003 140.0
128.23465 196.0
128.275223 136.0
128.593262 156.0
128.685822 228.0
128.997604 160.0
129.015686 132.0
129.040558 132.0
129.131012 156.0
129.253174 172.0
129.425217 176.0
129.509003 60.0
129.97377 136.0
130.066544 184.0
130.125839 148.0
130.398438 152.0
130.42572 292.0
130.628098 204.0
130.933533 172.0
131.057358 612.0
131.083466 164.0
131.156403 172.0
131.222519 160.0
131.359344 144.0
131.384445 196.0
131.430069 148.0
131.640091 124.0
131.774857 108.0
131.96228 172.0
132.056107 496.0
132.156693 220.0
132.193314 188.0
132.243668 160.0
132.383316 184.0
132.497849 168.0
132.578049 176.0
132.628479 140.0
132.766037 176.0
132.795853 220.0
132.88533 80.0
132.903687 184.0
133.069946 216.0
133.2435 184.0
133.374207 168.0
133.627457 136.0
133.733307 76.0
134.000443 164.0
134.021179 168.0
134.068954 512.0
134.230957 216.0
134.360123 136.0
134.579376 108.0
134.62326 128.0
135.063873 688.0
135.081192 508.0
135.114944 140.0
135.293808 132.0
135.310013 152.0
135.486038 192.0
135.819855 168.0
136.01709 232.0
136.048859 840.0
136.075623 600.0
136.288818 76.0
136.558487 100.0
136.972824 132.0
137.003113 80.0
137.055801 1112.0
137.098633 176.0
137.261826 68.0
137.306137 164.0
137.513779 80.0
137.768311 104.0
137.840744 144.0
138.018402 140.0
138.065125 6076.0
138.118973 244.0
138.141571 72.0
138.168091 68.0
138.198502 236.0
138.258652 212.0
138.416199 108.0
138.44664 64.0
138.516907 96.0
138.596573 72.0
138.659836 188.0
138.894318 196.0
138.927155 64.0
138.952972 52.0
138.990509 36.0
139.039078 172.0
139.069534 928.0
139.201782 116.0
139.220566 40.0
139.321075 208.0
139.329758 164.0
139.363861 72.0
139.399109 60.0
139.577759 64.0
139.631851 192.0
139.763596 44.0
139.794174 216.0
139.864792 52.0
140.008408 100.0
140.079041 480.0
140.098709 120.0
140.255814 120.0
140.468033 40.0
140.611969 140.0
141.065247 1192.0
141.150604 128.0
141.36351 168.0
141.505539 72.0
141.581314 96.0
141.943893 136.0
142.041565 200.0
142.068237 216.0
142.306946 80.0
142.637177 144.0
143.082031 228.0
143.353577 172.0
143.37265 140.0
143.503754 216.0
144.054886 352.0
144.294052 120.0
144.511703 140.0
144.63855 160.0
144.688812 160.0
144.983444 172.0
145.049362 224.0
145.139267 36.0
145.499176 116.0
146.069489 620.0
146.0952 164.0
146.128876 68.0
146.246796 172.0
146.379211 244.0
146.399582 104.0
146.475555 92.0
146.853989 88.0
147.02771 164.0
147.054581 332.0
147.077255 320.0
147.414108 164.0
147.706665 196.0
147.735687 120.0
147.856674 188.0
148.058487 760.0
148.086517 544.0
148.210236 164.0
148.503586 196.0
149.070038 2864.0
149.30751 136.0
149.351288 44.0
149.368317 56.0
149.421844 92.0
149.507004 164.0
149.541077 56.0
149.67984 248.0
149.760223 136.0
149.860092 164.0
149.944504 120.0
150.008759 56.0
150.065735 1844.0
150.114792 204.0
150.20665 80.0
150.389297 52.0
150.430801 200.0
150.457657 76.0
150.496719 76.0
150.526016 88.0
150.562653 172.0
150.670135 152.0
150.890091 200.0
151.009918 196.0
151.069946 772.0
151.09169 276.0
151.225235 188.0
151.309692 200.0
151.382843 232.0
151.577896 192.0
151.710251 252.0
151.984955 176.0
152.016846 116.0
152.081024 4164.0
152.146942 148.0
152.24025 168.0
152.672791 188.0
153.041901 152.0
153.087646 1416.0
153.261124 64.0
154.035004 508.0
154.053116 224.0
154.086945 776.0
154.143234 84.0
154.884293 88.0
155.07959 180.0
155.233749 140.0
155.34288 48.0
155.432205 176.0
155.528992 136.0
155.648163 200.0
155.849365 212.0
155.894089 108.0
156.051956 6600.0
156.262115 40.0
156.32431 52.0
156.50853 28.0
156.6754 100.0
156.754517 160.0
156.847351 108.0
157.057556 352.0
157.084244 172.0
157.101715 164.0
157.293869 128.0
157.326309 52.0
157.433685 36.0
157.461151 140.0
157.566071 256.0
157.613541 64.0
157.683517 76.0
158.060913 248.0
158.065521 112.0
158.223846 108.0
158.248886 136.0
158.268906 132.0
158.319 72.0
158.349045 80.0
158.414169 160.0
158.446747 80.0
158.549484 36.0
158.592087 244.0
159.066422 172.0
159.289673 140.0
159.505783 104.0
159.606354 96.0
159.711975 100.0
159.913269 136.0
160.049561 292.0
160.077469 164.0
160.197815 48.0
160.380936 136.0
161.02771 92.0
161.054031 124.0
161.079453 488.0
162.064438 912.0
162.128265 40.0
162.417313 152.0
162.475647 72.0
162.569534 180.0
162.607605 128.0
162.76297 200.0
162.803101 128.0
162.82962 136.0
162.904694 164.0
162.958054 180.0
163.036713 240.0
163.085617 4496.0
163.268173 84.0
163.311417 56.0
163.364838 152.0
163.397903 128.0
163.530228 92.0
163.591324 156.0
163.665161 32.0
163.68808 176.0
163.756836 40.0
163.896957 204.0
164.045151 588.0
164.081009 6228.0
164.307465 156.0
164.600983 132.0
165.041428 132.0
165.084198 1184.0
165.490829 96.0
165.859756 100.0
165.964859 216.0
165.985382 56.0
166.057343 628.0
166.095734 420.0
166.154663 40.0
166.325058 80.0
166.413895 132.0
166.472946 124.0
166.501205 68.0
166.529449 248.0
166.583389 68.0
166.747849 188.0
167.063568 164.0
167.09758 168.0
167.388443 48.0
167.604813 72.0
167.661514 156.0
168.339996 144.0
168.794815 204.0
168.944138 164.0
169.113037 232.0
169.22435 84.0
169.421188 220.0
169.563705 168.0
169.644058 140.0
169.854111 176.0
170.308365 220.0
170.734619 184.0
170.838669 124.0
170.927124 136.0
171.028625 76.0
171.114532 164.0
171.220947 148.0
171.411484 52.0
171.450562 132.0
171.953934 56.0
172.053116 116.0
172.191513 136.0
172.429276 168.0
172.60704 172.0
172.957626 196.0
173.080673 144.0
173.23259 112.0
173.416016 260.0
173.651993 136.0
173.743805 144.0
174.037842 248.0
174.062775 788.0
174.121796 32.0
174.308121 52.0
174.437103 196.0
174.500198 156.0
174.579086 228.0
174.600128 172.0
174.62117 168.0
174.97905 128.0
175.049667 156.0
175.08194 676.0
175.358383 48.0
176.043152 428.0
176.080658 3052.0
176.287384 140.0
176.445984 188.0
176.728989 128.0
176.750153 116.0
176.853363 152.0
176.940735 88.0
177.076111 10132.0
177.127426 56.0
177.163193 52.0
177.216187 40.0
177.288864 84.0
177.316879 32.0
177.335434 44.0
177.467987 96.0
177.528976 116.0
177.595032 84.0
177.712006 64.0
177.823471 208.0
177.881866 112.0
178.09317 2212.0
178.151855 48.0
178.259018 160.0
178.49881 188.0
178.615295 60.0
178.782913 60.0
178.979904 28.0
179.031921 172.0
179.091064 8284.0
179.125168 140.0
179.198318 84.0
179.216522 48.0
179.510193 64.0
179.547531 60.0
179.867706 112.0
180.006546 52.0
180.092163 848.0
180.142761 44.0
180.21489 104.0
180.329803 72.0
180.597183 152.0
180.744324 244.0
180.979889 188.0
181.080368 148.0
181.127182 76.0
181.360306 92.0
181.395157 100.0
181.470215 148.0
181.644547 172.0
181.690155 40.0
181.904846 48.0
182.057892 128.0
182.587326 68.0
183.015213 148.0
183.039444 164.0
183.149872 140.0
183.389679 128.0
183.427414 132.0
183.821198 96.0
184.101944 260.0
184.372116 216.0
184.942795 164.0
185.44931 100.0
186.073242 88.0
186.097687 68.0
187.087326 144.0
188.068726 492.0
189.050018 508.0
189.074234 892.0
189.211365 64.0
189.51265 160.0
189.948563 120.0
190.050629 368.0
190.076599 180.0
190.099472 156.0
190.23671 76.0
190.404205 124.0
190.632233 48.0
190.973145 272.0
191.003403 160.0
191.091873 5872.0
191.372177 52.0
191.391449 48.0
191.421738 72.0
191.446533 36.0
191.69722 172.0
191.778259 128.0
192.098419 11904.0
192.136917 156.0
192.232071 80.0
192.389542 44.0
192.533127 56.0
192.555222 104.0
192.615982 76.0
192.720978 72.0
192.767944 76.0
192.814926 108.0
192.870209 136.0
193.033325 164.0
193.102829 1472.0
193.204819 144.0
193.404068 32.0
193.554001 128.0
193.675415 88.0
193.766846 44.0
194.10791 172.0
194.188202 144.0
194.268646 100.0
194.310257 176.0
194.351883 204.0
194.371307 48.0
194.454559 104.0
194.528854 144.0
194.568375 92.0
194.606049 84.0
194.626678 156.0
194.998932 180.0
195.199112 112.0
195.240814 148.0
195.744522 68.0
196.497116 164.0
196.932602 140.0
197.055527 200.0
197.083466 128.0
197.15332 156.0
197.609116 32.0
197.925415 88.0
198.926743 168.0
199.381363 128.0
199.564087 120.0
199.791901 124.0
199.848175 156.0
200.025482 212.0
200.10994 228.0
200.231033 172.0
200.456406 136.0
200.679092 88.0
201.020401 180.0
201.302704 212.0
202.057098 332.0
202.085693 120.0
202.150772 160.0
202.336594 152.0
202.671814 156.0
202.714325 124.0
202.77951 124.0
203.088974 1588.0
203.117096 204.0
203.747147 68.0
203.778412 124.0
204.076111 8448.0
204.153625 64.0
204.184082 96.0
204.231476 64.0
204.275925 56.0
204.366974 72.0
204.401123 204.0
204.557663 68.0
204.635437 88.0
204.722794 76.0
204.80368 160.0
204.933594 60.0
205.072006 6320.0
205.137894 76.0
205.332687 52.0
205.384033 28.0
205.5495 32.0
205.600876 40.0
205.709335 60.0
206.075714 812.0
206.106339 176.0
206.140625 96.0
206.39563 132.0
206.838486 136.0
207.076447 208.0
207.121979 36.0
207.481003 84.0
207.528931 224.0
207.672318 76.0
208.051102 132.0
208.349792 228.0
208.522202 220.0
209.04274 152.0
210.501419 188.0
212.423248 136.0
213.49794 148.0
213.593933 216.0
214.505386 100.0
215.036255 144.0
216.303757 164.0
216.509796 140.0
216.641602 200.0
216.738281 208.0
216.814484 184.0
216.937592 96.0
217.075394 176.0
217.298325 100.0
217.806198 132.0
218.326431 168.0
218.367615 188.0
218.691269 84.0
218.982758 144.0
219.085358 1452.0
219.154495 96.0
219.332092 216.0
219.368774 96.0
219.44838 204.0
219.56633 228.0
219.845978 76.0
219.920563 132.0
219.958755 144.0
219.991226 76.0
220.04454 464.0
220.094635 33284.0
220.170609 96.0
220.194977 164.0
220.267395 124.0
220.301315 88.0
220.330856 80.0
220.366318 68.0
220.417725 60.0
220.502243 60.0
220.558411 72.0
220.617523 60.0
220.657883 80.0
220.726929 100.0
220.84523 64.0
220.892548 52.0
220.919174 56.0
221.00972 92.0
221.040482 120.0
221.096405 2708.0
221.171753 68.0
221.268402 64.0
221.300964 32.0
221.360184 112.0
221.463852 84.0
221.540863 120.0
221.582336 88.0
221.68605 76.0
221.807571 76.0
221.958771 56.0
222.100372 324.0
222.234634 36.0
222.264313 140.0
222.451294 128.0
222.50473 92.0
222.602707 96.0
222.724487 60.0
222.750366 100.0
222.813599 56.0
222.887894 76.0
222.968124 92.0
223.087021 80.0
223.107834 64.0
223.167297 96.0
223.205948 64.0
223.387375 92.0
223.8517 132.0
224.316498 40.0
224.358231 120.0
224.444687 48.0
224.468552 52.0
225.110138 60.0
225.154938 40.0
225.734711 76.0
229.174728 80.0
229.835083 96.0
230.363434 32.0
231.40683 64.0
231.703644 32.0
232.097672 104.0
234.136795 108.0
234.679214 156.0
234.975067 112.0
235.050156 148.0
235.117355 5624.0
235.216156 140.0
235.414627 28.0
235.500137 48.0
235.533737 56.0
235.561234 124.0
235.58873 52.0
235.851532 32.0
235.927948 68.0
235.949356 124.0
236.041077 84.0
236.118439 1468.0
236.729614 104.0
236.898071 56.0
237.11937 180.0
237.204514 48.0
237.455948 48.0
238.67514 88.0
240.940567 84.0
246.31192 112.0
246.83699 64.0
247.863724 84.0
262.365173 96.0
270.054993 112.0
275.310364 188.0
283.273346 84.0
284.447021 64.0
289.189728 100.0
292.376709 48.0
296.235138 60.0
298.015747 72.0
300.770874 96.0
303.611511 88.0
324.801727 92.0
326.421539 100.0
357.232819 48.0
371.636536 76.0
373.188293 92.0
375.545166 120.0
380.121979 80.0
383.100311 84.0
384.785095 92.0
389.818451 84.0
390.593018 116.0
397.95575 92.0
406.999817 128.0
410.440247 84.0
413.559113 36.0
431.163574 88.0
432.44986 88.0
432.979828 100.0
439.798645 32.0
441.005798 80.0
453.235901 68.0
458.18158 92.0
462.284973 32.0
477.46698 108.0
505.147827 28.0
505.680328 64.0
516.357178 100.0
528.384705 44.0
590.77832 104.0
626.786255 80.0
635.120422 68.0
635.697449 40.0
644.267273 100.0
654.197144 64.0
666.569763 100.0
678.736755 172.0
689.100159 128.0
701.844482 76.0
739.494812 56.0
742.469238 48.0
765.857361 116.0
768.906372 28.0
795.26709 120.0
809.474548 108.0
809.531189 80.0
815.386047 80.0
826.054504 80.0
835.877075 68.0
859.508484 48.0
878.937561 192.0
879.551331 52.0
883.220825 188.0
906.686401 196.0
908.62323 132.0
923.333435 28.0
925.536255 268.0
933.966064 168.0
943.387512 108.0
946.157593 96.0
954.478943 140.0
963.607605 236.0
963.799133 172.0
976.601257 100.0
990.258118 160.0
994.597107 156.0
1001.816284 176.0
1004.009766 108.0
1009.409241 184.0
1011.57312 212.0
1013.156311 184.0
1017.030945 172.0
1020.092712 72.0
1021.752563 184.0
1024.11438 144.0
1031.861572 212.0
1033.524536 132.0
1035.406616 152.0
1040.042358 124.0
1047.688354 220.0
1052.422485 76.0
1054.237671 152.0
1058.695068 160.0
1060.1073 72.0
1060.716553 124.0
1062.435059 160.0
1067.091797 124.0
1067.488403 140.0
1068.698364 128.0
1069.173462 68.0
1069.733154 112.0
1072.612427 112.0
1072.697266 204.0
1084.246948 116.0
1085.879517 128.0
1086.7323 212.0
1086.863525 196.0
1091.402466 188.0
1092.349609 128.0
1094.356812 204.0
1096.748291 156.0
1099.195068 180.0
1100.369995 220.0
1106.532104 192.0
1113.036743 176.0
1118.927856 196.0
1120.353027 192.0
1121.032715 56.0
1121.299316 188.0
1126.383667 136.0
1126.944946 116.0
1127.118652 172.0
1131.178345 176.0
1132.048828 152.0
1135.513672 236.0
1137.110474 164.0
1141.349609 168.0
1141.894287 132.0
1143.159058 120.0
1143.300415 220.0
1150.330566 168.0
1161.998169 156.0
1167.044678 188.0
1170.944092 72.0
1172.18396 108.0
1177.409668 176.0
1177.853638 48.0
1178.42749 104.0
1178.632568 180.0
1179.008423 256.0
1186.126709 268.0
1189.337036 168.0
1191.362793 184.0
1192.915894 232.0
1195.28186 56.0
1195.625977 196.0
1198.194458 192.0
1199.379761 172.0
1199.793335 220.0
1207.105469 148.0
1207.880127 216.0
1210.115479 136.0
1210.849609 92.0
1211.133545 272.0
1211.521484 208.0
1216.396729 216.0
1216.750732 320.0
1221.810303 140.0
1223.383179 164.0
1225.221802 88.0
1226.357666 184.0
1227.17334 144.0
1228.93103 220.0
1229.796387 152.0
1232.058838 56.0
1232.212524 164.0
1235.939331 144.0
1239.349365 176.0
1240.365601 136.0
1240.905396 68.0
1241.298096 380.0
1244.266235 180.0
1244.877075 124.0
1245.445923 136.0
1246.232788 232.0
1247.139404 96.0
1248.229126 116.0
1249.453003 64.0
1249.847046 36.0
1250.691528 192.0
1252.303955 144.0
1254.953735 120.0
1255.426147 144.0
1255.715332 44.0
1256.900513 180.0
1257.641602 208.0
1261.498535 156.0
1265.184326 196.0
1265.426636 196.0
1265.934814 176.0
1266.055298 40.0
1267.004395 64.0
1267.713013 180.0
1267.932739 64.0
1268.492676 100.0
1270.293823 164.0
1271.606567 196.0
1277.276733 56.0
1279.525635 196.0
1283.194824 104.0
1289.121338 180.0
1289.541138 132.0
1290.856567 128.0
1291.178467 76.0
1294.298584 124.0
1295.372925 208.0
1296.748657 232.0
1298.297363 204.0
1299.416382 176.0
1300.327637 160.0
1304.896484 212.0
1306.176514 140.0
1307.205444 132.0
1309.631714 108.0
1312.637085 52.0
1315.797485 168.0
1316.606201 212.0
1320.660889 172.0
1321.398804 140.0
1321.478394 224.0
1324.026489 156.0
1324.866699 192.0
1330.298584 120.0
1332.150391 164.0
1334.345215 156.0
1337.262329 172.0
1338.762085 196.0
1339.3302 180.0
1344.594482 164.0
1344.79895 120.0
1346.4198 188.0
1350.710327 32.0
1351.105347 116.0
1353.081421 136.0
1353.169312 136.0
1355.227417 128.0
1357.983887 88.0
1358.42395 144.0
1358.583496 228.0
1359.275146 228.0
1359.39978 156.0
1359.524658 164.0
1361.036865 108.0
1363.100952 160.0
1364.982788 208.0
1365.076538 176.0
1365.181396 160.0
1365.335815 136.0
1365.96106 172.0
1372.411133 228.0
1374.426392 72.0
1374.994629 144.0
1378.879517 140.0
1378.938599 168.0
1379.463501 124.0
1381.4823 120.0
1381.874512 228.0
1382.059448 92.0
1384.850464 212.0
1386.161743 136.0
1387.814819 116.0
1388.37915 184.0
1388.519287 76.0
1389.053345 160.0
1389.698853 144.0
1393.530029 188.0
1395.640991 120.0
1395.893799 112.0
1397.560059 212.0
1398.460571 156.0
1400.999878 208.0
1402.192139 232.0
1405.182373 172.0
1410.813721 132.0
1411.015503 152.0
1412.0625 144.0
1413.656006 164.0
1414.47937 180.0
1414.82373 100.0
1415.894409 216.0
1420.714233 104.0
1422.35022 208.0
1422.432861 156.0
1422.748169 160.0
1424.775879 72.0
1425.391968 248.0
1427.113403 128.0
1428.015747 132.0
1429.249512 164.0
1434.385986 152.0
1439.743164 152.0
1440.777954 200.0
1442.017334 152.0
1442.440552 144.0
1444.217529 164.0
1444.429321 228.0
1446.231079 164.0
1448.888306 212.0
1449.971924 168.0
1450.749268 208.0
1451.154541 96.0
1453.468018 172.0
1456.633911 176.0
1456.990967 144.0
1457.545654 60.0
1457.796509 168.0
1459.172241 224.0
1460.320557 300.0
1461.834595 100.0
1463.029541 172.0
1465.317383 204.0
1468.661133 148.0
1468.859375 196.0
1469.088257 152.0
1469.317139 224.0
1470.591553 172.0
1472.645508 172.0
1472.744751 60.0
1472.813477 188.0
1473.287109 132.0
1474.723755 144.0
1476.604614 44.0
1478.938354 116.0
1479.872314 124.0
1480.913818 160.0
1481.335083 56.0
1481.564941 164.0
1481.879028 92.0
1485.766235 144.0
1485.889038 200.0
1486.679321 160.0
1488.560181 176.0
1488.660034 168.0
1489.321045 172.0
1490.396118 88.0
1492.425293 160.0
1493.479004 76.0
1494.463623 152.0
1494.586792 248.0
1494.740723 176.0
1496.53418 152.0
1498.444336 180.0
1498.498291 152.0
1498.644653 232.0
1498.814209 196.0
1499.446167 68.0
1500.240112 160.0
1500.537354 160.0
1500.841431 148.0
1502.484375 224.0
1503.294556 136.0
1504.174438 156.0
1504.776611 164.0
1505.031372 204.0
1505.100952 156.0
