>compound 3(2H)-Pyridazinone, 6-[4-(difluoromethoxy)-3-methoxyphenyl]- [CAS]
>formula C12H10F2N2O3
>ionization [M+H]+
>parentmass 269.075165
#inchi InChI=1S/C12H10F2N2O3/c1-18-10-6-7(2-4-9(10)19-12(13)14)8-3-5-11(17)16-15-8/h2-6,12H,1H3,(H,16,17)
#inchikey HJMQDJPMQIHLPB
#Ion_Source LC-ESI
#Instrument qTof
#Compound_Source Commercial
#PI Dorrestein
#Data_Collector Garg_Neha
#Scan -1
#Precursor_MZ 269.073
#ExactMass 268.066
#Charge 1
#CAS_Number N/A
#Pubmed_ID N/A
#Smiles COc1cc(ccc1OC(F)F)c2ccc(O)nn2
#INCHI_AUX N/A
#Library_Class 1
#SpectrumID CCMSLIB00000079193
#IonMode Positive
#UpdateWorkflowName UPDATE-SINGLE-ANNOTATED-GOLD
#LibraryQualityString Gold
#TaskID 278b19f5865741e282cec7349aa7e7a1
##Scan# 1167
#SpectrumFile NCP003592_E2_F11_BE2_01_15736.mzXML
#LibraryName NIHcollectionI_05062014.mgf
#MQScore -1
#Organism NIHcollectionI_05062014
#TIC_Query 0
#RT_Query -1
#MZErrorPPM -1
#SharedPeaks 0
#MassDiff 0
#LibMZ -1
#SpecMZ 269.073
#SpecCharge 0
#internalFilename spec-00000.mgf

>collision 10
45.463917 140.0
45.502842 156.0
46.213135 180.0
46.526207 212.0
47.32653 160.0
48.229 184.0
48.918404 148.0
49.011719 144.0
50.024311 144.0
51.362007 140.0
52.198402 196.0
52.395592 208.0
52.596035 196.0
53.323135 148.0
54.090351 148.0
54.305744 148.0
54.628899 216.0
55.035664 168.0
55.242573 172.0
55.543278 152.0
56.042793 144.0
56.333717 148.0
57.218529 168.0
58.290924 236.0
59.37941 156.0
59.390144 200.0
59.798843 176.0
60.008347 160.0
60.902809 140.0
62.886658 140.0
63.077782 152.0
63.437115 144.0
63.779987 164.0
65.405144 156.0
65.571037 196.0
67.984558 140.0
68.573326 140.0
68.886833 160.0
71.123207 192.0
71.146713 272.0
72.609665 152.0
74.576553 152.0
75.024101 248.0
75.203499 236.0
76.53141 148.0
77.094841 176.0
79.611229 196.0
80.636703 196.0
81.281395 160.0
81.383713 236.0
82.676178 200.0
82.973236 228.0
84.152184 164.0
84.291 148.0
84.823586 200.0
86.890884 152.0
87.260475 192.0
87.474411 216.0
87.558197 140.0
87.70166 164.0
87.80793 156.0
88.909866 220.0
89.426704 180.0
89.543434 164.0
91.143852 156.0
91.629021 144.0
91.69381 152.0
91.827492 168.0
92.656868 160.0
93.053871 148.0
94.306007 200.0
94.435547 220.0
94.727829 140.0
94.86541 196.0
95.049248 340.0
95.226318 232.0
96.313156 220.0
97.037216 144.0
97.164696 168.0
97.427765 140.0
97.817131 216.0
98.841423 184.0
99.021568 244.0
99.869064 172.0
99.89492 156.0
102.04882 308.0
102.675072 196.0
103.058609 208.0
103.285629 108.0
103.661598 200.0
103.957664 216.0
104.062538 168.0
104.461533 192.0
105.044441 184.0
105.755203 140.0
106.000954 188.0
106.031784 192.0
107.033806 612.0
107.512421 152.0
107.770538 148.0
108.043633 580.0
109.048836 164.0
109.417328 148.0
109.703354 160.0
110.016312 716.0
110.03965 152.0
110.063667 184.0
110.841782 140.0
111.022163 172.0
111.071716 160.0
111.624748 168.0
111.729912 212.0
112.018364 192.0
112.047813 164.0
112.15107 140.0
113.926437 156.0
114.077316 152.0
114.360214 160.0
115.044456 660.0
115.780235 168.0
116.049507 344.0
116.135757 224.0
116.758598 208.0
117.055573 304.0
118.063072 156.0
119.039436 172.0
120.050751 192.0
120.49131 172.0
120.521896 160.0
120.696754 168.0
121.379929 188.0
122.029854 264.0
122.059334 816.0
122.868965 144.0
123.040276 324.0
123.067375 784.0
124.05117 184.0
124.838066 156.0
124.962631 200.0
126.055199 144.0
126.896797 192.0
126.963623 160.0
127.038086 152.0
127.318115 184.0
128.051437 524.0
129.043274 296.0
129.578842 168.0
130.053589 1088.0
131.058746 704.0
132.043655 216.0
132.067413 688.0
132.316391 140.0
132.799072 156.0
133.047195 344.0
133.068008 172.0
133.37851 196.0
133.454376 232.0
133.792007 128.0
134.0466 320.0
135.053391 280.0
135.184372 176.0
136.030334 140.0
136.383392 184.0
136.95578 152.0
137.062943 240.0
138.052673 380.0
138.682465 152.0
139.022522 216.0
139.061676 304.0
139.090591 288.0
139.334808 156.0
139.710968 160.0
140.073486 172.0
141.053314 280.0
141.22583 160.0
141.893127 240.0
142.055161 368.0
143.061203 1128.0
143.52655 148.0
144.064407 288.0
145.037842 1188.0
145.076523 352.0
145.294037 204.0
145.615692 152.0
146.029083 196.0
146.060089 340.0
146.370804 256.0
146.891373 196.0
147.05574 1076.0
147.395966 176.0
148.06485 316.0
149.050949 184.0
149.46431 212.0
149.595734 160.0
149.673645 188.0
149.905045 168.0
150.056015 144.0
150.202484 220.0
151.039322 348.0
151.199341 208.0
151.275223 180.0
151.806885 220.0
152.042389 204.0
152.518875 200.0
152.590164 140.0
152.789368 148.0
153.040405 196.0
154.523743 188.0
155.035889 192.0
155.05455 156.0
155.450439 156.0
155.517441 196.0
156.790833 144.0
157.936813 196.0
158.047211 1820.0
159.03363 160.0
159.054703 1824.0
159.617447 144.0
160.037308 252.0
160.0634 3916.0
160.122299 128.0
160.153137 140.0
160.54631 148.0
161.03627 172.0
161.064606 348.0
162.037735 104.0
162.06044 148.0
162.078171 224.0
163.006882 152.0
163.045822 124.0
163.454422 208.0
163.986664 192.0
164.071915 180.0
164.581055 148.0
165.066544 168.0
167.211182 160.0
168.355835 204.0
170.023026 176.0
170.545059 220.0
170.676025 96.0
171.05481 2676.0
171.364777 160.0
171.938446 156.0
172.06131 628.0
172.96994 172.0
173.07048 1712.0
173.541962 176.0
173.903976 168.0
174.058853 256.0
174.075027 328.0
175.049957 1884.0
175.835388 128.0
176.059402 536.0
176.485626 164.0
177.035751 156.0
177.063766 424.0
177.62175 160.0
178.052322 488.0
178.93985 196.0
179.05368 160.0
180.033096 140.0
180.716904 156.0
180.944885 148.0
181.049301 184.0
183.04454 140.0
183.063385 164.0
183.268112 164.0
184.050308 136.0
184.590729 148.0
184.99115 148.0
185.029053 220.0
185.684799 144.0
186.007675 152.0
186.042175 4596.0
186.086395 192.0
186.409622 164.0
186.670593 144.0
186.724976 200.0
187.049438 4568.0
187.481812 216.0
188.058487 10124.0
188.109558 128.0
188.208664 96.0
189.06395 1320.0
189.323074 176.0
189.506607 144.0
189.712341 176.0
190.024796 204.0
190.065186 436.0
190.119354 164.0
190.572845 124.0
191.050995 120.0
191.080582 324.0
191.839874 184.0
192.063385 204.0
192.363998 148.0
193.068054 176.0
193.121109 172.0
193.215149 196.0
193.635895 148.0
195.593338 152.0
197.039398 128.0
198.25502 184.0
198.762573 220.0
199.079849 144.0
199.158417 148.0
199.534958 272.0
199.661499 164.0
199.833084 244.0
200.052475 344.0
200.08075 156.0
200.945969 228.0
201.067398 2968.0
201.866776 180.0
202.072922 680.0
203.045425 11056.0
203.155472 152.0
203.40097 156.0
204.052734 6052.0
205.05394 880.0
206.002182 188.0
206.048889 2564.0
206.40802 188.0
207.056274 1436.0
208.057526 172.0
209.824753 196.0
211.042542 188.0
211.783966 188.0
212.041824 176.0
214.036026 340.0
215.041565 108.0
215.200928 152.0
215.367386 144.0
216.0457 308.0
217.060776 4408.0
217.390411 180.0
217.959045 184.0
218.033325 156.0
218.06279 1108.0
218.877808 140.0
219.076706 5744.0
219.216553 160.0
219.372757 168.0
219.428772 144.0
219.998154 180.0
220.076645 1052.0
221.072327 112.0
221.769989 140.0
222.09021 144.0
224.05481 216.0
224.326279 212.0
224.848251 248.0
225.048248 148.0
226.056381 456.0
226.084183 256.0
227.062134 204.0
227.260117 176.0
228.251328 144.0
228.446823 180.0
229.064316 660.0
229.440598 144.0
229.981674 196.0
233.036621 132.0
233.09079 164.0
234.04332 2048.0
235.060928 160.0
235.189102 164.0
235.965012 208.0
237.056427 280.0
238.051315 348.0
239.059921 184.0
240.064194 264.0
240.292419 144.0
240.695526 116.0
241.086792 496.0
241.6147 164.0
242.053314 336.0
243.058762 196.0
243.701233 224.0
244.749435 152.0
247.077759 172.0
247.154556 200.0
247.500275 216.0
249.06781 1032.0
250.061874 168.0
250.49324 240.0
251.062851 352.0
251.21196 156.0
251.552765 192.0
252.064407 156.0
253.055344 220.0
253.767288 168.0
254.051651 732.0
254.103485 180.0
257.522308 160.0
259.564056 168.0
261.015442 208.0
262.98703 168.0
264.787872 176.0
267.056183 152.0
267.158417 128.0
267.567139 132.0
267.678925 96.0
267.769318 140.0
268.064819 744.0
268.100647 108.0
268.163513 176.0
268.204102 308.0
268.261322 200.0
268.404755 140.0
268.576965 148.0
268.638336 200.0
268.664673 180.0
268.722656 164.0
268.772034 236.0
268.815125 140.0
268.840668 216.0
268.926544 104.0
269.01178 392.0
269.075165 165504.0
269.160675 200.0
269.204895 188.0
269.227081 220.0
269.273956 116.0
269.321472 200.0
269.409363 240.0
269.611877 3124.0
269.778412 164.0
269.834686 100.0
269.971954 124.0
270.077301 22080.0
270.155579 112.0
270.292969 296.0
270.326996 128.0
270.387146 276.0
270.41449 100.0
270.492615 124.0
270.530701 112.0
270.746368 112.0
271.079712 2688.0
271.295685 164.0
271.493866 144.0
271.611328 124.0
271.702057 204.0
271.751251 188.0
271.798767 172.0
271.870422 220.0
271.91568 284.0
271.976532 228.0
272.019836 196.0
272.047791 388.0
272.072205 140.0
272.100525 212.0
272.166412 212.0
272.262817 108.0
272.59314 120.0
272.992249 132.0
273.314789 164.0
279.652679 136.0
281.165283 144.0
284.066406 108.0
284.165558 108.0
285.396088 248.0
287.084259 584.0
289.455292 144.0
404.066559 216.0
524.444519 120.0
533.024658 176.0
605.573303 164.0
741.81427 144.0
1288.679199 148.0
1312.494507 256.0
1331.272339 180.0
1459.189941 192.0
1536.200073 224.0
1560.163208 172.0
1584.739624 140.0
1616.894531 156.0
1628.849121 184.0
1642.460571 156.0
1689.020752 216.0
1710.799194 176.0
1711.079102 240.0
1734.010864 160.0
1779.951294 172.0
1782.39563 144.0
1811.782349 188.0
1813.561768 144.0
1830.731934 272.0
1841.597168 172.0
1887.36792 168.0
1940.576904 184.0
1951.463989 220.0
1969.97998 144.0
1986.879761 220.0
