>compound MLS000756891-01!Oxamniquine
>formula C14H21N3O3
>ionization [M+H]+
>parentmass 280.1655679840905
#inchi InChI=1S/C14H21N3O3/c1-9(2)15-7-12-4-3-10-5-11(8-18)14(17(19)20)6-13(10)16-12/h5-6,9,12,15-16,18H,3-4,7-8H2,1-2H3
#inchikey XCGYUJZMCCFSRP
#Ion_Source LC-ESI
#Instrument qTof
#Compound_Source NIH Pharmacologically Active Library
#PI Dorrestein
#Data_Collector VP/LMS
#Scan -1
#Precursor_MZ 280.165
#ExactMass 279.158
#Charge 1
#CAS_Number N/A
#Pubmed_ID N/A
#Smiles CC(C)NCC1CCc2cc(CO)c(cc2N1)[N+](=O)[O-]
#INCHI_AUX N/A
#Library_Class 1
#SpectrumID CCMSLIB00000085979
#IonMode Positive
#UpdateWorkflowName UPDATE-SINGLE-ANNOTATED-GOLD
#LibraryQualityString Gold
#TaskID d252d724072548979f1f6f1ced849daf
##Scan# 1211
#SpectrumFile p4-H11_GH11_01_18419.mzXML
#LibraryName Pharm_Active_Library.mgf
#MQScore -1
#Organism Pharm_Active_Library
#TIC_Query 0
#RT_Query -1
#MZErrorPPM -1
#SharedPeaks 0
#MassDiff 0
#LibMZ -1
#SpecMZ 280.165
#SpecCharge 0
#internalFilename spec-00000.mgf

>collision 10
44.897369 116.0
44.922714 124.0
44.960075 168.0
44.982143 172.0
45.037514 188.0
45.060902 144.0
45.076256 192.0
45.113991 172.0
45.139084 160.0
45.155132 172.0
45.185394 244.0
45.212662 156.0
45.253216 176.0
45.272907 28.0
45.298355 156.0
45.320766 176.0
45.419857 156.0
45.435097 120.0
45.456562 164.0
45.483406 208.0
45.507572 144.0
45.528885 224.0
45.558456 144.0
45.569355 176.0
45.588169 164.0
45.621769 172.0
45.635216 172.0
45.65353 168.0
45.674175 128.0
45.69574 64.0
45.710541 56.0
45.728035 192.0
45.750919 144.0
45.769772 152.0
45.787277 164.0
45.800747 156.0
45.835773 100.0
45.858685 124.0
45.884842 268.0
45.896431 140.0
45.93454 156.0
45.961178 132.0
45.974674 208.0
46.040825 92.0
46.073025 148.0
46.083302 224.0
46.096157 192.0
46.147575 84.0
46.162453 68.0
46.17868 252.0
46.190853 152.0
46.25716 48.0
46.285591 132.0
46.301842 48.0
46.328934 176.0
46.364895 168.0
46.374271 176.0
46.396221 160.0
46.399651 156.0
46.4128 132.0
46.43602 144.0
46.461792 204.0
46.479355 208.0
46.48439 196.0
46.486782 336.0
46.505219 124.0
46.521053 204.0
46.53101 172.0
46.552734 168.0
46.569183 144.0
46.58596 208.0
46.645008 176.0
46.656403 176.0
46.676395 136.0
46.689995 148.0
46.702236 176.0
46.71312 128.0
46.723736 164.0
46.729362 132.0
46.751854 332.0
46.763466 100.0
46.787968 204.0
46.801582 168.0
46.836071 168.0
46.866962 104.0
46.914665 144.0
46.933754 164.0
46.945438 324.0
47.010422 196.0
47.035355 212.0
47.046997 224.0
47.09206 280.0
47.118015 292.0
47.13031 176.0
47.178326 152.0
47.198223 76.0
47.216434 156.0
47.234131 64.0
47.236221 120.0
47.260208 160.0
47.270252 132.0
47.295792 180.0
47.314957 124.0
47.339561 136.0
47.357407 188.0
47.375973 208.0
47.402515 160.0
47.458817 328.0
47.471161 252.0
47.483501 140.0
47.506565 156.0
47.535633 136.0
47.567543 160.0
47.591915 128.0
47.608391 152.0
47.630207 136.0
47.649044 128.0
47.695541 160.0
47.717525 220.0
47.751781 120.0
47.77058 116.0
47.814613 152.0
47.846378 200.0
47.865547 228.0
47.881489 160.0
47.900566 348.0
47.99078 172.0
48.036949 228.0
48.047489 132.0
48.068962 192.0
48.116493 116.0
48.133785 196.0
48.151016 84.0
48.219578 212.0
48.249126 148.0
48.276733 116.0
48.286686 180.0
48.311359 152.0
48.327251 140.0
48.347336 156.0
48.361176 220.0
48.370293 164.0
48.381939 192.0
48.411018 92.0
48.424866 196.0
48.438042 172.0
48.457191 204.0
48.477291 176.0
48.479874 148.0
48.501076 264.0
48.514484 220.0
48.530186 140.0
48.552376 120.0
48.563469 136.0
48.574566 160.0
48.625908 100.0
48.657833 108.0
48.678661 120.0
48.70644 192.0
48.742992 232.0
48.747616 232.0
48.762016 172.0
48.828701 168.0
48.846027 200.0
48.876251 312.0
48.885792 168.0
48.940582 200.0
48.965149 144.0
48.993572 300.0
49.013905 308.0
49.06583 204.0
49.08918 72.0
49.13364 128.0
49.167305 168.0
49.187145 148.0
49.196617 184.0
49.211781 144.0
49.227333 268.0
49.246887 144.0
49.286045 132.0
49.301113 360.0
49.324951 152.0
49.360088 56.0
49.407642 192.0
49.423897 156.0
49.439301 160.0
49.456623 64.0
49.487419 148.0
49.504223 124.0
49.574268 200.0
49.589684 96.0
49.613514 152.0
49.624729 184.0
49.65979 132.0
49.679295 168.0
49.702103 148.0
49.728287 176.0
49.733967 120.0
49.738575 160.0
49.791721 140.0
49.826839 140.0
49.852493 108.0
49.883053 160.0
49.905548 196.0
49.919609 60.0
49.943344 228.0
49.967712 220.0
49.978687 148.0
50.009647 152.0
50.030766 192.0
50.039856 176.0
50.092804 148.0
50.119495 104.0
50.156139 184.0
50.168827 192.0
50.193924 180.0
50.22298 208.0
50.244217 172.0
50.286697 192.0
50.291237 108.0
50.296288 168.0
50.328697 192.0
50.346058 160.0
50.373451 116.0
50.403118 136.0
50.415836 52.0
50.432011 180.0
50.445518 256.0
50.482281 160.0
50.497742 156.0
50.523384 132.0
50.582737 112.0
50.61813 148.0
50.663734 244.0
50.688961 144.0
50.701714 192.0
50.712097 256.0
50.728645 128.0
50.76181 204.0
50.775436 208.0
50.786781 140.0
50.811481 156.0
50.867664 400.0
50.890381 92.0
50.927135 168.0
50.939297 116.0
50.953598 212.0
51.008297 128.0
51.022247 128.0
51.050491 168.0
51.092201 184.0
51.10643 160.0
51.15197 132.0
51.164322 124.0
51.18187 216.0
51.197086 128.0
51.211777 148.0
51.248814 156.0
51.284443 128.0
51.310101 132.0
51.338619 100.0
51.357376 204.0
51.371426 128.0
51.388546 128.0
51.398533 124.0
51.425648 196.0
51.468479 116.0
51.481987 148.0
51.532753 168.0
51.56419 176.0
51.60136 124.0
51.624237 168.0
51.680023 184.0
51.724293 180.0
51.751865 168.0
51.768776 112.0
51.790588 216.0
51.813179 136.0
51.857601 200.0
51.87767 88.0
51.90921 160.0
51.91925 152.0
51.97332 156.0
51.993855 140.0
52.005337 136.0
52.102982 128.0
52.117352 152.0
52.151402 144.0
52.170528 192.0
52.192097 168.0
52.207912 176.0
52.225819 160.0
52.236015 156.0
52.264015 184.0
52.276966 220.0
52.295677 156.0
52.335987 144.0
52.406353 192.0
52.433945 176.0
52.462772 184.0
52.474304 252.0
52.522301 228.0
52.557964 276.0
52.585384 168.0
52.622917 120.0
52.667683 204.0
52.688271 144.0
52.709579 132.0
52.731258 156.0
52.761616 88.0
52.776073 184.0
52.812225 192.0
52.872135 256.0
52.887466 208.0
52.938141 172.0
52.959866 120.0
52.981594 64.0
53.014919 160.0
53.037956 152.0
53.064205 140.0
53.075806 156.0
53.106258 176.0
53.122215 116.0
53.208969 180.0
53.236881 180.0
53.247047 132.0
53.284813 176.0
53.308064 336.0
53.318237 168.0
53.345852 164.0
53.361843 188.0
53.381618 80.0
53.404224 144.0
53.450573 216.0
53.485943 224.0
53.51025 172.0
53.529179 108.0
53.549568 208.0
53.559761 168.0
53.586811 472.0
53.628246 168.0
53.639908 56.0
53.650913 108.0
53.679443 172.0
53.695164 192.0
53.739429 232.0
53.753334 208.0
53.787239 248.0
53.806217 124.0
53.823959 208.0
53.853966 160.0
53.871933 388.0
53.939743 308.0
53.952312 172.0
53.992611 168.0
54.006416 180.0
54.038601 152.0
54.048843 264.0
54.08543 192.0
54.098606 176.0
54.143997 176.0
54.164505 148.0
54.182083 164.0
54.191994 404.0
54.243633 60.0
54.304291 228.0
54.325752 184.0
54.36097 64.0
54.402889 164.0
54.412186 372.0
54.45052 128.0
54.472866 220.0
54.493122 164.0
54.525562 104.0
54.559258 96.0
54.583763 192.0
54.613667 180.0
54.665161 144.0
54.679878 112.0
54.694595 128.0
54.710789 44.0
54.722569 108.0
54.752018 80.0
54.798359 148.0
54.831577 188.0
54.844841 168.0
54.857197 136.0
54.87875 148.0
54.90234 128.0
54.92004 76.0
54.931843 96.0
54.943348 140.0
54.983482 176.0
55.005623 200.0
55.027767 204.0
55.041828 200.0
55.058777 136.0
55.07798 180.0
55.125259 180.0
55.172558 188.0
55.208042 184.0
55.224689 172.0
55.240498 140.0
55.268448 168.0
55.313885 296.0
55.336781 184.0
55.361622 108.0
55.367737 84.0
55.373123 184.0
55.395512 152.0
55.420002 192.0
55.437508 144.0
55.468632 148.0
55.514374 188.0
55.5858 340.0
55.622902 160.0
55.646717 200.0
55.662663 200.0
55.688236 164.0
55.728481 176.0
55.74469 36.0
55.76104 220.0
55.777607 164.0
55.798203 220.0
55.845787 212.0
55.860664 160.0
55.888931 156.0
55.916668 200.0
55.93074 172.0
55.946918 200.0
55.986263 232.0
56.008881 140.0
56.024418 128.0
56.045277 48.0
56.061668 160.0
56.083298 156.0
56.100422 120.0
56.14217 124.0
56.18692 104.0
56.285427 252.0
56.318375 132.0
56.336807 160.0
56.353718 128.0
56.376553 128.0
56.40794 160.0
56.475227 32.0
56.497665 148.0
56.536572 124.0
56.699814 132.0
56.756889 164.0
56.807793 184.0
56.819775 188.0
56.846783 140.0
56.861004 168.0
56.873798 196.0
56.902321 168.0
56.91283 100.0
56.936859 196.0
56.948589 212.0
56.9855 136.0
56.990627 136.0
56.996109 244.0
57.007465 128.0
57.033638 116.0
57.052319 176.0
57.056469 60.0
57.093155 96.0
57.120232 148.0
57.150169 160.0
57.192459 112.0
57.208347 144.0
57.224072 112.0
57.28582 188.0
57.308418 168.0
57.385288 112.0
57.407906 128.0
57.457684 320.0
57.490879 52.0
57.542355 232.0
57.556976 244.0
57.640499 136.0
57.663048 128.0
57.688744 168.0
57.70084 172.0
57.747299 160.0
57.76133 104.0
57.779484 40.0
57.808609 252.0
57.84153 52.0
57.852127 68.0
57.865753 140.0
57.902096 184.0
57.914211 112.0
57.935421 168.0
57.954727 208.0
57.973301 108.0
58.030903 160.0
58.064262 160.0
58.074879 224.0
58.097633 204.0
58.109772 184.0
58.149227 176.0
58.159851 132.0
58.171993 172.0
58.198723 244.0
58.20285 148.0
58.229332 208.0
58.23547 204.0
58.258556 228.0
58.34214 76.0
58.360245 132.0
58.384686 204.0
58.407528 192.0
58.427307 132.0
58.460781 172.0
58.472954 140.0
58.507271 152.0
58.538418 52.0
58.559738 224.0
58.610012 40.0
58.686615 156.0
58.702866 184.0
58.706924 160.0
58.715477 204.0
58.750282 156.0
58.764011 204.0
58.776951 200.0
58.807106 168.0
58.828114 48.0
58.838799 120.0
58.864754 160.0
58.893772 148.0
58.93502 140.0
58.967113 124.0
58.97934 228.0
59.018623 196.0
59.034222 152.0
59.064972 104.0
59.095348 140.0
59.116989 188.0
59.130764 152.0
59.143444 140.0
59.16655 148.0
59.196701 144.0
59.21191 128.0
59.274681 164.0
59.29464 200.0
59.308437 144.0
59.320698 124.0
59.336029 180.0
59.362095 104.0
59.374363 136.0
59.388168 108.0
59.403507 144.0
59.448002 188.0
59.460281 132.0
59.494049 120.0
59.520275 196.0
59.532436 100.0
59.552402 148.0
59.577057 244.0
59.600025 120.0
59.643059 188.0
59.657928 160.0
59.689178 160.0
59.727631 144.0
59.803387 340.0
59.826115 196.0
59.857479 216.0
59.88155 144.0
59.89233 136.0
59.923141 124.0
59.938549 204.0
59.954136 140.0
60.020248 252.0
60.038174 160.0
60.060345 152.0
60.079784 176.0
60.143295 132.0
60.165558 332.0
60.19672 232.0
60.232063 244.0
60.265671 264.0
60.307396 172.0
60.319763 148.0
60.347591 176.0
60.36972 64.0
60.380707 164.0
60.397079 208.0
60.415642 192.0
60.430424 144.0
60.486858 192.0
60.523689 168.0
60.537918 136.0
60.548759 232.0
60.559601 240.0
60.577511 184.0
60.607529 124.0
60.633972 204.0
60.64637 100.0
60.664974 140.0
60.697533 284.0
60.748714 208.0
60.759575 180.0
60.773537 184.0
60.790211 172.0
60.800926 148.0
60.840275 196.0
60.860458 136.0
60.891369 124.0
60.933285 180.0
60.941715 140.0
60.984741 60.0
61.029949 148.0
61.085236 140.0
61.128647 108.0
61.181595 256.0
61.210323 208.0
61.222782 112.0
61.275745 348.0
61.320934 132.0
61.342319 164.0
61.400448 168.0
61.4291 304.0
61.442028 116.0
61.476894 228.0
61.498741 112.0
61.522923 196.0
61.542454 196.0
61.575249 144.0
61.612106 148.0
61.629925 132.0
61.661251 176.0
61.692936 172.0
61.730156 200.0
61.758118 188.0
61.794136 168.0
61.812782 136.0
61.855133 44.0
61.876385 288.0
62.005497 176.0
62.017059 212.0
62.068203 164.0
62.108982 116.0
62.141926 124.0
62.156048 128.0
62.178017 88.0
62.207127 168.0
62.219025 160.0
62.247093 104.0
62.273792 232.0
62.297352 156.0
62.337238 156.0
62.443539 188.0
62.454548 200.0
62.501743 160.0
62.514332 168.0
62.545811 144.0
62.559978 124.0
62.636627 184.0
62.66077 148.0
62.711739 140.0
62.715195 172.0
62.723122 184.0
62.72591 276.0
62.803043 164.0
62.835777 216.0
62.877506 216.0
62.92416 128.0
62.999966 152.0
63.031567 152.0
63.060013 176.0
63.073559 232.0
63.120838 76.0
63.177029 100.0
63.233662 192.0
63.240242 152.0
63.24218 184.0
63.281483 196.0
63.309986 172.0
63.323364 148.0
63.338493 72.0
63.408211 100.0
63.465523 208.0
63.480759 168.0
63.50499 200.0
63.536652 72.0
63.560452 236.0
63.613571 128.0
63.657284 108.0
63.743156 140.0
63.757366 204.0
63.825726 192.0
63.839218 196.0
63.860043 76.0
63.900936 196.0
63.946629 208.0
63.959362 120.0
63.980503 180.0
63.99778 184.0
64.046867 176.0
64.090584 264.0
64.102699 196.0
64.117043 212.0
64.129799 56.0
64.15345 200.0
64.156227 144.0
64.176994 296.0
64.20256 216.0
64.214859 172.0
64.246201 76.0
64.281372 184.0
64.337166 196.0
64.357925 176.0
64.423996 184.0
64.437782 116.0
64.458557 208.0
64.513336 176.0
64.543274 204.0
64.581657 92.0
64.594452 168.0
64.610451 192.0
64.627251 392.0
64.647255 132.0
64.66806 184.0
64.695274 148.0
64.722488 172.0
64.781311 420.0
64.804176 156.0
64.82341 324.0
64.835854 208.0
64.857063 128.0
64.89875 112.0
64.943649 204.0
64.95488 140.0
64.978943 100.0
64.991776 84.0
65.008583 236.0
65.036713 364.0
65.092903 124.0
65.108963 160.0
65.16037 136.0
65.181252 288.0
65.195717 116.0
65.20697 132.0
65.232689 64.0
65.252823 160.0
65.269661 124.0
65.280922 100.0
65.309868 164.0
65.328392 152.0
65.345978 200.0
65.36779 140.0
65.398369 96.0
65.453102 128.0
65.483704 172.0
65.557442 196.0
65.577148 160.0
65.594879 168.0
65.627129 112.0
65.644867 180.0
65.664902 156.0
65.686798 156.0
65.703461 220.0
65.759407 116.0
65.796539 180.0
65.820381 156.0
65.854668 196.0
65.880516 144.0
65.891823 136.0
65.903137 76.0
65.914444 252.0
65.950737 200.0
65.966164 192.0
65.98735 388.0
66.009819 80.0
66.022369 168.0
66.04702 60.0
66.061577 136.0
66.131157 88.0
66.155434 136.0
66.181343 80.0
66.200401 228.0
66.22345 128.0
66.312561 112.0
66.327148 104.0
66.353088 208.0
66.417953 52.0
66.453644 144.0
66.473114 116.0
66.48687 128.0
66.503952 140.0
66.517303 160.0
66.540421 300.0
66.586754 180.0
66.602905 204.0
66.638489 132.0
66.653168 136.0
66.66497 188.0
66.687492 196.0
66.700417 164.0
66.718376 152.0
66.731384 152.0
66.768784 156.0
66.798851 156.0
66.841988 124.0
66.853378 132.0
66.875473 180.0
66.890816 172.0
66.905464 236.0
66.958946 232.0
66.973274 200.0
66.994576 112.0
67.011955 180.0
67.025993 92.0
67.059265 164.0
67.076004 308.0
67.086731 196.0
67.123795 264.0
67.162941 188.0
67.200462 148.0
67.277168 216.0
67.288597 116.0
67.303291 48.0
67.319138 256.0
67.323067 180.0
67.328354 276.0
67.354126 224.0
67.375153 100.0
67.44706 132.0
67.483612 144.0
67.514053 168.0
67.543533 156.0
67.612885 188.0
67.619286 112.0
67.641716 172.0
67.654816 124.0
67.685921 76.0
67.704079 180.0
67.738327 60.0
67.750664 196.0
67.799461 208.0
67.8134 332.0
67.85289 164.0
67.858009 148.0
67.874359 240.0
67.892403 248.0
67.911324 168.0
67.995758 152.0
68.038437 180.0
68.100838 156.0
68.131325 136.0
68.166595 148.0
68.192589 100.0
68.217506 192.0
68.261894 100.0
68.281822 104.0
68.314529 136.0
68.386765 320.0
68.431099 140.0
68.437683 116.0
68.448792 228.0
68.465958 128.0
68.510612 184.0
68.540482 184.0
68.556572 188.0
68.582939 128.0
68.600197 136.0
68.620857 208.0
68.673058 300.0
68.711571 264.0
68.742874 140.0
68.803932 184.0
68.842453 220.0
68.879547 212.0
68.91465 220.0
68.951004 164.0
68.969185 180.0
69.007103 124.0
69.038628 208.0
69.061775 64.0
69.096596 168.0
69.126305 168.0
69.151123 136.0
69.197479 132.0
69.214035 100.0
69.23542 140.0
69.252121 152.0
69.305092 140.0
69.317207 156.0
69.330452 204.0
69.368118 136.0
69.394638 156.0
69.475685 180.0
69.514069 300.0
69.529007 148.0
69.568993 220.0
69.582901 232.0
69.638588 168.0
69.65686 120.0
69.672615 156.0
69.701714 124.0
69.72332 100.0
69.74659 164.0
69.818085 152.0
69.843033 204.0
69.859665 228.0
69.881294 140.0
69.892937 136.0
69.936211 136.0
69.972832 84.0
69.99781 188.0
70.014465 244.0
70.026123 152.0
70.062141 180.0
70.06839 288.0
70.081558 144.0
70.107704 148.0
70.152893 148.0
70.184441 136.0
70.20845 200.0
70.233482 176.0
70.248161 192.0
70.334587 32.0
70.356735 200.0
70.394691 136.0
70.453148 116.0
70.503281 164.0
70.554489 176.0
70.583649 156.0
70.609291 224.0
70.643501 144.0
70.660461 100.0
70.680542 216.0
70.710663 180.0
70.75251 124.0
70.799393 156.0
70.822838 92.0
70.834564 196.0
70.863045 144.0
70.889854 72.0
70.911644 120.0
70.949509 212.0
70.970322 128.0
71.017136 96.0
71.062569 248.0
71.079346 104.0
71.102844 120.0
71.114594 104.0
71.163277 160.0
71.192825 180.0
71.199905 108.0
71.202446 160.0
71.225487 180.0
71.25061 140.0
71.263313 164.0
71.272995 136.0
71.309952 356.0
71.329597 132.0
71.346405 120.0
71.393486 60.0
71.418716 168.0
71.433853 216.0
71.502838 104.0
71.523041 152.0
71.55777 152.0
71.602173 160.0
71.618866 184.0
71.639229 160.0
71.671242 36.0
71.723106 160.0
71.743713 104.0
71.760574 92.0
71.846588 104.0
71.875275 160.0
71.926285 124.0
71.959663 168.0
71.976555 120.0
72.008347 184.0
72.02597 240.0
72.045799 196.0
72.098343 128.0
72.131599 164.0
72.161499 180.0
72.175941 172.0
72.21315 116.0
72.235916 156.0
72.258179 148.0
72.272354 44.0
72.29763 180.0
72.326515 92.0
72.340057 96.0
72.3536 180.0
72.37561 64.0
72.394623 176.0
72.438271 80.0
72.453522 176.0
72.480629 180.0
72.524971 184.0
72.60099 196.0
72.646454 332.0
72.673927 316.0
72.690895 120.0
72.732208 164.0
72.745209 256.0
72.774071 108.0
72.820107 184.0
72.872581 120.0
72.888466 104.0
72.909966 188.0
72.972862 124.0
73.018776 116.0
73.04599 140.0
73.059601 160.0
73.097031 228.0
73.108948 108.0
73.166817 312.0
73.182045 144.0
73.219604 204.0
73.242729 188.0
73.266495 184.0
73.325615 200.0
73.352509 168.0
73.384178 160.0
73.403656 64.0
73.483826 108.0
73.541847 208.0
73.559341 160.0
73.646004 116.0
73.673737 340.0
73.71727 364.0
73.730507 156.0
73.761574 176.0
73.801514 52.0
73.820328 148.0
73.833145 188.0
73.873344 168.0
73.899818 152.0
73.933701 176.0
73.952057 32.0
73.988007 96.0
74.019699 188.0
74.03595 212.0
74.058815 172.0
74.101898 112.0
74.127525 132.0
74.155228 220.0
74.160919 136.0
74.166489 212.0
74.188454 200.0
74.208771 136.0
74.212509 116.0
74.228889 256.0
74.277626 108.0
74.296364 156.0
74.300446 144.0
74.309975 200.0
74.327377 184.0
74.367805 388.0
74.375046 216.0
74.37941 172.0
74.4132 52.0
74.438957 144.0
74.450974 140.0
74.468147 144.0
74.492195 136.0
74.512894 176.0
74.543739 44.0
74.559212 180.0
74.584991 140.0
74.603157 200.0
74.625305 176.0
74.646881 136.0
74.684013 292.0
74.72773 120.0
74.760368 128.0
74.817223 208.0
74.840698 196.0
74.901604 88.0
74.946396 96.0
74.969627 324.0
75.018784 224.0
75.041199 152.0
75.06189 260.0
75.073761 176.0
75.118805 188.0
75.208534 164.0
75.223419 128.0
75.239746 200.0
75.245735 116.0
75.252029 188.0
75.282776 108.0
75.302124 176.0
75.329407 184.0
75.355751 232.0
75.372597 176.0
75.394241 196.0
75.441879 144.0
75.498009 184.0
75.588867 180.0
75.620728 192.0
75.644135 128.0
75.663177 100.0
75.852005 136.0
75.876274 140.0
75.907486 72.0
75.928299 128.0
75.949112 124.0
75.985542 184.0
76.018509 132.0
76.058426 100.0
76.079254 140.0
76.109627 176.0
76.14003 132.0
76.226891 156.0
76.251221 164.0
76.334671 164.0
76.353798 36.0
76.365974 176.0
76.423386 208.0
76.440781 76.0
76.491257 100.0
76.522591 196.0
76.541748 164.0
76.57309 152.0
76.618729 160.0
76.630531 136.0
76.661385 288.0
76.68634 60.0
76.702034 168.0
76.726433 132.0
76.763947 164.0
76.786278 164.0
76.829895 148.0
76.840637 92.0
76.855507 140.0
76.890068 164.0
76.981628 188.0
77.002144 160.0
77.035332 112.0
77.097931 164.0
77.114456 208.0
77.127945 200.0
77.149094 200.0
77.170776 176.0
77.190887 180.0
77.230331 188.0
77.287094 148.0
77.302841 148.0
77.33609 176.0
77.348343 168.0
77.42025 176.0
77.434143 164.0
77.477936 196.0
77.525246 168.0
77.549782 176.0
77.572899 128.0
77.584839 160.0
77.653229 112.0
77.683617 208.0
77.700592 156.0
77.721642 184.0
77.742699 272.0
77.763763 104.0
77.862083 196.0
77.920052 48.0
77.939377 140.0
77.974525 160.0
77.988586 120.0
78.002647 276.0
78.109917 60.0
78.15007 184.0
78.190361 188.0
78.211975 180.0
78.268311 200.0
78.29409 272.0
78.317619 128.0
78.336006 164.0
78.366943 232.0
78.38633 100.0
78.403397 140.0
78.439201 208.0
78.458595 164.0
78.477989 156.0
78.506203 144.0
78.522934 172.0
78.55735 140.0
78.622635 212.0
78.645584 148.0
78.659706 200.0
78.695015 104.0
78.726593 68.0
78.764427 196.0
78.78862 180.0
78.80629 204.0
78.819092 260.0
78.892891 128.0
78.907028 108.0
78.921173 252.0
78.956497 148.0
78.979256 140.0
79.003075 228.0
79.027306 128.0
79.039688 32.0
79.133347 136.0
79.170685 180.0
79.19194 180.0
79.239769 152.0
79.278748 164.0
79.292358 212.0
79.360291 204.0
79.422363 168.0
79.463165 208.0
79.491554 72.0
79.507523 184.0
79.521721 180.0
79.55545 136.0
79.569656 176.0
79.63195 144.0
79.649567 112.0
79.727745 128.0
79.750847 104.0
79.798843 212.0
79.813072 116.0
79.825516 100.0
79.905563 152.0
79.918015 304.0
79.974754 68.0
80.012344 152.0
80.053299 152.0
80.076454 128.0
80.117424 156.0
80.1567 176.0
80.190483 164.0
80.222565 136.0
80.254662 160.0
80.281403 176.0
80.306511 160.0
80.334915 260.0
80.361679 160.0
80.383087 84.0
80.425713 172.0
80.454483 144.0
80.484833 208.0
80.497337 96.0
80.51162 68.0
80.531265 208.0
80.583076 136.0
80.608543 168.0
80.624176 188.0
80.644402 240.0
80.65992 188.0
80.679581 160.0
80.695625 156.0
80.701698 152.0
80.735016 116.0
80.774361 140.0
80.801201 144.0
80.822273 164.0
80.854881 100.0
80.870987 116.0
80.883514 140.0
80.90242 172.0
80.935127 216.0
80.947731 280.0
80.959663 156.0
80.98558 188.0
81.041115 172.0
81.062172 192.0
81.098465 148.0
81.127144 140.0
81.148659 312.0
81.164795 32.0
81.180931 144.0
81.215012 148.0
81.238663 172.0
81.274208 184.0
81.288567 148.0
81.31369 172.0
81.347794 216.0
81.367546 152.0
81.380814 156.0
81.407043 100.0
81.451302 188.0
81.478897 156.0
81.492233 180.0
81.511238 172.0
81.531006 152.0
81.628082 184.0
81.673042 140.0
81.696541 124.0
81.726089 176.0
81.779205 120.0
81.808189 184.0
81.822403 116.0
81.842209 112.0
81.903442 128.0
81.923256 204.0
81.946678 184.0
81.96109 84.0
81.98632 148.0
82.006149 148.0
82.02655 200.0
82.065681 176.0
82.08654 128.0
82.138611 164.0
82.184059 220.0
82.220772 96.0
82.250404 248.0
82.2742 100.0
82.307045 188.0
82.323677 272.0
82.341736 108.0
82.368088 136.0
82.383278 204.0
82.432068 168.0
82.459618 212.0
82.486282 152.0
82.526062 112.0
82.540527 208.0
82.558609 212.0
82.578545 184.0
82.601532 180.0
82.623726 152.0
82.654488 152.0
82.704285 124.0
82.766708 76.0
82.811989 180.0
82.877876 196.0
82.907684 268.0
82.931572 108.0
82.964203 128.0
83.001228 212.0
83.053055 136.0
83.067039 400.0
83.121803 112.0
83.176445 164.0
83.199387 168.0
83.219421 164.0
83.236359 152.0
83.258148 200.0
83.298111 384.0
83.333641 208.0
83.350517 104.0
83.3535 204.0
83.387138 172.0
83.399864 84.0
83.41259 216.0
83.450768 200.0
83.477119 152.0
83.499191 156.0
83.525597 164.0
83.545341 160.0
83.558075 176.0
83.57991 136.0
83.639969 88.0
83.667274 224.0
83.713097 212.0
83.740112 160.0
83.758324 108.0
83.778366 92.0
83.808388 140.0
83.980705 108.0
83.995293 120.0
84.024536 144.0
84.059151 152.0
84.074623 92.0
84.097481 160.0
84.123032 156.0
84.203377 108.0
84.217987 216.0
84.238609 152.0
84.270401 104.0
84.375145 72.0
84.387939 232.0
84.472733 164.0
84.492142 160.0
84.552574 64.0
84.600166 164.0
84.619064 212.0
84.643661 148.0
84.659775 252.0
84.746681 136.0
84.784943 208.0
84.818153 156.0
84.834656 76.0
84.876823 68.0
84.893326 172.0
84.913506 160.0
84.983292 204.0
85.006134 160.0
85.02076 164.0
85.049278 84.0
85.113533 212.0
85.137405 152.0
85.159447 212.0
85.172302 52.0
85.203529 96.0
85.225578 172.0
85.25589 284.0
85.300934 156.0
85.326668 168.0
85.392868 220.0
85.435173 152.0
85.455414 160.0
85.486694 120.0
85.512459 168.0
85.544991 184.0
85.567688 280.0
85.637665 160.0
85.661606 116.0
85.698456 116.0
85.729782 120.0
85.768486 112.0
85.781387 252.0
85.83744 160.0
85.86805 244.0
85.882179 224.0
85.912552 212.0
85.949219 132.0
85.962135 156.0
85.994263 188.0
86.026741 164.0
86.066437 128.0
86.10244 244.0
86.186348 200.0
86.207748 268.0
86.257652 84.0
86.272438 60.0
86.285378 192.0
86.306747 144.0
86.329605 212.0
86.366745 144.0
86.418549 328.0
86.450005 112.0
86.486633 96.0
86.549454 204.0
86.57589 152.0
86.592056 176.0
86.624725 208.0
86.63887 272.0
86.651833 196.0
86.674072 176.0
86.688896 104.0
86.718178 192.0
86.783432 132.0
86.830704 176.0
86.844627 136.0
86.894714 220.0
86.918839 192.0
86.977715 320.0
87.022781 64.0
87.046921 188.0
87.065445 156.0
87.092331 356.0
87.154655 164.0
87.176956 124.0
87.227142 244.0
87.255028 420.0
87.288345 152.0
87.357307 168.0
87.418709 160.0
87.483856 132.0
87.528542 132.0
87.636574 148.0
87.681213 184.0
87.696495 204.0
87.747597 168.0
87.77317 192.0
87.792122 152.0
87.811806 168.0
87.83419 88.0
87.850975 144.0
87.890846 152.0
87.946144 180.0
88.000198 164.0
88.018654 148.0
88.033401 228.0
88.070732 112.0
88.075562 52.0
88.084236 88.0
88.090584 176.0
88.111206 164.0
88.166534 204.0
88.205788 192.0
88.248787 180.0
88.334816 364.0
88.363976 156.0
88.39225 140.0
88.405273 140.0
88.476768 112.0
88.521797 168.0
88.5653 184.0
88.613762 220.0
88.6325 152.0
88.726212 148.0
88.778717 220.0
88.794724 156.0
88.839363 168.0
88.889397 124.0
88.932724 136.0
88.96447 216.0
88.987137 276.0
89.013283 140.0
89.03791 144.0
89.060822 160.0
89.088417 96.0
89.1026 196.0
89.124115 176.0
89.150299 64.0
89.170715 180.0
89.22937 156.0
89.254631 228.0
89.267937 84.0
89.295181 84.0
89.39386 240.0
89.411827 144.0
89.432533 32.0
89.453239 256.0
89.47966 188.0
89.522858 172.0
89.555588 404.0
89.615204 88.0
89.651291 184.0
89.665962 200.0
89.705666 172.0
89.721375 144.0
89.773544 140.0
89.79052 140.0
89.811264 156.0
89.830559 208.0
89.853218 184.0
89.915039 216.0
89.952789 180.0
89.992432 144.0
90.01046 244.0
90.045654 184.0
90.071754 76.0
90.086861 152.0
90.124893 156.0
90.152893 180.0
90.16732 76.0
90.194221 128.0
90.238052 292.0
90.375801 204.0
90.421158 176.0
90.485909 156.0
90.528023 148.0
90.569229 132.0
90.622276 124.0
90.6679 152.0
90.69239 180.0
90.737892 184.0
90.782402 156.0
90.816391 232.0
90.83461 116.0
90.861168 156.0
90.883934 140.0
90.937073 156.0
90.950356 204.0
90.973137 196.0
90.992905 116.0
91.014908 136.0
91.030098 348.0
91.054848 876.0
91.083771 168.0
91.102272 120.0
91.126968 264.0
91.187782 200.0
91.208351 156.0
91.22419 180.0
91.290443 144.0
91.311363 116.0
91.369492 292.0
91.393166 196.0
91.438835 140.0
91.496529 208.0
91.522598 32.0
91.55497 176.0
91.602585 180.0
91.62545 104.0
91.652122 128.0
91.681847 140.0
91.747421 148.0
91.76889 200.0
91.830589 208.0
91.837936 128.0
91.845436 140.0
91.880676 156.0
91.91526 232.0
91.94397 188.0
91.968697 104.0
91.9897 216.0
92.050049 316.0
92.07753 200.0
92.111908 240.0
92.167313 132.0
92.186424 188.0
92.201714 160.0
92.234207 148.0
92.316475 132.0
92.35276 144.0
92.368057 136.0
92.387192 192.0
92.400528 136.0
92.4104 152.0
92.429283 160.0
92.480957 128.0
92.521156 140.0
92.534554 148.0
92.551788 136.0
92.62587 188.0
92.641808 44.0
92.70887 76.0
92.727898 168.0
92.73481 156.0
92.808548 164.0
92.831558 176.0
92.877319 172.0
92.988045 120.0
93.017662 156.0
93.05928 432.0
93.094467 76.0
93.167221 168.0
93.25296 176.0
93.32505 228.0
93.344162 132.0
93.400055 184.0
93.413521 140.0
93.43853 164.0
93.463547 192.0
93.488564 160.0
93.527054 128.0
93.593117 140.0
93.618256 308.0
93.654137 336.0
93.696159 236.0
93.735054 132.0
93.756248 136.0
93.771667 108.0
93.810219 120.0
93.858421 192.0
93.906631 208.0
93.956787 232.0
94.037834 156.0
94.072678 360.0
94.15802 224.0
94.194237 148.0
94.23085 196.0
94.265724 120.0
94.283394 164.0
94.314041 144.0
94.376022 196.0
94.406845 172.0
94.430046 144.0
94.444878 132.0
94.457916 148.0
94.474541 148.0
94.499687 68.0
94.517105 172.0
94.534523 136.0
94.551941 180.0
94.565483 172.0
94.604111 180.0
94.671036 176.0
94.696434 188.0
94.730072 116.0
94.753326 180.0
94.803993 160.0
94.832771 44.0
94.877991 196.0
94.910316 136.0
94.923889 132.0
94.954391 176.0
94.980133 40.0
94.994431 344.0
95.016998 124.0
95.045616 208.0
95.069389 104.0
95.112793 220.0
95.141205 140.0
95.163254 344.0
95.192978 60.0
95.209167 32.0
95.226646 148.0
95.365875 292.0
95.450134 156.0
95.465691 124.0
95.485039 156.0
95.52404 360.0
95.601868 136.0
95.671936 196.0
95.695305 212.0
95.728401 72.0
95.791481 280.0
95.809135 196.0
95.839439 144.0
95.929085 128.0
95.942734 108.0
95.991478 184.0
96.01442 136.0
96.026581 260.0
96.06041 164.0
96.075348 320.0
96.104614 168.0
96.120224 200.0
96.13974 108.0
96.163162 120.0
96.210007 112.0
96.225624 216.0
96.254913 132.0
96.308083 108.0
96.325226 40.0
96.389702 148.0
96.428787 76.0
96.454193 212.0
96.48156 176.0
96.495247 184.0
96.548042 148.0
96.565605 176.0
96.589119 172.0
96.641937 208.0
96.675209 140.0
96.688904 76.0
96.714691 208.0
96.748672 196.0
96.77504 200.0
96.802452 144.0
96.876877 156.0
96.89843 200.0
96.961136 148.0
96.987495 152.0
97.049194 180.0
97.071846 152.0
97.098373 124.0
97.129753 332.0
97.15432 260.0
97.190575 96.0
97.267609 184.0
97.342209 160.0
97.367363 144.0
97.479233 160.0
97.502174 148.0
97.509491 100.0
97.513557 188.0
97.570892 132.0
97.587341 140.0
97.624702 100.0
97.716301 232.0
97.746704 200.0
97.787994 148.0
97.80571 56.0
97.821251 232.0
97.829025 208.0
97.852951 284.0
97.883507 332.0
97.890686 172.0
97.923058 180.0
97.964638 192.0
97.998703 188.0
98.012497 212.0
98.026291 164.0
98.04113 400.0
98.060341 72.0
98.085419 164.0
98.099213 140.0
98.116959 176.0
98.164177 152.0
98.178482 304.0
98.197807 136.0
98.22345 152.0
98.245148 160.0
98.280663 176.0
98.33197 364.0
98.363556 200.0
98.387245 208.0
98.408958 124.0
98.477058 116.0
98.51561 160.0
98.549194 120.0
98.588715 48.0
98.616386 112.0
98.646004 244.0
98.671074 108.0
98.72908 192.0
98.763336 200.0
98.778397 184.0
98.810181 176.0
98.831085 248.0
98.85965 156.0
98.895271 160.0
98.931259 156.0
98.950699 128.0
99.004166 104.0
99.051697 176.0
99.105186 120.0
99.130058 132.0
99.166626 136.0
99.185654 200.0
99.191597 120.0
99.196777 152.0
99.226097 68.0
99.255112 164.0
99.275665 84.0
99.319298 56.0
99.333183 204.0
99.352371 184.0
99.367256 180.0
99.40461 152.0
99.430412 156.0
99.503853 60.0
99.548943 192.0
99.569382 116.0
99.597313 196.0
99.617401 160.0
99.643112 136.0
99.694 160.0
99.722366 124.0
99.765884 112.0
99.782005 180.0
99.835693 100.0
99.866234 196.0
99.899338 104.0
99.943108 204.0
99.968979 164.0
100.00679 96.0
100.02272 108.0
100.064522 112.0
100.084435 192.0
100.100365 292.0
100.130234 192.0
100.152054 176.0
100.260391 276.0
100.285263 228.0
100.323517 184.0
100.379349 284.0
100.44516 112.0
100.462387 120.0
100.48671 184.0
100.544922 96.0
100.578308 96.0
100.654724 40.0
100.684677 168.0
100.720627 164.0
100.740601 200.0
100.762581 84.0
100.788551 132.0
100.814529 368.0
100.862549 172.0
100.880493 224.0
100.896484 164.0
100.917015 164.0
100.961586 144.0
101.004471 60.0
101.028351 248.0
101.037483 120.0
101.044785 132.0
101.051994 196.0
101.074493 68.0
101.104515 172.0
101.128532 128.0
101.144539 240.0
101.186676 176.0
101.204277 204.0
101.228294 168.0
101.27269 136.0
101.314758 124.0
101.381119 68.0
101.410942 188.0
101.443016 144.0
101.457047 156.0
101.49514 156.0
101.523216 144.0
101.539207 148.0
101.553726 152.0
101.591919 184.0
101.617493 196.0
101.637558 212.0
101.667664 168.0
101.685722 140.0
101.706947 188.0
101.725868 168.0
101.775841 184.0
101.802788 160.0
101.840324 176.0
101.854385 172.0
101.874474 76.0
101.908623 176.0
101.932739 172.0
101.972931 216.0
101.999062 136.0
102.044495 376.0
102.081497 220.0
102.097878 136.0
102.123726 176.0
102.163963 84.0
102.180054 348.0
102.209511 144.0
102.242432 136.0
102.296776 180.0
102.346443 176.0
102.39093 132.0
102.437744 100.0
102.488113 48.0
102.504227 180.0
102.520355 412.0
102.553841 104.0
102.586868 112.0
102.602997 152.0
102.619125 152.0
102.645332 204.0
102.667397 136.0
102.726715 172.0
102.752235 88.0
102.790573 52.0
102.863235 176.0
102.893517 156.0
102.919762 76.0
102.935913 188.0
102.962166 152.0
102.978325 472.0
103.032463 200.0
103.054863 6800.0
103.084908 196.0
103.12178 360.0
103.144012 100.0
103.166252 188.0
103.216797 168.0
103.235672 192.0
103.287582 240.0
103.342201 116.0
103.421127 180.0
103.439346 100.0
103.461617 164.0
103.508957 328.0
103.562866 188.0
103.633766 152.0
103.674294 168.0
103.690506 192.0
103.726997 116.0
103.753166 176.0
103.771591 104.0
103.790497 136.0
103.822289 148.0
103.844597 160.0
103.964806 128.0
104.013008 152.0
104.051727 1616.0
104.104378 240.0
104.137939 296.0
104.179527 160.0
104.20797 156.0
104.234383 180.0
104.250641 140.0
104.311615 160.0
104.366508 48.0
104.423378 224.0
104.482544 160.0
104.498718 344.0
104.517029 160.0
104.567909 140.0
104.586227 132.0
104.618797 164.0
104.635078 112.0
104.69413 156.0
104.722649 80.0
104.78376 196.0
104.894859 132.0
104.907974 160.0
104.928864 208.0
104.954247 204.0
104.991676 248.0
105.005951 168.0
105.07032 1416.0
105.094559 184.0
105.163498 184.0
105.256966 120.0
105.2733 112.0
105.29744 356.0
105.344788 168.0
105.367264 108.0
105.381561 120.0
105.404037 88.0
105.436737 40.0
105.483749 88.0
105.543037 280.0
105.567574 180.0
105.583939 128.0
105.606438 52.0
105.640755 224.0
105.657578 128.0
105.671898 152.0
105.707794 176.0
105.770126 144.0
105.791054 224.0
105.825401 120.0
105.845879 128.0
105.860214 108.0
105.880692 236.0
105.909363 92.0
105.951218 112.0
105.981071 208.0
106.013695 200.0
106.026917 208.0
106.043045 288.0
106.065842 3140.0
106.121849 336.0
106.153252 140.0
106.200424 64.0
106.229553 240.0
106.249657 132.0
106.286987 168.0
106.315536 112.0
106.341995 208.0
106.36161 188.0
106.393318 200.0
106.43438 144.0
106.495689 192.0
106.510368 80.0
106.528854 148.0
106.543236 188.0
106.567978 160.0
106.585457 212.0
106.630486 148.0
106.654205 216.0
106.676819 296.0
106.727142 92.0
106.775688 156.0
106.802254 164.0
106.81665 296.0
106.837219 96.0
106.859856 204.0
106.878372 92.0
106.925705 96.0
106.989883 244.0
107.056374 296.0
107.072449 1032.0
107.109985 56.0
107.126732 232.0
107.152214 140.0
107.176941 108.0
107.19136 324.0
107.230034 68.0
107.277931 216.0
107.325706 160.0
107.370712 280.0
107.47049 196.0
107.492432 104.0
107.508942 228.0
107.554344 104.0
107.569969 200.0
107.636925 44.0
107.726639 128.0
107.744331 44.0
107.764992 104.0
107.841454 172.0
107.866409 148.0
107.929192 228.0
107.97998 148.0
108.028969 340.0
108.078957 308.0
108.099968 160.0
108.215889 172.0
108.232452 116.0
108.259369 60.0
108.273872 108.0
108.327148 144.0
108.416016 228.0
108.457756 196.0
108.49144 216.0
108.530708 208.0
108.536118 196.0
108.568153 92.0
108.592163 160.0
108.62001 168.0
108.640755 196.0
108.659424 204.0
108.702995 68.0
108.751732 184.0
108.773605 216.0
108.792252 172.0
108.861572 72.0
108.891922 112.0
108.923035 188.0
109.024887 64.0
109.04982 152.0
109.064377 188.0
109.142776 236.0
109.165627 120.0
109.182884 212.0
109.201607 168.0
109.234055 220.0
109.266418 200.0
109.280167 136.0
109.305626 204.0
109.38208 152.0
109.430511 252.0
109.467995 64.0
109.495064 164.0
109.56797 44.0
109.617981 148.0
109.6409 204.0
109.655487 84.0
109.674248 164.0
109.696159 180.0
109.734879 188.0
109.784752 140.0
109.801437 124.0
109.821274 156.0
109.891136 232.0
109.916176 148.0
110.047676 72.0
110.062286 320.0
110.092613 200.0
110.131203 136.0
110.164627 160.0
110.193878 164.0
110.226677 172.0
110.242722 192.0
110.292099 144.0
110.323456 260.0
110.356903 192.0
110.41127 184.0
110.467941 128.0
110.511681 152.0
110.55632 204.0
110.585022 172.0
110.633072 92.0
110.67131 200.0
110.69474 232.0
110.752434 160.0
110.767097 152.0
110.802711 124.0
110.820969 168.0
110.866577 164.0
110.913773 84.0
110.928452 128.0
110.964714 200.0
111.003281 364.0
111.020706 136.0
111.062653 184.0
111.08844 176.0
111.119293 216.0
111.138176 156.0
111.167557 176.0
111.254677 140.0
111.308449 136.0
111.348274 196.0
111.38591 256.0
111.415321 44.0
111.442635 172.0
111.532997 56.0
111.593063 196.0
111.718048 124.0
111.746712 180.0
111.776962 200.0
111.823288 136.0
111.853767 164.0
111.879768 156.0
111.920097 172.0
111.942413 208.0
111.958 184.0
111.974854 180.0
112.010933 124.0
112.031723 120.0
112.097038 176.0
112.139191 156.0
112.160271 120.0
112.175026 172.0
112.217186 160.0
112.240334 176.0
112.267349 152.0
112.322632 216.0
112.347946 92.0
112.388184 228.0
112.428131 52.0
112.457169 100.0
112.487228 100.0
112.548454 112.0
112.578018 184.0
112.606842 160.0
112.614655 104.0
112.621292 196.0
112.651268 88.0
112.656586 200.0
112.681519 176.0
112.711098 212.0
112.732231 140.0
112.785065 416.0
112.887878 256.0
112.93026 156.0
112.949997 100.0
112.98452 188.0
113.015587 248.0
113.03463 204.0
113.04818 200.0
113.119286 156.0
113.136223 104.0
113.151039 140.0
113.187035 156.0
113.210335 112.0
113.25795 160.0
113.278107 176.0
113.292648 148.0
113.316238 144.0
113.343788 200.0
113.396767 140.0
113.447639 188.0
113.479439 160.0
113.500648 160.0
113.574226 184.0
113.591652 136.0
113.653366 156.0
113.734016 112.0
113.748871 220.0
113.796707 324.0
113.832436 212.0
113.859283 244.0
113.873474 188.0
113.916634 92.0
113.939056 216.0
113.98037 160.0
114.012245 112.0
114.029251 268.0
114.044128 172.0
114.078041 172.0
114.114281 168.0
114.169563 124.0
114.205727 176.0
114.22998 148.0
114.292816 196.0
114.365303 164.0
114.380203 176.0
114.416397 148.0
114.431297 164.0
114.467499 196.0
114.501572 216.0
114.539909 148.0
114.565468 96.0
114.597183 172.0
114.677261 176.0
114.697594 136.0
114.745461 132.0
114.784348 196.0
114.87458 120.0
114.918106 220.0
114.932983 128.0
114.964554 120.0
115.006424 188.0
115.054405 6356.0
115.087334 152.0
115.139725 180.0
115.188385 176.0
115.207611 136.0
115.226753 200.0
115.253746 220.0
115.321754 172.0
115.355873 116.0
115.389267 156.0
115.417877 116.0
115.443008 152.0
115.464111 100.0
115.494057 160.0
115.539955 140.0
115.58844 172.0
115.628845 176.0
115.65667 200.0
115.693062 196.0
115.719162 136.0
115.765862 164.0
115.793701 144.0
115.85154 44.0
115.873634 140.0
115.89225 108.0
115.932892 132.0
115.982254 148.0
116.023865 156.0
116.051537 1872.0
116.090569 200.0
116.11245 172.0
116.190269 160.0
116.223633 232.0
116.256783 144.0
116.323318 176.0
116.356575 188.0
116.376411 148.0
116.409691 148.0
116.457199 252.0
116.484375 92.0
116.499413 168.0
116.522148 260.0
116.585358 144.0
116.611153 52.0
116.632645 108.0
116.651993 124.0
116.712669 196.0
116.733688 64.0
116.795174 136.0
116.804512 172.0
116.83564 164.0
116.855835 168.0
116.913239 140.0
116.965111 128.0
117.016586 184.0
117.059105 18276.0
117.10817 188.0
117.123772 180.0
117.166328 68.0
117.198647 260.0
117.227524 80.0
117.263298 164.0
117.289162 200.0
117.306404 48.0
117.347809 176.0
117.370316 336.0
117.393776 96.0
117.431198 128.0
117.463821 200.0
117.489716 124.0
117.541496 168.0
117.584656 120.0
117.612778 80.0
117.644684 120.0
117.713043 172.0
117.731461 72.0
117.754341 148.0
117.782631 104.0
117.799858 48.0
117.81678 208.0
117.844749 316.0
117.969337 44.0
118.025993 228.0
118.065865 22748.0
118.115509 180.0
118.150284 168.0
118.170486 184.0
118.213272 480.0
118.239517 184.0
118.297806 172.0
118.347755 132.0
118.364372 148.0
118.382401 204.0
118.40152 116.0
118.444191 216.0
118.512367 88.0
118.593002 192.0
118.609894 176.0
118.631355 164.0
118.671463 100.0
118.704857 240.0
118.728004 152.0
118.74649 204.0
118.761673 196.0
118.788925 64.0
118.802109 100.0
118.828384 168.0
118.870155 168.0
118.897789 180.0
118.914619 172.0
118.965958 156.0
118.987778 104.0
119.029236 160.0
119.066872 2872.0
119.099297 184.0
119.124207 176.0
119.180664 120.0
119.229591 156.0
119.291168 128.0
119.341515 64.0
119.37413 184.0
119.410034 192.0
119.452431 200.0
119.470604 124.0
119.511391 196.0
119.543808 192.0
119.566422 224.0
119.582985 196.0
119.606979 164.0
119.731392 96.0
119.754318 104.0
119.785484 380.0
119.808983 200.0
119.857384 80.0
119.93148 232.0
120.001236 236.0
120.019577 148.0
120.045784 424.0
120.081291 3400.0
120.138641 156.0
120.17263 76.0
120.191002 80.0
120.228096 156.0
120.257851 120.0
120.286591 100.0
120.363441 40.0
120.434891 196.0
120.47702 152.0
120.51416 172.0
120.542381 144.0
120.575348 112.0
120.597641 160.0
120.645294 108.0
120.679649 168.0
120.710884 172.0
120.740685 220.0
120.780289 104.0
120.81739 180.0
120.831192 272.0
120.883705 96.0
120.899025 364.0
120.935638 148.0
120.954285 132.0
120.99752 140.0
121.014206 168.0
121.032211 280.0
121.056366 96.0
121.081757 372.0
121.125931 176.0
121.147362 220.0
121.222939 136.0
121.304222 48.0
121.361229 136.0
121.401047 176.0
121.458839 204.0
121.485825 168.0
121.514763 196.0
121.53347 160.0
121.563034 104.0
121.578392 128.0
121.611313 180.0
121.653023 248.0
121.685417 296.0
121.732895 116.0
121.765007 112.0
121.786972 160.0
121.819923 148.0
121.869377 172.0
121.91169 224.0
121.940834 140.0
121.969109 148.0
122.033661 164.0
122.062805 800.0
122.162857 164.0
122.183533 552.0
122.220062 128.0
122.24427 108.0
122.261871 116.0
122.312492 116.0
122.34111 204.0
122.382942 208.0
122.396721 156.0
122.415977 72.0
122.431389 148.0
122.45562 200.0
122.482048 148.0
122.497467 64.0
122.532623 192.0
122.592255 184.0
122.618073 152.0
122.651718 168.0
122.668526 192.0
122.698013 152.0
122.723465 176.0
122.786217 68.0
122.806061 140.0
122.949471 236.0
122.964699 156.0
123.048805 92.0
123.075554 140.0
123.097382 176.0
123.115051 132.0
123.162392 176.0
123.21003 128.0
123.238754 220.0
123.274109 64.0
123.401367 188.0
123.424423 100.0
123.484833 164.0
123.508461 220.0
123.550491 128.0
123.579254 116.0
123.614662 204.0
123.643425 116.0
123.678841 184.0
123.71769 320.0
123.76075 128.0
123.792519 128.0
123.822762 104.0
123.865326 164.0
123.909309 164.0
123.926872 124.0
123.954872 208.0
123.987503 144.0
124.017731 112.0
124.053284 180.0
124.076294 144.0
124.108414 164.0
124.16407 104.0
124.225708 172.0
124.25058 144.0
124.292732 52.0
124.317459 196.0
124.387634 200.0
124.401367 148.0
124.454514 224.0
124.510551 200.0
124.57473 152.0
124.625801 368.0
124.661354 180.0
124.685799 148.0
124.75248 164.0
124.78669 292.0
124.844627 208.0
124.883675 96.0
124.923058 172.0
124.939293 120.0
124.972298 196.0
124.997139 128.0
125.014938 168.0
125.030518 156.0
125.057228 168.0
125.092842 164.0
125.128464 152.0
125.153671 112.0
125.206398 76.0
125.252037 188.0
125.286591 164.0
125.33783 112.0
125.377945 60.0
125.396858 164.0
125.45089 160.0
125.525078 104.0
125.600723 148.0
125.609238 136.0
125.65567 160.0
125.668808 156.0
125.685684 192.0
125.748169 168.0
125.763794 60.0
125.87542 144.0
125.895515 64.0
125.917458 136.0
125.940186 156.0
125.997375 156.0
126.019104 248.0
126.051132 224.0
126.085411 404.0
126.18824 156.0
126.208366 184.0
126.235199 44.0
126.29142 116.0
126.362694 184.0
126.402969 144.0
126.461159 152.0
126.503685 192.0
126.539505 180.0
126.557419 164.0
126.613007 144.0
126.635803 280.0
126.653717 188.0
126.674477 164.0
126.708626 212.0
126.743202 136.0
126.792633 136.0
126.812393 152.0
126.835831 176.0
126.86837 152.0
126.922653 128.0
126.976189 188.0
127.021332 112.0
127.055611 1284.0
127.095367 168.0
127.116913 120.0
127.132423 176.0
127.180649 100.0
127.221054 136.0
127.263718 128.0
127.28273 196.0
127.315361 168.0
127.349052 144.0
127.400719 156.0
127.427673 152.0
127.445648 108.0
127.465874 176.0
127.495087 152.0
127.533295 84.0
127.551277 132.0
127.57151 148.0
127.602982 176.0
127.647552 180.0
127.672691 120.0
127.699677 104.0
127.717674 168.0
127.752289 196.0
127.795021 128.0
127.861671 120.0
127.911186 136.0
127.942703 100.0
127.960716 92.0
127.976479 544.0
127.994492 68.0
128.058426 1444.0
128.09584 176.0
128.174698 144.0
128.192719 60.0
128.226532 248.0
128.262589 164.0
128.321198 236.0
128.381027 180.0
128.442657 164.0
128.448502 140.0
128.485672 152.0
128.50972 172.0
128.528717 144.0
128.558044 148.0
128.577011 140.0
128.590469 88.0
128.659622 196.0
128.682205 164.0
128.704773 128.0
128.795898 160.0
128.827698 348.0
128.870865 212.0
128.917114 148.0
128.980408 124.0
129.007523 152.0
129.061554 3828.0
129.116058 164.0
129.139496 156.0
129.179398 168.0
129.215591 52.0
129.23143 68.0
129.300812 124.0
129.325623 276.0
129.346848 164.0
129.398911 52.0
129.41983 188.0
129.44194 156.0
129.481537 180.0
129.497314 160.0
129.550522 200.0
129.577957 164.0
129.616364 140.0
129.651825 160.0
129.70929 180.0
129.74556 140.0
129.765961 120.0
129.789978 176.0
129.834244 180.0
129.856659 80.0
129.876282 136.0
129.9245 172.0
129.958755 152.0
129.981216 160.0
130.024078 452.0
130.065994 38548.0
130.105164 176.0
130.138199 64.0
130.236282 112.0
130.258423 64.0
130.273926 276.0
130.292496 48.0
130.310684 28.0
130.342484 112.0
130.439682 128.0
130.468109 240.0
130.490234 188.0
130.51297 56.0
130.543991 188.0
130.579865 164.0
130.622131 212.0
130.640991 180.0
130.658539 120.0
130.675659 180.0
130.720169 304.0
130.76413 196.0
130.806458 216.0
130.861359 136.0
130.913467 116.0
130.954453 136.0
130.98259 260.0
130.999908 172.0
131.072906 19836.0
131.110718 192.0
131.131973 204.0
131.156845 248.0
131.202454 200.0
131.241608 88.0
131.280289 116.0
131.312302 148.0
131.33107 140.0
131.356995 92.0
131.378113 140.0
131.425613 172.0
131.503952 80.0
131.545822 100.0
131.603714 108.0
131.658096 224.0
131.691177 56.0
131.72702 184.0
131.762177 240.0
131.801727 192.0
131.828629 144.0
131.849014 144.0
131.883102 164.0
131.903595 108.0
131.942749 376.0
131.970612 172.0
132.045898 856.0
132.080658 19180.0
132.170883 148.0
132.179825 180.0
132.225433 244.0
132.267548 212.0
132.303848 196.0
132.356674 224.0
132.427658 160.0
132.445908 124.0
132.482254 48.0
132.505554 108.0
132.528458 64.0
132.560547 204.0
132.577347 168.0
132.61554 148.0
132.634216 140.0
132.652222 160.0
132.66684 128.0
132.681747 136.0
132.697739 144.0
132.753098 120.0
132.808823 148.0
132.837967 136.0
132.889328 164.0
132.932037 108.0
132.955673 160.0
132.988342 216.0
133.020325 120.0
133.052948 1564.0
133.085632 2216.0
133.147827 164.0
133.170807 76.0
133.198364 80.0
133.226822 196.0
133.255798 140.0
133.313248 72.0
133.33316 108.0
133.344528 180.0
133.358017 292.0
133.393692 44.0
133.425873 80.0
133.442673 156.0
133.50058 164.0
133.550049 52.0
133.581894 52.0
133.635223 168.0
133.745636 44.0
133.774551 240.0
133.872253 160.0
133.890686 72.0
133.913712 136.0
133.945435 148.0
133.982819 168.0
134.029266 128.0
134.060333 3080.0
134.086563 456.0
134.105453 200.0
134.156403 176.0
134.187943 148.0
134.223557 80.0
134.259415 76.0
134.341873 392.0
134.390915 148.0
134.423218 240.0
134.478607 52.0
134.49707 68.0
134.531693 144.0
134.547852 168.0
134.576691 164.0
134.60788 152.0
134.679413 284.0
134.686844 188.0
134.714127 112.0
134.734924 116.0
134.79007 244.0
134.822723 228.0
134.862015 188.0
134.878204 196.0
134.910568 140.0
134.926743 64.0
135.041443 488.0
135.065155 520.0
135.093323 336.0
135.134903 100.0
135.157089 204.0
135.193726 200.0
135.22052 32.0
135.243668 44.0
135.387512 200.0
135.434601 164.0
135.456696 36.0
135.472916 44.0
135.493317 188.0
135.512955 168.0
135.580139 200.0
135.701431 204.0
135.764969 152.0
135.811783 152.0
135.83223 212.0
135.859863 144.0
135.92038 136.0
135.952881 176.0
136.006256 124.0
136.052856 276.0
136.07518 116.0
136.169708 160.0
136.268188 132.0
136.297745 164.0
136.338379 188.0
136.377899 112.0
136.394165 188.0
136.423691 188.0
136.466232 164.0
136.485001 168.0
136.543503 160.0
136.658661 252.0
136.702164 172.0
136.726776 80.0
136.831512 220.0
136.855865 184.0
136.917145 180.0
136.933975 136.0
137.008514 160.0
137.042419 152.0
137.087738 144.0
137.213608 76.0
137.320877 188.0
137.347763 156.0
137.392136 356.0
137.41185 152.0
137.453857 160.0
137.495865 168.0
137.512192 184.0
137.661606 128.0
137.717667 100.0
137.741028 156.0
137.76796 128.0
137.774948 168.0
137.857849 48.0
137.887924 184.0
137.956009 224.0
137.998093 152.0
138.036926 92.0
138.133728 124.0
138.173508 100.0
138.201584 212.0
138.290512 48.0
138.309235 176.0
138.348602 132.0
138.419266 156.0
138.440353 140.0
138.484848 112.0
138.502991 144.0
138.562347 128.0
138.595596 216.0
138.630096 152.0
138.665253 108.0
138.684006 204.0
138.702759 192.0
138.719162 168.0
138.742554 164.0
138.776489 116.0
138.791153 176.0
138.808258 212.0
138.864822 136.0
138.923187 176.0
138.999725 232.0
139.051636 216.0
139.073029 192.0
139.100708 172.0
139.125015 176.0
139.185867 216.0
139.277649 164.0
139.294083 80.0
139.322281 172.0
139.34343 128.0
139.425674 144.0
139.460922 164.0
139.519684 260.0
139.540085 196.0
139.562012 100.0
139.587402 164.0
139.599899 180.0
139.61792 160.0
139.667404 128.0
139.8396 168.0
139.856079 144.0
139.893738 236.0
139.945541 180.0
139.98114 168.0
140.029678 176.0
140.05452 512.0
140.12532 48.0
140.145752 100.0
140.181091 136.0
140.233704 148.0
140.256516 184.0
140.29187 152.0
140.31308 72.0
140.34845 68.0
140.386185 160.0
140.41449 60.0
140.476761 160.0
140.506485 252.0
140.543304 132.0
140.591431 48.0
140.61731 136.0
140.759033 92.0
140.790009 148.0
140.836975 108.0
140.852203 80.0
140.957458 64.0
140.976959 112.0
141.012344 268.0
141.058441 308.0
141.113464 164.0
141.1371 120.0
141.271912 120.0
141.335022 184.0
141.364197 108.0
141.383133 68.0
141.402054 156.0
141.444656 164.0
141.50621 144.0
141.542389 216.0
141.56778 200.0
141.59343 168.0
141.625687 184.0
141.6548 200.0
141.688583 148.0
141.714691 224.0
141.745453 124.0
141.767273 344.0
141.783371 152.0
141.809433 96.0
141.893051 116.0
141.913177 136.0
142.065765 4624.0
142.120453 184.0
142.205536 108.0
142.235718 100.0
142.282593 172.0
142.305069 120.0
142.318359 236.0
142.36087 224.0
142.371323 96.0
142.375381 208.0
142.434494 176.0
142.507126 188.0
142.523758 316.0
142.552261 196.0
142.576035 104.0
142.592667 320.0
142.611679 124.0
142.6521 180.0
142.690125 208.0
142.716278 144.0
142.749374 140.0
142.799515 296.0
142.839951 148.0
142.897049 72.0
142.913712 60.0
142.980148 200.0
143.029541 160.0
143.072693 7412.0
143.126953 68.0
143.180313 116.0
143.213669 152.0
143.242249 212.0
143.266068 80.0
143.304184 52.0
143.332779 112.0
143.349457 216.0
143.372177 160.0
143.405579 124.0
143.470291 156.0
143.504395 240.0
143.532257 104.0
143.566391 184.0
143.592636 40.0
143.618866 132.0
143.64856 224.0
143.678513 60.0
143.735764 176.0
143.775177 256.0
143.795425 124.0
143.822617 216.0
143.865982 396.0
143.895691 164.0
143.917175 100.0
143.953705 200.0
143.983124 332.0
144.081345 66508.0
144.12352 228.0
144.151871 132.0
144.221344 132.0
144.267075 292.0
144.297348 220.0
144.316208 52.0
144.360062 164.0
144.407074 196.0
144.441528 236.0
144.474838 296.0
144.503952 64.0
144.529587 152.0
144.54483 76.0
144.600876 120.0
144.635071 208.0
144.662704 176.0
144.738342 180.0
144.755768 112.0
144.786133 168.0
144.823486 180.0
144.848694 112.0
144.875793 172.0
144.884872 140.0
144.913071 140.0
144.9384 72.0
144.963577 128.0
144.993683 180.0
145.022049 52.0
145.088959 52960.0
145.164047 284.0
145.182098 140.0
145.225708 92.0
145.254211 132.0
145.270065 188.0
145.326981 112.0
145.349701 248.0
145.375885 116.0
145.39537 76.0
145.418045 80.0
145.454697 92.0
145.479599 232.0
145.512894 184.0
145.531387 304.0
145.591782 256.0
145.606613 140.0
145.645142 68.0
145.662354 200.0
145.714523 208.0
145.743134 212.0
145.770401 184.0
145.810852 168.0
145.8405 168.0
145.868118 100.0
145.890259 232.0
145.914597 232.0
145.937408 180.0
145.957031 88.0
145.974579 276.0
145.997849 232.0
146.016418 84.0
146.052414 3520.0
146.097214 75836.0
146.145111 204.0
146.178818 276.0
146.214508 24.0
146.256393 136.0
146.278549 128.0
146.287109 100.0
146.315491 120.0
146.369522 208.0
146.386017 124.0
146.416336 164.0
146.463226 116.0
146.494003 324.0
146.523071 56.0
146.552567 128.0
146.619476 164.0
146.653931 200.0
146.679688 136.0
146.733398 176.0
146.753296 80.0
146.777863 172.0
146.808868 180.0
146.844238 112.0
146.863022 56.0
146.884827 392.0
146.940033 164.0
146.982697 108.0
147.002228 52.0
147.02742 264.0
147.062973 2772.0
147.098907 8240.0
147.138687 180.0
147.203186 360.0
147.232605 88.0
147.257019 76.0
147.289825 176.0
147.323593 160.0
147.392456 100.0
147.426971 196.0
147.458191 180.0
147.476959 204.0
147.496857 244.0
147.531891 292.0
147.553299 120.0
147.584946 204.0
147.635529 68.0
147.669495 152.0
147.695145 76.0
147.748154 172.0
147.799164 128.0
147.846512 152.0
147.884171 200.0
147.917526 128.0
147.941971 344.0
147.95784 208.0
147.967926 100.0
147.979706 216.0
147.990387 148.0
148.020844 104.0
148.037979 180.0
148.074982 7644.0
148.157379 204.0
148.16037 124.0
148.223434 188.0
148.248108 132.0
148.267029 60.0
148.286621 360.0
148.303787 184.0
148.326874 144.0
148.353317 140.0
148.437225 88.0
148.479889 128.0
148.50415 48.0
148.541824 112.0
148.58905 388.0
148.610886 160.0
148.639999 120.0
148.683685 180.0
148.733658 68.0
148.742828 108.0
148.771072 44.0
148.807007 204.0
148.892471 84.0
148.912704 180.0
148.981201 76.0
149.021454 40.0
149.07193 356.0
149.097351 252.0
149.122513 88.0
149.142593 152.0
149.179184 216.0
149.21431 196.0
149.279526 164.0
149.311859 128.0
149.419952 212.0
149.449722 136.0
149.483215 44.0
149.512421 56.0
149.563538 92.0
149.617081 64.0
149.695007 172.0
149.729095 376.0
149.843582 92.0
149.86795 132.0
149.915024 144.0
149.950806 144.0
150.016617 164.0
150.038559 288.0
150.057999 144.0
150.077057 188.0
150.133652 216.0
150.20195 84.0
150.271408 76.0
150.301483 200.0
150.338577 44.0
150.355667 124.0
150.44841 180.0
150.477707 44.0
150.521667 120.0
150.61203 124.0
150.658447 140.0
150.687759 56.0
150.712189 124.0
150.74884 48.0
150.809952 76.0
150.846146 168.0
150.888168 172.0
150.90773 116.0
150.983093 244.0
151.052643 188.0
151.067078 208.0
151.237991 28.0
151.264908 344.0
151.385971 120.0
151.480316 236.0
151.526947 124.0
151.659805 248.0
151.681931 180.0
151.727921 144.0
151.809128 200.0
151.877518 164.0
151.99057 140.0
152.046799 196.0
152.086075 144.0
152.135178 56.0
152.249481 144.0
152.280045 208.0
152.338196 184.0
152.368484 184.0
152.427444 104.0
152.465088 88.0
152.572464 192.0
152.648682 200.0
152.680649 168.0
152.707703 164.0
152.744598 68.0
152.820877 140.0
152.976501 188.0
153.02269 132.0
153.04599 148.0
153.10202 168.0
153.177841 136.0
153.225784 184.0
153.25914 136.0
153.34787 176.0
153.438522 180.0
153.459747 208.0
153.570419 124.0
153.593491 168.0
153.649857 200.0
153.707916 136.0
153.735062 204.0
153.811584 160.0
153.833801 168.0
153.865891 112.0
153.953003 100.0
153.960281 176.0
154.001709 176.0
154.031342 124.0
154.06076 172.0
154.065231 156.0
154.127701 148.0
154.159821 152.0
154.271057 200.0
154.454041 56.0
154.473938 176.0
154.501038 92.0
154.600235 220.0
154.706451 112.0
154.726257 164.0
154.820343 84.0
154.902084 112.0
154.959061 256.0
155.060364 1180.0
155.226761 168.0
155.261475 44.0
155.37381 140.0
155.400391 140.0
155.490189 128.0
155.521988 180.0
155.559235 216.0
155.593979 80.0
155.633377 152.0
155.735535 164.0
155.785202 116.0
155.802597 116.0
155.897018 148.0
155.951691 108.0
156.01384 140.0
156.040268 108.0
156.078781 2460.0
156.115143 172.0
156.125107 128.0
156.205322 344.0
156.236343 64.0
156.257568 64.0
156.294144 104.0
156.309814 140.0
156.347153 100.0
156.367065 108.0
156.388046 120.0
156.426804 232.0
156.454178 164.0
156.50647 152.0
156.55246 160.0
156.648422 216.0
156.717346 216.0
156.795441 136.0
156.852768 36.0
156.897629 104.0
156.937454 152.0
156.993958 108.0
157.001923 68.0
157.008804 164.0
157.078583 2880.0
157.142044 180.0
157.26683 88.0
157.398422 84.0
157.481552 200.0
157.51152 112.0
157.537704 200.0
157.568985 140.0
157.643951 120.0
157.748917 212.0
157.767426 148.0
157.883942 96.0
157.923965 180.0
158.000351 156.0
158.060867 3204.0
158.084274 4312.0
158.149475 156.0
158.194199 136.0
158.244278 96.0
158.274323 96.0
158.331924 124.0
158.354858 252.0
158.449646 140.0
158.50592 96.0
158.549881 84.0
158.610031 160.0
158.637527 324.0
158.679108 116.0
158.735397 64.0
158.762558 168.0
158.767639 140.0
158.78569 208.0
158.853012 316.0
158.894012 84.0
158.924515 200.0
158.946106 144.0
158.965591 156.0
159.007126 172.0
159.058319 4180.0
159.092133 35276.0
159.168427 28.0
159.187149 152.0
159.217224 52.0
159.243652 76.0
159.263596 64.0
159.285034 60.0
159.308441 220.0
159.360397 148.0
159.381561 72.0
159.399307 224.0
159.417557 212.0
159.438843 92.0
159.491806 124.0
159.520462 64.0
159.550552 104.0
159.64122 180.0
159.668137 96.0
159.688965 120.0
159.712357 140.0
159.735001 56.0
159.757004 112.0
159.800354 212.0
159.918686 136.0
159.959076 164.0
159.977921 152.0
159.995514 252.0
160.021088 140.0
160.075836 12936.0
160.097565 10868.0
160.190262 56.0
160.226379 228.0
160.257385 144.0
160.278091 84.0
160.337982 124.0
160.368271 96.0
160.404816 52.0
160.427505 36.0
160.52713 112.0
160.551056 40.0
160.581329 124.0
160.601501 72.0
160.646912 60.0
160.669617 56.0
160.725128 212.0
160.778122 96.0
160.804611 128.0
160.834641 132.0
160.856354 120.0
160.906296 252.0
160.943848 100.0
160.972504 112.0
160.994019 52.0
161.047577 2184.0
161.072662 9140.0
161.131912 36.0
161.17749 80.0
161.193558 204.0
161.213089 100.0
161.24913 56.0
161.302444 92.0
161.3358 112.0
161.341904 180.0
161.359787 116.0
161.386429 220.0
161.429886 144.0
161.450119 292.0
161.468536 128.0
161.500702 52.0
161.526001 80.0
161.550461 212.0
161.579254 156.0
161.632263 336.0
161.664581 124.0
161.768936 40.0
161.814499 44.0
161.898056 160.0
161.944839 68.0
162.001175 180.0
162.055084 1048.0
162.091095 4400.0
162.160156 116.0
162.224915 40.0
162.274231 196.0
162.311218 112.0
162.333939 284.0
162.350082 144.0
162.383102 84.0
162.440475 136.0
162.496277 40.0
162.529266 196.0
162.574936 80.0
162.609528 140.0
162.648544 232.0
162.668854 44.0
162.722168 212.0
162.745026 96.0
162.799576 328.0
162.823318 140.0
162.859299 36.0
162.919495 160.0
162.963455 192.0
163.050079 5800.0
163.090881 752.0
163.235428 196.0
163.268936 92.0
163.321899 100.0
163.356064 48.0
163.391434 120.0
163.525452 120.0
163.629822 180.0
163.655289 116.0
163.738602 228.0
163.852005 68.0
163.920197 172.0
163.94313 60.0
163.963516 108.0
163.981369 60.0
164.057526 660.0
164.093613 168.0
164.145279 176.0
164.185318 164.0
164.206268 224.0
164.261032 76.0
164.289902 336.0
164.310318 176.0
164.463425 244.0
164.636429 84.0
164.662064 80.0
164.669128 64.0
164.676498 116.0
165.052231 148.0
165.108673 176.0
165.130295 64.0
165.199356 164.0
165.232742 156.0
165.295914 108.0
165.303116 80.0
165.317551 188.0
165.409195 148.0
165.434799 104.0
165.462952 152.0
165.619171 56.0
165.652466 44.0
165.685776 148.0
165.760071 172.0
165.788269 228.0
165.918686 200.0
166.065231 320.0
166.102554 76.0
166.183167 180.0
166.319168 228.0
166.411591 116.0
166.468079 168.0
166.516876 40.0
166.606781 136.0
166.632477 208.0
166.706985 156.0
166.766098 236.0
166.797745 192.0
166.83551 40.0
166.902359 72.0
166.966644 132.0
167.007797 208.0
167.028366 200.0
167.077255 60.0
167.154434 160.0
167.198181 68.0
167.227585 180.0
167.319168 124.0
167.487656 140.0
167.538071 108.0
167.599915 160.0
167.692688 92.0
167.767441 172.0
167.873154 136.0
167.906677 136.0
167.932465 40.0
167.955811 84.0
168.056305 284.0
168.074356 232.0
168.131134 96.0
168.175903 184.0
168.258514 172.0
168.409973 60.0
168.438385 104.0
168.490051 228.0
168.576614 128.0
168.771774 144.0
168.82608 168.0
168.981277 180.0
169.040787 136.0
169.080582 160.0
169.165024 160.0
169.289307 52.0
169.447311 140.0
169.473221 128.0
169.561325 84.0
169.595032 128.0
169.628723 212.0
169.646866 180.0
169.693527 44.0
169.776505 184.0
169.81282 216.0
169.908798 136.0
170.060013 540.0
170.27095 136.0
170.326752 168.0
170.357925 116.0
170.438461 148.0
170.529419 136.0
170.591812 140.0
170.945541 164.0
170.968964 104.0
171.013199 88.0
171.054779 1028.0
171.114731 120.0
171.151184 284.0
171.169403 144.0
171.190231 64.0
171.242325 224.0
171.317871 76.0
171.338715 200.0
171.391327 164.0
171.459045 152.0
171.500275 120.0
171.625412 152.0
171.727112 140.0
171.771454 120.0
171.81842 144.0
172.036026 184.0
172.074173 2292.0
172.112061 136.0
172.147293 48.0
172.181244 224.0
172.300232 152.0
172.356277 72.0
172.392853 96.0
172.526154 224.0
172.579056 172.0
172.609833 156.0
172.685669 180.0
172.766754 172.0
172.821701 72.0
172.923767 92.0
172.965637 140.0
173.075073 5336.0
173.178375 196.0
173.205856 200.0
173.237976 48.0
173.265778 92.0
173.292999 140.0
173.345398 124.0
173.399017 140.0
173.421402 152.0
173.455475 152.0
173.499832 100.0
173.521027 220.0
173.543045 336.0
173.576797 176.0
173.610825 272.0
173.638046 172.0
173.654755 276.0
173.696732 92.0
173.725525 168.0
173.770187 328.0
173.793167 200.0
173.822662 108.0
173.843658 196.0
173.884384 344.0
173.909943 140.0
173.969147 592.0
173.999039 144.0
174.09198 138356.0
174.190033 108.0
174.241455 248.0
174.253799 184.0
174.282013 104.0
174.310944 56.0
174.330231 56.0
174.365036 172.0
174.416962 56.0
174.426224 184.0
174.43306 244.0
174.472549 92.0
174.49382 100.0
174.524841 532.0
174.546936 144.0
174.556793 324.0
174.576584 32.0
174.633301 128.0
174.687057 164.0
174.710907 120.0
174.752823 52.0
174.780319 76.0
174.810394 152.0
174.840393 204.0
174.868988 172.0
174.90213 196.0
174.912842 100.0
174.919037 140.0
174.958054 164.0
174.991104 200.0
175.011017 240.0
175.064316 3224.0
175.09227 22300.0
175.154373 76.0
175.18013 92.0
175.203033 96.0
175.228409 168.0
175.253235 156.0
175.274185 136.0
175.307816 120.0
175.339035 92.0
175.401657 152.0
175.431473 144.0
175.465927 64.0
175.485123 76.0
175.508591 156.0
175.531631 72.0
175.593933 112.0
175.626617 88.0
175.642441 76.0
175.685486 28.0
175.724014 172.0
175.770447 40.0
175.833054 140.0
175.872833 88.0
175.893951 116.0
175.922989 192.0
175.944107 32.0
176.000412 160.0
176.030441 92.0
176.069534 4684.0
176.094696 19652.0
176.135345 148.0
176.165558 136.0
176.192368 144.0
176.213501 88.0
176.250916 124.0
176.279495 112.0
176.303284 180.0
176.339172 140.0
176.371536 160.0
176.393631 152.0
176.422287 168.0
176.461288 48.0
176.505173 216.0
176.536835 108.0
176.562164 40.0
176.590271 160.0
176.626999 184.0
176.645462 168.0
176.671616 268.0
176.701172 80.0
176.717102 68.0
176.740372 136.0
176.793274 172.0
176.879669 144.0
176.911697 132.0
176.930237 48.0
176.948761 160.0
176.98111 124.0
177.014969 184.0
177.079361 31676.0
177.162354 80.0
177.196793 80.0
177.220306 100.0
177.267792 100.0
177.307693 96.0
177.33287 112.0
177.37915 200.0
177.408295 80.0
177.444214 148.0
177.477478 84.0
177.510422 128.0
177.571503 120.0
177.592712 112.0
177.611282 80.0
177.637802 48.0
177.680252 48.0
177.722275 124.0
177.761246 116.0
177.818237 152.0
177.842453 148.0
177.929733 100.0
177.969559 76.0
178.005096 176.0
178.035095 100.0
178.081329 4380.0
178.110855 124.0
178.179382 136.0
178.208603 68.0
178.269714 48.0
178.35965 96.0
178.461105 44.0
178.485046 48.0
178.531952 144.0
178.539993 132.0
178.549927 220.0
178.5728 76.0
178.618011 124.0
178.651718 156.0
178.679199 48.0
178.860168 56.0
178.913406 36.0
178.940033 96.0
178.974075 208.0
179.043884 56.0
179.081329 376.0
179.206375 52.0
179.241013 52.0
179.342285 128.0
179.367172 200.0
179.435318 80.0
179.575577 56.0
179.675613 72.0
179.779678 60.0
179.931625 52.0
179.946152 76.0
179.985229 76.0
180.025284 76.0
180.076019 148.0
180.140137 40.0
180.230972 60.0
180.33786 136.0
180.41272 100.0
180.516983 172.0
180.559784 68.0
180.60257 88.0
180.640015 152.0
180.792526 68.0
180.926361 44.0
180.98259 120.0
181.028107 160.0
181.06163 132.0
181.092514 196.0
181.153992 84.0
181.253128 84.0
181.336212 80.0
181.405899 220.0
181.515823 96.0
181.612366 68.0
181.63652 104.0
181.663345 84.0
181.695526 72.0
181.861908 52.0
182.219711 116.0
182.442139 112.0
182.488571 132.0
182.538925 96.0
182.654572 188.0
182.785095 140.0
182.864456 124.0
182.912903 116.0
182.953278 144.0
182.980209 68.0
183.036743 204.0
183.087906 48.0
183.201035 52.0
183.271088 60.0
183.319595 152.0
183.370804 76.0
183.435486 148.0
183.551422 104.0
183.909653 224.0
183.96962 104.0
184.023621 88.0
184.137833 108.0
184.285614 92.0
184.420731 220.0
184.525436 120.0
184.858856 100.0
184.968994 168.0
185.00502 48.0
185.037506 140.0
185.070755 2708.0
185.12616 172.0
185.214951 100.0
185.300217 76.0
185.449265 60.0
185.563126 204.0
185.584808 52.0
185.736679 72.0
185.785507 140.0
185.824905 108.0
185.899475 72.0
185.970032 104.0
186.048752 148.0
186.07634 1548.0
186.195389 112.0
186.277512 168.0
186.339355 56.0
186.483383 136.0
186.687286 64.0
186.766159 96.0
186.827072 192.0
186.986542 56.0
187.010345 172.0
187.048996 1224.0
187.087112 47408.0
187.160385 56.0
187.177933 80.0
187.205017 128.0
187.345978 48.0
187.388428 152.0
187.415421 112.0
187.443146 72.0
187.459869 144.0
187.507996 96.0
187.532852 96.0
187.560455 68.0
187.594116 72.0
187.632126 48.0
187.651215 64.0
187.675751 72.0
187.694839 76.0
187.753738 84.0
187.812119 36.0
187.887619 76.0
187.924301 64.0
188.01947 104.0
188.089676 5228.0
188.131378 68.0
188.179947 56.0
188.243332 396.0
188.366226 52.0
188.390396 52.0
188.415833 52.0
188.450928 72.0
188.535629 56.0
188.593033 120.0
188.642365 168.0
188.685974 48.0
188.75853 52.0
188.77507 212.0
188.828171 60.0
188.847321 32.0
188.892807 172.0
189.005981 96.0
189.069611 580.0
189.175674 68.0
189.222214 72.0
189.244125 168.0
189.265488 148.0
189.321884 100.0
189.365906 160.0
189.416656 64.0
189.452271 40.0
189.49202 92.0
189.512543 112.0
189.577164 172.0
189.62236 52.0
189.704758 88.0
189.803619 104.0
189.830505 80.0
189.888107 100.0
189.923752 88.0
189.991791 80.0
190.018829 116.0
190.086502 6048.0
190.179581 132.0
190.256973 56.0
190.324432 76.0
190.36145 176.0
190.417816 56.0
190.439789 76.0
190.486481 280.0
190.539001 136.0
190.637375 52.0
190.698502 124.0
190.722794 88.0
190.754654 68.0
190.997757 72.0
191.03627 232.0
191.081589 10876.0
191.135315 220.0
191.16008 100.0
191.184021 40.0
191.212372 136.0
191.245407 48.0
191.306732 72.0
191.345474 136.0
191.380295 64.0
191.468414 60.0
191.487701 36.0
191.523499 40.0
191.680542 100.0
191.710846 120.0
191.768723 148.0
191.832123 52.0
191.89003 84.0
192.085541 1160.0
192.135483 44.0
192.232056 92.0
192.254135 36.0
192.350739 96.0
192.441833 172.0
192.625122 152.0
192.69191 140.0
192.765015 80.0
192.798187 60.0
192.867279 112.0
192.905975 148.0
192.925323 48.0
192.944687 68.0
192.994446 144.0
193.060623 1908.0
193.089798 424.0
193.152084 104.0
193.268829 100.0
193.398346 96.0
193.423264 72.0
193.570007 88.0
193.644775 152.0
193.758347 52.0
193.852554 68.0
193.894684 60.0
193.996689 44.0
194.073135 384.0
194.093719 180.0
194.387756 180.0
194.576508 28.0
194.609818 80.0
194.718124 76.0
195.10437 136.0
195.218369 32.0
195.563354 140.0
195.635727 152.0
195.669128 88.0
195.694183 224.0
195.909775 196.0
196.051315 176.0
196.561066 52.0
196.644791 40.0
197.248108 80.0
197.27887 72.0
197.614471 108.0
197.869171 108.0
198.328583 68.0
198.513626 84.0
199.094543 84.0
199.159134 140.0
199.187225 48.0
199.206894 116.0
199.249023 240.0
199.836639 232.0
199.946381 96.0
200.00267 160.0
200.089951 104.0
200.247635 148.0
200.622406 132.0
200.938278 112.0
201.057236 204.0
201.077896 112.0
201.103302 196.0
201.404068 76.0
201.457733 32.0
201.548157 124.0
201.66684 120.0
201.924133 68.0
202.045761 320.0
202.072128 356.0
202.119339 164.0
202.277817 140.0
202.331604 208.0
202.708328 72.0
203.082779 1640.0
203.109909 124.0
203.258438 48.0
203.30101 60.0
203.352097 68.0
203.539978 120.0
203.778061 168.0
203.810364 136.0
203.860458 128.0
204.013947 100.0
204.036697 84.0
204.089584 8636.0
204.170868 64.0
204.23291 48.0
204.267044 96.0
204.338165 84.0
204.369827 92.0
204.560135 112.0
204.916138 76.0
204.973114 44.0
205.062302 1984.0
205.093018 928.0
205.135574 88.0
205.18689 52.0
205.258163 48.0
205.343719 72.0
205.740356 204.0
205.837433 104.0
205.931686 72.0
206.07254 168.0
206.094925 168.0
206.397507 108.0
206.431824 96.0
206.537643 148.0
206.590332 152.0
207.051285 200.0
207.077942 184.0
207.431046 52.0
207.479782 36.0
207.508453 64.0
207.620285 52.0
207.755096 148.0
207.918655 72.0
208.065048 116.0
208.122467 136.0
208.19426 196.0
208.763275 116.0
209.082596 108.0
209.279175 84.0
209.796951 84.0
210.18631 44.0
210.399902 68.0
211.015289 168.0
211.663422 64.0
211.996552 64.0
212.089294 96.0
213.450912 144.0
213.564331 92.0
213.782532 192.0
214.091125 172.0
214.280457 96.0
214.309586 104.0
214.478622 144.0
215.175842 116.0
215.386093 64.0
215.675385 144.0
215.903427 64.0
216.032135 52.0
216.286713 188.0
216.447739 216.0
216.623459 204.0
216.682053 180.0
216.863739 52.0
216.986862 156.0
217.089493 44.0
217.324158 128.0
217.705765 72.0
218.087708 164.0
218.620041 164.0
218.65535 144.0
218.796646 44.0
218.935043 84.0
219.076416 164.0
219.144989 132.0
219.723419 252.0
219.763367 136.0
219.848938 220.0
219.928619 120.0
220.023087 136.0
220.084564 156.0
220.1091 992.0
220.215027 72.0
220.241608 104.0
220.306595 152.0
220.350922 168.0
220.380463 140.0
220.530807 128.0
220.567825 180.0
220.605072 136.0
220.645126 124.0
220.75882 84.0
220.807404 132.0
220.863815 192.0
220.884659 144.0
220.910034 164.0
220.952759 332.0
220.998428 320.0
221.022385 164.0
221.047516 416.0
221.092987 61496.0
221.200409 32.0
221.267639 60.0
221.305664 60.0
221.365479 108.0
221.394424 72.0
221.424698 112.0
221.44426 80.0
221.46225 148.0
221.512482 44.0
221.573166 36.0
221.645996 40.0
221.706161 52.0
221.742432 84.0
221.842499 48.0
221.872589 80.0
221.904755 60.0
221.940475 84.0
222.002609 76.0
222.035233 60.0
222.095154 5628.0
222.128021 112.0
222.177612 100.0
222.255188 80.0
222.284424 84.0
222.311142 84.0
222.352676 132.0
222.373459 92.0
222.407043 64.0
222.480316 72.0
222.546509 48.0
222.622849 40.0
222.655518 172.0
222.71286 52.0
222.807007 108.0
222.839676 60.0
222.976379 60.0
223.036179 100.0
223.062576 64.0
223.095596 1016.0
223.177658 96.0
223.235016 80.0
223.27771 112.0
223.302597 116.0
223.413483 84.0
223.462006 52.0
223.535477 136.0
223.563873 96.0
223.651535 76.0
223.696198 92.0
223.722488 120.0
223.730133 80.0
223.741699 140.0
223.770615 40.0
223.791458 104.0
223.97908 116.0
224.0625 60.0
224.300903 80.0
224.533463 36.0
224.748245 48.0
225.17215 60.0
226.101959 96.0
226.455246 64.0
226.724884 44.0
227.76001 48.0
228.457413 68.0
228.526611 140.0
228.824585 68.0
230.870438 44.0
231.003525 52.0
231.275864 92.0
231.387863 124.0
231.56955 28.0
232.287933 56.0
232.354675 224.0
232.463898 68.0
232.53067 56.0
232.78569 44.0
232.891983 180.0
233.198868 120.0
233.344772 32.0
234.071991 120.0
234.89183 84.0
235.102798 224.0
236.067719 32.0
236.673599 72.0
238.951035 100.0
239.09874 300.0
239.471283 116.0
239.656113 76.0
240.096924 132.0
242.344254 44.0
243.53241 56.0
243.759201 72.0
243.818253 40.0
244.098038 88.0
245.929916 72.0
246.162842 152.0
246.498322 100.0
247.467987 76.0
248.941757 40.0
250.486038 144.0
250.64357 36.0
250.75386 56.0
250.908325 100.0
251.873978 68.0
254.769379 80.0
256.730072 144.0
257.253357 64.0
257.511993 88.0
257.697296 96.0
259.284485 84.0
260.564819 84.0
261.201324 36.0
261.938477 52.0
262.447693 44.0
262.818634 188.0
263.124847 164.0
263.454651 44.0
264.169098 32.0
265.101593 84.0
266.56839 88.0
268.909973 80.0
269.416107 36.0
270.904602 96.0
271.012726 96.0
273.202606 48.0
273.884033 120.0
274.67511 168.0
275.176758 40.0
276.211151 84.0
277.045349 84.0
278.285736 160.0
279.12973 116.0
280.163361 280.0
280.244812 64.0
280.521423 96.0
280.878235 60.0
280.978302 40.0
281.168518 188.0
281.291992 76.0
282.180664 208.0
282.399231 84.0
282.682373 36.0
283.241516 44.0
283.301819 44.0
284.36142 56.0
284.996094 64.0
285.887207 140.0
286.042053 76.0
288.143036 52.0
288.207214 60.0
290.930298 60.0
292.245575 116.0
294.563873 92.0
296.689026 64.0
297.021667 72.0
298.491608 56.0
299.679108 44.0
300.541107 28.0
300.810303 100.0
301.432007 96.0
301.532227 76.0
302.248077 48.0
303.51239 92.0
304.647308 76.0
304.897491 84.0
305.972321 88.0
306.313599 40.0
307.47818 48.0
308.026367 96.0
309.061218 56.0
310.665863 152.0
311.115051 48.0
312.79892 48.0
313.824127 64.0
317.409576 36.0
318.758453 96.0
318.84021 72.0
319.398407 76.0
319.885925 84.0
320.053253 60.0
320.559082 88.0
320.822845 176.0
322.157532 100.0
323.477081 36.0
323.964111 64.0
328.197937 52.0
330.99472 56.0
332.582642 84.0
333.130951 64.0
334.742188 80.0
338.386292 92.0
339.338898 104.0
341.237091 68.0
341.910248 108.0
344.133057 128.0
348.823303 104.0
349.303009 124.0
353.137512 84.0
354.713898 48.0
355.95575 52.0
359.015228 28.0
359.573578 88.0
361.077271 28.0
361.731842 92.0
361.864349 56.0
363.425934 72.0
366.936523 100.0
368.046844 136.0
369.097626 52.0
370.184387 80.0
370.525299 48.0
374.801697 60.0
376.514496 52.0
376.781006 52.0
379.455353 68.0
380.518433 76.0
380.902893 104.0
385.144867 72.0
386.994629 56.0
388.287811 96.0
389.206085 40.0
389.991455 88.0
390.683899 116.0
392.69281 48.0
393.896698 52.0
395.011444 96.0
395.84259 64.0
397.102844 36.0
397.261536 108.0
397.56308 40.0
400.294128 84.0
400.640656 76.0
401.166687 100.0
402.076111 80.0
402.894684 40.0
404.018066 36.0
409.187317 88.0
410.154144 80.0
410.307343 84.0
410.541199 112.0
411.009125 40.0
411.3078 136.0
413.458038 56.0
413.668518 92.0
414.032928 80.0
414.571716 76.0
418.638245 88.0
420.754456 76.0
420.979034 92.0
421.322144 60.0
421.702148 40.0
427.962341 56.0
431.920105 80.0
432.044189 68.0
433.037659 40.0
436.349121 64.0
438.18457 68.0
444.045227 84.0
448.649658 52.0
449.202118 84.0
450.751587 84.0
454.749451 76.0
455.314117 40.0
457.699799 84.0
470.028046 84.0
470.468292 52.0
474.105988 68.0
474.56546 60.0
478.902496 116.0
479.590942 108.0
479.939697 104.0
481.886383 68.0
486.954773 60.0
488.110565 88.0
492.60614 96.0
499.143494 48.0
502.863403 48.0
504.62793 88.0
504.963318 52.0
506.664307 36.0
507.529358 36.0
508.368195 124.0
512.185303 56.0
513.009949 72.0
517.903809 52.0
517.998901 104.0
522.434082 140.0
525.513977 48.0
525.564148 28.0
534.053162 56.0
536.977905 40.0
541.266541 48.0
544.847229 44.0
546.576843 132.0
551.796143 40.0
559.123291 56.0
560.715149 100.0
566.948792 116.0
570.033447 76.0
571.835876 112.0
574.54248 160.0
577.700256 76.0
582.172241 40.0
586.242065 232.0
586.42041 56.0
586.979614 80.0
589.190247 88.0
591.10498 60.0
592.499451 104.0
599.822937 112.0
606.956055 44.0
607.799744 88.0
624.274414 76.0
628.668274 56.0
630.161316 44.0
631.596069 108.0
632.807129 68.0
633.202698 72.0
637.673096 112.0
641.377625 48.0
644.279236 68.0
648.585632 84.0
656.639587 60.0
657.736572 68.0
662.359131 100.0
670.848389 68.0
671.709595 196.0
671.874634 140.0
673.397461 88.0
674.978821 36.0
678.178284 76.0
680.029968 196.0
683.392212 44.0
683.90741 44.0
694.792542 68.0
706.096741 72.0
710.387146 84.0
715.281372 64.0
719.092468 76.0
719.70636 44.0
720.074829 104.0
721.250305 252.0
723.481018 152.0
723.539917 96.0
725.125488 136.0
729.381897 56.0
729.634583 88.0
730.231445 72.0
731.248291 84.0
735.117859 104.0
740.220886 116.0
743.294434 192.0
743.560364 40.0
743.767639 84.0
746.804016 76.0
748.26239 228.0
750.054688 152.0
751.761841 96.0
753.90802 48.0
754.13208 208.0
758.582336 208.0
760.721741 108.0
764.244629 112.0
765.730957 188.0
766.910095 56.0
768.868042 104.0
771.502808 76.0
778.689758 88.0
781.591675 208.0
782.888672 140.0
785.285217 92.0
786.077393 140.0
787.864136 216.0
789.910156 80.0
796.069824 144.0
796.676453 104.0
798.688904 176.0
801.672913 156.0
802.044861 132.0
802.715759 140.0
802.941345 244.0
806.208496 108.0
808.885437 148.0
809.428955 64.0
809.689514 20.0
816.437439 168.0
816.528381 116.0
818.702454 56.0
819.032776 44.0
819.659485 80.0
821.643677 124.0
822.174316 128.0
822.248535 60.0
823.653137 100.0
831.267822 44.0
832.898315 48.0
838.064514 168.0
845.28241 192.0
846.382202 92.0
847.395813 84.0
847.662354 176.0
849.140686 180.0
849.320496 136.0
849.395935 152.0
850.823486 148.0
853.129883 48.0
853.746216 76.0
854.781677 72.0
858.649963 120.0
858.702454 76.0
860.797546 144.0
864.07666 140.0
864.369202 172.0
865.452087 96.0
866.014282 184.0
866.078735 136.0
866.846191 220.0
868.001038 168.0
869.279785 232.0
870.735718 184.0
871.793213 136.0
872.181152 180.0
873.492432 64.0
875.152039 132.0
876.271118 204.0
876.636475 152.0
877.37915 184.0
879.668091 124.0
880.654175 168.0
881.351318 40.0
881.434021 64.0
883.438354 136.0
883.544861 36.0
883.947205 220.0
884.243103 140.0
884.450256 140.0
885.054138 200.0
887.946045 60.0
889.019836 160.0
889.096985 188.0
895.410889 204.0
895.488281 108.0
895.875488 148.0
897.842468 220.0
898.289856 132.0
898.874512 188.0
899.429565 136.0
902.117676 180.0
904.414734 44.0
904.737976 156.0
904.86969 144.0
906.732666 188.0
909.839844 144.0
911.551636 124.0
915.088501 104.0
916.353333 176.0
916.570251 168.0
918.071289 64.0
919.670105 140.0
920.358337 252.0
920.636108 200.0
923.0896 180.0
927.14563 184.0
927.369873 192.0
927.654785 124.0
928.7948 124.0
929.704895 96.0
930.23291 52.0
932.541138 232.0
932.954468 192.0
933.416565 208.0
933.550354 184.0
934.631531 92.0
936.355957 52.0
937.099121 52.0
938.348572 236.0
939.568359 140.0
939.897827 140.0
941.204102 164.0
942.786255 144.0
943.366943 132.0
945.103882 160.0
945.991333 156.0
946.897522 52.0
947.491699 204.0
947.559082 196.0
950.802917 192.0
952.393127 120.0
953.751099 100.0
954.593384 188.0
955.589844 152.0
956.728455 180.0
958.046326 32.0
960.734253 196.0
962.054871 100.0
962.388306 204.0
963.660645 80.0
964.396057 164.0
964.698914 276.0
964.946228 152.0
966.331665 172.0
967.055664 68.0
969.402893 96.0
971.256714 248.0
971.517212 172.0
972.336304 156.0
972.894958 200.0
973.03772 192.0
974.484863 92.0
975.423279 80.0
977.693542 152.0
978.726868 128.0
980.059875 148.0
980.334045 144.0
980.894958 108.0
981.125671 200.0
984.10791 96.0
985.779419 148.0
986.594543 128.0
988.333252 72.0
988.4021 92.0
989.090515 148.0
990.324036 60.0
991.401672 128.0
991.683655 124.0
991.972046 232.0
993.658997 196.0
993.746826 132.0
994.594055 192.0
994.750977 148.0
996.233032 144.0
996.873901 160.0
997.035278 188.0
998.206604 144.0
998.879578 180.0
1000.112915 180.0
1001.290283 236.0
1004.069641 136.0
1004.700439 112.0
1004.914917 112.0
1005.981506 208.0
1006.158264 48.0
1006.215088 192.0
1006.423462 140.0
1007.206604 220.0
1007.250793 200.0
1007.389771 124.0
1008.211182 180.0
1009.039246 128.0
1009.905579 76.0
1011.531799 168.0
1014.190735 208.0
1014.90863 156.0
1016.139099 176.0
1016.335815 116.0
1017.780396 176.0
1018.297424 176.0
1018.824646 176.0
1019.682495 156.0
1019.84137 128.0
1021.030334 108.0
1021.513855 164.0
1021.749084 200.0
1022.194519 52.0
1022.512695 204.0
1023.142883 128.0
1023.219299 144.0
1023.505798 124.0
1025.264038 144.0
1026.213745 144.0
1026.762207 44.0
1026.806885 192.0
1028.523193 144.0
1028.612549 180.0
1028.861572 140.0
1029.512817 80.0
1031.909058 180.0
1032.068848 52.0
1032.452515 220.0
1033.009033 144.0
1033.316162 152.0
1034.327271 168.0
1035.133911 184.0
1035.300415 192.0
1035.402954 184.0
1037.440552 64.0
1037.671387 44.0
1039.801025 132.0
1040.077026 124.0
1040.638184 208.0
1041.181396 44.0
1041.496094 184.0
1041.591675 144.0
1042.164185 176.0
1042.421265 200.0
1043.038208 244.0
1043.089722 176.0
1043.488281 116.0
1044.202026 136.0
1044.304932 144.0
1044.742432 132.0
1045.109131 136.0
1045.478027 200.0
1045.733276 136.0
1046.422119 160.0
1047.098267 160.0
1049.566406 180.0
1050.056519 236.0
1052.399048 104.0
1052.450684 160.0
1052.747803 220.0
1053.070679 148.0
1053.445312 144.0
1054.750732 132.0
1055.235596 168.0
1055.364868 112.0
1055.636475 144.0
1056.005127 204.0
1056.218506 116.0
1056.645508 120.0
1056.884888 144.0
1057.201904 40.0
1057.409058 200.0
1057.693848 116.0
1057.791016 140.0
1058.068848 144.0
1058.328369 176.0
1059.008301 228.0
1059.124878 212.0
1059.429321 144.0
1059.733887 68.0
1059.863403 212.0
1059.947632 168.0
1060.485596 148.0
1061.036621 140.0
1061.659058 148.0
1061.983398 44.0
1062.327148 40.0
1062.846191 132.0
1064.31311 84.0
1064.897583 144.0
1065.417236 156.0
1065.677124 160.0
1066.43103 84.0
1066.483032 188.0
1068.362305 80.0
1068.68103 116.0
1069.735352 164.0
1070.406006 92.0
1071.545898 124.0
1072.497314 152.0
1072.569092 156.0
1072.660278 160.0
1072.855835 100.0
1073.214478 124.0
1073.370972 152.0
1073.484863 168.0
1073.605713 132.0
1074.140503 104.0
1074.884277 196.0
1075.29541 156.0
1077.365356 164.0
1077.417725 108.0
1077.541748 116.0
1077.881592 124.0
1078.816162 176.0
1079.712036 148.0
1080.37915 124.0
1080.595093 172.0
1080.732544 120.0
1081.930176 156.0
1082.244507 168.0
1082.336182 172.0
1082.643921 140.0
1083.783813 168.0
1084.681641 136.0
1084.884888 56.0
1085.06189 176.0
1086.773682 144.0
1086.845825 184.0
1086.891846 148.0
1087.443115 120.0
1087.810669 164.0
1087.974731 156.0
1088.20459 168.0
1088.598511 128.0
1089.045166 160.0
1089.169922 208.0
1089.412964 176.0
1089.885986 64.0
1090.076538 80.0
1090.635254 192.0
1090.760132 192.0
1090.950806 160.0
1091.690796 208.0
1092.015991 188.0
1092.167358 156.0
1093.325317 80.0
1093.792603 156.0
1094.477295 224.0
1094.664307 80.0
1094.9646 140.0
1095.20166 148.0
1096.315186 184.0
1096.756714 136.0
1096.987427 68.0
1098.537109 128.0
1098.748291 160.0
1100.127563 80.0
1100.794434 204.0
1101.012329 192.0
1102.14856 112.0
1103.113525 168.0
1104.396362 200.0
1104.707275 80.0
1104.879272 204.0
1105.633545 180.0
1106.792114 88.0
1107.606689 68.0
1107.66626 184.0
1108.72644 256.0
1109.521851 136.0
1109.680908 104.0
1109.873169 148.0
1110.377197 252.0
1110.496582 136.0
1110.761963 248.0
1111.591309 168.0
1112.367798 220.0
1112.480713 124.0
1113.045044 100.0
1113.755615 76.0
1114.074463 172.0
1114.459839 188.0
1114.625977 92.0
1114.876831 192.0
1115.184204 156.0
1115.380859 116.0
1115.802368 84.0
1116.26355 156.0
1116.866455 160.0
1117.638184 164.0
1117.954834 192.0
1119.08252 140.0
1119.297363 152.0
1119.535278 156.0
1119.668457 172.0
1121.827393 136.0
1122.807617 100.0
1123.081055 56.0
1123.401245 172.0
1123.768188 132.0
1124.308594 136.0
1124.508911 188.0
1124.916016 152.0
1125.643799 176.0
1126.211426 152.0
1126.465332 104.0
1126.999756 144.0
1127.287109 216.0
1127.921997 184.0
1128.095825 140.0
1128.459839 212.0
1128.66748 120.0
1129.118896 104.0
1129.306152 164.0
1129.353027 152.0
1129.567017 60.0
1129.714233 208.0
1129.928345 120.0
1130.068848 164.0
1130.597412 56.0
1131.376587 208.0
1131.567993 84.0
1132.264404 44.0
1132.311279 288.0
1132.559204 140.0
1132.827148 148.0
1133.03479 160.0
1134.194092 76.0
1135.23999 76.0
1135.34729 180.0
1135.897339 120.0
1136.803101 128.0
1137.621948 156.0
1138.266479 124.0
1138.380615 152.0
1139.15979 176.0
1139.267212 124.0
1139.509155 68.0
1139.630005 64.0
1140.039917 144.0
1141.458374 120.0
1143.106445 156.0
1143.328613 200.0
1143.683838 188.0
1144.567261 128.0
1144.647949 200.0
1144.789429 132.0
1145.038574 208.0
1145.186768 124.0
1145.422485 144.0
1145.718994 44.0
1146.527466 228.0
1146.851074 196.0
1147.358887 152.0
1147.626343 196.0
1147.875854 204.0
1148.13208 116.0
1148.273682 124.0
1148.877808 128.0
1148.97229 192.0
1149.103394 136.0
1149.623047 108.0
1150.196655 144.0
1150.419434 128.0
1151.283691 128.0
1151.533569 144.0
1151.59436 168.0
1152.364502 248.0
1152.587524 208.0
1154.067749 104.0
1154.209717 116.0
1154.831909 156.0
1155.040894 112.0
1155.078979 212.0
1155.474609 104.0
1155.71814 120.0
1155.887329 144.0
1156.52356 116.0
1157.234375 172.0
1157.329102 92.0
1157.901489 120.0
1158.175659 148.0
1158.304321 180.0
1158.453369 140.0
1158.961548 220.0
1159.14917 200.0
1159.957764 112.0
1160.201782 104.0
1161.171509 212.0
1161.578491 128.0
1162.161865 108.0
1162.440186 136.0
1162.616577 120.0
1163.207031 160.0
1163.566895 164.0
1163.974243 108.0
1164.361328 168.0
1164.687378 180.0
1164.731934 196.0
1164.925171 188.0
1165.03833 108.0
1165.305542 144.0
1165.359985 112.0
1165.509399 208.0
1165.611328 168.0
1165.760864 108.0
1165.915649 144.0
1166.182251 152.0
1166.291016 160.0
1166.474487 136.0
1166.984375 112.0
1167.052368 124.0
1167.235962 68.0
1167.623657 148.0
1167.800415 168.0
1167.888916 104.0
1167.966187 164.0
1168.922974 56.0
1168.977417 168.0
1169.349365 204.0
1169.521851 184.0
1169.766968 128.0
1170.24353 44.0
1170.856323 144.0
1171.789551 160.0
1172.314209 204.0
1172.886719 156.0
1173.295776 172.0
1173.466187 60.0
1173.66394 144.0
1173.74585 208.0
1173.875366 128.0
1173.991333 132.0
1174.352783 84.0
1174.598267 124.0
1174.680176 120.0
1175.144043 148.0
1175.191895 80.0
1175.335083 84.0
1176.024414 228.0
1176.870972 168.0
1176.963867 208.0
1177.526489 156.0
1177.669922 148.0
1177.783203 172.0
1178.578491 196.0
1178.763062 112.0
1178.831421 64.0
1179.255127 144.0
1179.781494 220.0
1179.890869 176.0
1180.061768 88.0
1180.273682 116.0
1180.731934 152.0
1180.786621 144.0
1180.930298 140.0
1181.935913 192.0
1182.061401 132.0
1183.654053 160.0
1184.085449 176.0
1184.181396 184.0
1184.325195 120.0
1184.400513 124.0
1184.564941 204.0
1184.859497 192.0
1185.126709 212.0
1185.188354 176.0
1185.592651 92.0
1186.079346 124.0
1186.579834 216.0
1187.43689 132.0
1187.532959 136.0
1187.752441 140.0
1188.116089 128.0
1188.75415 152.0
1189.008057 256.0
1189.165894 240.0
1189.522827 224.0
1189.824951 196.0
1189.948486 204.0
1190.401733 96.0
1190.504761 88.0
1190.745117 152.0
1191.548828 144.0
1191.713623 180.0
1192.284058 272.0
1192.394043 208.0
1192.785767 108.0
1192.971436 68.0
1193.383911 176.0
1193.535156 168.0
1193.686401 72.0
1193.947754 176.0
1194.26416 132.0
1194.601196 216.0
1195.743408 172.0
1196.218384 168.0
1196.417969 248.0
1196.61084 100.0
1196.672729 224.0
1196.769165 144.0
1196.961914 236.0
1197.330078 240.0
1197.845947 180.0
1198.346436 160.0
1198.498047 236.0
1198.821899 212.0
1199.06311 168.0
1199.235352 156.0
1199.380127 180.0
1199.649048 152.0
1199.738647 160.0
1200.09021 164.0
1200.510864 148.0
1200.579834 108.0
1201.283325 40.0
1201.724854 220.0
1201.773193 336.0
1202.090576 208.0
1202.159668 176.0
1202.394287 48.0
1202.918823 40.0
1203.120361 172.0
1203.210571 136.0
1203.664551 192.0
1203.913086 164.0
1204.030518 196.0
1204.141968 224.0
1204.327515 108.0
1204.645264 136.0
1205.543701 152.0
1205.723145 192.0
1205.778442 168.0
1206.521362 180.0
1206.949341 244.0
1208.385376 232.0
1208.837158 184.0
1209.18811 140.0
1209.381958 164.0
1209.45813 164.0
1209.575806 60.0
1210.039551 144.0
1210.171143 148.0
1210.275024 32.0
1210.344238 80.0
1210.55896 132.0
1211.76416 136.0
1211.93042 32.0
1212.602661 108.0
1212.866089 80.0
1213.26123 180.0
1213.695557 120.0
1214.058594 192.0
1214.162598 136.0
1214.26123 148.0
1214.356812 236.0
1214.752197 140.0
1214.849243 160.0
1215.001953 124.0
1215.522339 184.0
1216.556519 180.0
1217.150269 140.0
1217.813354 176.0
1217.938354 164.0
1218.04248 108.0
1218.313477 72.0
1218.619141 156.0
1219.036133 140.0
1219.911865 56.0
1220.071777 148.0
1220.155151 240.0
1220.238525 104.0
1220.447144 192.0
1221.06604 144.0
1221.253906 156.0
1221.580811 108.0
1221.859131 72.0
1222.161743 168.0
1222.84021 124.0
1223.007324 136.0
1223.365601 116.0
1223.786987 224.0
1224.720215 124.0
1225.354126 196.0
1225.577148 164.0
1225.688599 64.0
1226.106689 200.0
1226.18335 164.0
1226.741211 160.0
1226.803711 176.0
1227.20813 188.0
1227.410278 92.0
1227.56665 152.0
1227.759033 136.0
1227.835693 136.0
1227.961304 116.0
1228.010132 192.0
1228.358887 192.0
1228.665771 160.0
1228.819336 152.0
1228.944824 92.0
1229.552002 176.0
1229.712524 148.0
1229.761353 148.0
1230.033569 112.0
1230.340698 120.0
1230.480347 104.0
1231.059937 92.0
1231.367188 192.0
1231.765381 140.0
1232.037842 176.0
1232.722534 172.0
1232.79248 156.0
1232.953125 148.0
1233.31665 208.0
1233.596191 132.0
1233.722046 148.0
1234.330322 192.0
1234.374878 128.0
1234.631104 180.0
1234.79895 116.0
1234.994751 292.0
1235.694336 152.0
1236.072144 128.0
1236.254028 36.0
1236.457031 136.0
1236.583008 128.0
1236.786011 152.0
1237.11499 208.0
1237.17688 96.0
1237.317993 360.0
1237.392456 84.0
1237.448364 144.0
1237.612061 148.0
1237.794189 176.0
1238.522461 188.0
1239.706543 124.0
1239.902832 108.0
1240.191895 176.0
1240.541016 152.0
1240.842041 152.0
1241.108521 188.0
1241.271362 308.0
1241.487183 84.0
1241.634521 132.0
1241.802856 172.0
1241.851929 48.0
1242.202637 120.0
1242.356934 152.0
1242.44812 80.0
1242.742798 108.0
1243.044556 236.0
1243.214966 176.0
1243.465698 200.0
1243.697266 140.0
1243.767456 172.0
1243.921875 116.0
1244.307983 124.0
1244.381348 152.0
1244.757324 152.0
1245.501831 168.0
1245.698486 128.0
1245.789795 136.0
1245.895264 64.0
1246.309814 136.0
1246.640015 148.0
1246.710327 52.0
1246.794678 152.0
1247.349854 144.0
1247.891235 40.0
1248.291992 232.0
1248.531128 140.0
1248.650635 36.0
1249.340088 92.0
1250.043701 176.0
1250.444824 124.0
1250.57019 148.0
1250.620728 160.0
1250.860107 172.0
1250.93042 172.0
1251.251953 120.0
1251.888062 160.0
1252.106323 200.0
1252.190918 168.0
1252.444458 196.0
1252.500732 136.0
1252.697998 68.0
1252.794189 140.0
1252.923462 196.0
1253.022095 180.0
1253.325073 140.0
1253.430786 152.0
1253.64917 176.0
1253.839478 64.0
1253.952271 176.0
1254.086182 184.0
1254.812256 88.0
1255.044922 144.0
1255.139648 180.0
1255.644409 204.0
1255.898315 244.0
1256.004028 44.0
1256.109863 248.0
1256.490845 132.0
1256.730713 172.0
1256.935303 52.0
1257.45752 204.0
1257.774414 176.0
1258.52356 144.0
1258.657715 208.0
1259.272095 148.0
1259.328613 224.0
1259.43457 128.0
1259.78772 132.0
1259.886719 100.0
1260.572021 132.0
1261.045532 116.0
1261.540405 212.0
1261.697632 148.0
1262.059448 168.0
1262.127197 196.0
1262.268555 176.0
1262.530273 128.0
1262.586792 220.0
1262.890991 168.0
1263.032471 144.0
1263.633789 104.0
1263.718628 56.0
1263.782349 228.0
1264.362549 228.0
1264.43335 60.0
1264.758911 188.0
1264.907593 192.0
1265.077515 252.0
1265.148315 144.0
1265.311157 200.0
1265.466919 172.0
1265.721802 64.0
1265.976685 188.0
1266.203369 52.0
1266.553345 164.0
1266.982544 148.0
1267.485596 164.0
1267.613159 188.0
1267.747803 160.0
1267.797363 228.0
1268.453857 212.0
1268.548706 184.0
1268.796875 160.0
1269.065063 148.0
1269.810425 196.0
1270.137085 204.0
1270.186768 188.0
1270.451416 132.0
1270.718872 192.0
1271.250977 120.0
1271.442993 176.0
1272.208252 160.0
1272.606812 156.0
1272.763062 172.0
1273.423462 204.0
1273.601074 152.0
1273.693359 204.0
1275.000732 128.0
1275.128662 84.0
1275.178467 192.0
1275.981689 192.0
1276.335449 184.0
1276.436768 148.0
1276.564697 144.0
1276.785156 104.0
1277.091064 124.0
1277.389771 244.0
1277.652954 144.0
1277.745483 156.0
1278.022949 140.0
1278.328979 164.0
1278.468018 132.0
1278.691895 124.0
1278.87085 236.0
1279.090454 128.0
1279.52478 192.0
1279.909302 120.0
1280.037476 164.0
1280.122925 156.0
1280.564453 180.0
1280.671265 112.0
1280.778076 172.0
1281.098633 132.0
1281.169922 52.0
1281.255371 144.0
1281.467041 232.0
1282.381348 204.0
1282.580811 168.0
1282.880249 152.0
1282.96582 212.0
1283.108398 152.0
1283.336426 160.0
1283.750122 176.0
1283.871338 72.0
1284.056763 212.0
1285.069702 136.0
1285.397949 164.0
1285.569214 92.0
1285.654907 156.0
1286.099243 200.0
1286.493408 152.0
1286.846924 156.0
1286.975464 192.0
1287.139771 124.0
1287.546753 204.0
1287.661011 176.0
1288.432495 104.0
1288.661133 224.0
1288.76123 104.0
1288.925537 124.0
1288.978149 112.0
1289.139893 112.0
1289.23999 140.0
1290.111938 180.0
1290.319336 164.0
1290.390747 124.0
1290.898438 212.0
1291.077271 140.0
1291.248901 156.0
1291.363403 180.0
1292.085815 172.0
1292.336304 128.0
1292.63623 108.0
1293.137695 176.0
1293.359619 208.0
1293.481323 164.0
1294.104126 144.0
1295.24292 160.0
1295.350342 88.0
1296.073975 260.0
1296.518188 216.0
1296.869385 172.0
1296.93396 164.0
1296.984131 100.0
1297.371216 124.0
1297.428589 164.0
1297.679443 48.0
1298.253174 360.0
1298.339233 168.0
1298.468262 140.0
1298.554321 184.0
1298.647583 168.0
1299.214111 196.0
1299.472534 204.0
1299.551514 168.0
1299.608887 72.0
1300.010742 196.0
1300.12561 204.0
1300.485352 160.0
1300.663818 124.0
1301.295654 64.0
1301.862915 152.0
1301.992188 112.0
1302.214844 184.0
1302.344116 300.0
1302.523682 180.0
1302.674561 56.0
1302.854126 80.0
1303.213379 188.0
1303.335449 92.0
1303.436035 132.0
1303.589966 224.0
1303.745117 160.0
1303.831299 144.0
1304.09729 260.0
1304.248169 116.0
1304.327271 48.0
1304.406372 168.0
1304.824463 192.0
1304.945557 208.0
1305.004395 172.0
1305.211548 180.0
1305.607056 204.0
1305.736572 108.0
1305.786865 128.0
1305.988281 156.0
1306.160889 84.0
1306.41272 76.0
1306.578125 148.0
1306.90918 136.0
1307.254517 120.0
1307.548462 176.0
1307.657593 244.0
1307.765503 204.0
1308.125366 200.0
1308.706665 208.0
1308.720703 152.0
1309.126221 124.0
1309.507935 84.0
1309.862183 160.0
1310.162964 176.0
1310.372314 144.0
1310.444458 192.0
1310.682251 180.0
1310.826294 76.0
1311.046997 220.0
1311.227905 144.0
1311.438965 84.0
1311.581421 200.0
1311.806519 164.0
1311.957886 128.0
1312.271973 180.0
1312.770874 216.0
1312.873657 104.0
1313.017944 220.0
1313.133301 80.0
1313.299194 160.0
1313.638184 104.0
1314.087646 216.0
1314.20813 188.0
1314.323608 136.0
1314.417358 148.0
1314.532837 152.0
1314.891602 152.0
1315.810425 104.0
1316.229248 208.0
1316.857544 176.0
1317.276489 96.0
1317.328857 192.0
1317.384888 168.0
1317.587158 152.0
1318.237427 148.0
1318.63208 228.0
1318.728882 196.0
1319.083008 144.0
1319.313477 128.0
1319.581909 184.0
1319.65564 200.0
1319.787354 192.0
1320.058105 180.0
1320.381714 180.0
1320.796875 124.0
1321.086182 204.0
1321.194702 168.0
1321.404541 160.0
1321.672241 180.0
1322.128174 88.0
1322.475586 172.0
1322.613037 200.0
1322.717285 148.0
1322.996704 56.0
1323.192139 172.0
1323.431152 124.0
1323.518066 156.0
1323.619873 196.0
1324.387085 176.0
1324.445068 48.0
1324.727539 68.0
1324.821655 224.0
1325.2854 120.0
1325.444824 128.0
1325.560791 148.0
1325.836182 240.0
1326.198486 92.0
1326.328979 108.0
1326.481201 104.0
1326.682739 156.0
1326.785645 120.0
1326.930664 144.0
1327.670288 136.0
1327.938599 216.0
1327.996704 104.0
1328.058838 172.0
1328.141724 116.0
1328.714844 160.0
1328.874512 180.0
1328.940796 148.0
1329.178467 192.0
1330.02832 76.0
1330.289673 192.0
1330.347778 136.0
1330.463867 104.0
1330.65271 132.0
1330.805176 104.0
1330.986694 120.0
1331.110107 88.0
1331.255371 184.0
1331.683838 160.0
1331.821899 160.0
1331.93811 160.0
1332.003418 184.0
1332.199585 120.0
1332.621704 168.0
1332.991577 232.0
1333.064209 260.0
1333.122314 156.0
1333.471191 144.0
1333.798218 132.0
1334.096313 204.0
1334.161743 148.0
1334.859741 224.0
1335.365112 172.0
1335.536133 116.0
1336.008911 172.0
1336.278198 260.0
1336.445435 244.0
1336.547363 180.0
1336.714722 148.0
1336.809326 96.0
1337.056763 152.0
1337.301514 152.0
1337.457031 164.0
1337.522583 200.0
1337.668213 168.0
1337.926025 236.0
1338.120728 192.0
1338.257935 216.0
1339.054199 196.0
1339.121216 152.0
1339.35022 188.0
1339.466797 152.0
1339.561523 136.0
1339.648926 208.0
1339.758179 168.0
1340.10791 172.0
1340.239014 36.0
1340.537842 124.0
1340.930176 164.0
1341.412476 152.0
1341.762329 160.0
1341.844482 196.0
1342.00293 132.0
1342.107056 176.0
1342.404053 120.0
1342.743652 164.0
1342.827026 204.0
1342.89502 212.0
1343.220947 176.0
1343.271973 212.0
1343.373657 128.0
1344.003662 220.0
1344.322632 216.0
1344.723999 140.0
1344.855347 216.0
1345.001343 168.0
1345.256836 172.0
1345.436768 204.0
1345.556152 104.0
1345.716797 116.0
1345.797119 188.0
1346.067261 100.0
1346.169556 140.0
1346.220703 116.0
1346.447021 180.0
1346.505493 148.0
1346.622314 172.0
1346.739258 156.0
1346.885254 204.0
1346.958374 132.0
1347.037231 160.0
1347.279785 160.0
1347.384644 104.0
1347.522949 228.0
1347.768433 192.0
1347.908081 60.0
1348.463501 96.0
1348.900391 204.0
1349.421143 152.0
1349.494263 176.0
1349.925659 180.0
1350.335205 144.0
1350.386475 180.0
1350.7229 172.0
1350.979004 120.0
1351.234985 164.0
1351.359375 140.0
1351.564331 176.0
1352.383911 108.0
1352.464478 220.0
1352.530273 164.0
1353.08667 132.0
1353.243042 164.0
1353.555298 160.0
1353.846436 288.0
1353.972656 80.0
1354.141113 160.0
1354.346191 124.0
1354.514771 140.0
1354.61731 60.0
1354.719849 316.0
1354.968872 144.0
1355.10083 168.0
1355.247314 156.0
1355.44519 152.0
1355.687012 192.0
1355.75293 116.0
1356.112061 144.0
1356.178101 104.0
1356.22937 200.0
1356.566528 200.0
1356.848389 196.0
1357.052124 228.0
1357.68103 192.0
1357.937744 108.0
1358.084473 56.0
1358.348511 156.0
1358.701294 132.0
1359.199585 180.0
1359.397705 140.0
1359.588501 140.0
1359.75 124.0
1359.933472 164.0
1360.043579 192.0
1360.139038 100.0
1360.300537 188.0
1360.594116 76.0
1361.440918 176.0
1361.497314 176.0
1362.283203 160.0
1362.342041 172.0
1362.444824 236.0
1362.749878 140.0
1362.937134 144.0
1363.238403 36.0
1363.370728 188.0
1363.456421 160.0
1363.774902 36.0
1364.77478 156.0
1364.991577 220.0
1365.215942 116.0
1365.40332 196.0
1366.091187 184.0
1366.289795 80.0
1366.356079 156.0
1366.488525 156.0
1366.620972 136.0
1366.687134 212.0
1366.922607 36.0
1367.540771 268.0
1367.769043 124.0
1368.166504 160.0
1368.240112 200.0
1368.483154 148.0
1368.578857 164.0
1368.71936 152.0
1369.160522 64.0
1369.341187 176.0
1369.528809 148.0
1369.94873 104.0
1370.037109 184.0
1370.609375 180.0
1370.729736 164.0
1370.818115 176.0
1370.91394 144.0
1371.31189 164.0
1371.584595 152.0
1371.658325 136.0
1371.886841 164.0
1371.997437 180.0
1372.389893 192.0
1372.495728 272.0
1372.550415 152.0
1372.675781 180.0
1372.793823 152.0
1372.934692 188.0
1373.317383 184.0
1373.435425 196.0
1373.531372 136.0
1374.077271 216.0
1374.23999 156.0
1374.711792 184.0
1374.859375 196.0
1375.006958 172.0
1375.13147 92.0
1375.272705 176.0
1375.71167 196.0
1375.774658 152.0
1376.143799 152.0
1376.461304 192.0
1376.675537 164.0
1376.756714 140.0
1376.838013 196.0
1377.030029 168.0
1377.325439 176.0
1377.665283 220.0
1377.827759 252.0
1378.189819 148.0
1378.433594 184.0
1378.559326 80.0
1378.837891 228.0
1379.431396 96.0
1379.515625 324.0
1379.638428 216.0
1380.045044 144.0
1380.244751 152.0
1380.555298 156.0
1380.614502 76.0
1380.814087 112.0
1380.939819 100.0
1381.080444 148.0
1381.339355 172.0
1381.428101 44.0
1381.605591 128.0
1381.716553 204.0
1381.86438 164.0
1382.047852 196.0
1382.193726 204.0
1382.389893 48.0
1382.611938 148.0
1382.819214 144.0
1382.98938 104.0
1383.090088 168.0
1383.344727 220.0
1383.411377 168.0
1383.717529 168.0
1383.914795 76.0
1383.976562 276.0
1384.15918 192.0
1384.424072 144.0
1384.492432 168.0
1384.788574 180.0
1385.314575 88.0
1385.376831 164.0
1385.470093 104.0
1385.536743 160.0
1385.595459 236.0
1385.649902 208.0
1385.803467 124.0
1386.22583 60.0
1386.292603 132.0
1386.359253 208.0
1386.463013 60.0
1386.663086 88.0
1386.752075 180.0
1386.820312 216.0
1386.961548 120.0
1387.026367 124.0
1387.204224 48.0
1387.256104 176.0
1387.708374 168.0
1387.762939 232.0
1387.930786 92.0
1388.049438 136.0
1388.130981 200.0
1388.227417 144.0
1388.546387 160.0
1389.236206 160.0
1389.332642 200.0
1389.770386 204.0
1390.297241 148.0
1390.364014 192.0
1390.482788 212.0
1390.764771 180.0
1390.824219 164.0
1391.507202 292.0
1391.796753 144.0
1392.026978 120.0
1392.542236 184.0
1392.708374 144.0
1392.78479 168.0
1392.977661 104.0
1393.144897 268.0
1393.297852 144.0
1393.401123 156.0
1393.542236 108.0
1393.601685 40.0
1393.75769 260.0
1393.921143 148.0
1394.017822 128.0
1394.077271 180.0
1394.188721 172.0
1394.270508 112.0
1394.456299 180.0
1394.697144 152.0
1394.711304 140.0
1395.251709 172.0
1395.363159 104.0
1395.749756 164.0
1396.317139 164.0
1396.369629 212.0
1396.552979 124.0
1396.697632 192.0
1396.858032 140.0
1396.957031 204.0
1397.187622 88.0
1397.289429 156.0
1397.50354 156.0
1397.79541 220.0
1397.892212 56.0
1398.353149 148.0
1398.629028 148.0
1398.840942 152.0
1398.956543 184.0
1399.053345 212.0
1399.291504 136.0
1399.358521 188.0
1399.410645 64.0
1399.462769 192.0
1399.534546 232.0
1399.708496 168.0
1400.103149 48.0
1400.244751 140.0
1400.423462 144.0
1400.490479 116.0
1400.751221 180.0
1400.840576 80.0
1401.101318 136.0
1401.190674 148.0
1401.362061 132.0
1401.593018 208.0
1401.734619 180.0
1401.809204 176.0
1401.861328 188.0
1402.241455 220.0
1402.383057 200.0
1402.614136 176.0
1402.755737 180.0
1402.986816 156.0
1403.039062 152.0
1403.262695 120.0
1403.739868 160.0
1403.799561 132.0
1403.889038 88.0
1404.060547 148.0
1404.18396 208.0
1404.403687 120.0
1404.485718 152.0
1404.59021 96.0
1404.724365 196.0
1404.910889 156.0
1405.164551 196.0
1405.231689 140.0
1405.298828 168.0
1405.470459 152.0
1405.530151 140.0
1405.685303 152.0
1405.925659 124.0
1405.981445 188.0
1406.294556 152.0
1406.440674 164.0
1406.649658 192.0
1406.79895 56.0
1406.903564 200.0
1406.978149 140.0
1407.224609 196.0
1407.501831 164.0
1407.575439 176.0
1407.904053 132.0
1408.217773 160.0
1408.42688 144.0
1408.524048 136.0
1408.643555 120.0
1408.792969 120.0
1408.922729 180.0
1409.278564 96.0
1409.487793 192.0
1410.406982 140.0
1410.519165 200.0
1410.601318 100.0
1410.668701 192.0
1410.720947 176.0
1410.870483 92.0
1411.386353 168.0
1411.775269 152.0
1412.00708 144.0
1412.121948 160.0
1412.283813 144.0
1412.373535 132.0
1412.515747 124.0
1412.62793 260.0
1413.091797 220.0
1413.421021 120.0
1413.652954 116.0
1413.862549 116.0
1413.952271 100.0
1414.139404 120.0
1414.422729 180.0
1414.663452 112.0
1415.082642 172.0
1415.397095 156.0
1415.621826 172.0
1415.741577 228.0
1415.943848 132.0
1416.153564 152.0
1416.205933 72.0
1416.370728 128.0
1416.487915 148.0
1417.373413 164.0
1417.524536 160.0
1418.349854 168.0
1418.611328 152.0
1418.971191 140.0
1419.383545 216.0
1419.50354 92.0
1419.601074 136.0
1419.713501 76.0
1419.998535 192.0
1420.073486 172.0
1420.433594 116.0
1420.538574 84.0
1420.636108 184.0
1420.891235 160.0
1421.198853 112.0
1421.266357 136.0
1421.483887 116.0
1421.799072 116.0
1422.624756 112.0
1422.812134 148.0
1422.831177 140.0
1423.053955 220.0
1423.129395 184.0
1423.353027 188.0
1423.474854 176.0
1423.736084 132.0
1423.811157 112.0
1423.915161 188.0
1424.016235 168.0
1424.194214 332.0
1424.336914 120.0
1424.419312 132.0
1424.705078 180.0
1424.900391 108.0
1424.990479 156.0
1425.118286 100.0
1425.170898 148.0
1425.671387 140.0
1426.102661 64.0
1426.26062 204.0
1426.456055 88.0
1426.546265 80.0
1427.012329 132.0
1427.117554 144.0
1427.267944 124.0
1427.456787 176.0
1428.035034 140.0
1428.238159 120.0
1428.486328 132.0
1428.561646 164.0
1428.619751 188.0
1429.043091 184.0
1429.268799 108.0
1429.487061 64.0
1429.885864 184.0
1430.337524 132.0
1430.556274 140.0
1430.744019 56.0
1431.052734 156.0
1431.323853 108.0
1431.530762 228.0
1431.737915 120.0
1432.453491 136.0
1432.641846 192.0
1432.905518 196.0
1432.980835 288.0
1433.063721 188.0
1433.183716 140.0
1433.267212 180.0
1433.456787 172.0
1433.817383 112.0
1434.050659 168.0
1434.231812 64.0
1434.314819 276.0
1434.80249 144.0
1435.008301 36.0
1435.249634 128.0
1435.634277 132.0
1436.207397 88.0
1436.592773 200.0
1436.735474 96.0
1436.834229 192.0
1437.419189 176.0
1437.610718 180.0
1437.75415 144.0
1438.086182 176.0
1438.207031 212.0
1438.554199 164.0
1439.070068 132.0
1439.104614 44.0
1439.126099 172.0
1439.226196 140.0
1439.331909 72.0
1439.384766 228.0
1439.452637 312.0
1439.513062 176.0
1439.804688 172.0
1439.943604 236.0
1440.004028 204.0
1440.124878 124.0
1440.429688 176.0
1440.502563 276.0
1440.55542 44.0
1440.797119 136.0
1440.970947 112.0
1441.34436 208.0
1442.036377 184.0
1442.663818 120.0
1442.830078 260.0
1443.155273 116.0
1443.574463 200.0
1443.677002 220.0
1443.81604 168.0
1444.632446 124.0
1444.993164 256.0
1445.167236 64.0
1445.530396 176.0
1445.976929 168.0
1446.060181 156.0
1446.120728 112.0
1446.508545 156.0
1446.574829 140.0
1447.029175 172.0
1447.165405 152.0
1447.366089 132.0
1447.566406 168.0
1447.800171 212.0
1447.915039 140.0
1448.069214 140.0
1448.202881 152.0
1448.846802 136.0
1449.028564 188.0
1449.142212 96.0
1449.619629 132.0
1449.785645 204.0
1449.967407 176.0
1450.127441 152.0
1450.354858 184.0
1450.514038 40.0
1451.143188 140.0
1451.332275 164.0
1451.507202 160.0
1451.715942 152.0
1451.984009 152.0
1452.220093 88.0
1452.356567 152.0
1452.8573 172.0
1453.016602 160.0
1453.088257 208.0
1453.153198 120.0
1453.229004 96.0
1453.47937 156.0
1453.846313 124.0
1453.912354 140.0
1454.435669 96.0
1454.541992 144.0
1454.648193 136.0
1454.906372 40.0
1455.2854 304.0
1455.422607 164.0
1455.483398 188.0
1455.658081 136.0
1455.857788 168.0
1456.61499 196.0
1456.76123 208.0
1457.222778 96.0
1457.298706 164.0
1457.409668 364.0
1457.519043 108.0
1457.633057 172.0
1457.782837 160.0
1457.883789 100.0
1458.066284 136.0
1458.22583 220.0
1458.50708 40.0
1458.621094 52.0
1458.841553 152.0
1458.941162 148.0
1459.746338 124.0
1459.858887 124.0
1460.10376 144.0
1460.271118 208.0
1460.583008 52.0
1460.681885 128.0
1460.85437 196.0
1461.180908 212.0
1461.556763 172.0
1461.670898 244.0
1461.763428 304.0
1462.089478 180.0
1462.234009 184.0
1462.310181 208.0
1462.371094 240.0
1462.934326 216.0
1463.071411 156.0
1463.273682 148.0
1463.41394 192.0
1463.478394 136.0
1463.619507 124.0
1463.720093 160.0
1463.787109 128.0
1464.130859 180.0
1464.251587 144.0
1464.838135 184.0
1464.891479 188.0
1465.033203 152.0
1465.462891 172.0
1465.550049 192.0
1465.641968 196.0
1466.171509 180.0
1466.262329 216.0
1466.430542 180.0
1466.522095 132.0
1466.690918 200.0
1466.773682 128.0
1466.853882 212.0
1466.948975 132.0
1467.048096 116.0
1467.430664 140.0
1467.520752 124.0
1468.496948 160.0
1468.573242 132.0
1468.740967 176.0
1468.893555 180.0
1468.946899 112.0
1469.067017 172.0
1469.175781 164.0
1469.328369 124.0
1469.488647 156.0
1469.564941 168.0
1469.689087 192.0
1469.915894 164.0
1470.268311 180.0
1470.341797 152.0
1470.492432 176.0
1470.663086 216.0
1470.727783 192.0
1470.828857 268.0
1471.015015 124.0
1471.65625 52.0
1472.137573 156.0
1472.221313 156.0
1472.480957 176.0
1472.977539 76.0
1473.367065 160.0
1473.473999 208.0
1473.558105 208.0
1473.665039 236.0
1473.83313 104.0
1473.963013 160.0
1474.276367 220.0
1474.360474 196.0
1474.505615 140.0
1474.689087 136.0
1474.773193 132.0
1474.872559 140.0
1475.063599 288.0
1475.231812 248.0
1475.962769 144.0
1476.210449 120.0
1476.355835 132.0
1476.585205 176.0
1476.677002 156.0
1477.516846 196.0
1477.855103 164.0
1478.023438 184.0
1478.316162 208.0
1478.765747 184.0
1478.956299 156.0
1479.171387 148.0
1479.401123 120.0
1479.454712 44.0
1479.52356 92.0
1479.760864 160.0
1479.88623 152.0
1480.112183 152.0
1480.307983 152.0
1480.691284 188.0
1480.833008 140.0
1480.993896 160.0
1481.070435 156.0
1481.202393 200.0
1481.407471 124.0
1481.721558 248.0
1481.924438 144.0
1482.193726 136.0
1482.855713 104.0
1483.154663 136.0
1483.576294 112.0
1483.790894 44.0
1483.995239 220.0
1484.373901 132.0
1484.480957 140.0
1484.580688 132.0
1484.657349 216.0
1484.71875 148.0
1485.054077 176.0
1485.247925 104.0
1485.301636 164.0
1485.409058 220.0
1485.944336 36.0
1486.117798 128.0
1486.202881 172.0
1486.475464 204.0
1486.86145 156.0
1487.020386 148.0
1487.158569 108.0
1488.00293 164.0
1488.402222 144.0
1488.839966 164.0
1488.924438 168.0
1489.508179 168.0
1489.738647 172.0
1489.884644 68.0
1489.961426 88.0
1490.645264 168.0
1490.79126 172.0
1490.856812 152.0
1490.998779 204.0
1491.252441 132.0
1491.318359 188.0
1491.475342 40.0
1491.644409 220.0
1491.713623 168.0
1491.875 136.0
1492.036499 172.0
1492.336304 92.0
1492.497803 204.0
1492.63623 284.0
1492.882324 120.0
1493.305298 108.0
1493.359131 100.0
1493.658203 156.0
1493.751465 192.0
1494.141235 180.0
1494.236084 200.0
1494.495605 164.0
1494.682373 80.0
1494.890137 84.0
1495.08252 116.0
1495.711914 144.0
1495.775269 120.0
1495.875366 252.0
1496.098633 220.0
1496.237183 120.0
1496.368042 188.0
1496.47583 36.0
1496.930176 176.0
1497.1073 160.0
1497.177979 176.0
1497.27002 156.0
1497.629883 112.0
1497.777344 156.0
1498.308838 140.0
1498.501831 404.0
1498.963745 196.0
1499.087158 192.0
1499.262939 172.0
1499.341431 144.0
1499.449341 176.0
1499.649658 212.0
1499.749878 136.0
1500.065918 152.0
1500.38208 72.0
1500.721069 148.0
1500.824829 188.0
1501.122192 200.0
1501.345825 88.0
1501.59436 196.0
1501.754639 112.0
1501.905151 156.0
1502.009155 204.0
1502.757568 172.0
1502.981323 132.0
1503.490601 220.0
1504.385986 108.0
1504.633057 136.0
1504.798584 168.0
1504.812012 208.0
1505.32019 116.0
