>compound MLS001158640-01!(2R)-2-[[(2S)-4-methyl-2-[(3-oxo-2,4-dihydroquinoxaline-1-carbonyl)amino]pentanoyl]amino]-3-phenylpropanoic acid
>formula C24H28N4O5
>ionization [M+H]+
>parentmass 453.214
#inchi InChI=1S/C24H28N4O5/c1-15(2)12-18(22(30)26-19(23(31)32)13-16-8-4-3-5-9-16)27-24(33)28-14-21(29)25-17-10-6-7-11-20(17)28/h3-11,15,18-19H,12-14H2,1-2H3,(H,25,29)(H,26,30)(H,27,33)(H,31,32)/t18-,19+/m0/s1
#inchikey UNYXUWKZLGLQBX
#Ion_Source LC-ESI
#Instrument qTof
#Compound_Source NIH Natural Product Library
#PI Dorrestein
#Data_Collector VVP/LMS
#Scan -1
#Precursor_MZ 453.214
#ExactMass 452.206
#Charge 1
#CAS_Number N/A
#Pubmed_ID N/A
#Smiles CC(C)C[C@H](NC(=O)N1CC(=O)Nc2ccccc12)C(=O)N[C@H](Cc3ccccc3)C(=O)O
#INCHI_AUX N/A
#Library_Class 1
#SpectrumID CCMSLIB00000080600
#IonMode Positive
#UpdateWorkflowName UPDATE-SINGLE-ANNOTATED-GOLD
#LibraryQualityString Gold
#TaskID b1d8e8f6646f4e71acdff9ca3d919d08
##Scan# 1962
#SpectrumFile p2-D11_GD11_01_18023.mzXML
#LibraryName NIH_Natural_Products_Library.mgf
#MQScore -1
#Organism NIH_Natural_Products_Library
#TIC_Query 0
#RT_Query -1
#MZErrorPPM -1
#SharedPeaks 0
#MassDiff 0
#LibMZ -1
#SpecMZ 453.214
#SpecCharge 0
#internalFilename spec-00000.mgf

>collision 10
94.970627 140.0
94.988083 164.0
95.034645 200.0
95.068832 396.0
95.081856 232.0
95.168571 88.0
95.206932 196.0
95.214912 148.0
95.221313 176.0
95.277336 164.0
95.333679 240.0
95.382271 164.0
95.403648 196.0
95.427528 128.0
95.440216 188.0
95.477539 76.0
95.510605 168.0
95.531998 216.0
95.568962 108.0
95.59037 128.0
95.629288 52.0
95.74221 216.0
95.763634 184.0
95.868835 184.0
95.9468 192.0
95.972145 172.0
96.022545 152.0
96.065765 184.0
96.093071 192.0
96.11454 256.0
96.141853 160.0
96.227745 172.0
96.276558 148.0
96.299995 144.0
96.366409 108.0
96.604919 100.0
96.632309 144.0
96.647514 140.0
96.800316 168.0
96.880943 180.0
96.914253 176.0
96.939728 300.0
96.979317 100.0
97.02401 160.0
97.051453 204.0
97.076942 156.0
97.145592 68.0
97.171097 120.0
97.19072 216.0
97.216225 160.0
97.241737 328.0
97.2967 200.0
97.40078 192.0
97.677933 56.0
97.707443 208.0
97.729088 116.0
97.821587 156.0
97.84127 152.0
97.904274 144.0
97.96534 140.0
97.998825 36.0
98.034294 192.0
98.098099 660.0
98.124969 36.0
98.219627 180.0
98.302483 160.0
98.373535 160.0
98.391304 84.0
98.434845 76.0
98.462387 140.0
98.49202 168.0
98.53006 156.0
98.557556 184.0
98.634285 200.0
98.69162 208.0
98.729187 212.0
98.748962 272.0
98.764786 164.0
98.851837 236.0
98.871628 64.0
98.915169 36.0
98.970604 192.0
98.996346 96.0
99.022087 180.0
99.113213 260.0
99.212311 200.0
99.301544 164.0
99.329109 160.0
99.446381 156.0
99.475685 188.0
99.499977 116.0
99.56749 228.0
99.591316 228.0
99.782089 80.0
99.841743 144.0
99.885498 176.0
99.901413 136.0
99.938057 152.0
99.955132 152.0
100.046684 192.0
100.08252 156.0
100.11438 148.0
100.152222 136.0
100.208 80.0
100.243866 176.0
100.385399 224.0
100.417305 196.0
100.570938 160.0
100.642807 164.0
100.698723 116.0
100.746658 152.0
100.774628 128.0
100.858566 192.0
100.882553 236.0
100.930534 264.0
100.976524 136.0
101.048279 132.0
101.062546 172.0
101.105438 140.0
101.164612 160.0
101.182632 180.0
101.213692 168.0
101.326828 108.0
101.503212 168.0
101.611519 164.0
101.752007 88.0
101.79216 204.0
101.828308 128.0
101.85643 196.0
101.874207 160.0
101.900627 92.0
102.00312 204.0
102.063431 168.0
102.091225 268.0
102.098381 220.0
102.136276 180.0
102.170029 144.0
102.194168 172.0
102.294792 164.0
102.467987 128.0
102.504257 168.0
102.534485 208.0
102.588905 164.0
102.613098 168.0
102.641327 176.0
102.713928 180.0
102.737373 180.0
102.760323 144.0
102.830956 240.0
102.923813 192.0
102.94603 156.0
103.024796 132.0
103.053703 1132.0
103.146042 116.0
103.184456 72.0
103.261292 208.0
103.352325 52.0
103.480942 188.0
103.5019 116.0
103.712799 168.0
103.729019 152.0
103.785782 20.0
103.95414 112.0
104.010971 212.0
104.054008 120.0
104.155136 56.0
104.189667 220.0
104.250465 152.0
104.277046 180.0
104.301781 164.0
104.462074 136.0
104.492592 168.0
104.517456 164.0
104.586197 116.0
104.604523 208.0
104.70752 204.0
104.775581 132.0
104.826515 168.0
104.901932 128.0
104.994698 104.0
105.044403 152.0
105.052582 132.0
105.065521 188.0
105.118118 188.0
105.252846 100.0
105.280296 184.0
105.322525 168.0
105.491882 172.0
105.583893 208.0
105.641159 108.0
105.680031 132.0
105.782356 204.0
105.821259 144.0
105.930855 120.0
106.05069 148.0
106.070099 188.0
106.09729 240.0
106.104355 176.0
106.11203 272.0
106.1614 68.0
106.179855 132.0
106.194214 192.0
106.419945 204.0
106.485657 180.0
106.5103 240.0
106.528786 152.0
106.738426 88.0
106.787781 176.0
106.816574 144.0
106.859779 116.0
106.885239 212.0
106.925621 140.0
106.962669 232.0
107.033524 252.0
107.050438 172.0
107.137711 112.0
107.201584 136.0
107.43457 184.0
107.47377 188.0
107.531548 84.0
107.632271 172.0
107.671684 224.0
107.752502 144.0
107.773163 216.0
107.843422 180.0
107.909569 196.0
108.055336 144.0
108.12056 348.0
108.141258 160.0
108.193008 212.0
108.207497 160.0
108.265007 176.0
108.48243 180.0
108.508713 176.0
108.547302 148.0
108.565964 120.0
108.601227 232.0
108.713257 144.0
108.804581 88.0
108.922951 52.0
108.993584 208.0
109.047615 168.0
109.077332 548.0
109.134926 148.0
109.166115 196.0
109.265961 148.0
109.388741 200.0
109.413719 156.0
109.54908 140.0
109.571999 244.0
109.601166 152.0
109.680359 216.0
109.751244 188.0
109.959846 148.0
109.991158 132.0
110.02137 144.0
110.037086 136.0
110.189545 64.0
110.222977 144.0
110.287758 136.0
110.356018 160.0
110.50943 160.0
110.632904 160.0
110.659706 240.0
110.708282 112.0
110.746933 216.0
110.771118 192.0
110.880074 44.0
110.967049 252.0
110.989075 220.0
111.142197 168.0
111.165276 144.0
111.186264 112.0
111.200958 112.0
111.238739 56.0
111.341621 152.0
111.379425 200.0
111.457153 52.0
111.503387 124.0
111.534912 152.0
111.593544 180.0
111.630302 236.0
111.740997 212.0
111.787292 132.0
111.808334 136.0
111.867271 164.0
111.940956 124.0
111.993607 124.0
112.016777 172.0
112.044167 164.0
112.075378 1848.0
112.132668 260.0
112.159576 204.0
112.199966 112.0
112.295006 196.0
112.32032 160.0
112.370949 80.0
112.394157 128.0
112.418327 264.0
112.489128 212.0
112.535576 196.0
112.554581 180.0
112.729904 140.0
112.83136 148.0
112.877876 132.0
112.896904 184.0
112.964592 200.0
112.994209 84.0
113.080185 488.0
113.100014 224.0
113.165642 48.0
113.242462 172.0
113.408333 156.0
113.436813 200.0
113.458008 144.0
113.474968 232.0
113.500412 176.0
113.559792 148.0
113.591606 172.0
113.610703 180.0
113.739258 96.0
113.769859 204.0
113.833557 204.0
113.867538 172.0
113.885483 160.0
114.003929 200.0
114.037506 148.0
114.112335 180.0
114.184204 112.0
114.533264 132.0
114.588646 176.0
114.652573 144.0
114.812157 56.0
114.86792 56.0
114.955391 112.0
115.130127 188.0
115.23938 136.0
115.26075 200.0
115.27784 148.0
115.366196 332.0
115.412506 92.0
115.493774 132.0
115.510887 148.0
115.680923 140.0
115.727036 184.0
115.757011 232.0
115.880928 404.0
115.902672 104.0
115.932671 44.0
115.962677 160.0
116.007683 116.0
116.039764 216.0
116.080582 112.0
116.157791 140.0
116.181389 32.0
116.273659 164.0
116.342072 128.0
116.369232 208.0
116.417488 132.0
116.471184 124.0
116.514145 168.0
116.572159 216.0
116.604393 156.0
116.640938 108.0
116.671028 176.0
116.692528 188.0
116.724777 152.0
116.768402 408.0
116.890411 148.0
116.959282 144.0
116.986191 216.0
117.038628 168.0
117.069084 80.0
117.187553 188.0
117.228493 192.0
117.246925 168.0
117.308235 164.0
117.37188 116.0
117.385857 188.0
117.409576 40.0
117.444084 156.0
117.467812 144.0
117.487228 164.0
117.54187 196.0
117.592957 232.0
117.700897 144.0
117.774323 136.0
117.793762 148.0
117.83049 172.0
117.854256 132.0
117.875862 152.0
117.912598 184.0
117.979767 220.0
118.048798 148.0
118.069344 140.0
118.1418 144.0
118.178581 108.0
118.255882 248.0
118.291115 200.0
118.35173 108.0
118.375549 148.0
118.421997 260.0
118.462189 156.0
118.520683 160.0
118.540184 32.0
118.585693 172.0
118.603035 192.0
118.644218 104.0
118.665901 152.0
118.73204 152.0
118.750473 196.0
118.767822 144.0
118.854599 60.0
118.869789 108.0
118.898003 180.0
118.926216 48.0
118.956604 136.0
118.996056 172.0
119.019981 168.0
119.0606 26152.0
119.112671 176.0
119.134003 52.0
119.175949 52.0
119.209969 244.0
119.242302 60.0
119.260704 60.0
119.306351 56.0
119.38028 68.0
119.411728 156.0
119.491211 208.0
119.513351 272.0
119.541252 104.0
119.556488 116.0
119.577835 188.0
119.595665 132.0
119.647903 48.0
119.678391 172.0
119.693626 216.0
119.70887 168.0
119.731079 204.0
119.780746 136.0
119.942505 152.0
120.016953 156.0
120.080742 18396.0
120.118233 92.0
120.144791 164.0
120.16317 148.0
120.181877 200.0
120.216972 196.0
120.264366 120.0
120.32811 28.0
120.411087 56.0
120.472244 412.0
120.494949 180.0
120.550903 100.0
120.583687 52.0
120.601173 176.0
120.741096 172.0
120.806717 184.0
120.822029 204.0
120.898376 76.0
120.919052 108.0
120.940659 168.0
120.964203 136.0
120.969315 132.0
121.002998 116.0
121.050774 180.0
121.076454 17156.0
121.159172 80.0
121.185463 104.0
121.211235 152.0
121.248215 164.0
121.277496 48.0
121.301613 68.0
121.336685 196.0
121.370018 228.0
121.389313 208.0
121.419006 140.0
121.48362 184.0
121.501167 152.0
121.569191 152.0
121.61203 176.0
121.683327 120.0
121.746712 60.0
121.762985 224.0
121.793129 140.0
121.815094 148.0
121.848045 96.0
121.907677 244.0
121.967079 120.0
122.004082 132.0
122.078804 824.0
122.104294 264.0
122.125023 104.0
122.166817 60.0
122.202019 68.0
122.226219 64.0
122.259224 36.0
122.292236 188.0
122.422134 172.0
122.468697 140.0
122.521248 56.0
122.569717 104.0
122.6689 136.0
122.690941 172.0
122.761497 136.0
122.933563 176.0
122.990944 188.0
123.05938 148.0
123.096153 360.0
123.112373 80.0
123.141083 196.0
123.178635 148.0
123.238281 132.0
123.33773 104.0
123.375305 156.0
123.399628 220.0
123.600906 128.0
123.631882 144.0
123.693855 160.0
123.751411 120.0
123.78241 160.0
123.89537 152.0
123.919739 108.0
123.97834 144.0
124.192406 176.0
124.290016 192.0
124.35659 164.0
124.435448 276.0
124.613029 192.0
124.634552 120.0
124.677223 248.0
124.70752 52.0
124.736412 156.0
124.825348 140.0
124.952835 180.0
125.043358 72.0
125.072632 132.0
125.112358 148.0
125.223694 188.0
125.277153 176.0
125.337311 184.0
125.506714 156.0
125.687386 132.0
125.710625 212.0
125.738708 168.0
125.783348 148.0
125.839157 44.0
125.955284 204.0
125.997093 56.0
126.017838 60.0
126.07943 304.0
126.106201 228.0
126.131805 188.0
126.307648 244.0
126.372459 184.0
126.397949 188.0
126.484917 172.0
126.523392 136.0
126.581497 184.0
126.765182 184.0
126.894875 192.0
126.916115 216.0
127.06115 184.0
127.317032 56.0
127.33725 104.0
127.431595 200.0
127.63163 84.0
127.694603 44.0
127.714844 200.0
127.745308 184.0
127.775581 208.0
127.816078 192.0
127.906097 100.0
128.000656 152.0
128.049103 2236.0
128.201141 48.0
128.227615 192.0
128.264786 100.0
128.29718 144.0
128.413055 108.0
128.437866 200.0
128.473969 80.0
128.492004 120.0
128.557449 124.0
128.593552 156.0
128.645477 80.0
128.679337 124.0
128.775543 188.0
128.8629 200.0
128.997864 184.0
129.044388 248.0
129.090561 112.0
129.139114 164.0
129.192352 144.0
129.282852 216.0
129.398285 148.0
129.441315 188.0
129.681442 148.0
129.704117 176.0
129.744919 228.0
129.929413 216.0
129.951309 156.0
129.994415 148.0
130.064423 664.0
130.08136 260.0
130.107407 276.0
130.153305 64.0
130.405472 148.0
130.450928 184.0
130.528229 164.0
130.553238 144.0
130.630569 196.0
130.717026 176.0
130.744339 180.0
130.896866 160.0
130.940369 152.0
131.054535 312.0
131.091187 144.0
131.127991 192.0
131.272858 204.0
131.336716 188.0
131.367783 236.0
131.400589 52.0
131.503265 148.0
131.519241 104.0
131.608276 48.0
131.786438 48.0
131.880127 80.0
131.914413 240.0
131.966995 152.0
132.045929 1316.0
132.068329 876.0
132.113373 220.0
132.133957 44.0
132.280411 40.0
132.317047 172.0
132.335358 128.0
132.361618 180.0
132.415512 184.0
132.546082 52.0
132.594208 204.0
132.699646 196.0
132.896896 332.0
133.051712 352.0
133.075058 1008.0
133.140228 64.0
133.252014 112.0
133.320862 224.0
133.461929 48.0
133.489517 284.0
133.579224 72.0
133.675842 188.0
133.744888 36.0
133.802444 176.0
133.818558 212.0
133.879333 152.0
134.016632 120.0
134.068832 208.0
134.134171 156.0
134.244827 152.0
134.448044 120.0
134.504105 248.0
134.524002 164.0
134.554825 184.0
134.768814 340.0
134.784988 136.0
134.914413 208.0
134.95372 128.0
135.004593 80.0
135.056961 524.0
135.080917 84.0
135.189651 264.0
135.224365 180.0
135.314651 204.0
135.33493 84.0
135.458237 96.0
135.546265 128.0
135.636658 140.0
135.664474 140.0
135.703888 96.0
135.745239 168.0
135.921906 160.0
135.966003 112.0
136.06813 156.0
136.095993 188.0
136.135468 208.0
136.318985 180.0
136.342545 148.0
136.395691 132.0
136.474869 132.0
136.504959 196.0
136.621246 144.0
136.64917 40.0
136.812073 172.0
136.863297 196.0
136.905212 184.0
136.956451 132.0
137.00769 128.0
137.040314 72.0
137.079926 176.0
137.112549 32.0
137.166153 156.0
137.20578 180.0
137.240753 108.0
137.296722 172.0
137.313049 56.0
137.336365 204.0
137.404022 184.0
137.523026 92.0
137.544037 124.0
137.653763 172.0
137.679459 148.0
137.770554 128.0
137.796249 140.0
137.840637 132.0
137.859329 92.0
137.882706 140.0
138.058609 140.0
138.08844 132.0
138.109497 212.0
138.259232 212.0
138.310715 120.0
138.362793 164.0
138.397339 120.0
138.46524 100.0
138.481644 40.0
138.563629 200.0
138.657364 124.0
138.69017 52.0
138.775711 168.0
138.850311 160.0
138.969238 56.0
139.011475 76.0
139.034943 148.0
139.088913 232.0
139.105347 68.0
139.175781 168.0
139.223633 212.0
139.241821 192.0
139.384827 48.0
139.424774 156.0
139.463684 80.0
139.59404 148.0
139.634018 68.0
139.68811 252.0
139.937576 88.0
139.978607 140.0
140.067093 156.0
140.097717 336.0
140.244629 104.0
140.27681 84.0
140.31218 204.0
140.456024 204.0
140.503204 164.0
140.550385 144.0
140.60466 112.0
140.640076 32.0
140.828125 160.0
140.987244 188.0
141.009583 160.0
141.039246 192.0
141.060516 88.0
141.25679 108.0
141.280441 96.0
141.301743 40.0
141.386917 168.0
141.479233 204.0
141.590515 152.0
141.614197 124.0
141.716064 140.0
141.78479 192.0
141.806122 152.0
141.834564 152.0
141.853516 156.0
141.941238 52.0
142.021133 140.0
142.100677 184.0
142.181046 136.0
142.20694 176.0
142.356506 188.0
142.408752 112.0
142.47052 196.0
142.648743 220.0
142.757202 104.0
142.848495 152.0
142.9151 60.0
142.931763 160.0
142.953171 144.0
142.986496 76.0
143.041229 104.0
143.089111 164.0
143.148376 212.0
143.245453 128.0
143.286514 148.0
143.365158 188.0
143.433487 208.0
143.621048 108.0
143.658417 128.0
143.734772 172.0
143.873383 152.0
143.894684 188.0
143.9496 196.0
143.975876 140.0
143.99736 128.0
144.054688 164.0
144.076187 212.0
144.116806 188.0
144.267365 200.0
144.37735 216.0
144.551987 124.0
144.654907 72.0
144.714752 192.0
144.758713 168.0
144.822556 212.0
144.908752 176.0
144.941177 228.0
145.002213 124.0
145.070557 124.0
145.079102 152.0
145.158035 132.0
145.472336 128.0
145.496338 140.0
145.553955 116.0
145.671646 56.0
145.698059 164.0
145.762939 148.0
145.818207 144.0
145.892731 184.0
145.979279 192.0
146.060501 4092.0
146.126007 156.0
146.189941 196.0
146.217438 148.0
146.270401 144.0
146.289261 244.0
146.296219 204.0
146.358078 228.0
146.394485 140.0
146.499664 132.0
146.532883 136.0
146.573074 136.0
146.614532 140.0
146.635696 132.0
146.641037 164.0
146.649155 224.0
146.691742 196.0
146.700409 180.0
146.73233 360.0
146.768265 356.0
146.788376 168.0
146.832672 152.0
146.841492 164.0
146.878983 184.0
146.907318 308.0
146.930679 388.0
146.97876 268.0
146.989212 416.0
147.013733 236.0
147.05629 157644.0
147.120346 260.0
147.149872 44.0
147.187012 176.0
147.210403 84.0
147.214218 72.0
147.235306 124.0
147.281967 108.0
147.311111 356.0
147.343048 144.0
147.350769 68.0
147.373718 104.0
147.399094 108.0
147.424789 84.0
147.453232 2516.0
147.485596 300.0
147.509048 92.0
147.527603 160.0
147.54303 72.0
147.560318 68.0
147.566345 40.0
147.620392 204.0
147.660172 68.0
147.67775 120.0
147.719788 68.0
147.754501 128.0
147.829758 40.0
147.88205 68.0
147.900848 84.0
147.928833 176.0
147.950668 72.0
147.977173 88.0
148.00946 136.0
148.058426 23296.0
148.115204 40.0
148.134583 92.0
148.151001 152.0
148.192413 32.0
148.267838 212.0
148.294937 88.0
148.318954 88.0
148.367859 244.0
148.428604 140.0
148.455353 104.0
148.541824 68.0
148.579758 88.0
148.609756 60.0
148.654556 112.0
148.672836 88.0
148.716522 100.0
148.748215 228.0
148.806808 168.0
148.883423 236.0
148.926376 88.0
148.960114 164.0
148.998672 324.0
149.014206 180.0
149.03212 124.0
149.069397 7360.0
149.105637 228.0
149.128586 140.0
149.167969 56.0
149.174805 112.0
149.184158 208.0
149.201721 156.0
149.211746 212.0
149.227524 136.0
149.25676 180.0
149.291855 84.0
149.307846 248.0
149.338516 112.0
149.357986 116.0
149.406631 124.0
149.467453 76.0
149.484497 156.0
149.544281 92.0
149.646576 136.0
149.671921 36.0
149.766708 52.0
149.97644 60.0
150.000824 88.0
150.033905 160.0
150.075012 844.0
150.122726 116.0
150.14711 88.0
150.183121 84.0
150.310547 136.0
150.352036 112.0
150.483856 96.0
150.52536 76.0
150.564438 48.0
150.588852 164.0
150.772095 140.0
150.820251 124.0
150.855194 160.0
150.894302 80.0
150.921204 76.0
150.952988 96.0
150.992111 124.0
151.121765 32.0
151.185379 108.0
151.217194 80.0
151.310226 56.0
151.378784 188.0
151.537994 52.0
151.911102 168.0
152.062759 172.0
152.082397 172.0
152.16095 168.0
152.244431 72.0
152.416382 100.0
152.519592 64.0
152.615479 164.0
152.71138 208.0
152.973175 132.0
153.105164 136.0
153.533966 136.0
153.583298 172.0
153.696777 148.0
154.084412 156.0
154.188187 32.0
154.264816 112.0
154.296951 212.0
154.338989 80.0
154.586349 124.0
155.056244 96.0
155.34697 184.0
155.667145 116.0
155.993958 172.0
156.052872 136.0
156.099518 112.0
156.218903 172.0
156.313446 140.0
156.343307 172.0
156.721802 40.0
156.79158 80.0
156.936157 188.0
156.991013 192.0
157.023438 76.0
157.05336 96.0
157.169907 84.0
157.228012 120.0
157.280426 108.0
157.395264 152.0
157.537628 268.0
157.564026 160.0
157.667557 108.0
157.872543 156.0
157.942581 228.0
158.047653 168.0
158.077667 160.0
158.107697 120.0
158.295456 96.0
158.348038 96.0
158.373093 124.0
158.435715 84.0
158.776611 72.0
158.912064 160.0
158.974792 72.0
159.064438 172.0
159.09024 428.0
159.343903 52.0
159.426819 180.0
159.469543 168.0
159.537399 192.0
159.663132 52.0
159.814056 176.0
159.8992 124.0
159.914719 200.0
160.211838 244.0
160.23703 112.0
160.31514 136.0
160.332794 60.0
160.489075 124.0
160.564728 148.0
160.751404 184.0
160.892746 124.0
161.068695 640.0
161.135193 84.0
161.226166 80.0
161.344955 112.0
161.726929 96.0
161.813004 192.0
161.899094 168.0
161.980133 72.0
162.043472 72.0
162.122025 116.0
162.246216 136.0
162.329895 140.0
162.461777 112.0
162.52774 168.0
162.63179 224.0
162.809509 164.0
162.972076 124.0
163.055939 76.0
163.088974 136.0
163.137283 176.0
163.213547 112.0
163.264404 172.0
163.307648 124.0
163.338165 52.0
163.401764 224.0
163.419571 120.0
163.747955 116.0
163.842194 64.0
163.900803 140.0
164.043518 220.0
164.082672 244.0
164.144791 116.0
164.176102 176.0
164.339355 252.0
164.801483 188.0
164.870483 256.0
165.103119 80.0
165.574249 132.0
165.668777 44.0
165.84996 232.0
165.889175 172.0
165.940445 180.0
166.087738 472.0
166.391983 180.0
166.451691 156.0
166.479279 132.0
166.649124 132.0
166.797867 144.0
166.898132 144.0
167.000992 192.0
167.073029 160.0
167.093597 148.0
167.181091 140.0
167.312363 196.0
167.407623 40.0
167.639465 200.0
168.044174 180.0
168.490936 124.0
168.857925 156.0
169.114136 76.0
169.29277 224.0
169.518143 52.0
169.564789 168.0
169.730698 108.0
169.862961 72.0
169.964142 236.0
170.158798 144.0
171.092133 172.0
171.159821 184.0
171.279617 52.0
171.435944 96.0
171.5495 112.0
171.62883 260.0
171.871414 156.0
172.004501 108.0
172.067154 96.0
172.11319 248.0
172.218613 164.0
172.500824 212.0
172.592316 216.0
172.63678 128.0
172.655075 132.0
172.893143 220.0
172.92717 140.0
173.003082 180.0
173.069687 172.0
173.175903 160.0
173.293777 136.0
173.329147 20.0
173.779419 196.0
173.865417 148.0
174.067551 172.0
174.093246 260.0
174.173492 156.0
174.217102 136.0
174.24353 172.0
174.264542 80.0
174.353897 32.0
174.431564 152.0
174.487946 184.0
174.516861 124.0
174.561569 268.0
174.693069 108.0
174.746017 128.0
174.803177 184.0
174.856201 108.0
174.88179 172.0
174.904419 188.0
174.93544 156.0
174.978043 168.0
174.994339 76.0
175.050919 89316.0
175.164536 156.0
175.207397 136.0
175.266266 160.0
175.27858 252.0
175.32962 260.0
175.365768 124.0
175.459045 116.0
175.465439 28.0
175.483932 176.0
175.571365 80.0
175.591263 232.0
175.630814 28.0
175.675293 116.0
175.70874 104.0
175.748718 124.0
175.789108 40.0
175.833969 112.0
175.852448 52.0
175.881836 172.0
175.902603 44.0
175.959702 84.0
175.99765 60.0
176.053345 8100.0
176.084015 1212.0
176.13208 208.0
176.168869 48.0
176.187469 64.0
176.207123 76.0
176.239288 136.0
176.258102 112.0
176.278717 244.0
176.370132 56.0
176.460022 56.0
176.494385 48.0
176.537964 200.0
176.592239 36.0
176.618057 68.0
176.650421 56.0
176.668945 76.0
176.698044 56.0
176.77742 104.0
176.817123 124.0
176.896515 176.0
176.922989 148.0
176.94368 152.0
176.978592 80.0
177.05687 648.0
177.099228 144.0
177.142548 160.0
177.166626 120.0
177.185181 68.0
177.248016 84.0
177.285141 220.0
177.333481 124.0
177.353302 152.0
177.391876 108.0
177.429001 88.0
177.480453 108.0
177.516495 184.0
177.57048 100.0
177.662369 92.0
177.686249 112.0
177.771149 72.0
177.818924 64.0
178.020691 104.0
178.113647 56.0
178.195999 80.0
178.334183 52.0
178.366074 92.0
178.394836 112.0
178.423935 104.0
178.512695 132.0
178.935364 92.0
179.004593 188.0
179.11644 128.0
179.292297 68.0
179.841705 168.0
180.039261 112.0
180.295731 180.0
180.541672 80.0
181.135849 172.0
181.556641 108.0
181.827606 228.0
181.919052 120.0
181.988663 132.0
182.069229 124.0
182.211594 88.0
182.319077 84.0
182.961929 108.0
183.018463 56.0
184.183487 148.0
184.305054 92.0
184.369919 124.0
184.515869 84.0
184.88916 88.0
185.06781 180.0
185.149048 124.0
185.959671 168.0
186.073685 188.0
186.122559 164.0
186.185013 200.0
186.347992 172.0
186.674164 156.0
186.929871 64.0
187.065674 160.0
187.095901 140.0
187.123123 324.0
187.155792 160.0
187.25383 96.0
187.364456 52.0
187.643494 124.0
187.722565 136.0
187.864395 52.0
188.142014 1096.0
188.391266 172.0
188.590729 180.0
188.648132 52.0
189.033768 88.0
189.110397 168.0
189.138657 2912.0
189.345856 68.0
189.548569 200.0
189.60228 260.0
189.655457 72.0
189.69931 232.0
190.031143 104.0
190.095322 260.0
190.139954 492.0
190.282944 124.0
190.322083 88.0
190.445663 156.0
190.690201 132.0
190.948639 200.0
191.006393 208.0
191.29808 144.0
191.405441 96.0
191.584473 144.0
191.661621 192.0
192.075668 888.0
192.353836 60.0
192.478073 152.0
192.525024 100.0
192.895248 56.0
193.058899 280.0
193.21051 88.0
193.415283 200.0
193.742035 172.0
193.791901 96.0
193.905518 112.0
194.072433 152.0
194.174454 92.0
194.490738 156.0
194.526825 168.0
194.621216 40.0
194.78334 96.0
194.807297 100.0
194.9879 132.0
195.296509 168.0
195.359467 152.0
195.666611 128.0
196.232178 112.0
196.503967 188.0
197.156113 164.0
197.212677 84.0
197.402115 64.0
197.793793 112.0
197.911377 244.0
198.132706 176.0
198.325989 120.0
198.502609 168.0
198.662476 152.0
199.080673 112.0
199.134033 240.0
199.60054 260.0
199.659592 164.0
199.870575 124.0
200.084473 164.0
200.183014 308.0
200.214005 44.0
200.35202 276.0
200.408356 140.0
200.698669 72.0
201.069244 640.0
201.474823 132.0
201.517197 104.0
201.941223 108.0
202.062775 168.0
202.385513 180.0
203.069122 152.0
203.196106 144.0
203.42598 52.0
203.477081 148.0
203.565094 208.0
203.826431 100.0
203.945786 172.0
203.96875 100.0
204.016846 84.0
204.077148 14240.0
204.176086 76.0
204.296631 52.0
204.357025 132.0
204.443497 40.0
204.480499 56.0
204.531967 48.0
204.656982 56.0
204.762344 208.0
204.879135 68.0
204.944656 84.0
205.079147 1528.0
205.226425 56.0
205.329498 96.0
205.923126 120.0
206.051666 144.0
206.084503 224.0
206.174652 100.0
206.220261 84.0
206.249466 92.0
206.406082 156.0
206.48616 52.0
206.580551 100.0
206.652069 100.0
206.715012 84.0
206.755081 80.0
206.829498 92.0
207.081451 108.0
207.158798 44.0
207.740723 184.0
208.372299 192.0
208.898392 208.0
209.002457 188.0
209.068146 40.0
209.514435 148.0
210.417114 152.0
210.824387 204.0
210.989151 104.0
211.159744 136.0
212.762863 160.0
212.988647 116.0
213.056992 144.0
213.296646 176.0
214.117142 124.0
214.277344 200.0
214.440521 88.0
214.702911 68.0
215.009232 172.0
215.118607 940.0
215.154739 296.0
215.204819 192.0
215.81546 136.0
215.898712 240.0
216.081314 152.0
216.141876 440.0
216.840027 240.0
216.90451 152.0
217.090256 260.0
217.133911 2840.0
217.592697 88.0
217.6996 84.0
218.016876 76.0
218.094498 1300.0
218.133591 656.0
218.319672 40.0
218.537338 60.0
218.593246 96.0
218.616791 124.0
218.743347 80.0
218.993622 32.0
219.097336 288.0
219.135025 68.0
219.485764 184.0
219.506409 76.0
219.642075 80.0
219.819092 112.0
220.052261 180.0
220.176285 60.0
220.261932 116.0
220.524902 60.0
220.873413 92.0
220.947754 68.0
221.285141 156.0
221.622787 220.0
224.428635 76.0
224.592651 156.0
225.443527 28.0
225.545151 212.0
225.73262 136.0
225.877045 60.0
226.09845 68.0
226.230148 156.0
226.544586 76.0
226.619492 72.0
227.024155 168.0
227.120117 84.0
227.177109 216.0
227.684372 256.0
227.714401 204.0
227.927246 80.0
227.990799 44.0
228.023849 104.0
228.309464 80.0
228.444809 176.0
228.52002 244.0
228.607285 152.0
228.93541 168.0
229.550156 216.0
229.752228 136.0
229.806534 184.0
230.093246 204.0
230.214035 72.0
230.685364 44.0
230.800247 132.0
231.008926 144.0
231.093628 196.0
231.149063 5296.0
231.241913 72.0
231.649292 140.0
231.717331 80.0
231.777924 136.0
231.838531 184.0
231.968857 120.0
232.032516 244.0
232.053741 144.0
232.105286 164.0
232.145187 8416.0
232.193222 128.0
232.332748 44.0
232.384338 68.0
232.417709 68.0
232.548203 44.0
232.572479 60.0
232.66658 72.0
232.75766 48.0
233.058365 72.0
233.145935 1060.0
233.237671 132.0
233.341034 96.0
233.432251 68.0
233.66037 100.0
234.146988 364.0
234.27533 80.0
234.543472 208.0
234.586151 116.0
234.73555 32.0
235.110764 164.0
235.532089 128.0
235.895721 100.0
235.978256 148.0
236.495239 84.0
236.896378 96.0
237.340759 80.0
237.570786 212.0
237.668961 160.0
237.896072 48.0
238.316818 112.0
238.685654 48.0
239.507355 212.0
240.037445 180.0
240.368225 128.0
241.13472 164.0
241.411591 140.0
242.123566 128.0
242.755554 96.0
242.978882 184.0
243.109451 428.0
243.487946 100.0
244.115128 168.0
244.296082 184.0
245.847717 260.0
246.334778 144.0
246.76918 52.0
247.689224 152.0
247.896011 156.0
247.93988 244.0
248.024506 156.0
248.278458 60.0
248.830704 164.0
248.940613 144.0
249.396149 184.0
250.243439 188.0
250.324234 116.0
250.790497 140.0
250.815704 152.0
251.276123 160.0
251.939087 100.0
252.002274 208.0
252.38472 164.0
252.780106 44.0
253.077652 76.0
253.245483 132.0
253.543289 188.0
255.247971 144.0
255.397446 144.0
255.58197 180.0
255.887512 156.0
256.053101 80.0
256.610748 232.0
256.993469 212.0
257.044525 44.0
257.168976 160.0
257.334991 84.0
257.775757 120.0
257.804535 112.0
258.130585 160.0
258.175354 172.0
258.200928 176.0
258.341675 120.0
258.415253 120.0
258.504852 56.0
258.66806 104.0
258.837769 88.0
258.862091 208.0
258.937042 132.0
258.978668 124.0
259.014709 112.0
259.039978 124.0
259.068359 184.0
259.144592 11972.0
259.239532 60.0
259.305908 112.0
259.353546 100.0
259.43515 176.0
259.459045 180.0
259.492767 148.0
259.594727 124.0
259.643005 176.0
259.674164 184.0
259.706146 132.0
259.754364 140.0
259.778625 56.0
259.822388 176.0
259.850586 116.0
259.873047 132.0
259.943787 204.0
260.004608 252.0
260.048645 104.0
260.090973 140.0
260.140106 61972.0
260.238953 52.0
260.285065 64.0
260.308746 140.0
260.328857 96.0
260.365784 88.0
260.414337 52.0
260.460541 136.0
260.481903 116.0
260.504608 140.0
260.54892 104.0
260.583923 128.0
260.65976 248.0
260.691864 144.0
260.74649 88.0
260.792542 176.0
260.855774 64.0
260.883759 68.0
260.950287 84.0
260.98114 72.0
261.030487 92.0
261.08844 152.0
261.142761 10580.0
261.19165 104.0
261.218811 40.0
261.226746 44.0
261.300934 140.0
261.396881 80.0
261.430115 76.0
261.450775 136.0
261.476532 60.0
261.507751 108.0
261.563446 32.0
261.60849 140.0
261.730988 88.0
261.798462 108.0
261.885406 92.0
261.962738 100.0
262.027161 60.0
262.089569 108.0
262.143707 476.0
262.187195 48.0
262.231232 96.0
262.326874 64.0
262.394562 76.0
262.420349 152.0
262.442932 92.0
262.484833 76.0
262.532074 96.0
262.645477 68.0
262.740143 156.0
262.800934 92.0
262.823517 116.0
262.874512 164.0
262.96228 96.0
263.002655 132.0
263.042969 92.0
263.073822 248.0
263.146088 112.0
263.365875 92.0
263.504791 76.0
263.540314 120.0
263.643738 72.0
263.818878 64.0
263.96051 108.0
264.131927 96.0
264.173981 56.0
264.254852 48.0
264.377808 48.0
264.45874 108.0
265.002777 72.0
265.119415 48.0
265.634918 48.0
265.910736 128.0
266.777985 48.0
267.408051 104.0
269.277161 148.0
269.381683 88.0
269.773834 48.0
269.920959 96.0
270.172791 104.0
271.830078 112.0
272.94751 104.0
273.273132 36.0
273.513367 80.0
276.00415 120.0
278.499573 112.0
279.007996 20.0
279.546814 68.0
280.179413 64.0
280.376007 88.0
282.088257 188.0
282.472809 44.0
282.623352 108.0
285.996033 96.0
287.141418 340.0
288.132629 864.0
289.135956 168.0
290.781921 88.0
293.353363 92.0
293.636353 104.0
294.455444 56.0
295.015839 92.0
299.83493 88.0
300.959473 40.0
301.107971 80.0
301.40506 56.0
303.107483 68.0
305.150421 384.0
306.149261 160.0
310.308594 60.0
313.183105 128.0
314.381805 60.0
314.585632 80.0
315.017334 72.0
315.17984 48.0
319.075012 132.0
319.291931 88.0
319.519562 60.0
321.029785 68.0
323.452118 52.0
334.326965 160.0
334.705566 92.0
338.906036 80.0
339.704376 84.0
341.218292 96.0
343.604797 40.0
347.367035 76.0
351.645996 168.0
353.29007 56.0
354.259644 64.0
355.065491 84.0
357.654175 60.0
363.015167 40.0
366.634186 84.0
366.786652 40.0
367.366272 72.0
367.39679 52.0
368.129608 104.0
369.670135 88.0
373.418243 128.0
382.118042 92.0
388.929352 112.0
393.476044 68.0
393.736633 96.0
396.121643 80.0
397.382324 60.0
399.507782 84.0
403.771667 84.0
413.722443 88.0
414.548706 68.0
414.678375 28.0
414.868896 96.0
415.071594 120.0
415.323059 36.0
419.266754 40.0
426.749481 52.0
437.373077 36.0
439.999298 52.0
446.738037 68.0
453.362701 96.0
455.207977 76.0
457.66568 84.0
461.445892 52.0
465.267395 68.0
466.642181 52.0
473.364624 48.0
475.002869 96.0
481.073242 116.0
485.808136 56.0
494.00177 124.0
501.862579 60.0
502.750275 64.0
504.022919 68.0
510.091064 36.0
510.437256 60.0
511.868164 140.0
514.207825 80.0
515.115356 52.0
515.594299 80.0
521.458801 52.0
523.683594 68.0
528.417358 104.0
533.783752 136.0
539.861511 32.0
548.436462 32.0
559.157288 104.0
572.107849 60.0
573.517822 132.0
586.864075 92.0
608.206482 28.0
617.607666 96.0
623.095215 40.0
646.658875 88.0
650.272522 84.0
656.479065 44.0
657.494263 72.0
657.565674 56.0
664.80719 104.0
683.185791 220.0
684.028809 136.0
684.601501 48.0
685.450623 100.0
694.264038 96.0
695.738464 172.0
705.864929 56.0
711.948303 92.0
713.680603 116.0
723.459839 96.0
726.122864 72.0
727.979675 44.0
730.145325 60.0
739.846863 96.0
758.219421 160.0
767.454346 36.0
780.143555 60.0
790.886963 44.0
792.976074 104.0
801.850342 204.0
804.281189 48.0
805.173279 120.0
806.387939 128.0
814.297058 100.0
819.900818 180.0
828.356873 196.0
833.543274 188.0
833.66394 28.0
839.114807 140.0
842.075012 60.0
843.236267 172.0
844.756897 120.0
854.741577 120.0
862.275879 48.0
863.936462 56.0
863.994995 156.0
865.668945 144.0
868.564087 152.0
870.377502 216.0
882.686707 108.0
886.996643 212.0
889.244568 64.0
890.224121 196.0
890.919067 168.0
899.255249 88.0
900.479492 160.0
910.276489 116.0
911.255493 216.0
913.624207 156.0
914.081421 156.0
916.399597 152.0
919.070557 236.0
919.41449 120.0
926.931091 140.0
941.017883 68.0
941.26825 180.0
941.439209 48.0
947.84375 224.0
949.97113 152.0
957.703735 176.0
958.005615 108.0
960.076538 164.0
961.723755 176.0
963.147888 240.0
963.421875 216.0
966.055298 168.0
966.488342 44.0
968.215393 88.0
971.829224 140.0
971.928528 148.0
973.014648 164.0
978.759521 156.0
979.357361 180.0
984.333984 176.0
985.951904 152.0
988.584656 236.0
990.193542 44.0
990.882568 136.0
994.086548 144.0
994.4505 36.0
997.17627 212.0
999.305298 196.0
999.981323 176.0
1004.404358 140.0
1004.782837 124.0
1006.512146 168.0
1007.794373 104.0
1007.88916 116.0
1009.109009 108.0
1011.747131 56.0
1016.84967 164.0
1017.588745 140.0
1018.951477 196.0
1020.400452 136.0
1023.709106 104.0
1025.244385 176.0
1026.124023 200.0
1032.048828 64.0
1032.62439 104.0
1033.488037 168.0
1034.159912 220.0
1034.345581 176.0
1038.991333 144.0
1039.344238 208.0
1039.889771 88.0
1040.345459 96.0
1040.403198 184.0
1040.846191 136.0
1043.197632 148.0
1044.612305 200.0
1045.204224 72.0
1045.68689 160.0
1048.062988 184.0
1048.346558 156.0
1054.826416 136.0
1055.013794 112.0
1055.11731 196.0
1058.539917 196.0
1059.666992 124.0
1059.828979 188.0
1060.049316 128.0
1062.039551 128.0
1062.35083 148.0
1063.72229 164.0
1064.791382 160.0
1064.992676 72.0
1065.297974 132.0
1066.032227 48.0
1067.449219 160.0
1070.52063 176.0
1071.966797 144.0
1074.105225 108.0
1074.640137 140.0
1075.390503 176.0
1075.540649 200.0
1075.880127 168.0
1076.18689 176.0
1077.525879 176.0
1078.832886 224.0
1079.421265 72.0
1080.415405 168.0
1085.366699 88.0
1085.429443 172.0
1085.734009 132.0
1085.897949 184.0
1086.101196 220.0
1086.252075 156.0
1087.570923 208.0
1089.600098 64.0
1089.692017 36.0
1089.88916 144.0
1091.769043 180.0
1093.505859 132.0
1096.04126 128.0
1097.148438 184.0
1097.669312 128.0
1099.503174 72.0
1101.91333 168.0
1102.375854 104.0
1102.878052 268.0
1103.420166 184.0
1105.788208 168.0
1106.443481 108.0
1107.542725 236.0
1109.398071 176.0
1109.96167 200.0
1110.027954 192.0
1111.274902 80.0
1111.759277 236.0
1113.073608 80.0
1113.571655 164.0
1113.624756 240.0
1113.8573 220.0
1114.953491 176.0
1116.575684 176.0
1117.706543 204.0
1119.164185 132.0
1119.557007 216.0
1120.676147 184.0
1122.162354 200.0
1122.209106 108.0
1122.609131 196.0
1122.702515 88.0
1123.442871 140.0
1125.505127 124.0
1126.880981 168.0
1127.415527 52.0
1127.649414 124.0
1129.869385 216.0
1131.863892 284.0
1132.299072 112.0
1136.683228 140.0
1137.582642 224.0
1137.797485 140.0
1139.993774 196.0
1140.188599 44.0
1142.185425 180.0
1142.412109 196.0
1143.793579 164.0
1144.992065 164.0
1145.74646 88.0
1147.303223 160.0
1148.355103 200.0
1148.402344 180.0
1149.387207 196.0
1149.704346 132.0
1151.02063 40.0
1152.23645 140.0
1152.540405 216.0
1153.25 160.0
1153.621704 168.0
1155.109375 120.0
1155.488281 164.0
1156.19873 52.0
1156.665771 48.0
1156.828125 132.0
1157.308838 192.0
1158.067261 156.0
1161.510498 48.0
1162.992676 200.0
1163.390137 64.0
1165.196533 148.0
1166.018677 164.0
1166.161499 180.0
1167.487183 136.0
1169.262695 192.0
1169.310303 160.0
1169.415649 172.0
1170.78772 156.0
1170.896606 76.0
1171.318848 184.0
1174.972778 136.0
1175.095581 152.0
1175.614136 212.0
1175.880249 220.0
1176.767578 172.0
1177.511963 124.0
1178.919189 92.0
1178.973877 56.0
1179.178955 136.0
1179.383911 168.0
1179.506958 144.0
1180.402588 76.0
1181.907471 176.0
1183.255737 136.0
1183.433716 128.0
1183.960938 40.0
1184.508911 204.0
1185.796997 112.0
1187.305298 188.0
1187.620728 128.0
1189.438965 172.0
1189.500732 44.0
1189.548828 136.0
1190.152954 120.0
1190.22168 148.0
1191.890747 108.0
1193.73291 108.0
1193.953003 116.0
1194.585693 220.0
1195.074219 184.0
1195.975708 204.0
1196.787964 160.0
1197.194214 132.0
1197.263062 220.0
1197.67627 140.0
1199.288574 108.0
1199.674561 204.0
1201.136475 172.0
1202.157593 260.0
1202.951294 124.0
1203.027222 228.0
1204.774292 36.0
1204.822632 180.0
1206.13562 204.0
1206.598755 128.0
1206.944458 148.0
1207.345459 212.0
1207.72583 192.0
1208.051025 184.0
1208.272339 136.0
1209.130371 272.0
1210.134033 176.0
1210.182495 224.0
1210.618774 56.0
1210.812622 208.0
1211.920898 164.0
1212.600098 184.0
1213.334839 200.0
1213.390259 112.0
1213.736938 116.0
1214.125244 120.0
1214.916016 108.0
1215.824951 148.0
1216.803589 224.0
1217.018799 168.0
1217.088257 32.0
1217.893799 216.0
1218.567627 104.0
1219.936646 176.0
1220.583252 208.0
1220.937866 172.0
1221.056152 216.0
1221.355225 72.0
1222.148193 200.0
1222.280396 140.0
1223.609863 212.0
1225.274292 120.0
1225.894409 144.0
1226.911987 128.0
1227.372192 200.0
1227.644043 180.0
1227.909058 180.0
1229.255493 184.0
1230.148804 156.0
1231.684937 148.0
1231.803711 64.0
1232.111084 164.0
1233.368896 152.0
1234.739258 208.0
1234.788208 156.0
1236.334351 136.0
1236.747192 196.0
1237.92334 224.0
1238.72876 112.0
1239.359253 96.0
1239.779663 132.0
1241.4552 168.0
1241.882935 112.0
1242.703735 192.0
1242.80188 180.0
1242.907104 220.0
1244.149414 160.0
1245.307983 148.0
1245.66626 152.0
1246.277344 148.0
1246.460083 152.0
1246.544434 80.0
1248.048584 132.0
1248.463501 36.0
1249.434082 176.0
1250.454346 100.0
1250.785156 128.0
1251.355469 152.0
1251.55249 232.0
1251.756714 220.0
1252.235596 160.0
1252.517334 120.0
1253.052734 172.0
1253.750244 176.0
1253.799561 124.0
1254.567871 148.0
1258.045654 248.0
1258.645752 36.0
1258.737549 120.0
1259.03418 140.0
1259.083618 92.0
1259.931152 172.0
1260.369263 172.0
1262.574707 220.0
1262.892944 120.0
1263.048584 156.0
1263.161743 44.0
1263.416382 160.0
1263.989502 248.0
1264.357422 196.0
1264.569702 84.0
1265.015625 180.0
1265.518311 60.0
1266.22644 188.0
1267.636108 164.0
1267.827515 156.0
1267.898315 204.0
1268.295288 92.0
1268.755981 228.0
1269.31604 244.0
1269.663574 164.0
1271.323608 160.0
1272.182373 100.0
1272.771606 168.0
1273.112427 168.0
1273.653564 176.0
1273.780151 156.0
1275.265137 144.0
1275.876343 188.0
1276.644287 36.0
1277.56897 116.0
1278.906616 164.0
1279.063232 212.0
1279.371582 152.0
1279.415405 92.0
1279.696777 152.0
1281.334839 160.0
1282.225586 224.0
1282.294067 188.0
1282.760132 140.0
1282.959717 200.0
1284.557007 200.0
1284.892334 180.0
1284.985107 156.0
1285.14209 88.0
1285.348999 116.0
1285.77002 176.0
1287.447632 120.0
1287.810547 204.0
1288.247559 120.0
1288.433228 108.0
1288.526123 156.0
1289.283569 144.0
1289.462158 276.0
1289.605103 156.0
1289.69812 180.0
1289.762451 180.0
1289.812378 188.0
1290.212769 164.0
1290.362915 192.0
1290.584473 216.0
1292.372559 164.0
1292.837769 148.0
1293.202759 160.0
1293.775391 140.0
1294.656006 60.0
1297.27832 152.0
1297.450317 176.0
1297.772949 136.0
1297.866211 204.0
1298.633545 120.0
1299.558838 180.0
1300.384155 180.0
1301.295776 212.0
1301.827026 144.0
1302.372925 124.0
1302.430298 148.0
1303.651733 228.0
1304.406372 84.0
1304.456665 220.0
1304.808838 84.0
1305.62854 124.0
1306.196777 160.0
1307.736572 224.0
1308.096436 172.0
1308.7948 232.0
1309.586914 108.0
1309.745361 184.0
1310.43689 112.0
1310.63147 176.0
1312.044067 104.0
1312.231445 184.0
1313.147217 196.0
1313.745972 180.0
1313.92627 104.0
1314.084961 48.0
1314.337524 112.0
1314.41687 180.0
1315.759399 280.0
1317.637085 64.0
1318.677612 152.0
1319.501587 172.0
1320.911743 156.0
1321.512207 144.0
1322.496338 216.0
1322.554199 196.0
1323.060913 212.0
1323.291626 156.0
1323.531494 152.0
1324.089111 148.0
1324.856934 164.0
1324.992798 212.0
1325.487183 104.0
1325.798828 132.0
1326.380737 208.0
1326.443848 184.0
1326.733765 216.0
1327.023071 164.0
1327.393555 192.0
1328.213135 152.0
1328.931274 72.0
1330.644043 156.0
1330.75293 136.0
1331.537231 208.0
1331.776855 212.0
1332.096436 28.0
1333.280762 172.0
1334.4729 156.0
1335.6073 44.0
1335.789185 216.0
1336.094727 152.0
1336.844116 180.0
1337.688354 156.0
1338.336304 192.0
1338.816895 72.0
1339.341187 172.0
1340.018677 116.0
1340.856689 172.0
1341.767822 140.0
1342.635498 200.0
1343.014771 124.0
1343.64209 128.0
1343.853638 140.0
1344.169556 144.0
1344.342529 136.0
1344.634399 60.0
1344.692749 180.0
1345.415405 188.0
1345.634399 64.0
1345.743896 164.0
1346.130981 172.0
1346.474121 76.0
1347.0 140.0
1347.460205 200.0
1347.664795 112.0
1347.876709 48.0
1347.986328 188.0
1348.169067 168.0
1348.870605 156.0
1349.59436 132.0
1349.660156 176.0
1349.901489 140.0
1350.713257 124.0
1351.093628 180.0
1351.199341 228.0
1351.357056 148.0
1351.430176 160.0
1352.198486 120.0
1352.484009 196.0
1352.893921 160.0
1352.996338 108.0
1353.318481 200.0
1355.384033 188.0
1355.684448 104.0
1355.816284 172.0
1356.629883 136.0
1357.553711 204.0
1357.98645 180.0
1358.213745 136.0
1358.448486 208.0
1358.602539 296.0
1359.365601 212.0
1359.416992 148.0
1360.05542 152.0
1360.826172 156.0
1361.119873 216.0
1361.817505 160.0
1362.390503 204.0
1362.485962 116.0
1362.94458 136.0
1362.959106 72.0
1363.250122 216.0
1363.632324 148.0
1363.860107 152.0
1364.99231 128.0
1365.771851 144.0
1366.573608 196.0
1366.654541 60.0
1367.338867 192.0
1367.979248 192.0
1368.038208 192.0
1368.494629 76.0
1369.02478 184.0
1369.171997 132.0
1369.356201 168.0
1370.53479 116.0
1371.831909 188.0
1373.476196 96.0
1373.808105 144.0
1374.162231 156.0
1374.469116 164.0
1375.47583 124.0
1376.369141 64.0
1376.487183 132.0
1376.80481 216.0
1376.967285 68.0
1377.240479 120.0
1377.470093 232.0
1378.196411 180.0
1378.296875 196.0
1378.836304 188.0
1379.067627 148.0
1379.124634 144.0
1379.671631 156.0
1380.026489 128.0
1380.795532 216.0
1380.891602 48.0
1380.965576 88.0
1381.091309 176.0
1381.305786 132.0
1381.36499 44.0
1381.43396 148.0
1381.586914 160.0
1381.905029 108.0
1382.193604 36.0
1382.526611 84.0
1382.763428 212.0
1382.859619 48.0
1383.414795 108.0
1383.481323 252.0
1384.140259 116.0
1384.215942 244.0
1384.480957 72.0
1384.629028 148.0
1385.762329 192.0
1386.481079 176.0
1386.651611 220.0
1387.044556 148.0
1387.644897 188.0
1388.37146 60.0
1388.786865 200.0
1390.300293 36.0
1390.396729 132.0
1390.745605 108.0
1391.465576 272.0
1392.163574 208.0
1392.267578 156.0
1392.661133 156.0
1394.042969 136.0
1395.325439 124.0
1395.462646 112.0
1396.310303 140.0
1396.808594 164.0
1398.00647 172.0
1398.572144 92.0
1398.825195 180.0
1399.35376 168.0
1400.098267 128.0
1400.180298 156.0
1400.33667 172.0
1401.189941 164.0
1401.796753 104.0
1402.714111 188.0
1403.354614 132.0
1404.301636 200.0
1404.540283 176.0
1404.682007 160.0
1405.442993 132.0
1405.793701 172.0
1405.845947 68.0
1405.920532 204.0
1406.05481 180.0
1406.166748 144.0
1406.308594 228.0
1406.831055 144.0
1407.047607 164.0
1407.166992 176.0
1407.338745 168.0
1407.667358 392.0
1407.74939 88.0
1408.122803 128.0
1408.533569 192.0
1409.3927 148.0
1410.56604 136.0
1411.171631 192.0
1411.321167 152.0
1411.889404 120.0
1412.076416 132.0
1412.218506 156.0
1412.981445 148.0
1414.043945 192.0
1414.485596 132.0
1414.672729 104.0
1415.321899 240.0
1416.769531 132.0
1417.30896 136.0
1419.535156 124.0
1419.880127 136.0
1420.195068 208.0
1420.735229 188.0
1422.521118 156.0
1423.046631 108.0
1423.72998 196.0
1424.323242 176.0
1424.90918 188.0
1425.442627 116.0
1425.773315 164.0
1426.036377 160.0
1426.254272 188.0
1427.615112 132.0
1427.788086 196.0
1428.07019 164.0
1428.213013 196.0
1428.412354 152.0
1428.615356 176.0
1428.794434 96.0
1428.999146 140.0
1430.052612 176.0
1430.489136 192.0
1431.302246 184.0
1431.799194 152.0
1433.562012 48.0
1434.270386 144.0
1434.443726 116.0
1435.461548 164.0
1435.811646 244.0
1435.959229 96.0
1437.098389 184.0
1437.298584 92.0
1438.320801 176.0
1438.622803 132.0
1438.734009 112.0
1438.86438 168.0
1439.121094 128.0
1439.541138 148.0
1440.374634 124.0
1441.022461 168.0
1441.356812 164.0
1441.447388 268.0
1441.704346 208.0
1443.246338 156.0
1443.337158 184.0
1443.503418 164.0
1443.563965 156.0
1444.834595 180.0
1445.243164 176.0
1445.486084 204.0
1447.423096 220.0
1447.536621 48.0
1447.716919 208.0
1448.309082 92.0
1448.362061 180.0
1450.87793 112.0
1451.711914 32.0
1452.4021 100.0
1452.697876 92.0
1452.849609 192.0
1453.107544 232.0
1453.454712 216.0
1453.668945 232.0
1454.314087 196.0
1454.95166 152.0
1455.39209 176.0
1456.432373 168.0
1456.787231 192.0
1457.10083 124.0
1458.119141 164.0
1458.616211 160.0
1460.050049 204.0
1460.217407 112.0
1460.704224 120.0
1461.35083 60.0
1461.541016 208.0
1461.639893 176.0
1461.9823 124.0
1462.119385 100.0
1462.317139 160.0
1462.804321 112.0
1462.926392 112.0
1462.97937 248.0
1463.367676 288.0
1463.580811 156.0
1463.695068 168.0
1464.12146 104.0
1464.342407 84.0
1464.982178 64.0
1465.180176 160.0
1465.401123 176.0
1465.477417 140.0
1465.690674 128.0
1465.858276 168.0
1466.658569 248.0
1467.504761 104.0
1468.053711 224.0
1468.610474 176.0
1469.167236 132.0
1469.731812 48.0
1470.723877 172.0
1471.25061 144.0
1471.682983 220.0
1471.891846 220.0
1473.037476 224.0
1473.182617 164.0
1473.30481 224.0
1473.388916 176.0
1474.045898 148.0
1474.183472 96.0
1475.115845 120.0
1475.284058 192.0
1475.880371 160.0
1476.645142 140.0
1476.805664 148.0
1477.356445 112.0
1477.585938 128.0
1477.731323 140.0
1477.838379 120.0
1477.937866 128.0
1479.231201 152.0
1479.338379 248.0
1479.414917 140.0
1479.591064 184.0
1479.682861 212.0
1479.996826 148.0
1480.195801 84.0
1480.555786 180.0
1480.8927 152.0
1480.96936 192.0
1481.390625 152.0
1481.628052 184.0
1482.011108 100.0
1482.907715 192.0
1483.083984 196.0
1483.375244 112.0
1483.482544 260.0
1483.676392 212.0
1483.773926 180.0
1484.502319 160.0
1485.108154 168.0
1486.143799 172.0
1486.535034 172.0
1486.642456 232.0
1486.849731 48.0
1487.640259 220.0
1487.744385 184.0
1488.699829 160.0
1489.175903 52.0
1489.836548 128.0
1490.232788 48.0
1491.111938 200.0
1491.342529 56.0
1491.803711 132.0
1492.103516 132.0
1492.457275 40.0
1494.031738 180.0
1494.061768 132.0
1494.193115 200.0
1494.310791 232.0
1494.372314 156.0
1494.458862 208.0
1495.410034 184.0
1495.64209 188.0
1496.103882 156.0
1496.288696 124.0
1497.728638 236.0
1500.734131 216.0
1501.050171 124.0
1501.798218 232.0
1502.56189 188.0
1502.816528 196.0
1503.182251 252.0
1503.318115 128.0
1503.88147 132.0
