>compound Irbesartan
>formula C25H28N6O 
>ionization [M+H]+
>parentmass 429.24
#inchi InChI=1S/C25H28N6O/c1-2-3-10-22-26-25(15-6-7-16-25)24(32)31(22)17-18-11-13-19(14-12-18)20-8-4-5-9-21(20)23-27-29-30-28-23/h4-5,8-9,11-14H,2-3,6-7,10,15-17H2,1H3,(H,27,28,29,30)
#inchikey YOSHYTLCDANDAN
#Ion_Source LC-ESI
#Instrument qTof
#Compound_Source Isolated
#PI Sirenas
#Data_Collector Ed Esquenazi 
#Scan -1
#Precursor_MZ 429.24
#ExactMass 0.0
#Charge 1
#CAS_Number N/A
#Pubmed_ID N/A
#Smiles N/A
#INCHI_AUX N/A
#Library_Class 3
#SpectrumID CCMSLIB00000005547
#IonMode Positive
#UpdateWorkflowName UPDATE-SINGLE-ANNOTATED-BRONZE
#LibraryQualityString Bronze
#TaskID d19310cd93df49b68e9fcbec27720eb5
##Scan# 9
#SpectrumFile Irbesartan.mgf
#LibraryName fda_library.mgf
#MQScore -1
#Organism fda_library
#TIC_Query 0
#RT_Query -1
#MZErrorPPM -1
#SharedPeaks 0
#MassDiff 0
#LibMZ -1
#SpecMZ 429.24
#SpecCharge 0
#internalFilename spec-00000.mgf

>collision 10
100.813522 5.100595
101.035683 62.770321
101.10614 55.430809
101.415718 4.479167
102.032623 17.3382
102.088928 6.967741
103.185066 16.006149
104.031708 13.78602
104.050003 281.459991
105.042305 51.928791
109.070358 35.293781
110.059662 7.854839
111.484039 5.774123
111.557442 6.421776
111.619911 2.888889
111.700813 5.34157
112.075882 855.365723
112.105598 2.671296
112.164856 5.449253
112.511307 7.787227
113.037529 42.01873
115.052795 134.656601
115.909218 13.12354
116.434471 5.402369
116.524223 6.335145
117.058128 151.149597
123.09008 32.343239
123.815536 25.68527
124.078499 53.000851
126.043854 42.573009
127.05304 99.371071
128.049164 63.511929
128.454239 9.576137
129.044342 738.648499
129.316116 13.67722
129.725296 4.833896
129.780823 6.300463
135.040649 5.333759
137.041885 16.83333
138.045258 30.505159
138.869461 5.884804
139.051163 84.790138
139.410706 7.747549
139.589996 4.339015
140.021179 6.19422
140.048965 901.857483
140.100128 5.333333
140.133804 7.111111
141.070938 25.24267
141.265091 19.888889
141.400192 7.102564
141.6604 7.047619
143.072418 34.168419
146.085938 7.483553
149.407272 16.113211
150.043243 68.484001
150.127762 232.969498
150.182571 7.116379
150.259323 8.508013
151.031479 17.356001
151.053329 847.523621
151.139481 2.816667
151.219269 7.592803
151.263412 5.552631
151.545471 3.740036
151.699173 8.255435
151.728943 6.8125
152.061295 1410.666992
152.167984 7.223958
152.216721 29.252489
152.394852 28.745251
152.454926 2.840278
152.619141 9.468333
152.820328 7.435897
153.069427 2777.800049
153.123993 9.35657
153.141907 16.211889
153.181381 5.522645
153.233414 10.84884
153.250397 12.34058
153.302307 5.216094
153.339111 7.650219
153.354355 21.2686
153.4785 2.683712
153.50267 7.316886
153.564026 3.814951
153.627823 18.76297
153.681595 5.052083
153.711777 7.553572
153.808868 8.357142
154.156403 4.481482
154.298935 2.740036
154.874207 3.185957
155.085022 141.615097
155.758789 5.729167
161.759628 7.347222
163.052872 486.704407
163.206055 5.111883
163.351685 4.505357
164.048553 256.765503
164.059616 15.93262
164.21196 5.041667
164.591736 10.22165
165.069061 1272.458984
165.10878 7.89797
165.125183 10.58333
165.186829 20.282801
165.287384 21.379471
165.302963 10.25347
165.319748 11.53708
165.340668 6.836407
165.365555 12.77824
165.387207 8.068055
165.403854 7.293356
165.467239 8.450618
165.581909 18.855061
165.62767 8.755208
165.656601 8.074845
166.069305 585.587708
166.151413 11.54748
166.186234 7.484248
166.227051 6.8375
166.278397 15.63753
166.330765 5.500463
166.413345 3.504167
166.464859 12.88276
166.478836 4.846036
166.532715 5.166667
166.680817 14.38271
166.760895 5.796568
167.072723 1503.932007
167.130417 18.333521
167.154327 3560.24707
167.209137 29.859369
167.231247 13.05729
167.296249 8.303409
167.314789 5.351191
167.332626 7.422101
167.361053 10.18688
167.391296 7.044225
167.43631 4.338401
167.46788 5.870833
167.547211 13.62968
167.610855 12.96346
167.647964 6.433067
167.743637 8.038129
167.805542 13.37335
167.918854 4.59375
168.351624 5.0625
168.583923 4.5625
168.771988 9.219048
169.015106 27.11187
169.880508 4.547348
174.974014 8.00139
176.049545 36.635712
176.811691 3.640152
176.95256 2.449074
176.983887 9.100595
177.009354 2.786706
177.05632 270.818115
177.148514 7.752083
177.213989 7.651209
177.236038 3.182449
177.393631 12.89295
177.494431 12.34002
177.652786 4.788075
178.034241 16.82654
178.066864 4683.39209
178.121521 58.796669
178.145538 13.79632
178.182892 25.36095
178.233017 8.730681
178.249756 26.648701
178.291336 53.952301
178.314102 45.63607
178.334488 19.346531
178.371552 21.280121
178.383331 8.203947
178.401337 12.76213
178.451538 6.595663
178.495346 44.815411
178.507324 7.856322
178.526443 17.76882
178.716949 9.020127
178.924438 26.231871
178.971375 3.351974
179.023804 14.34364
179.072647 4012.275879
179.1353 56.583698
179.152664 115.3433
179.166702 8.337501
179.191788 45.14463
179.203705 13.20238
179.252853 26.863859
179.279449 7.340278
179.322708 8.083333
179.332901 6.967105
179.349319 23.4039
179.396683 5.817581
179.415543 9.055108
179.429855 4.083333
179.447464 5.571428
179.473999 10.19264
179.545456 6.927469
179.601776 16.074169
179.669464 22.691931
179.788055 7.135803
179.801849 12.07446
179.819214 6.056019
179.951889 4.708333
179.992538 14.04823
180.002457 4.734848
180.033493 18.576139
180.046494 13.59184
180.080826 24555.570312
180.20372 10.18245
180.226562 5.336309
180.336548 21.69495
180.361832 26.93788
180.382858 78.934013
180.407593 16.818041
180.423111 32.5327
180.448608 43.590801
180.468506 66.95369
180.489487 24.26981
180.522583 49.922199
180.543472 10.03759
180.564423 31.92593
180.577957 3.834326
180.588287 19.14204
180.604919 20.127649
180.618759 31.38122
180.633133 16.61466
180.663727 34.191261
180.684967 17.17495
180.699341 41.55563
180.72319 30.60891
180.753418 35.01709
180.766098 47.18576
180.796906 6.067819
180.809891 35.320499
180.836182 31.672079
180.851669 23.27795
181.0121 18.89855
181.038177 8.072024
181.138107 11.51111
181.238113 6.852941
181.735321 12.2549
181.870453 11.57143
182.061478 30.62421
182.099548 2.673611
182.1465 7.553728
182.362534 7.537202
182.610306 4.01864
182.842041 5.02374
183.246826 7.116379
183.344223 4.870833
183.920868 4.195833
186.643707 5.876059
187.265701 4.483333
187.873077 21.101629
188.048416 6.507576
188.162918 4.500534
188.219849 9.261905
188.826935 7.513393
188.889557 3.609069
188.970261 3.8625
188.989319 10.43496
189.023193 48.365372
189.060257 132.822998
189.075485 6.033088
189.090027 11.5767
189.123276 23.64728
189.14859 7.5625
189.272995 8.881579
189.515839 1.505208
189.821884 6.374166
189.966415 29.67647
189.999863 5.784722
190.064926 9999.614258
190.120819 30.5651
190.136139 26.611111
190.160934 10.91883
190.17775 29.06617
190.210617 6.84157
190.225586 6.578241
190.244324 11.2012
190.258926 12.50216
190.273331 10.50347
190.285675 33.01416
190.297287 4.620192
190.312653 9.707108
190.336777 5.319746
190.350266 28.967819
190.364471 4.350134
190.389145 19.05932
190.403656 19.034031
190.430817 8.015705
190.442566 7.611574
190.498169 9.074405
190.52771 9.344804
190.537766 4.844363
190.561325 9.0
190.585922 12.25915
190.639206 14.96601
190.709732 41.05584
190.744186 11.07589
190.809128 24.057131
190.84729 6.127451
190.883514 12.5638
190.90741 18.09318
190.949326 11.72596
190.993256 8.109012
191.007797 22.1756
191.131317 19.217569
191.189316 12.01961
191.234467 25.70335
191.253372 9.729167
191.264679 7.833965
191.303375 17.148849
191.332458 23.65877
191.389084 7.964015
191.421646 4.621408
191.474869 3.047619
191.49411 16.16927
191.581482 25.38348
191.649277 8.370957
191.763794 11.71237
191.931274 33.031879
191.945068 5.791667
192.020081 30.097269
192.030884 3.796296
192.078796 12564.650391
192.142105 131.586807
192.174957 23.08777
192.199265 36.61515
192.229111 13.7761
192.242447 42.45433
192.2686 18.26408
192.2836 36.865108
192.324539 27.325159
192.348328 29.52739
192.375885 44.86618
192.404709 17.55995
192.423141 32.581059
192.445969 34.975399
192.469208 18.672291
192.479874 15.62989
192.493866 17.893749
192.509979 9.630297
192.54837 16.759411
192.570374 8.185227
192.581451 10.44899
192.59256 10.33974
192.609344 21.363331
192.657883 18.11157
192.721741 10.06124
192.752991 9.913085
192.765823 25.15049
192.85376 17.581129
192.97348 21.09729
193.036743 12.55339
193.460907 10.41596
193.497787 6.743511
193.511612 5.834325
193.549774 21.6758
193.569794 5.668478
193.822174 7.552536
194.025085 7.258579
194.126541 7.843137
194.139221 25.50017
194.214645 17.338381
194.228119 7.211957
194.262787 7.297873
194.301315 5.01796
194.326492 8.483404
194.393509 7.858025
194.417755 5.221491
194.466705 4.645833
194.592758 6.809949
194.612625 6.682449
194.626389 11.51638
194.704254 9.346944
194.732819 6.576389
194.787659 3.409091
194.922562 10.26138
195.014847 7.207207
195.048676 5.174819
195.090103 39.628071
195.107559 26.68858
195.125275 15.28723
195.148956 11690.179688
195.208954 99.639999
195.242691 16.74931
195.267532 6.426136
195.288696 16.80002
195.323563 46.523781
195.351837 26.056561
195.373642 12.90668
195.394379 34.442558
195.426117 15.84908
195.451477 42.567669
195.462296 8.62349
195.480423 36.162239
195.491241 2.839382
195.511841 24.418329
195.547897 21.319469
195.562607 5.1125
195.579132 15.35714
195.616013 23.1103
195.635468 17.97414
195.656235 8.786486
195.667725 5.541667
195.68158 16.08518
195.729782 7.291667
195.760788 7.521417
195.777924 32.480091
195.811752 21.064251
195.837524 23.20579
195.969315 7.593364
196.072418 41.315239
196.495544 5.372024
196.743317 5.675926
197.251129 4.231304
197.297211 9.763392
197.314682 5.741667
197.368423 9.270833
198.131287 5.002976
198.802063 3.0
199.494736 5.358135
200.228058 3.420259
200.331696 9.286045
200.491516 4.5625
201.031082 8.175
202.103058 6.5
202.840668 6.541274
202.92424 5.1875
203.539566 4.607143
203.912857 15.32654
203.947037 21.57823
203.971909 10.78268
204.012207 6.691469
204.045456 26.991711
204.081253 7.229167
204.110229 11.70674
204.130905 6.451389
204.230316 5.566431
204.290131 13.69792
204.572922 4.508333
204.742722 4.061275
204.767578 5.011905
204.838715 24.648809
204.873154 9.338384
204.907242 9.384616
204.927551 8.980801
204.961945 52.774281
204.974701 9.94697
205.002945 25.88604
205.02356 12.50041
205.050125 87.074913
205.075516 6339.729004
205.155121 13.22491
205.165421 64.890877
205.179153 39.976929
205.194534 31.76309
205.205826 19.00493
205.240189 19.79085
205.260742 8.166667
205.280945 6.461309
205.299835 59.673649
205.315689 6.234486
205.339828 14.00755
205.351273 3.183712
205.37999 14.66667
205.400009 31.96446
205.443283 8.698506
205.490723 20.528851
205.522095 9.814438
205.55661 9.053572
205.594818 7.340097
205.615219 7.351293
205.714737 15.35876
205.735458 21.442869
205.750702 8.022059
205.777206 17.735121
205.812485 57.363369
205.826675 12.55819
205.848297 30.3815
205.863754 39.294258
205.887146 12.02218
205.900208 219.589798
205.937134 149.218094
205.971573 100.0242
205.993591 146.518295
206.021683 19.119459
206.084 18739.900391
206.197769 50.822788
206.225311 55.50148
206.253326 62.987782
206.279251 31.449551
206.330307 27.217661
206.347015 41.6875
206.362335 58.851768
206.382477 13.69902
206.427826 19.1381
206.450455 56.277069
206.461243 19.15139
206.494476 9.925245
206.52504 68.845734
206.547073 36.21714
206.562256 44.623341
206.577148 40.310631
206.598221 21.8006
206.621582 34.978291
206.663406 79.119034
206.67804 5.030637
206.68924 37.023701
206.726822 66.989143
206.744232 73.41925
206.762558 27.642891
206.798218 42.521278
206.831558 38.054119
206.862961 38.832939
206.881973 27.475349
206.956955 33.454571
207.013916 41.99118
207.056808 91.275681
207.092133 143073.796875
207.312836 6.592803
207.524231 30.42116
207.542984 38.331509
207.587372 159.261307
207.603287 10.70498
207.632568 96.669647
207.643906 31.72574
207.685364 40.26693
207.699707 68.714043
207.743179 97.468384
207.781815 157.317398
207.809189 55.165951
207.830948 19.680559
207.848755 62.653191
207.865372 15.29646
207.880234 98.712967
208.000137 17.19179
208.017014 20.222219
208.030899 20.347231
208.154495 50.720459
208.221039 31.908079
208.259109 48.55051
208.291122 16.03252
208.32338 25.7834
208.356491 9.558249
208.400253 40.200562
208.421143 12.37789
208.472229 17.032181
208.487045 8.836218
208.511246 34.79261
208.526535 33.479931
208.557816 21.369431
208.568512 4.221491
208.598404 39.12867
208.623108 7.198067
208.673187 23.650351
208.789871 24.312599
208.86467 6.64459
208.926956 11.63798
208.974792 11.88012
209.075302 6.926697
209.108063 38.71471
209.126556 4.682971
209.297791 25.275829
209.346497 10.5366
209.369034 10.34694
209.645615 23.277491
209.848495 11.44694
209.998184 10.46649
210.010818 7.770833
210.060471 8.640717
210.080032 22.851101
210.187119 10.54444
210.321152 5.949253
210.385468 7.866667
210.436905 9.072917
210.497726 5.990196
210.745285 19.473989
211.133972 4.377604
212.044998 2.816667
212.38414 10.35645
212.576935 10.24074
212.755386 11.41782
213.170639 6.690407
213.323044 8.626041
213.513153 8.265625
213.970215 9.298156
214.54425 7.349537
215.4216 5.71627
216.290573 9.852273
216.81282 2.240741
217.06958 8.081897
217.840347 13.29675
219.118683 19.84881
220.071991 24.13393
222.664932 10.30341
226.92215 7.969086
229.523361 7.526785
234.100037 33.58577
235.097122 203.633499
235.166107 12.39946
235.459305 6.352623
240.271423 4.666667
244.10968 5.864583
247.102829 42.74926
250.090469 68.240868
251.020264 20.134411
261.142731 47.763161
286.136353 12.66667
291.160004 19.33976
314.162354 30.820259
318.156677 8.653846
320.468597 4.5375
342.150391 17.41741
359.236237 8.614943
361.579559 3.016801
370.893402 5.611111
371.198212 23.079611
384.182251 5.000563
386.220917 603.943481
386.394714 4.711957
386.566437 3.357143
386.762939 8.640019
387.908844 9.707108
400.224731 108.2425
400.387451 5.333333
652.978027 1.911859
729.54425 9.700379
831.736084 26.489149
1086.427979 21.348009
