>compound NCGC00160149-01!(R)-ANGOLENSIN
>formula C16H16O4
>ionization [M+H]+
>parentmass 273.113
#inchi InChI=1S/C16H16O4/c1-10(11-3-6-13(20-2)7-4-11)16(19)14-8-5-12(17)9-15(14)18/h3-10,17-18H,1-2H3/t10-/m1/s1
#inchikey CCOJFDRSZSSKOG
#Ion_Source LC-ESI
#Instrument qTOF
#Compound_Source Prestwick Phytochem Lib
#PI Dorrestein
#Data_Collector VVP/LMS
#Scan -1
#Precursor_MZ 273.113
#ExactMass 272.105
#Charge 1
#CAS_Number N/A
#Pubmed_ID N/A
#Smiles COC1=CC=C(C=C1)[C@@H](C)C(=O)C2=C(O)C=C(O)C=C2
#INCHI_AUX N/A
#Library_Class 1
#SpectrumID CCMSLIB00000078774
#IonMode Positive
#UpdateWorkflowName UPDATE-SINGLE-ANNOTATED-GOLD
#LibraryQualityString Gold
#TaskID 67c915c6594c435cadc1fe2b5358144d
##Scan# 2241
#SpectrumFile p1-G03_GG3_01_17947.mzXML
#LibraryName phytochem_lib.mgf
#MQScore -1
#Organism phytochem_lib
#TIC_Query 0
#RT_Query -1
#MZErrorPPM -1
#SharedPeaks 0
#MassDiff 0
#LibMZ -1
#SpecMZ 273.113
#SpecCharge 0
#internalFilename spec-00000.mgf

>collision 10
95.122467 144.0
96.02243 264.0
96.163818 188.0
96.705215 188.0
97.35022 192.0
98.076195 168.0
98.210274 116.0
98.334572 172.0
98.854332 56.0
99.591835 132.0
99.766701 100.0
100.254356 140.0
100.583443 176.0
101.435577 124.0
102.044998 172.0
102.110214 48.0
102.389961 144.0
102.873878 160.0
103.052406 1108.0
103.079887 184.0
103.227455 208.0
104.055817 232.0
104.190216 64.0
104.444321 224.0
104.513489 60.0
104.89637 176.0
105.022789 204.0
105.043182 164.0
105.069672 5212.0
105.102211 172.0
105.243187 244.0
105.259521 80.0
105.28199 36.0
105.510834 72.0
106.032806 104.0
106.07093 296.0
106.301453 92.0
106.722786 168.0
106.878258 68.0
106.985886 76.0
107.0466 380.0
107.082664 172.0
108.050781 172.0
108.222565 124.0
108.311615 108.0
108.367554 220.0
109.029495 160.0
109.065598 780.0
109.776848 160.0
110.068062 180.0
111.045578 188.0
112.293503 72.0
113.378075 120.0
114.280548 156.0
115.061012 208.0
115.841171 144.0
117.071877 168.0
117.822487 140.0
118.044212 292.0
119.047882 2660.0
119.122292 44.0
120.055779 904.0
120.529716 56.0
120.597466 232.0
120.785507 56.0
120.953995 68.0
121.024048 116.0
121.062622 956.0
121.098503 204.0
121.872887 60.0
122.06852 204.0
122.244499 164.0
122.266502 28.0
122.629898 96.0
122.689415 116.0
123.042023 372.0
124.006851 108.0
125.057411 68.0
125.342468 184.0
125.714867 212.0
126.076637 148.0
127.387375 164.0
130.961365 140.0
131.045654 328.0
132.045502 140.0
132.560593 196.0
132.826538 116.0
133.030655 168.0
133.064438 552.0
133.741058 160.0
133.902222 232.0
134.069641 272.0
134.710312 176.0
134.838913 172.0
134.917511 152.0
134.949875 176.0
134.968369 92.0
135.045456 132.0
135.079239 8164.0
135.132584 36.0
135.158035 56.0
135.185806 52.0
135.208954 88.0
135.257553 64.0
135.288391 92.0
135.373322 60.0
135.396469 144.0
135.565582 112.0
135.672211 80.0
135.764954 52.0
135.822937 72.0
135.867004 32.0
136.048019 148.0
136.083298 788.0
136.573181 100.0
136.873398 172.0
136.91066 204.0
136.959564 64.0
137.022873 1252.0
137.058456 4488.0
137.113342 52.0
137.190262 112.0
137.311508 44.0
137.647552 80.0
137.904541 188.0
138.023758 116.0
138.061172 372.0
138.641754 124.0
139.012283 172.0
139.17659 72.0
139.705399 100.0
140.265854 84.0
141.063705 200.0
142.079636 128.0
143.087311 188.0
144.222809 112.0
145.069107 276.0
146.040268 188.0
147.041306 364.0
148.045731 172.0
149.050125 156.0
150.040726 116.0
152.05632 100.0
155.037994 172.0
155.73764 120.0
157.673523 136.0
158.068359 144.0
158.920563 64.0
161.063416 172.0
162.06221 88.0
163.036621 196.0
163.073074 2228.0
163.181519 252.0
163.558014 56.0
164.069046 304.0
164.769318 200.0
165.054169 760.0
166.074829 136.0
167.05864 136.0
167.08989 272.0
167.924118 124.0
168.050674 136.0
168.086639 136.0
169.065247 224.0
170.05986 124.0
171.078278 156.0
172.073486 28.0
172.094376 152.0
172.755585 192.0
174.51799 268.0
176.059525 328.0
177.065887 188.0
178.077072 156.0
178.952515 72.0
179.090271 208.0
180.24881 108.0
181.059372 108.0
181.616501 156.0
182.071594 184.0
183.049301 204.0
183.081604 124.0
184.009186 224.0
184.076691 156.0
185.047379 108.0
185.090714 128.0
186.050491 152.0
187.522095 92.0
189.065155 132.0
193.062454 180.0
193.081818 164.0
193.776611 140.0
194.070129 168.0
194.428238 100.0
195.076523 180.0
195.999405 148.0
196.086319 292.0
196.866943 52.0
197.052673 628.0
198.061172 156.0
199.46698 144.0
202.993317 172.0
204.18605 180.0
206.093124 108.0
206.113129 120.0
206.922562 60.0
209.089783 376.0
209.138718 60.0
210.057968 172.0
211.080292 328.0
212.081009 412.0
213.0047 52.0
213.030838 44.0
213.08461 116.0
213.237152 68.0
214.08374 176.0
215.33194 64.0
221.070694 188.0
222.232254 124.0
223.079254 212.0
223.685501 176.0
224.0802 176.0
225.051788 764.0
225.086212 68.0
225.956512 196.0
226.060135 172.0
226.534302 40.0
226.771011 164.0
227.022858 148.0
227.102585 632.0
228.112732 120.0
228.910034 104.0
229.542831 124.0
230.116119 120.0
234.051727 188.0
235.078995 172.0
237.051392 156.0
238.054489 144.0
238.995102 128.0
239.072922 300.0
240.075043 436.0
240.261368 56.0
241.079605 368.0
255.103775 220.0
255.860916 128.0
266.02652 156.0
287.187897 60.0
339.543488 68.0
345.10022 20.0
413.471954 112.0
517.346802 84.0
573.673401 80.0
752.417236 188.0
833.236023 112.0
833.454346 132.0
834.63269 152.0
920.940918 52.0
929.822876 172.0
955.296692 160.0
960.156494 136.0
965.27594 184.0
1025.315674 140.0
1030.27356 52.0
1031.845703 132.0
1034.065308 160.0
1034.270142 180.0
1042.74939 144.0
1048.348389 188.0
1057.214966 192.0
1063.449585 148.0
1064.293579 128.0
1067.373535 204.0
1068.908569 212.0
1069.904419 176.0
1081.131226 184.0
1100.133301 120.0
1101.526611 60.0
1101.823853 80.0
1103.773682 180.0
1106.354004 180.0
1110.906738 72.0
1112.997314 156.0
1132.905884 160.0
1137.022827 152.0
1146.128052 168.0
1148.62915 216.0
1150.613159 148.0
1152.429932 152.0
1163.788574 168.0
1173.115967 116.0
1174.657104 200.0
1175.243774 204.0
1179.286621 168.0
1180.188965 196.0
1182.199951 180.0
1184.829346 208.0
1196.359863 156.0
1199.328735 164.0
1200.50769 232.0
1201.976929 92.0
1202.2323 48.0
1215.824097 80.0
1218.052856 192.0
1222.057129 96.0
1232.564819 200.0
1245.567749 184.0
1252.855591 200.0
1254.15918 124.0
1255.14624 36.0
1256.64856 220.0
1263.614868 124.0
1288.984497 152.0
1314.692871 20.0
1318.70105 152.0
1322.10022 116.0
1322.787842 176.0
1326.31543 132.0
1332.425659 152.0
1334.111694 156.0
1338.112915 256.0
1342.645264 184.0
1357.277954 180.0
1359.654785 132.0
1362.878418 224.0
1373.140259 124.0
1375.885254 136.0
1380.584595 224.0
1383.914429 156.0
1385.773438 212.0
1386.988892 52.0
1394.730713 64.0
1398.702759 184.0
1399.186523 148.0
1401.301758 188.0
1409.509277 132.0
1410.234131 132.0
1412.813843 36.0
1413.898804 196.0
1414.842041 192.0
1422.008057 144.0
1422.255737 100.0
1422.36084 76.0
1423.336792 56.0
1427.349365 176.0
1433.38623 216.0
1433.830811 164.0
1434.53186 132.0
1438.303467 220.0
1439.141479 196.0
1440.500854 156.0
1442.503296 180.0
1442.722534 208.0
1444.333252 232.0
1447.307373 204.0
1447.750854 196.0
1451.042725 156.0
1451.27771 212.0
1452.726318 176.0
1454.7677 200.0
1463.906616 36.0
1465.651001 88.0
1469.173462 168.0
1472.631348 212.0
1477.416382 156.0
1479.689331 68.0
1483.075317 340.0
1485.360229 124.0
1486.165771 184.0
1487.861938 68.0
1488.860107 28.0
1489.927856 140.0
1490.619263 224.0
1492.602539 192.0
1494.01001 60.0
1494.471558 212.0
1495.056396 136.0
1498.028442 60.0
1498.899048 200.0
1503.402466 184.0
