>compound MLS001158025-01!2-[2-(4-ethyl-7-methyl-2-oxochromen-5-yl)oxypropanoylamino]-3-(5-hydroxy-1H-indol-3-yl)propanoic acid
>formula C26H26N2O7
>ionization [M+H]+
>parentmass 479.182
#inchi InChI=1S/C26H26N2O7/c1-4-15-10-23(30)35-22-8-13(2)7-21(24(15)22)34-14(3)25(31)28-20(26(32)33)9-16-12-27-19-6-5-17(29)11-18(16)19/h5-8,10-12,14,20,27,29H,4,9H2,1-3H3,(H,28,31)(H,32,33)
#inchikey PXNSDLLOUZIXME
#Ion_Source LC-ESI
#Instrument qTof
#Compound_Source NIH Natural Product Library
#PI Dorrestein
#Data_Collector VVP/LMS
#Scan -1
#Precursor_MZ 479.182
#ExactMass 478.174
#Charge 1
#CAS_Number N/A
#Pubmed_ID N/A
#Smiles CCc1cc(=O)oc2cc(C)cc(OC(C)C(=O)NC(Cc3c[nH]c4ccc(O)cc34)C(=O)O)c12
#INCHI_AUX N/A
#Library_Class 1
#SpectrumID CCMSLIB00000079704
#IonMode Positive
#UpdateWorkflowName UPDATE-SINGLE-ANNOTATED-GOLD
#LibraryQualityString Gold
#TaskID b1d8e8f6646f4e71acdff9ca3d919d08
##Scan# 1907
#SpectrumFile p1-A10_GA10_01_17882.mzXML
#LibraryName NIH_Natural_Products_Library.mgf
#MQScore -1
#Organism NIH_Natural_Products_Library
#TIC_Query 0
#RT_Query -1
#MZErrorPPM -1
#SharedPeaks 0
#MassDiff 0
#LibMZ -1
#SpecMZ 479.182
#SpecCharge 0
#internalFilename spec-00000.mgf

>collision 10
95.522743 140.0
96.310219 192.0
96.339516 108.0
96.386406 132.0
96.609291 172.0
96.695381 180.0
96.928413 164.0
97.666573 224.0
97.936226 140.0
98.143143 128.0
98.170746 152.0
98.555656 164.0
98.66436 176.0
98.858192 172.0
98.933403 212.0
98.973 144.0
99.062393 148.0
99.274193 180.0
99.349564 144.0
99.879936 48.0
100.045097 128.0
100.118767 176.0
100.168556 172.0
101.17701 156.0
102.053749 164.0
102.093964 52.0
102.224823 156.0
102.35154 160.0
102.552986 128.0
102.746567 124.0
103.055595 124.0
103.203011 124.0
103.273788 156.0
103.457924 104.0
103.666534 152.0
104.07019 132.0
104.3526 224.0
104.75351 184.0
104.989929 184.0
105.070862 328.0
105.330772 64.0
106.169914 128.0
106.975327 108.0
107.043266 64.0
107.08445 364.0
107.243095 120.0
107.290504 204.0
107.335869 252.0
108.66581 180.0
109.031265 120.0
109.067902 288.0
109.361946 164.0
109.624352 152.0
109.695213 152.0
110.056129 248.0
110.095802 136.0
110.156372 120.0
110.426003 68.0
111.402763 224.0
111.472099 64.0
111.49942 48.0
111.785416 132.0
112.05703 140.0
112.43869 40.0
112.738571 92.0
112.768158 64.0
112.979607 152.0
113.657845 156.0
114.356728 136.0
114.501503 188.0
114.581352 180.0
114.742279 88.0
114.891563 200.0
115.053947 176.0
115.184013 44.0
115.607338 84.0
115.6772 124.0
115.744331 196.0
116.063728 248.0
116.310303 168.0
116.342499 192.0
116.765793 104.0
116.933601 108.0
117.057167 368.0
117.12738 44.0
118.063866 332.0
118.282585 140.0
118.85038 224.0
118.904633 152.0
119.034882 124.0
119.051048 332.0
119.066582 368.0
119.08654 380.0
119.208664 212.0
119.402138 176.0
119.643661 160.0
119.891968 116.0
119.915939 148.0
120.079277 152.0
120.592522 136.0
120.909637 204.0
121.030037 176.0
121.06636 136.0
121.102303 176.0
121.878876 136.0
121.920631 116.0
122.054718 172.0
122.2659 120.0
122.408981 180.0
122.543343 60.0
122.688797 196.0
122.922585 196.0
123.002037 52.0
123.044167 500.0
123.183105 148.0
123.85997 132.0
123.884338 208.0
124.039452 156.0
124.394363 100.0
124.776459 168.0
125.076767 168.0
125.549095 132.0
126.093819 116.0
126.32859 136.0
127.177826 224.0
127.236191 168.0
127.987122 108.0
128.063873 356.0
128.241684 112.0
128.340866 64.0
128.771652 176.0
129.070297 704.0
129.971664 160.0
130.074295 184.0
130.619141 124.0
130.646439 152.0
130.999283 56.0
131.048325 680.0
131.085419 328.0
131.215775 76.0
132.052734 324.0
132.08049 388.0
132.339844 184.0
132.93811 172.0
133.011337 180.0
133.054062 236.0
133.098083 456.0
133.16713 84.0
133.27565 132.0
133.537704 96.0
133.986572 180.0
134.023438 132.0
134.060455 1604.0
134.106384 144.0
134.161713 64.0
134.602386 64.0
134.805664 144.0
134.967468 156.0
134.985962 64.0
135.076569 336.0
135.219604 56.0
136.091202 100.0
136.107452 176.0
136.146942 44.0
136.916687 200.0
137.057785 168.0
137.177643 148.0
137.415512 248.0
137.546204 132.0
137.919922 160.0
137.980698 44.0
138.057861 36.0
138.408859 128.0
138.535324 44.0
138.830643 48.0
139.02301 156.0
139.516251 184.0
139.772614 64.0
140.427505 188.0
140.701218 108.0
141.06842 188.0
141.522369 124.0
141.801132 116.0
142.045349 176.0
142.079575 320.0
142.311142 124.0
142.936264 124.0
143.029083 232.0
143.079407 264.0
144.05928 332.0
144.078308 180.0
144.097412 172.0
144.587601 188.0
144.949203 84.0
145.06102 128.0
145.102112 160.0
145.251266 124.0
145.330444 164.0
145.910446 212.0
145.925568 192.0
146.006638 124.0
146.059845 10980.0
146.118484 216.0
146.154572 88.0
146.332672 52.0
146.621735 40.0
146.768768 84.0
147.06369 1684.0
147.116867 664.0
147.149979 48.0
147.198273 208.0
147.841278 160.0
147.899368 64.0
148.07637 948.0
148.10759 208.0
148.148773 88.0
148.206924 72.0
148.267502 96.0
148.300064 156.0
148.61911 168.0
148.789001 132.0
149.064499 188.0
149.094452 328.0
149.143661 160.0
149.725128 212.0
149.771408 32.0
150.090652 192.0
150.241867 104.0
150.315063 64.0
150.766815 108.0
151.336761 184.0
151.361252 104.0
152.028 40.0
152.72081 136.0
153.099823 184.0
153.410263 192.0
153.496552 52.0
154.070618 220.0
155.056427 124.0
155.088638 144.0
155.291946 136.0
155.460648 136.0
156.007065 152.0
156.031921 172.0
156.080109 372.0
156.736282 124.0
157.103256 556.0
157.92923 148.0
158.004623 164.0
158.059692 1680.0
158.095367 704.0
158.650726 100.0
159.066254 1112.0
159.205231 148.0
159.609802 40.0
159.685242 140.0
160.045837 216.0
160.077988 1360.0
160.118118 84.0
160.203751 128.0
160.801331 64.0
161.060181 544.0
161.095795 880.0
161.574539 200.0
161.701065 40.0
161.971985 136.0
162.056534 2480.0
162.093201 456.0
162.184814 88.0
162.220306 184.0
162.331863 204.0
162.380035 48.0
162.48912 76.0
162.679443 216.0
162.905457 148.0
163.0448 440.0
163.07402 368.0
163.08934 444.0
163.933334 112.0
164.050568 136.0
164.12706 176.0
164.245544 144.0
165.76799 200.0
166.042389 104.0
166.078293 176.0
166.106506 248.0
166.196289 132.0
167.092056 216.0
168.078995 504.0
168.456696 124.0
168.627228 168.0
168.857315 108.0
169.067093 144.0
169.088776 164.0
169.419006 100.0
170.06105 848.0
170.922241 128.0
171.018539 108.0
171.067001 1036.0
171.099228 32.0
171.862869 60.0
171.933319 204.0
172.069916 184.0
172.074585 240.0
172.66481 68.0
173.077393 848.0
173.143723 156.0
173.279938 56.0
173.397858 44.0
173.715118 88.0
173.914536 180.0
173.94043 152.0
173.993286 120.0
174.083679 2308.0
174.156082 40.0
174.279556 104.0
174.568695 64.0
174.639694 64.0
174.66864 168.0
174.847549 112.0
174.979156 184.0
175.029175 172.0
175.085434 2800.0
175.111664 2208.0
175.345291 88.0
175.500824 32.0
175.915009 52.0
175.988937 32.0
176.084854 444.0
176.203354 64.0
176.60202 28.0
176.771332 76.0
176.848083 108.0
176.961899 144.0
176.998978 184.0
177.056747 284.0
177.086121 348.0
177.11412 172.0
177.174774 128.0
177.385773 128.0
177.449402 92.0
177.57402 64.0
177.778305 148.0
178.059708 208.0
178.211121 40.0
179.095581 168.0
179.507385 132.0
179.531372 176.0
179.624725 184.0
179.982346 92.0
180.049103 156.0
180.24678 44.0
182.463333 164.0
182.665009 192.0
183.066757 356.0
183.208786 60.0
183.262665 64.0
183.386627 56.0
183.491745 60.0
184.073868 3004.0
184.62851 68.0
184.663681 88.0
185.080353 756.0
185.207703 64.0
185.275421 64.0
185.370239 156.0
185.494919 148.0
185.695557 212.0
186.015732 168.0
186.05484 3304.0
186.089401 1628.0
186.178635 104.0
186.249252 48.0
186.492538 176.0
186.576569 192.0
186.733032 72.0
186.809204 148.0
187.055252 532.0
187.075668 532.0
187.093079 368.0
187.182053 72.0
187.408127 176.0
187.645248 136.0
187.74614 52.0
188.067535 216.0
188.083969 164.0
188.106277 184.0
188.53508 140.0
189.057404 112.0
189.090637 500.0
189.520172 116.0
190.03299 208.0
190.056625 172.0
190.091904 180.0
190.71666 56.0
191.060318 164.0
191.090027 144.0
192.15686 64.0
196.049896 224.0
196.074966 164.0
196.632751 152.0
197.085129 172.0
198.06427 152.0
199.318283 84.0
199.425079 172.0
200.065582 320.0
200.968262 68.0
201.067307 424.0
201.102264 1224.0
201.292862 52.0
201.787323 92.0
201.93718 240.0
202.057999 124.0
202.083298 312.0
202.418274 76.0
202.599533 160.0
202.868759 108.0
202.914108 68.0
203.06926 1328.0
203.108185 3144.0
203.189209 48.0
203.345276 44.0
203.573761 124.0
203.660431 68.0
203.73143 44.0
203.862137 68.0
204.065689 3968.0
204.111893 300.0
204.325592 188.0
204.513397 88.0
204.590256 76.0
204.618729 60.0
204.638657 32.0
204.846542 68.0
204.920624 108.0
205.084595 6228.0
205.236984 100.0
205.41951 72.0
205.439468 92.0
205.480835 68.0
205.610672 100.0
205.693436 84.0
205.741974 96.0
206.01326 60.0
206.090729 864.0
206.404022 72.0
206.524918 60.0
207.094193 384.0
207.725082 164.0
207.825485 76.0
209.190598 100.0
209.939697 140.0
210.759476 72.0
211.081406 128.0
211.090973 176.0
212.070206 260.0
212.101135 112.0
212.76947 76.0
213.069931 308.0
213.096786 160.0
214.083771 164.0
215.08371 716.0
215.942703 44.0
216.078873 332.0
217.081909 156.0
218.060608 156.0
219.076813 188.0
220.1866 236.0
221.096329 216.0
222.784256 200.0
225.678085 200.0
227.436569 132.0
228.96991 156.0
229.095108 932.0
230.084076 1228.0
230.149384 144.0
230.212372 80.0
230.82579 80.0
231.025406 180.0
231.101852 6164.0
231.155502 132.0
231.415817 60.0
231.473343 80.0
231.500595 96.0
231.639908 68.0
231.664154 96.0
231.853012 40.0
232.102783 1328.0
232.209732 120.0
233.038437 56.0
233.102966 368.0
233.305893 72.0
233.463989 40.0
233.844269 100.0
235.072418 88.0
237.087646 152.0
238.665421 104.0
239.077621 176.0
240.865814 116.0
241.310822 60.0
243.110443 120.0
243.697296 108.0
244.104492 132.0
246.370361 84.0
246.526581 104.0
247.107941 488.0
247.302185 40.0
247.436783 84.0
247.624664 80.0
248.072723 176.0
248.115341 444.0
249.27478 44.0
249.909927 60.0
255.083786 156.0
256.08606 104.0
257.092743 372.0
258.092834 236.0
258.125305 56.0
259.094635 288.0
261.11084 216.0
262.092651 160.0
262.49881 20.0
271.152802 60.0
272.623047 120.0
273.873199 124.0
274.756622 112.0
275.086639 144.0
276.09436 112.0
276.127197 108.0
276.815765 184.0
277.674072 108.0
278.477234 112.0
278.553619 68.0
279.098663 168.0
283.019196 180.0
292.094238 108.0
294.381104 96.0
308.038025 112.0
308.114868 144.0
315.233429 76.0
316.113922 128.0
319.059601 128.0
323.237915 148.0
324.333771 92.0
332.09671 152.0
332.902374 40.0
341.137756 32.0
346.085052 176.0
346.127258 192.0
347.13739 144.0
347.311707 172.0
348.053925 56.0
356.135376 136.0
362.137299 192.0
363.144257 136.0
374.153259 140.0
384.077454 40.0
385.627502 116.0
387.619415 164.0
389.176605 116.0
397.116394 120.0
398.120483 128.0
403.527557 44.0
405.176422 156.0
408.596893 128.0
410.102905 32.0
413.507629 52.0
432.338287 64.0
432.503845 200.0
433.179443 656.0
434.165039 148.0
434.223267 192.0
434.277191 56.0
442.833893 36.0
450.050049 112.0
453.98526 52.0
461.175934 156.0
466.203064 68.0
478.247894 112.0
480.134369 68.0
480.16925 148.0
481.177216 136.0
481.286377 128.0
482.264923 144.0
482.859528 76.0
502.026642 104.0
523.750854 132.0
529.771301 100.0
580.50116 68.0
712.403015 108.0
730.422913 104.0
756.825806 104.0
765.050049 56.0
776.482178 68.0
784.667297 96.0
789.480347 172.0
825.641541 168.0
853.918884 20.0
880.167053 120.0
892.527161 148.0
892.616333 40.0
909.133362 64.0
939.404236 188.0
981.536011 276.0
983.301392 224.0
991.776123 40.0
993.851807 120.0
1022.987122 164.0
1025.643311 164.0
1043.940918 228.0
1048.157227 184.0
1055.27002 84.0
1064.890625 60.0
1066.374146 136.0
1072.309692 148.0
1078.301025 40.0
1102.20166 76.0
1107.116455 88.0
1110.304077 236.0
1129.405518 164.0
1135.2052 156.0
1143.851929 100.0
1147.469482 64.0
1174.220215 144.0
1174.615845 176.0
1204.323242 248.0
1209.003662 116.0
1211.801147 236.0
1216.94043 144.0
1219.343872 176.0
1219.7052 152.0
1220.713379 120.0
1233.09436 120.0
1252.635132 180.0
1252.754883 144.0
1264.50415 184.0
1270.179443 180.0
1275.505005 168.0
1278.278564 140.0
1280.150757 200.0
1282.843872 128.0
1292.5354 104.0
1297.269409 156.0
1303.535034 208.0
1307.065674 100.0
1314.278198 92.0
1314.934814 128.0
1357.119751 84.0
1357.28833 56.0
1368.25769 204.0
1371.403076 224.0
1372.980835 108.0
1376.633667 152.0
1380.927368 132.0
1389.512573 192.0
1392.258911 168.0
1395.30542 176.0
1400.156738 216.0
1401.452881 168.0
1411.006104 132.0
1426.711914 136.0
1431.866089 180.0
1435.539917 20.0
1436.946533 52.0
1438.644531 148.0
1440.25293 164.0
1441.000854 148.0
1442.950684 124.0
1451.855225 152.0
1456.112671 228.0
1458.627563 192.0
1459.000122 204.0
1460.026611 60.0
1460.079834 120.0
1460.376465 192.0
1461.008545 168.0
1463.812378 192.0
1475.314087 176.0
1475.45166 104.0
1475.795654 52.0
1485.836304 172.0
1487.363403 88.0
1487.478516 148.0
1489.866821 116.0
1490.081909 244.0
1492.864258 152.0
1495.703247 44.0
1499.446411 144.0
1501.049805 148.0
1501.119263 180.0
1501.875 248.0
