>compound MLS001158260-01!N-[2-(3,4-dimethoxyphenyl)ethyl]-2-(3,4,7-trimethyl-2-oxochromen-5-yl)oxyacetamide
>formula C24H27NO6
>ionization [M+H]+
>parentmass 426.19111403609054
#inchi InChI=1S/C24H27NO6/c1-14-10-20(23-15(2)16(3)24(27)31-21(23)11-14)30-13-22(26)25-9-8-17-6-7-18(28-4)19(12-17)29-5/h6-7,10-12H,8-9,13H2,1-5H3,(H,25,26)
#inchikey AJTBRMHOFPCWLF
#Ion_Source LC-ESI
#Instrument qTof
#Compound_Source NIH Natural Product Library
#PI Dorrestein
#Data_Collector VVP/LMS
#Scan -1
#Precursor_MZ 426.192
#ExactMass 425.184
#Charge 1
#CAS_Number N/A
#Pubmed_ID N/A
#Smiles COc1ccc(CCNC(=O)COc2cc(C)cc3oc(=O)c(C)c(C)c23)cc1OC
#INCHI_AUX N/A
#Library_Class 1
#SpectrumID CCMSLIB00000079371
#IonMode Positive
#UpdateWorkflowName UPDATE-SINGLE-ANNOTATED-GOLD
#LibraryQualityString Gold
#TaskID b1d8e8f6646f4e71acdff9ca3d919d08
##Scan# 2177
#SpectrumFile p1-C05_GC5_01_17901.mzXML
#LibraryName NIH_Natural_Products_Library.mgf
#MQScore -1
#Organism NIH_Natural_Products_Library
#TIC_Query 0
#RT_Query -1
#MZErrorPPM -1
#SharedPeaks 0
#MassDiff 0
#LibMZ -1
#SpecMZ 426.192
#SpecCharge 0
#internalFilename spec-00000.mgf

>collision 10
95.000038 260.0
95.054367 144.0
95.196068 184.0
95.231026 180.0
95.964645 228.0
96.122643 44.0
96.534805 112.0
96.753937 248.0
96.787224 176.0
97.281273 192.0
97.674271 200.0
97.695915 44.0
97.739197 132.0
98.36393 144.0
98.761086 136.0
99.214539 128.0
99.800217 236.0
101.331047 132.0
101.708046 168.0
101.738159 140.0
102.486313 180.0
102.762535 200.0
103.035332 164.0
103.054367 684.0
103.214966 100.0
103.257431 192.0
103.374763 184.0
103.721085 48.0
103.93605 176.0
104.055038 260.0
104.279243 56.0
104.295502 44.0
104.338188 192.0
104.543617 184.0
105.06971 356.0
105.122353 124.0
105.214195 100.0
105.308128 108.0
105.985245 168.0
106.070862 216.0
106.093872 44.0
106.709763 152.0
107.049881 628.0
107.086334 144.0
107.944824 120.0
108.054443 148.0
108.087555 176.0
108.530807 148.0
109.066315 372.0
109.45752 136.0
109.603325 116.0
109.667931 176.0
109.855591 260.0
109.872284 180.0
110.170807 168.0
110.436272 140.0
110.461372 192.0
110.735565 84.0
111.180016 188.0
111.968369 200.0
112.729927 176.0
112.774307 152.0
113.199532 216.0
113.244003 144.0
114.173569 196.0
114.486397 52.0
114.959648 136.0
115.055649 180.0
115.485191 104.0
116.052673 96.0
116.102333 176.0
116.215683 64.0
116.976448 180.0
117.002281 48.0
117.028122 124.0
117.058266 192.0
117.072975 168.0
117.221977 160.0
117.258606 92.0
117.282318 140.0
117.318962 64.0
117.510902 196.0
118.042358 304.0
118.066025 108.0
118.347328 140.0
118.453445 180.0
118.891411 188.0
119.049164 148.0
119.087883 340.0
120.05587 332.0
120.087975 216.0
120.400063 316.0
120.454666 272.0
120.537682 216.0
120.690689 196.0
121.065155 1144.0
121.174385 228.0
121.511658 100.0
121.705154 40.0
122.067162 552.0
123.039352 228.0
123.076714 348.0
123.567551 64.0
124.049599 280.0
125.06765 132.0
126.764961 152.0
127.112534 64.0
128.063705 232.0
128.088257 168.0
128.320358 212.0
128.507553 148.0
128.898178 172.0
129.068481 184.0
129.345963 136.0
130.041794 176.0
130.066162 152.0
130.414276 144.0
130.530228 164.0
131.049789 224.0
131.07225 156.0
131.215561 48.0
131.240219 112.0
132.04657 336.0
132.075806 140.0
132.871338 248.0
132.972305 180.0
133.025101 212.0
133.064926 984.0
133.099915 348.0
133.337463 92.0
133.746857 52.0
133.767578 100.0
134.071426 968.0
134.152267 160.0
135.045639 1108.0
135.082291 692.0
135.144836 192.0
135.411545 96.0
135.896011 124.0
136.051651 332.0
136.07608 144.0
136.525497 192.0
136.925781 160.0
137.062714 204.0
137.093506 168.0
137.473618 180.0
137.826202 92.0
138.063309 180.0
138.272858 144.0
139.032166 48.0
139.07605 108.0
140.977341 100.0
141.066742 164.0
141.168808 120.0
141.256317 132.0
141.853043 68.0
142.066452 120.0
142.389267 168.0
143.081207 124.0
143.426605 156.0
143.564896 64.0
143.657913 176.0
143.946701 160.0
144.055328 280.0
144.161682 136.0
144.307495 212.0
144.786057 152.0
145.044815 208.0
145.063248 296.0
145.085571 164.0
145.289398 84.0
145.870544 92.0
146.043655 164.0
146.072296 1152.0
146.096573 132.0
146.698608 168.0
147.043518 164.0
147.068939 1380.0
147.255981 100.0
147.918472 168.0
148.043884 244.0
148.076019 552.0
148.33754 96.0
149.03006 176.0
149.060043 1512.0
149.094711 308.0
149.345215 176.0
149.415756 108.0
149.746796 176.0
149.956329 164.0
149.988007 136.0
150.03479 208.0
150.06778 5256.0
150.239166 68.0
150.302597 48.0
150.366058 68.0
150.446594 212.0
150.607758 68.0
150.698151 192.0
150.967026 104.0
151.035995 196.0
151.073685 1936.0
151.574097 108.0
152.003204 176.0
152.085495 536.0
153.555481 220.0
154.093597 64.0
154.281418 228.0
154.865387 244.0
155.088379 136.0
155.450455 120.0
156.255493 176.0
157.929306 212.0
158.068481 232.0
158.545181 76.0
158.820969 80.0
159.044281 160.0
159.079346 1216.0
159.147202 52.0
159.571808 168.0
160.086426 360.0
160.208511 184.0
160.967682 280.0
161.060318 516.0
161.095612 496.0
161.430099 48.0
162.067154 744.0
162.09137 1260.0
162.158554 172.0
162.524353 68.0
162.595413 204.0
162.884857 184.0
163.075073 248.0
163.096207 748.0
163.149124 120.0
163.212692 68.0
163.306778 76.0
163.770004 136.0
163.899933 60.0
164.001862 132.0
164.083252 2196.0
164.157379 72.0
164.307861 100.0
164.478836 56.0
164.642227 40.0
164.782715 200.0
164.880234 124.0
164.920715 116.0
164.982056 172.0
165.05365 228.0
165.091049 19092.0
165.138031 88.0
165.18486 92.0
165.273621 88.0
165.311996 40.0
165.428558 96.0
165.616653 100.0
165.642273 44.0
165.692856 80.0
165.747299 176.0
165.765244 40.0
165.921585 140.0
165.957962 236.0
166.052368 196.0
166.095352 1876.0
166.121613 128.0
166.149826 68.0
166.188309 72.0
166.375671 76.0
166.570831 104.0
166.686432 108.0
166.838074 48.0
166.89978 44.0
167.056656 64.0
167.102371 172.0
167.388672 132.0
167.44017 80.0
167.512939 132.0
168.180115 40.0
168.456406 184.0
168.575256 48.0
168.616592 180.0
169.014832 76.0
171.081314 176.0
172.087036 140.0
173.030838 240.0
173.075348 192.0
173.104156 172.0
174.069153 272.0
174.221466 164.0
175.039413 124.0
175.076584 652.0
175.179001 80.0
175.458344 144.0
176.046478 128.0
176.082321 3804.0
176.250122 76.0
177.088898 2008.0
177.311264 92.0
177.470306 136.0
178.090775 152.0
178.18956 104.0
178.303818 72.0
178.455338 80.0
178.625534 76.0
178.918243 124.0
179.094498 744.0
179.144608 208.0
179.293808 128.0
179.531067 60.0
180.099457 236.0
180.246475 116.0
180.468323 80.0
181.088882 416.0
181.542053 88.0
181.660065 52.0
182.557129 208.0
184.00943 92.0
184.901443 40.0
186.705521 128.0
187.079071 276.0
188.078659 260.0
189.090424 2696.0
189.626724 44.0
190.057251 108.0
190.093887 1060.0
191.01329 72.0
191.068314 148.0
191.095825 100.0
191.42337 140.0
191.583115 52.0
192.10173 88.0
192.907684 80.0
193.087677 336.0
193.162094 72.0
193.659912 140.0
193.917969 64.0
194.116791 1860.0
194.220184 148.0
194.29509 64.0
194.839218 108.0
195.0504 120.0
195.117432 528.0
196.582184 52.0
196.869705 152.0
196.914398 120.0
199.079178 204.0
201.90007 96.0
202.021698 200.0
202.083939 112.0
203.066605 364.0
203.679962 104.0
203.895432 176.0
203.983994 220.0
204.075958 1124.0
204.177338 208.0
204.584213 168.0
204.635468 144.0
204.746506 172.0
205.085449 4508.0
205.156815 264.0
205.210983 76.0
205.245193 28.0
205.3564 64.0
205.416306 76.0
205.479065 52.0
205.932938 44.0
206.090149 776.0
207.093063 300.0
208.101929 128.0
209.17009 76.0
213.815506 100.0
214.135757 48.0
216.100296 48.0
216.595032 68.0
216.803055 40.0
217.085831 1872.0
217.239914 40.0
217.518051 92.0
217.571518 96.0
218.024307 132.0
218.090546 444.0
218.129669 156.0
218.156113 44.0
218.588455 48.0
219.09967 416.0
219.430832 84.0
219.646103 120.0
220.103546 124.0
220.136017 304.0
221.43132 192.0
222.080383 184.0
222.11174 268.0
223.115036 184.0
224.772675 40.0
225.405716 76.0
227.067139 196.0
228.081955 340.0
229.044815 188.0
229.132172 176.0
230.054977 140.0
231.103683 256.0
232.106232 180.0
233.107925 160.0
234.106918 100.0
234.300629 48.0
235.847733 168.0
236.073959 124.0
236.869324 144.0
244.956833 240.0
245.082535 788.0
246.080307 204.0
246.644928 120.0
248.762421 80.0
249.268066 36.0
258.044922 168.0
262.113251 156.0
272.839508 84.0
279.048309 188.0
285.135376 152.0
287.195862 160.0
288.124146 88.0
290.137756 208.0
293.091217 160.0
295.17337 96.0
295.669373 196.0
296.015137 120.0
300.907898 184.0
305.980011 56.0
307.133453 76.0
314.639526 72.0
328.49353 56.0
339.701385 48.0
343.630341 92.0
345.699524 80.0
349.707581 144.0
362.029449 172.0
366.138458 132.0
370.155762 148.0
370.282135 140.0
371.619934 20.0
375.134949 144.0
375.169647 124.0
381.164795 136.0
387.223114 36.0
407.47052 148.0
420.154602 100.0
425.823792 116.0
426.193451 1532.0
426.509949 76.0
426.653809 100.0
427.073242 60.0
427.187775 260.0
427.686279 80.0
428.917847 56.0
429.26416 112.0
431.646759 56.0
446.206848 76.0
488.516876 120.0
543.950378 40.0
705.412292 148.0
727.595093 160.0
735.918457 100.0
739.242676 52.0
755.686096 168.0
782.164734 64.0
785.022766 64.0
791.762268 56.0
818.142761 148.0
819.822937 124.0
827.482605 84.0
873.853027 144.0
880.319031 216.0
889.14563 44.0
906.619141 188.0
907.260498 40.0
924.341431 148.0
962.349243 100.0
968.372253 152.0
975.694275 100.0
984.997986 40.0
985.354065 168.0
985.697693 92.0
992.457703 132.0
993.461182 160.0
994.069763 120.0
1001.796753 156.0
1008.902405 156.0
1051.689453 148.0
1053.245483 56.0
1057.933594 64.0
1074.087891 176.0
1079.351562 172.0
1092.297607 160.0
1094.344238 124.0
1101.809937 152.0
1103.336548 196.0
1112.425415 196.0
1116.092651 208.0
1118.054932 132.0
1127.264282 148.0
1133.33313 152.0
1148.290161 116.0
1163.372314 156.0
1180.165894 144.0
1181.71167 248.0
1181.759521 88.0
1195.365845 132.0
1196.198608 68.0
1213.386108 188.0
1215.550171 188.0
1215.612549 128.0
1217.07019 164.0
1227.45166 200.0
1232.512207 244.0
1238.84375 144.0
1243.52063 104.0
1252.442871 88.0
1253.598267 204.0
1254.845825 200.0
1257.653442 188.0
1264.353394 220.0
1269.574463 180.0
1280.711182 168.0
1292.096802 144.0
1295.934326 228.0
1297.460815 216.0
1299.554932 160.0
1301.342163 180.0
1305.157349 212.0
1313.66272 108.0
1314.167725 148.0
1315.553345 20.0
1320.0979 148.0
1320.42334 228.0
1323.513306 152.0
1328.209351 180.0
1330.045044 128.0
1332.732056 52.0
1334.054688 144.0
1334.403687 260.0
1335.85083 180.0
1338.448975 168.0
1342.989136 180.0
1345.170776 220.0
1348.494141 136.0
1353.637939 144.0
1354.230225 96.0
1359.266479 60.0
1365.55481 20.0
1367.349976 68.0
1367.607544 132.0
1368.115479 200.0
1370.081787 252.0
1373.184937 148.0
1385.825439 252.0
1387.745117 124.0
1390.467407 36.0
1391.098389 160.0
1391.521484 148.0
1396.068848 144.0
1402.859131 164.0
1406.103638 152.0
1408.761719 148.0
1413.920898 132.0
1414.197754 184.0
1422.292603 168.0
1423.876831 216.0
1424.36499 52.0
1428.348755 140.0
1429.23645 148.0
1429.49231 176.0
1430.282593 124.0
1430.636353 100.0
1433.995728 132.0
1438.702515 216.0
1439.699219 160.0
1443.651489 132.0
1447.593994 180.0
1454.212158 124.0
1471.843018 136.0
1472.194214 132.0
1481.188354 132.0
1485.734131 192.0
1492.146729 172.0
1495.331299 208.0
1496.778442 40.0
1496.855469 192.0
1500.800537 184.0
