>compound NCGC00160345-01!N-[2-(4-sec-Butyl-phenoxy)-4,5-dihydroxy-6-hydroxymethyl-tetrahydro-pyran-3-yl]-acetamide
>formula C18H27NO6
>ionization [M+H]+
>parentmass 354.192
#inchi InChI=1S/C18H27NO6/c1-4-10(2)12-5-7-13(8-6-12)24-18-15(19-11(3)21)17(23)16(22)14(9-20)25-18/h5-8,10,14-18,20,22-23H,4,9H2,1-3H3,(H,19,21)/t10?,14-,15-,16-,17-,18-/m1/s1
#inchikey NZLBBWKRFWAHOK
#Ion_Source LC-ESI
#Instrument qTOF
#Compound_Source Prestwick Phytochem Lib
#PI Dorrestein
#Data_Collector VVP/LMS
#Scan -1
#Precursor_MZ 354.192
#ExactMass 353.184
#Charge 1
#CAS_Number N/A
#Pubmed_ID N/A
#Smiles CCC(C)C1=CC=C(O[C@@H]2O[C@H](CO)[C@@H](O)[C@H](O)[C@H]2NC(C)=O)C=C1
#INCHI_AUX N/A
#Library_Class 1
#SpectrumID CCMSLIB00000078764
#IonMode Positive
#UpdateWorkflowName UPDATE-SINGLE-ANNOTATED-GOLD
#LibraryQualityString Gold
#TaskID 67c915c6594c435cadc1fe2b5358144d
##Scan# 1796
#SpectrumFile p1-E03_GE3_01_17923.mzXML
#LibraryName phytochem_lib.mgf
#MQScore -1
#Organism phytochem_lib
#TIC_Query 0
#RT_Query -1
#MZErrorPPM -1
#SharedPeaks 0
#MassDiff 0
#LibMZ -1
#SpecMZ 354.192
#SpecCharge 0
#internalFilename spec-00000.mgf

>collision 10
95.86805 176.0
96.044777 1972.0
96.080582 228.0
96.295296 68.0
96.745018 132.0
96.909531 148.0
97.031662 212.0
97.050255 352.0
97.527687 184.0
97.730232 132.0
97.877861 88.0
98.024437 180.0
98.06089 560.0
99.009369 156.0
99.045319 328.0
99.062843 180.0
101.022301 184.0
102.33416 124.0
103.863953 196.0
105.002937 92.0
105.996445 112.0
106.610001 148.0
107.332527 216.0
108.046043 204.0
109.027214 660.0
109.460587 172.0
109.629318 160.0
109.668915 136.0
110.058891 168.0
110.131401 224.0
110.284637 224.0
110.418442 160.0
111.222992 128.0
111.510735 236.0
112.009399 164.0
112.121063 184.0
112.281288 168.0
113.046021 140.0
113.575668 120.0
113.639313 128.0
114.05323 196.0
114.833794 168.0
115.071671 128.0
116.422791 140.0
117.093773 124.0
117.240265 232.0
117.449394 140.0
117.581009 152.0
118.242325 156.0
118.582352 188.0
119.051048 172.0
120.006187 144.0
120.8405 160.0
120.945541 152.0
123.044876 192.0
123.106705 172.0
123.533264 160.0
124.033966 172.0
124.302055 212.0
124.73513 232.0
126.012062 80.0
126.055168 1280.0
126.079094 184.0
126.190857 40.0
126.376495 164.0
126.790756 120.0
127.035675 308.0
127.05751 296.0
127.248344 48.0
127.353096 136.0
128.042099 160.0
128.310242 36.0
128.741211 184.0
130.943298 172.0
131.225845 224.0
131.723343 48.0
133.676712 132.0
135.452133 124.0
137.260239 120.0
137.741013 240.0
137.825119 240.0
137.867172 152.0
137.897552 136.0
137.967682 92.0
138.05545 9848.0
138.103302 120.0
138.133041 56.0
138.276428 112.0
138.37709 68.0
138.435623 32.0
138.456711 80.0
138.59726 108.0
139.057816 632.0
139.67952 104.0
139.712448 128.0
139.976059 44.0
140.055496 180.0
140.071106 180.0
140.190414 132.0
141.032959 36.0
141.823502 164.0
142.651901 160.0
142.685196 64.0
144.065613 4272.0
144.133575 52.0
144.3853 52.0
144.466629 64.0
144.495331 72.0
145.060471 296.0
145.068634 152.0
145.139618 64.0
145.391495 84.0
146.071426 204.0
146.124359 56.0
146.538467 56.0
147.172791 108.0
147.380508 48.0
148.370392 240.0
148.537704 128.0
150.055176 232.0
151.570557 68.0
152.143341 344.0
153.140335 372.0
156.065384 204.0
157.088959 244.0
158.075821 136.0
158.977951 84.0
160.076477 232.0
167.802429 100.0
168.06543 740.0
168.104202 184.0
168.796494 104.0
169.065155 204.0
171.710205 84.0
186.075745 860.0
187.003754 148.0
187.078613 176.0
188.298782 120.0
191.078278 144.0
194.985458 188.0
197.62059 136.0
199.111862 172.0
201.791611 56.0
203.426224 64.0
204.083313 640.0
204.116608 120.0
204.173492 76.0
204.725571 28.0
206.809677 104.0
215.102783 104.0
233.055328 148.0
250.050201 96.0
276.013702 164.0
279.1539 152.0
283.064789 140.0
287.81601 120.0
297.945374 148.0
306.075043 176.0
322.064087 108.0
335.065338 180.0
403.610474 76.0
412.273132 48.0
514.969055 36.0
588.280396 96.0
613.275452 204.0
734.753906 140.0
790.744873 132.0
791.646179 20.0
823.989929 184.0
828.091309 148.0
836.393677 208.0
837.516479 132.0
871.062622 200.0
910.406677 184.0
917.645264 140.0
931.424744 140.0
932.135559 116.0
938.862122 124.0
946.145447 76.0
972.013733 164.0
978.789001 160.0
990.273376 212.0
1000.263 156.0
1024.006958 108.0
1036.547241 156.0
1053.978516 216.0
1054.598877 72.0
1069.848877 196.0
1096.323608 64.0
1124.396118 128.0
1127.909302 144.0
1147.632935 208.0
1151.033569 172.0
1161.245361 148.0
1165.780396 184.0
1172.756104 152.0
1196.725708 180.0
1204.352661 156.0
1208.791016 168.0
1208.964111 80.0
1211.740601 148.0
1212.981079 152.0
1220.367676 184.0
1224.041382 52.0
1233.389893 184.0
1252.764038 184.0
1256.077148 84.0
1258.483643 268.0
1263.508667 132.0
1264.003906 80.0
1270.515015 120.0
1288.640991 212.0
1297.615845 196.0
1307.737183 160.0
1323.221069 160.0
1328.40979 164.0
1350.334106 160.0
1351.753296 204.0
1360.165771 216.0
1363.413086 176.0
1373.352173 96.0
1374.178345 208.0
1382.86853 96.0
1386.905029 100.0
1393.53186 216.0
1397.070679 184.0
1397.606323 188.0
1398.715088 116.0
1401.768677 168.0
1405.302856 208.0
1411.868774 152.0
1424.220093 224.0
1427.015503 48.0
1428.873169 164.0
1438.9646 160.0
1440.01416 84.0
1444.057617 152.0
1451.137085 184.0
1453.185669 112.0
1460.067627 128.0
1462.684937 224.0
1465.685547 128.0
1478.575562 164.0
1481.048462 96.0
1482.213013 72.0
1482.83374 164.0
1484.481934 188.0
1485.172119 52.0
1495.55249 168.0
1495.96814 184.0
1500.721558 168.0
