>compound 1-(2,6-dimethylphenoxy)propan-2-amine
>formula C11H17NO 
>ionization [M+H]+
>parentmass 180.139008
#inchi InChI=1S/C11H17NO/c1-8-5-4-6-9(2)11(8)13-7-10(3)12/h4-6,10H,7,12H2,1-3H3
#inchikey VLPIATFUUWWMKC
#Ion_Source LC-ESI
#Instrument qTof
#Compound_Source Commercial
#PI Dorrestein
#Data_Collector Garg_Neha
#Scan -1
#Precursor_MZ 180.139
#ExactMass 179.131
#Charge 1
#CAS_Number N/A
#Pubmed_ID N/A
#Smiles N/A
#INCHI_AUX N/A
#Library_Class 1
#SpectrumID CCMSLIB00000077103
#IonMode Positive
#UpdateWorkflowName UPDATE-SINGLE-ANNOTATED-GOLD
#LibraryQualityString Gold
#TaskID 48f7f52fc6d249b5abbcc6e7b3df5969
##Scan# 1063
#SpectrumFile NCP003106_C2_D11_BB3_01_15706.mzXML
#LibraryName NIH_Clinical_Collection_2.mgf
#MQScore -1
#Organism NIHcollection2_04212014_2_mgf
#TIC_Query 0
#RT_Query -1
#MZErrorPPM -1
#SharedPeaks 0
#MassDiff 0
#LibMZ -1
#SpecMZ 180.139
#SpecCharge 0
#internalFilename spec-00000.mgf

>collision 10
48.938694 204.0
49.369877 172.0
49.431431 176.0
49.627533 176.0
51.79023 188.0
52.194939 180.0
53.061264 152.0
53.615501 124.0
57.430431 148.0
57.734005 156.0
58.234142 160.0
62.047661 152.0
62.969784 164.0
64.00853 148.0
64.62146 204.0
65.605957 200.0
66.825485 184.0
67.929878 204.0
68.28138 196.0
68.581039 224.0
69.542015 140.0
70.934822 188.0
71.820976 200.0
72.860367 160.0
73.358994 152.0
73.996231 144.0
75.450012 140.0
77.363708 160.0
81.130272 192.0
82.189613 148.0
84.520943 140.0
85.146057 172.0
88.92971 160.0
90.210968 180.0
91.054955 720.0
91.61718 168.0
92.271782 168.0
92.821297 168.0
93.069382 316.0
93.503273 192.0
94.566719 176.0
95.148254 184.0
95.830917 164.0
97.229065 160.0
99.128181 200.0
99.940315 184.0
100.145363 184.0
101.662804 172.0
102.045471 168.0
103.055305 3128.0
103.994087 176.0
104.057495 416.0
104.481544 160.0
105.025444 160.0
105.070221 9020.0
105.507362 148.0
106.073357 560.0
106.671768 148.0
107.048279 348.0
107.085678 784.0
107.749565 200.0
108.047279 200.0
108.610733 148.0
109.177734 140.0
110.238838 204.0
115.054871 176.0
118.580086 220.0
118.94709 224.0
119.085831 312.0
119.201195 176.0
119.984764 256.0
120.056252 500.0
120.104698 168.0
121.065414 9456.0
121.099205 140.0
122.07029 544.0
122.093414 168.0
123.081665 288.0
123.456299 160.0
124.089584 144.0
125.586189 164.0
126.632202 152.0
127.053619 152.0
127.815277 200.0
128.200348 192.0
128.51828 176.0
130.077347 312.0
133.072678 496.0
134.082687 144.0
135.080673 3664.0
135.113113 360.0
136.037186 168.0
136.083221 424.0
136.123093 352.0
138.06897 168.0
140.95639 156.0
143.085724 152.0
144.874481 160.0
145.101486 1240.0
146.298553 160.0
148.092682 204.0
156.397369 224.0
156.94545 140.0
159.961868 196.0
160.097824 176.0
160.988022 196.0
162.740295 244.0
163.112442 15656.0
163.411285 140.0
163.575089 196.0
164.115646 2200.0
164.151779 152.0
165.111877 300.0
165.294327 192.0
167.736771 156.0
178.078522 152.0
179.142334 312.0
179.699692 148.0
179.825104 228.0
180.060059 156.0
180.105057 188.0
180.139008 20412.0
180.193619 160.0
180.321884 172.0
180.343018 100.0
181.141144 2180.0
182.141235 216.0
182.192123 160.0
182.662384 120.0
219.167084 204.0
1373.31897 168.0
1390.713989 208.0
1480.188843 164.0
1486.850586 164.0
1556.04834 172.0
1570.496338 208.0
1581.906494 164.0
1597.993042 144.0
1617.513184 172.0
1666.888916 144.0
1741.272705 196.0
1747.598755 140.0
1752.894531 152.0
1776.287476 172.0
1798.847778 184.0
1801.330444 188.0
1810.922363 180.0
1818.748413 168.0
1828.582275 196.0
1831.834839 188.0
1840.388916 176.0
1844.267334 248.0
1847.465454 160.0
1850.529297 168.0
1855.592773 148.0
1879.943848 176.0
1888.185547 164.0
1927.435425 176.0
1929.647949 152.0
1932.506836 156.0
1934.073242 152.0
1935.500244 164.0
1950.563843 180.0
1952.313477 164.0
1953.24585 192.0
1969.596924 152.0
1976.519287 152.0
1982.824341 164.0
