>compound MLS001142720-01!7-[2-[(4aS,8aS)-4a-hydroxy-1,3,4,5,6,7,8,8a-octahydroisoquinolin-2-yl]-2-oxoethoxy]chromen-2-one
>formula C20H23NO5
>ionization [M+H]+
>parentmass 358.165
#inchi InChI=1S/C20H23NO5/c22-18(21-10-9-20(24)8-2-1-3-15(20)12-21)13-25-16-6-4-14-5-7-19(23)26-17(14)11-16/h4-7,11,15,24H,1-3,8-10,12-13H2/t15-,20-/m0/s1
#inchikey GWOYTLYMCAAZGT
#Ion_Source LC-ESI
#Instrument qTof
#Compound_Source NIH Natural Product Library
#PI Dorrestein
#Data_Collector VVP/LMS
#Scan -1
#Precursor_MZ 358.165
#ExactMass 357.158
#Charge 1
#CAS_Number N/A
#Pubmed_ID N/A
#Smiles O[C@@]12CCCC[C@H]2CN(CC1)C(=O)COc3ccc4ccc(=O)oc4c3
#INCHI_AUX N/A
#Library_Class 1
#SpectrumID CCMSLIB00000080219
#IonMode Positive
#UpdateWorkflowName UPDATE-SINGLE-ANNOTATED-GOLD
#LibraryQualityString Gold
#TaskID b1d8e8f6646f4e71acdff9ca3d919d08
##Scan# 1724
#SpectrumFile p2-F05_GF5_01_18041.mzXML
#LibraryName NIH_Natural_Products_Library.mgf
#MQScore -1
#Organism NIH_Natural_Products_Library
#TIC_Query 0
#RT_Query -1
#MZErrorPPM -1
#SharedPeaks 0
#MassDiff 0
#LibMZ -1
#SpecMZ 358.165
#SpecCharge 0
#internalFilename spec-00000.mgf

>collision 10
95.021019 236.0
95.084007 532.0
95.341415 180.0
95.586441 140.0
96.026726 132.0
96.054031 200.0
96.080521 132.0
96.468018 68.0
96.561874 152.0
96.671432 188.0
97.057335 40.0
97.089874 256.0
97.345787 204.0
98.450562 192.0
98.490067 212.0
98.576996 172.0
99.472229 144.0
100.27581 164.0
100.47921 108.0
100.638878 156.0
100.934608 192.0
100.972603 128.0
101.07663 188.0
101.375 148.0
101.40506 132.0
101.93689 152.0
102.077606 152.0
102.29892 176.0
102.413704 184.0
102.599091 132.0
102.772545 136.0
102.90374 132.0
103.053406 1240.0
103.295799 120.0
103.459717 76.0
103.475914 152.0
103.76564 160.0
103.81633 36.0
103.925873 156.0
103.980659 144.0
104.054344 404.0
104.260933 184.0
104.299545 220.0
104.370705 76.0
104.42968 152.0
104.504951 156.0
104.840935 112.0
105.070244 408.0
105.179512 44.0
105.424599 104.0
105.530891 176.0
105.815292 168.0
106.073418 220.0
106.163628 96.0
106.294922 260.0
106.557739 152.0
107.053314 216.0
107.081253 524.0
107.133797 44.0
107.267738 196.0
107.453705 96.0
107.787552 200.0
107.96769 92.0
108.08075 4760.0
108.149757 44.0
108.259491 124.0
108.350632 196.0
108.387924 236.0
108.410721 184.0
108.825073 196.0
108.952278 52.0
109.0541 68.0
109.088425 1100.0
109.399399 64.0
109.478523 48.0
109.499344 100.0
109.541008 64.0
109.638931 84.0
109.759842 164.0
109.866211 60.0
109.891251 44.0
110.051964 84.0
110.096741 788.0
110.168922 120.0
110.350746 88.0
110.622719 100.0
110.687622 144.0
111.671883 160.0
112.024986 192.0
112.447235 120.0
112.753471 212.0
113.087646 364.0
113.248558 148.0
113.307877 152.0
113.553772 60.0
113.585587 180.0
113.602554 80.0
113.933731 244.0
114.067612 180.0
114.693436 176.0
114.795769 192.0
115.42572 172.0
115.892349 256.0
115.969498 84.0
116.295517 176.0
116.389977 160.0
116.439369 184.0
116.510254 192.0
116.880066 112.0
117.032631 1940.0
117.184761 204.0
117.595543 236.0
117.709969 64.0
118.035515 396.0
118.070862 160.0
118.757431 88.0
118.957062 48.0
118.993973 208.0
119.048615 2072.0
119.08461 848.0
119.135139 40.0
119.580902 188.0
119.879265 56.0
120.046967 176.0
120.093147 976.0
120.114784 176.0
120.212914 96.0
120.800652 264.0
120.877228 60.0
120.914429 128.0
121.027672 368.0
121.100082 3528.0
121.411751 144.0
121.477554 124.0
121.598236 48.0
121.959709 152.0
122.055023 116.0
122.09671 2036.0
122.253159 36.0
122.612129 124.0
122.779686 124.0
122.980461 164.0
123.00032 52.0
123.020187 116.0
123.102982 744.0
123.154892 152.0
123.453255 172.0
123.555 72.0
124.072433 132.0
124.108803 188.0
124.159714 164.0
124.570343 96.0
124.772575 92.0
124.941597 204.0
125.085236 140.0
125.130768 128.0
125.538536 148.0
125.594292 168.0
125.9291 216.0
126.007278 188.0
126.092194 200.0
126.226326 124.0
126.584366 192.0
127.339409 148.0
128.014832 148.0
128.053116 204.0
129.027939 140.0
129.265442 248.0
129.641357 164.0
129.745621 124.0
130.040512 136.0
130.55397 176.0
131.389908 176.0
132.102676 148.0
132.196487 204.0
132.258286 200.0
132.375046 104.0
133.027512 160.0
133.474213 36.0
133.745682 204.0
133.966751 208.0
134.100845 188.0
134.647202 224.0
134.940674 148.0
135.041306 212.0
135.098846 192.0
135.360535 176.0
135.423889 152.0
135.547104 124.0
135.697769 120.0
135.751099 172.0
135.855469 172.0
135.983093 160.0
136.075302 408.0
136.112213 6904.0
136.161865 108.0
136.224579 80.0
136.264084 44.0
136.310547 64.0
136.33844 120.0
136.384918 28.0
136.589539 48.0
136.626755 236.0
136.824585 124.0
136.850189 84.0
136.889771 172.0
136.945663 168.0
137.081116 296.0
137.11937 6504.0
137.150711 64.0
137.400238 164.0
137.44223 72.0
137.481903 228.0
137.579941 48.0
137.647644 52.0
137.748077 176.0
137.984116 48.0
138.042557 140.0
138.126923 6420.0
138.16185 148.0
138.304596 96.0
138.412292 92.0
138.585617 56.0
138.641861 96.0
138.752029 36.0
138.906815 64.0
139.035858 148.0
139.07106 192.0
139.132187 724.0
139.167313 64.0
139.183746 84.0
139.20253 60.0
139.247147 60.0
139.289429 96.0
139.390457 132.0
139.425705 84.0
139.451569 88.0
139.522079 184.0
139.837296 180.0
139.912613 84.0
140.284836 104.0
140.936234 128.0
141.873474 108.0
142.022858 164.0
142.312393 88.0
142.947052 180.0
143.466278 160.0
144.000793 132.0
144.96492 144.0
144.988892 144.0
145.028107 4644.0
145.151901 48.0
145.184158 72.0
145.214249 96.0
145.329407 52.0
145.446991 36.0
145.485397 72.0
145.550232 92.0
146.029999 524.0
146.086197 64.0
146.442444 84.0
146.50267 88.0
146.967987 120.0
147.042938 4020.0
147.15625 64.0
148.004929 160.0
148.047501 400.0
148.111603 172.0
148.358658 160.0
148.384369 120.0
149.009079 128.0
149.04567 140.0
149.079544 140.0
149.101425 188.0
149.339691 164.0
149.398071 244.0
149.977615 44.0
149.997116 120.0
150.048309 56.0
150.092712 604.0
150.127594 5532.0
150.187317 64.0
150.292221 60.0
150.428894 52.0
150.61203 112.0
150.797729 44.0
151.067703 196.0
151.096603 172.0
151.133514 1500.0
151.206177 96.0
151.335907 52.0
151.69043 152.0
151.752441 152.0
152.105713 148.0
152.128143 344.0
152.265305 84.0
152.329178 72.0
152.378311 64.0
152.764282 68.0
153.883163 60.0
153.943069 56.0
154.121246 328.0
154.424347 92.0
154.627228 148.0
157.087143 276.0
158.26178 136.0
159.048965 120.0
160.37706 104.0
160.609039 144.0
161.017929 132.0
161.996811 104.0
162.032272 168.0
162.126022 132.0
162.308548 208.0
162.816086 208.0
163.039383 580.0
163.994064 196.0
164.043655 352.0
164.106552 1028.0
164.772369 152.0
165.11171 196.0
165.793335 184.0
165.952271 212.0
166.049713 76.0
166.267792 164.0
167.22644 60.0
167.270203 88.0
167.427261 88.0
167.929825 104.0
168.143982 96.0
170.513763 104.0
170.906433 100.0
173.033386 904.0
174.031372 168.0
174.310989 104.0
174.931702 220.0
175.038589 7272.0
175.123917 72.0
175.142365 76.0
175.34787 76.0
175.495499 36.0
176.042465 520.0
176.139435 36.0
176.515564 44.0
176.697235 76.0
177.04451 164.0
177.26387 68.0
177.380478 116.0
177.62709 44.0
177.796906 96.0
177.879181 96.0
178.022552 116.0
178.12175 1452.0
178.359985 40.0
178.593964 92.0
178.862717 132.0
179.083725 172.0
179.130447 6956.0
179.171631 96.0
179.192047 96.0
179.283539 40.0
179.435471 84.0
179.563477 88.0
179.678177 108.0
179.784912 188.0
180.135315 712.0
180.252228 64.0
180.332413 144.0
180.452698 64.0
181.017288 84.0
181.135437 172.0
181.36557 88.0
181.537155 116.0
181.582748 144.0
181.816162 48.0
183.122803 136.0
184.182816 92.0
184.231445 56.0
184.37735 68.0
187.040833 184.0
188.188568 112.0
190.055283 112.0
193.038513 168.0
194.198929 128.0
196.070053 92.0
202.054031 104.0
203.034866 736.0
203.613068 52.0
203.860229 148.0
204.035599 144.0
204.065552 208.0
204.383453 68.0
205.183792 192.0
208.975876 196.0
218.082825 188.0
218.178513 88.0
219.727631 56.0
220.060272 272.0
220.202896 56.0
220.832428 136.0
221.072067 164.0
221.353302 144.0
222.073456 152.0
223.193039 44.0
227.975952 132.0
228.836243 44.0
229.077179 96.0
231.478302 60.0
232.058334 196.0
233.058655 136.0
234.056351 140.0
235.071426 144.0
237.785965 152.0
243.106598 132.0
244.060242 68.0
246.073029 128.0
253.889587 100.0
253.97522 132.0
260.239807 180.0
265.065308 96.0
265.486725 160.0
270.317841 36.0
271.930237 132.0
282.313629 44.0
283.153625 140.0
284.656036 92.0
296.095306 156.0
311.131561 192.0
311.21582 96.0
312.045013 92.0
312.15979 1456.0
312.692261 116.0
313.162018 464.0
313.368378 64.0
314.151459 236.0
314.934692 160.0
315.242035 124.0
315.521271 96.0
322.152802 60.0
322.477966 120.0
330.870361 92.0
335.261841 132.0
336.199097 36.0
339.099274 92.0
339.205566 184.0
339.72998 140.0
340.030853 148.0
340.152618 2400.0
340.295166 48.0
340.390625 40.0
340.570587 40.0
340.963715 52.0
341.156708 356.0
341.224701 48.0
341.445343 56.0
342.100281 48.0
342.144806 132.0
342.188629 52.0
342.748505 108.0
343.16333 172.0
343.7146 88.0
346.139465 36.0
347.507202 80.0
355.214874 128.0
382.024506 152.0
440.585052 68.0
489.070709 84.0
500.412506 84.0
521.566223 44.0
561.856323 36.0
622.13208 56.0
637.687012 52.0
702.44989 160.0
740.093323 80.0
742.385803 64.0
754.123291 180.0
774.780823 144.0
795.144897 160.0
809.730225 176.0
829.456177 216.0
842.958191 212.0
862.445129 200.0
871.710815 140.0
872.004639 104.0
876.323914 156.0
883.798889 88.0
886.510864 48.0
903.276978 168.0
920.991211 268.0
927.968628 120.0
928.550781 180.0
933.408997 140.0
951.893738 244.0
970.355103 160.0
971.719543 160.0
973.867432 40.0
980.082153 160.0
982.232971 56.0
996.330505 244.0
1004.47644 232.0
1009.263489 148.0
1014.67688 120.0
1025.52063 148.0
1031.003784 204.0
1040.901123 152.0
1044.429321 148.0
1056.983765 216.0
1062.516968 184.0
1063.360596 116.0
1068.13623 188.0
1069.75647 164.0
1075.903931 120.0
1082.586304 144.0
1089.111938 128.0
1094.97876 196.0
1102.030396 124.0
1105.733521 112.0
1110.57019 48.0
1112.6073 176.0
1114.393799 40.0
1115.031738 184.0
1119.429077 220.0
1128.583984 192.0
1133.430054 132.0
1134.060059 168.0
1147.221436 104.0
1154.567627 124.0
1155.183105 200.0
1156.279175 140.0
1161.326782 188.0
1161.977905 132.0
1164.985352 72.0
1165.311523 104.0
1169.180542 148.0
1172.653931 112.0
1173.976562 148.0
1177.16333 172.0
1179.31543 160.0
1181.072632 164.0
1183.10498 192.0
1184.871826 208.0
1188.389038 152.0
1189.521362 144.0
1192.014404 168.0
1193.210327 164.0
1194.606445 172.0
1198.199951 144.0
1198.765015 84.0
1203.807617 192.0
1204.78833 144.0
1208.058228 132.0
1209.379883 148.0
1209.802124 160.0
1210.120605 124.0
1218.811401 156.0
1219.005981 120.0
1225.065918 212.0
1227.18457 144.0
1233.803223 156.0
1235.082886 112.0
1242.915161 148.0
1245.105347 92.0
1246.320679 128.0
1247.171021 180.0
1251.476318 160.0
1253.455566 176.0
1256.318115 136.0
1256.452148 124.0
1263.432007 48.0
1265.873901 68.0
1266.50415 144.0
1274.115601 252.0
1275.124634 220.0
1275.835449 120.0
1278.958252 164.0
1281.628784 124.0
1285.044067 104.0
1290.157593 164.0
1293.283569 112.0
1295.231079 156.0
1295.446045 156.0
1296.83606 180.0
1301.226196 148.0
1301.929932 208.0
1303.129517 188.0
1303.524658 136.0
1306.623535 216.0
1308.897949 136.0
1309.646973 72.0
1309.899048 184.0
1312.370972 188.0
1314.282349 40.0
1315.451538 80.0
1316.069336 48.0
1317.422974 168.0
1320.111572 64.0
1322.404907 172.0
1324.294678 128.0
1324.396118 188.0
1326.004517 232.0
1330.487305 64.0
1333.45813 108.0
1336.090332 188.0
1337.218262 184.0
1338.193726 80.0
1339.322388 156.0
1340.094604 148.0
1340.626587 136.0
1341.851074 132.0
1342.579102 172.0
1344.01001 216.0
1345.95166 152.0
1347.733887 116.0
1349.7146 168.0
1351.148193 228.0
1351.601807 140.0
1353.05835 136.0
1357.38855 104.0
1359.082886 188.0
1362.974487 136.0
1364.084229 140.0
1365.238525 160.0
1366.864258 200.0
1368.174316 140.0
1370.089111 188.0
1373.273438 136.0
1374.535034 156.0
1378.101318 144.0
1381.494751 184.0
1383.026489 132.0
1384.085083 232.0
1385.655273 100.0
1388.4646 36.0
1391.106812 164.0
1394.931641 200.0
1399.075195 176.0
1402.099243 204.0
1406.268311 232.0
1408.052734 176.0
1409.516846 124.0
1410.518311 164.0
1413.539795 252.0
1415.628296 180.0
1421.587891 160.0
1422.405884 84.0
1424.981689 208.0
1425.327393 260.0
1427.078613 136.0
1428.169067 200.0
1429.485596 152.0
1429.756592 68.0
1430.298462 132.0
1432.180908 200.0
1432.88147 128.0
1434.034302 176.0
1434.614746 188.0
1434.991699 176.0
1435.625122 216.0
1437.397827 156.0
1439.111206 204.0
1439.608887 216.0
1440.787842 164.0
1441.112671 156.0
1441.407349 156.0
1442.858521 240.0
1443.644897 136.0
1444.212158 124.0
1445.165283 132.0
1445.997681 220.0
1446.466919 196.0
1447.45874 188.0
1447.889404 148.0
1448.307007 212.0
1451.664307 204.0
1452.5896 96.0
1453.431763 132.0
1453.682129 188.0
1454.425903 140.0
1456.11145 160.0
1456.286133 40.0
1456.544312 192.0
1457.934692 152.0
1464.2948 192.0
1465.42981 88.0
1466.130859 204.0
1468.128174 240.0
1469.836914 140.0
1471.065674 220.0
1471.859741 144.0
1472.753174 176.0
1473.555298 152.0
1476.177002 108.0
1477.561401 224.0
1484.270752 112.0
1485.034912 188.0
1485.88501 192.0
1488.644653 188.0
1490.419067 188.0
1490.787964 84.0
1498.004761 216.0
1500.663574 148.0
1500.979736 180.0
