>compound Pemetrexed
>formula C20H21N5O6 
>ionization [M+H]+
>parentmass 428.157623
#inchi InChI=1S/C20H21N5O6/c21-20-24-16-15(18(29)25-20)12(9-22-16)6-3-10-1-4-11(5-2-10)17(28)23-13(19(30)31)7-8-14(26)27/h1-2,4-5,9,13H,3,6-8H2,(H,23,28)(H,26,27)(H,30,31)(H4,21,22,24,25,29)/t13-/m0/s1
#inchikey WBXPDJSOTKVWSJ
#Ion_Source LC-ESI
#Instrument qTof
#Compound_Source Isolated
#PI Sirenas
#Data_Collector Ed Esquenazi 
#Scan -1
#Precursor_MZ 428.157
#ExactMass 0.0
#Charge 1
#CAS_Number N/A
#Pubmed_ID N/A
#Smiles N/A
#INCHI_AUX N/A
#Library_Class 3
#SpectrumID CCMSLIB00000006598
#IonMode Positive
#UpdateWorkflowName UPDATE-SINGLE-ANNOTATED-BRONZE
#LibraryQualityString Bronze
#TaskID d19310cd93df49b68e9fcbec27720eb5
##Scan# 1
#SpectrumFile Pemetrexed.mgf
#LibraryName fda_library.mgf
#MQScore -1
#Organism fda_library
#TIC_Query 0
#RT_Query -1
#MZErrorPPM -1
#SharedPeaks 0
#MassDiff 0
#LibMZ -1
#SpecMZ 428.157
#SpecCharge 0
#internalFilename spec-00000.mgf

>collision 10
102.053391 63.772228
118.041077 12.30044
118.784775 8.003788
119.04866 721.465576
119.092163 10.7002
119.114876 7.682539
119.145248 8.745155
119.293556 36.675671
119.304893 9.375
119.404083 8.948333
119.418793 7.363636
119.472275 17.01852
120.083572 10.08088
121.037979 332.569885
122.59507 11.00915
129.30632 15.73563
129.582993 6.673077
130.049454 589.298706
130.259079 4.791667
130.404053 9.240384
130.642761 19.617519
131.249481 15.62888
143.727295 15.86012
146.034378 321.854187
146.172897 6.916667
146.193512 15.7787
146.270447 9.595239
161.489883 7.757883
162.049225 7.893518
162.127075 7.002451
162.175629 16.0375
162.230728 49.777771
162.243362 10.88889
162.297928 11.25926
162.378967 8.639493
162.410797 12.40741
162.439072 11.76961
162.543671 17.217739
162.69017 8.4375
162.986343 23.06953
163.036682 33.371208
163.06105 7712.926758
163.116577 45.77771
163.132858 9.592742
163.148071 22.408331
163.169754 9.364899
163.181152 17.419769
163.200928 16.00119
163.216278 18.42235
163.22905 49.986542
163.250214 8.736842
163.275925 7.668478
163.314148 25.316669
163.326584 26.49342
163.338669 20.004629
163.360901 13.66745
163.378616 18.75758
163.405365 9.004902
163.422729 18.91667
163.459946 30.47167
163.472015 15.68182
163.494293 18.349871
163.525558 19.70833
163.59668 8.962963
163.681198 11.66735
163.697815 12.88889
163.753693 11.94707
163.767517 5.884804
163.903824 8.833333
164.261032 22.63456
164.429794 6.458333
164.6931 7.044117
165.864883 3.333333
167.054749 9.858334
167.837036 8.028846
209.08165 11.37191
211.085312 6.533333
218.34433 17.82716
247.492142 8.146739
252.804214 22.1201
253.103775 91.372253
253.278061 13.86613
253.722321 17.297621
255.102783 9.055181
255.123642 26.92803
256.059387 14.20455
272.429077 6.344048
276.728973 13.05235
276.787354 9.561992
277.864929 6.348333
278.706451 27.33511
278.764526 12.64198
279.213135 23.877911
279.235199 5.121212
279.28241 44.650421
279.312347 73.070892
279.336609 88.91423
279.383392 145.258804
279.425751 135.8479
279.460785 118.251602
279.501343 59.886318
279.539246 63.720371
279.574524 97.370392
279.60965 66.674583
279.630249 17.297621
279.646027 161.245102
279.669464 24.573339
279.68924 97.634628
279.707397 22.35985
279.735291 23.161739
279.761017 107.616997
279.777771 42.074711
279.799683 36.898819
279.852234 18.375
279.899506 7.083333
279.941986 39.69006
279.979797 6.724359
280.06131 9.333333
280.161194 65.003326
280.228485 63.375271
280.257263 44.033691
280.323334 7.442204
280.404938 8.361112
280.437042 74.835739
280.533813 29.06797
280.562195 11.53846
280.804352 19.41972
280.836151 7.0625
280.853943 19.739031
280.896027 27.24424
280.947571 23.340151
280.983643 21.463539
281.05722 333.566193
281.103943 97524.226562
281.416168 24.24242
281.465576 24.334591
281.511414 42.61364
281.588593 206.602295
281.652496 60.377689
281.682312 185.908401
281.715515 199.815994
281.735107 107.586304
281.774139 115.696404
281.802704 78.143356
281.829987 31.130199
281.85199 145.169205
281.881134 175.679306
281.919189 45.853062
281.940552 129.468994
281.959564 35.93119
281.97937 25.217819
282.013092 107.161598
282.038696 15.42616
282.306 85.196877
282.531769 29.5249
282.575226 21.54026
282.700073 34.999809
282.75708 57.919109
282.827698 35.23299
282.960876 41.510891
283.063049 23.039471
283.127991 6.906746
283.151031 27.198971
283.365784 15.52997
283.401337 8.34543
283.442932 15.02778
283.535034 21.816669
283.592407 11.78578
283.685852 17.65988
283.848999 9.045151
283.911102 10.00093
283.93689 44.924648
284.016418 7.146739
284.28183 21.524771
284.403748 9.340278
284.456146 18.383129
284.585602 10.08333
284.654968 8.844298
284.843903 23.66844
284.920227 9.491228
285.061157 3.013889
285.189423 7.708333
285.407837 13.375
285.549561 18.127451
285.657654 6.0
286.342804 7.408333
287.309326 10.76179
287.386139 16.08003
288.035797 24.58507
288.053009 8.002778
288.182709 13.73555
288.219177 5.703947
290.022339 9.684211
295.528534 9.296296
295.557861 11.125
297.229553 14.61364
297.275238 25.105141
297.301331 19.80682
297.331329 6.675
297.355316 7.351852
297.403595 22.04167
297.459137 70.704247
297.545715 8.669118
297.612518 28.225
297.631348 12.66667
297.685364 6.66821
297.823029 6.306159
297.877472 12.66748
297.945282 11.15
298.022095 14.12255
298.051697 16.82036
298.075745 7.880051
298.235535 9.787037
298.285889 15.97711
299.044281 120.856598
299.113831 14380.799805
299.19278 123.183502
299.217926 15.33877
299.241669 46.355389
299.268982 17.235189
299.296021 53.109959
299.349945 50.379829
299.368652 64.917297
299.399933 31.368059
299.424561 49.271271
299.474518 66.579979
299.494873 26.010969
299.51181 26.10943
299.530914 19.0
299.574524 72.122528
299.621307 56.35738
299.637726 16.468969
299.654297 28.76376
299.705231 18.128031
299.723419 16.07181
299.747742 54.26405
299.814819 13.73986
299.832031 12.34205
299.878601 58.1926
299.952576 40.207802
299.990326 40.50396
300.770996 11.10714
300.838806 7.335784
301.086884 55.479179
301.333954 23.67424
301.40094 27.601669
301.490906 8.560185
302.43399 7.520833
302.620636 28.398371
302.742645 6.482143
311.231018 3.080128
312.004517 9.266666
326.628143 81.361107
338.689087 9.765873
343.392303 13.65333
347.803467 24.471741
366.165833 23.98147
375.72049 12.01071
379.860168 17.037359
380.205017 18.49781
382.154541 319.655914
382.264191 2.761364
382.405884 11.11484
407.311249 4.15
407.590668 11.75788
407.65274 13.79167
407.710022 11.67677
407.734192 11.13038
408.219452 15.79167
408.476013 6.444445
409.378479 7.335145
409.538818 7.721491
409.751862 9.370614
410.087769 15.08845
410.146576 4318.097168
410.23764 29.48889
410.270599 75.010513
410.320282 12.68981
410.347778 29.16293
410.383698 7.335
410.427155 10.38095
410.473724 22.37833
410.514252 46.7635
410.541382 47.141041
410.588898 20.647221
410.638214 40.12553
410.677185 12.66667
410.89267 30.00185
410.925598 37.73494
411.211365 7.03592
411.744995 7.728535
411.82843 7.231482
412.203979 6.710784
413.682098 31.377689
415.962372 13.01667
419.804199 10.72177
421.208069 6.639493
421.937225 6.00119
423.582428 9.675813
423.909851 2.893518
423.983459 7.338889
424.284393 6.728535
424.424316 17.551279
424.993805 25.71748
425.202789 25.029169
425.266022 65.527718
425.324799 48.413582
425.368835 61.16016
425.396179 79.570709
425.432953 197.346207
425.479248 250.0867
425.53418 222.546097
425.562195 98.247917
425.594727 113.994598
425.622162 137.475601
425.657867 137.876801
425.693268 172.347305
425.734192 280.024292
425.808411 59.523102
425.846283 199.527893
425.887787 84.572166
425.956543 11.39706
426.007935 35.669628
426.106537 131.323303
426.285156 120.294701
426.371185 103.375198
426.440491 116.981598
426.51944 49.372169
426.912903 33.930309
426.983246 14.47348
427.020721 84.742233
427.087708 313.104492
427.134369 22.67244
427.16275 8.714148
427.743652 15.4126
427.803497 10.46296
427.9776 21.11022
427.998993 139.509506
428.054047 114.793404
428.157623 150709.09375
428.635345 60.84124
428.67804 14.62758
428.72049 60.992191
428.781708 349.137085
428.852661 191.780396
428.886169 52.785141
428.920959 68.997009
428.947968 191.483505
428.975037 109.896698
429.032928 196.441101
429.076019 159.026794
429.101074 24.17635
429.240509 136.920502
429.305542 234.489304
429.330688 43.707378
429.408417 178.687805
429.4534 99.27903
429.507233 53.17308
429.53653 157.418198
429.574921 77.539337
429.602478 87.778397
429.655365 143.216293
429.698212 89.672363
429.884186 93.223267
430.05481 124.490097
430.175812 29.08754
430.280487 58.251579
430.349457 96.900452
430.435822 128.553299
430.499542 31.07576
430.600525 71.970833
430.628326 56.857471
430.707092 31.200199
430.754913 35.755051
430.99588 51.431301
431.152405 35.94138
431.223267 85.958687
431.400848 52.487598
431.859558 22.676041
432.066284 7.097222
432.146667 61.74324
432.188965 6.001437
432.662659 9.008333
432.782684 7.314103
432.944214 10.64651
433.100952 22.016029
433.267273 8.765873
433.346436 6.033602
433.868988 10.16329
434.130676 33.56477
434.331696 10.49359
434.375885 37.832069
434.665955 8.361486
434.75296 11.34543
434.85437 18.450399
435.0289 8.333333
435.086029 6.680555
435.566467 20.146799
435.936768 14.85535
436.16864 16.6688
436.248566 10.0049
437.055481 17.377159
440.684906 9.33435
442.271088 9.001068
443.060425 3.555556
444.023987 19.43008
444.668304 11.11574
445.239685 11.93895
446.306702 12.78947
447.55484 19.019609
449.35202 17.334061
451.91452 7.160257
460.981934 4.080128
465.519775 6.564103
471.432648 5.787037
525.321716 7.721154
546.739197 7.5
582.660767 7.291667
718.929382 33.450001
725.191284 8.840517
864.180298 3.402778
1042.574829 10.74383
1526.748901 10.08333
1573.43457 68.832603
