>compound Cleviprex (Clevidipine)
>formula C21H23Cl2NO6
>ionization [M+H]+
>parentmass 456.098
#inchi InChI=1S/C21H23Cl2NO6/c1-5-7-15(25)29-10-30-21(27)17-12(3)24-11(2)16(20(26)28-4)18(17)13-8-6-9-14(22)19(13)23/h6,8-9,18,24H,5,7,10H2,1-4H3
#inchikey KPBZROQVTHLCDU
#Ion_Source LC-ESI
#Instrument qTof
#Compound_Source Commercial
#PI Dorrestein
#Data_Collector Garg_Neha
#Scan -1
#Precursor_MZ 456.098
#ExactMass 455.09
#Charge 1
#CAS_Number 167221-71-8
#Pubmed_ID N/A
#Smiles CCCC(OCOC(C1=C(NC(=C(C1C2=CC=CC(=C2Cl)Cl)C(OC)=O)C)C)=O)=O
#INCHI_AUX N/A
#Library_Class 1
#SpectrumID CCMSLIB00000078425
#IonMode Positive
#UpdateWorkflowName UPDATE-SINGLE-ANNOTATED-GOLD
#LibraryQualityString Gold
#TaskID 77f51c88eb8b467eb4a01dd2d0cb90d2
##Scan# 2578
#SpectrumFile Plate6_61_80_GD10_01_15777.mzXML
#LibraryName FDALibrary_2_04302014.mgf
#MQScore -1
#Organism FDALibrary_2_04302014
#TIC_Query 0
#RT_Query -1
#MZErrorPPM -1
#SharedPeaks 0
#MassDiff 0
#LibMZ -1
#SpecMZ 456.098
#SpecCharge 0
#internalFilename spec-00000.mgf

>collision 10
51.384956 232.0
54.590923 192.0
62.526379 156.0
63.796581 164.0
65.315811 148.0
65.607292 188.0
75.39994 200.0
75.505402 144.0
80.935226 144.0
85.442413 160.0
89.473907 236.0
90.353401 216.0
93.221283 188.0
93.81797 168.0
100.870682 164.0
101.856598 180.0
104.570198 144.0
104.777908 148.0
108.398506 164.0
110.863861 204.0
111.665863 200.0
122.440826 208.0
124.739822 176.0
125.782349 156.0
135.242249 152.0
136.316071 180.0
140.063248 136.0
142.026245 164.0
145.419281 160.0
146.549561 176.0
147.916504 144.0
148.536865 152.0
150.05928 164.0
153.57106 180.0
157.310638 208.0
161.274612 148.0
162.064194 152.0
164.064453 168.0
166.085541 312.0
169.45932 140.0
172.962128 208.0
173.956741 168.0
174.949127 144.0
177.027359 152.0
179.069702 172.0
180.082031 168.0
181.080902 172.0
185.012421 172.0
186.969528 140.0
192.061859 156.0
200.50354 164.0
202.02446 196.0
204.024887 184.0
207.066971 168.0
208.783051 160.0
208.986221 136.0
209.715897 144.0
209.940781 156.0
210.075623 408.0
210.982193 288.0
211.085144 176.0
214.251053 148.0
215.047745 304.0
216.053253 264.0
217.162598 160.0
222.973343 388.0
223.833038 144.0
224.07132 152.0
224.276947 140.0
224.96843 144.0
228.021362 168.0
228.04541 176.0
230.646698 188.0
232.281891 160.0
232.470001 140.0
234.047684 192.0
236.070862 164.0
236.98407 392.0
238.050552 196.0
238.094864 148.0
238.979492 176.0
239.999054 724.0
241.99559 176.0
242.036377 604.0
242.753616 164.0
243.043777 904.0
244.043716 432.0
245.039948 432.0
246.279556 152.0
246.992569 180.0
250.014954 424.0
251.023087 224.0
252.011093 280.0
252.070221 168.0
252.259857 144.0
252.962143 340.0
253.014725 184.0
254.391861 200.0
255.00174 144.0
255.027176 224.0
258.068268 148.0
259.035034 196.0
260.053162 300.0
260.497833 148.0
261.034607 148.0
261.08606 212.0
262.017548 276.0
263.022827 272.0
263.999939 376.0
265.000336 292.0
265.991516 116.0
266.094757 144.0
267.990997 192.0
268.096466 848.0
269.108856 144.0
269.982635 172.0
270.029388 1100.0
270.401001 164.0
270.987183 172.0
271.032593 328.0
272.029022 448.0
272.42746 148.0
272.759369 172.0
274.004364 208.0
275.032257 176.0
275.596985 164.0
277.001648 152.0
278.012054 2360.0
278.100647 160.0
279.014862 884.0
280.009735 1120.0
280.122375 160.0
281.014252 400.0
282.007294 280.0
283.018005 144.0
283.336212 148.0
285.463318 168.0
287.026764 152.0
288.039032 132.0
288.979126 284.0
290.965271 164.0
291.311676 152.0
291.529114 140.0
294.035706 172.0
295.063904 160.0
296.052826 160.0
296.985046 148.0
299.074188 176.0
299.387512 152.0
301.050079 192.0
302.056549 5324.0
303.000641 216.0
303.06015 1260.0
303.992493 188.0
304.05307 1772.0
304.32785 152.0
305.061737 168.0
305.100372 152.0
306.007751 3616.0
306.064148 156.0
307.011963 976.0
307.720367 140.0
308.0047 2936.0
308.296753 160.0
309.008575 848.0
309.150055 144.0
309.996246 340.0
310.037537 204.0
310.123566 732.0
310.998932 244.0
312.042847 152.0
313.015106 236.0
313.582306 220.0
318.152618 264.0
320.067108 296.0
320.254242 156.0
324.014832 352.0
325.015198 184.0
326.007324 268.0
326.57901 160.0
327.446442 148.0
328.026581 144.0
331.195648 152.0
334.125244 260.0
336.019897 736.0
336.158447 168.0
336.592834 200.0
337.022369 176.0
337.857483 208.0
337.893127 172.0
337.92984 196.0
337.968628 296.0
338.03421 54912.0
338.126221 272.0
338.781281 104.0
338.876404 112.0
339.038147 9252.0
339.385803 160.0
339.452545 176.0
339.537048 96.0
339.789459 96.0
339.886017 148.0
339.946045 236.0
339.977844 120.0
340.031372 34492.0
340.296844 112.0
340.445557 168.0
340.652069 108.0
340.73645 124.0
340.892853 108.0
341.03421 4680.0
341.098175 248.0
341.220642 176.0
341.32431 220.0
341.490326 140.0
341.555298 176.0
341.619598 100.0
342.028625 1308.0
342.158813 148.0
342.486694 108.0
343.383484 176.0
343.480774 100.0
348.208557 160.0
354.027557 1092.0
355.031158 124.0
356.028839 888.0
357.028687 216.0
358.031982 296.0
359.036224 144.0
424.076202 280.0
425.079865 164.0
426.07019 292.0
427.072052 144.0
433.236023 176.0
445.871246 140.0
454.084503 128.0
454.787476 144.0
455.074249 152.0
456.074097 248.0
457.092651 132.0
458.092072 296.0
582.082764 140.0
