>compound MLS000101228-01!Kinetin525-79-1
>formula C10H9N5O
>ionization [M+H]+
>parentmass 216.088959
#inchi InChI=1S/C10H9N5O/c1-2-7(16-3-1)4-11-9-8-10(13-5-12-8)15-6-14-9/h1-3,5-6H,4H2,(H2,11,12,13,14,15)
#inchikey QANMHLXAZMSUEX
#Ion_Source LC-ESI
#Instrument qTof
#Compound_Source NIH Pharmacologically Active Library
#PI Dorrestein
#Data_Collector VP/LMS
#Scan -1
#Precursor_MZ 216.09
#ExactMass 215.081
#Charge 1
#CAS_Number N/A
#Pubmed_ID N/A
#Smiles C(Nc1[nH]cnc2ncnc12)c3ccco3
#INCHI_AUX N/A
#Library_Class 1
#SpectrumID CCMSLIB00000084774
#IonMode Positive
#UpdateWorkflowName UPDATE-SINGLE-ANNOTATED-GOLD
#LibraryQualityString Gold
#TaskID d252d724072548979f1f6f1ced849daf
##Scan# 1212
#SpectrumFile p3-A07-2_GA7_01_18221.mzXML
#LibraryName Pharm_Active_Library.mgf
#MQScore -1
#Organism Pharm_Active_Library
#TIC_Query 0
#RT_Query -1
#MZErrorPPM -1
#SharedPeaks 0
#MassDiff 0
#LibMZ -1
#SpecMZ 216.09
#SpecCharge 0
#internalFilename spec-00000.mgf

>collision 10
97.376015 112.0
97.735764 280.0
103.567757 180.0
105.054237 240.0
106.039261 232.0
106.644737 80.0
107.041786 172.0
108.718307 176.0
109.050598 140.0
109.391731 212.0
115.041733 200.0
115.150635 140.0
115.541809 44.0
117.053635 260.0
117.466644 172.0
118.608376 176.0
119.035004 1596.0
119.47699 76.0
119.892876 128.0
120.037308 300.0
120.983383 168.0
121.052124 232.0
122.0271 180.0
128.118866 136.0
128.703003 128.0
129.046448 388.0
132.04129 152.0
132.059113 180.0
133.106918 192.0
133.842728 144.0
134.052338 176.0
134.839294 156.0
135.069611 416.0
135.436218 60.0
136.061066 836.0
136.296921 40.0
136.508438 76.0
136.64801 144.0
136.741089 120.0
137.043808 252.0
137.067108 188.0
137.598907 44.0
138.176163 120.0
138.965729 172.0
144.977081 188.0
145.057419 176.0
145.303177 56.0
146.064697 184.0
147.062241 124.0
147.542938 160.0
148.062744 3712.0
148.177017 60.0
148.273941 44.0
149.065033 292.0
149.858307 64.0
150.243515 136.0
156.056076 184.0
160.069717 196.0
161.081116 360.0
162.039764 180.0
162.08284 200.0
171.069901 384.0
172.060104 396.0
173.06781 896.0
174.079498 108.0
174.350082 76.0
179.280441 108.0
188.091537 548.0
189.090057 152.0
190.046417 164.0
197.062698 168.0
197.09343 108.0
198.075821 192.0
199.062622 204.0
203.055405 136.0
216.088959 164.0
216.238419 84.0
216.431625 128.0
217.084427 144.0
218.080307 156.0
285.295135 128.0
424.445221 60.0
535.707458 80.0
843.714355 124.0
870.558289 200.0
905.574158 48.0
1080.39209 168.0
1118.688599 160.0
1129.799805 184.0
1178.056763 180.0
1246.684937 220.0
1248.055664 144.0
1249.99707 160.0
1252.270996 108.0
1263.254028 124.0
1278.153076 132.0
1297.308228 136.0
1312.254761 156.0
1327.5625 144.0
1348.200928 192.0
1376.719604 144.0
1389.666016 132.0
1397.154907 144.0
1430.43396 240.0
