>compound MLS002153877-01!5908-99-6
>formula C17H23NO3
>ionization [M+H]+
>parentmass 290.175415
#inchi InChI=1S/C17H23NO3/c1-18-13-7-8-14(18)10-15(9-13)21-17(20)16(11-19)12-5-3-2-4-6-12/h2-6,13-16,19H,7-11H2,1H3
#inchikey RKUNBYITZUJHSG
#origInchi InChI=1S/C17H23NO3.H2O4S.H2O/c1-18-13-7-8-14(18)10-15(9-13)21-17(20)16(11-19)12-5-3-2-4-6-12;1-5(2,3)4;/h2-6,13-16,19H,7-11H2,1H3;(H2,1,2,3,4);1H2
#Ion_Source LC-ESI
#Instrument qTof
#Compound_Source NIH Pharmacologically Active Library
#PI Dorrestein
#Data_Collector VP/LMS
#Scan -1
#Precursor_MZ 290.179
#ExactMass 289.168
#Charge 1
#CAS_Number N/A
#Pubmed_ID N/A
#Smiles CN1C2CCC1CC(C2)OC(=O)C(CO)c3ccccc3.OS(=O)(=O)O.O
#INCHI_AUX N/A
#Library_Class 1
#SpectrumID CCMSLIB00000086193
#IonMode Positive
#UpdateWorkflowName UPDATE-SINGLE-ANNOTATED-GOLD
#LibraryQualityString Gold
#TaskID d252d724072548979f1f6f1ced849daf
##Scan# 1241
#SpectrumFile p5-H05_GH5_01_18480.mzXML
#LibraryName Pharm_Active_Library.mgf
#MQScore -1
#Organism Pharm_Active_Library
#TIC_Query 0
#RT_Query -1
#MZErrorPPM -1
#SharedPeaks 0
#MassDiff 0
#LibMZ -1
#SpecMZ 290.179
#SpecCharge 0
#internalFilename spec-00000.mgf

>collision 10
44.928757 124.0
45.008839 40.0
45.104507 144.0
45.154499 232.0
45.225414 116.0
45.288345 168.0
45.308437 76.0
45.340595 164.0
45.426411 216.0
45.622475 176.0
45.719318 188.0
45.814919 192.0
46.002369 200.0
46.077999 172.0
46.396042 168.0
46.454941 220.0
46.477417 168.0
46.601875 240.0
46.679817 164.0
46.80909 84.0
46.894917 148.0
46.946045 128.0
46.955894 232.0
47.040871 136.0
47.068176 168.0
47.128277 148.0
47.254066 120.0
47.28096 116.0
47.349888 164.0
47.367691 204.0
47.38002 148.0
47.504776 36.0
47.570644 132.0
47.604969 176.0
47.624195 192.0
47.680527 176.0
47.725891 56.0
47.818062 176.0
47.830448 148.0
47.904808 124.0
47.933743 96.0
48.108837 160.0
48.124092 136.0
48.223034 180.0
48.291306 224.0
48.424175 132.0
48.438026 148.0
48.500381 116.0
48.517017 116.0
48.537815 144.0
48.562012 196.0
48.668247 176.0
48.73214 116.0
48.805805 144.0
48.81971 136.0
48.853092 244.0
48.883701 144.0
48.982555 172.0
49.131718 160.0
49.177765 152.0
49.208477 172.0
49.317223 128.0
49.344002 124.0
49.360779 224.0
49.412533 100.0
49.46011 120.0
49.49231 164.0
49.516117 136.0
49.549736 68.0
49.719406 80.0
49.820503 152.0
49.873901 140.0
49.896393 132.0
49.906235 92.0
49.968121 136.0
50.118774 132.0
50.172333 176.0
50.286591 200.0
50.346897 140.0
50.364391 196.0
50.463173 72.0
50.483532 100.0
50.504181 116.0
50.63298 132.0
50.647144 76.0
50.679726 220.0
50.733582 200.0
50.858414 204.0
50.86977 168.0
50.912365 164.0
51.023197 188.0
51.159771 192.0
51.2495 184.0
51.27515 220.0
51.317913 132.0
51.472015 204.0
51.523434 148.0
51.53915 272.0
51.557728 180.0
51.639221 208.0
51.650665 176.0
51.750843 156.0
51.836784 44.0
52.008888 116.0
52.113388 156.0
52.251747 148.0
52.280525 128.0
52.296356 196.0
52.323708 152.0
52.749283 48.0
52.787754 184.0
52.799889 160.0
52.863544 64.0
52.943165 68.0
52.985168 140.0
53.037338 140.0
53.083733 204.0
53.093884 160.0
53.201256 152.0
53.221584 176.0
53.265152 136.0
53.286945 120.0
53.297115 172.0
53.42506 132.0
53.441929 228.0
53.509468 88.0
53.580833 120.0
53.591034 184.0
53.626007 152.0
53.647873 164.0
53.675575 168.0
53.720787 168.0
53.74559 140.0
53.776237 152.0
53.828793 184.0
53.909138 148.0
54.004166 168.0
54.058296 124.0
54.17836 140.0
54.2062 208.0
54.267765 228.0
54.418888 192.0
54.541084 156.0
54.606987 184.0
54.644329 208.0
54.714405 112.0
54.74091 244.0
54.810143 136.0
54.963493 200.0
54.988583 84.0
55.046158 72.0
55.10672 224.0
55.13036 176.0
55.245693 160.0
55.378914 192.0
55.461887 92.0
55.485607 192.0
55.500435 156.0
55.641388 116.0
55.73793 232.0
55.949131 144.0
55.984867 64.0
56.071278 188.0
56.136871 260.0
56.214443 176.0
56.236832 120.0
56.755943 176.0
56.832443 212.0
56.862453 140.0
56.905987 176.0
56.963055 172.0
57.137444 180.0
57.224735 160.0
57.285862 200.0
57.325657 52.0
57.386868 184.0
57.423649 112.0
57.511162 52.0
57.615356 160.0
57.686382 40.0
57.755939 172.0
57.786198 168.0
57.845219 192.0
57.878525 132.0
57.998913 164.0
58.031563 172.0
58.078575 224.0
58.092224 132.0
58.326077 156.0
58.351921 120.0
58.406895 188.0
58.505581 88.0
58.587818 148.0
58.72501 228.0
58.772301 148.0
58.932621 140.0
58.99987 56.0
59.243198 76.0
59.269245 192.0
59.526951 120.0
59.706337 164.0
59.979275 184.0
60.116081 228.0
60.138149 44.0
60.29414 176.0
60.343605 120.0
60.456524 204.0
60.612926 160.0
60.735405 76.0
60.774277 208.0
60.826439 120.0
60.999382 176.0
61.033585 180.0
61.080242 180.0
61.094242 60.0
61.130028 112.0
61.144035 184.0
61.228104 160.0
61.257698 140.0
61.449455 96.0
61.719669 168.0
61.918411 232.0
62.167679 180.0
62.230465 392.0
62.247738 96.0
62.302711 168.0
62.365906 112.0
62.599987 92.0
62.622032 128.0
62.639359 64.0
62.722878 148.0
62.885338 184.0
62.904282 184.0
62.931118 68.0
62.957962 136.0
63.029049 108.0
63.104156 184.0
63.120731 140.0
63.202984 188.0
63.453239 108.0
63.621407 40.0
63.808876 164.0
64.03643 156.0
64.047577 192.0
64.206963 228.0
64.302689 160.0
64.44162 56.0
64.553513 56.0
64.625488 164.0
64.646294 228.0
64.766373 60.0
64.979576 160.0
65.112816 164.0
65.241364 108.0
65.255829 192.0
65.268692 128.0
65.423149 120.0
65.473061 148.0
65.519775 140.0
65.532661 208.0
65.582001 228.0
65.601967 160.0
65.672913 164.0
65.692795 224.0
65.766502 204.0
65.777802 160.0
65.936089 120.0
66.015305 164.0
66.031479 160.0
66.06868 168.0
66.162544 228.0
66.212738 180.0
66.251617 60.0
66.267815 212.0
66.284019 208.0
66.322914 184.0
66.416962 252.0
66.507828 28.0
66.697876 160.0
66.759659 140.0
66.862144 200.0
67.01033 160.0
67.023361 156.0
67.044548 180.0
67.168465 136.0
67.278175 172.0
67.313721 200.0
67.357819 184.0
67.44442 148.0
67.486923 240.0
67.657074 160.0
67.704559 108.0
67.75602 192.0
67.838921 144.0
67.871712 160.0
67.95372 164.0
68.030853 112.0
68.078468 148.0
68.106392 124.0
68.29377 160.0
68.38591 180.0
68.415543 104.0
68.428711 172.0
68.448471 128.0
68.63797 32.0
68.654457 220.0
68.684143 120.0
68.712189 132.0
68.788101 200.0
68.812866 180.0
69.093834 132.0
69.141815 128.0
69.251091 176.0
69.280907 164.0
69.297478 184.0
69.31073 212.0
69.322327 68.0
69.338905 140.0
69.377029 168.0
69.424179 156.0
69.445015 172.0
69.47155 184.0
69.506393 120.0
69.56282 128.0
69.602669 180.0
69.640869 152.0
69.720612 216.0
69.743271 196.0
69.823692 128.0
69.880249 172.0
70.016747 156.0
70.07338 120.0
70.27179 272.0
70.306999 80.0
70.378609 140.0
70.428711 148.0
70.572433 216.0
70.615913 184.0
70.696213 104.0
70.712952 200.0
70.75145 116.0
70.801682 212.0
70.815086 156.0
70.841881 168.0
70.863663 252.0
70.952492 88.0
70.980453 124.0
71.086678 148.0
71.113525 164.0
71.16053 104.0
71.173965 176.0
71.247864 156.0
71.288628 108.0
71.347023 172.0
71.619629 164.0
71.636475 112.0
71.718155 204.0
71.744331 124.0
71.943398 228.0
72.208687 88.0
72.257744 196.0
72.332199 164.0
72.381302 136.0
72.421944 140.0
72.519638 124.0
72.545647 148.0
72.591423 128.0
72.708481 176.0
72.72036 204.0
72.956474 124.0
73.009186 180.0
73.085732 180.0
73.126572 180.0
73.266205 224.0
73.293602 196.0
73.369232 168.0
73.407677 160.0
73.53051 52.0
73.595375 312.0
73.650024 124.0
73.673943 220.0
73.689316 180.0
73.771347 160.0
73.85685 180.0
73.909882 136.0
74.019432 148.0
74.062248 208.0
74.209625 228.0
74.286804 136.0
74.369171 136.0
74.502174 176.0
74.599342 224.0
74.720955 180.0
74.752419 204.0
74.826431 176.0
74.86776 76.0
74.975739 148.0
75.078011 160.0
75.14183 208.0
75.15564 220.0
75.202026 168.0
75.226395 144.0
75.260925 180.0
75.41468 84.0
75.58416 144.0
75.606659 132.0
75.620499 204.0
75.691338 240.0
75.887276 172.0
75.991341 124.0
76.024315 188.0
76.079857 160.0
76.116318 176.0
76.253563 144.0
76.337006 64.0
76.396141 184.0
76.498817 164.0
76.606789 164.0
76.714828 120.0
76.744469 124.0
77.217712 340.0
77.454002 180.0
77.532845 152.0
77.674652 192.0
77.769623 164.0
77.834579 100.0
77.874969 120.0
77.964569 160.0
78.184166 208.0
78.395729 176.0
78.423927 200.0
78.442635 208.0
78.587936 144.0
78.821014 156.0
79.026123 180.0
79.043816 228.0
79.088058 144.0
79.158875 160.0
79.282883 224.0
79.346695 168.0
79.403435 152.0
79.593323 204.0
79.763878 76.0
79.831436 128.0
80.039642 180.0
80.116226 128.0
80.380104 180.0
80.399734 160.0
80.428543 252.0
80.488991 220.0
80.64978 116.0
80.765999 44.0
80.814301 216.0
80.923485 152.0
81.068573 68.0
81.104424 56.0
81.195862 348.0
81.366325 184.0
81.402237 128.0
81.47229 204.0
81.531586 204.0
81.587303 112.0
81.731194 96.0
81.905823 188.0
82.035568 124.0
82.145569 208.0
82.241203 108.0
82.253838 108.0
82.306198 188.0
82.558716 200.0
82.69487 144.0
82.720215 180.0
83.118942 116.0
83.182465 144.0
83.291412 156.0
83.389534 52.0
83.411346 208.0
83.53965 172.0
83.571381 144.0
83.738861 56.0
83.873695 152.0
83.904686 56.0
83.928391 184.0
84.017754 184.0
84.110825 152.0
84.200294 196.0
84.229515 180.0
84.523865 124.0
84.538506 200.0
84.684967 176.0
84.701454 36.0
84.860893 184.0
84.875557 204.0
84.919571 148.0
85.042503 180.0
85.06086 100.0
85.088394 220.0
85.104919 184.0
85.1343 176.0
85.202263 168.0
85.455978 208.0
85.489105 176.0
85.509346 204.0
85.735878 140.0
85.759834 88.0
85.844986 64.0
85.877647 192.0
86.151031 164.0
86.204613 168.0
86.250816 132.0
86.297035 132.0
86.391357 136.0
86.426514 148.0
86.482033 96.0
86.643135 176.0
86.793266 192.0
87.038193 132.0
87.276039 136.0
87.311371 180.0
87.33741 88.0
87.398796 156.0
87.482552 176.0
87.558891 128.0
87.752693 136.0
87.80761 284.0
87.855263 128.0
88.041924 372.0
88.064331 144.0
88.077408 88.0
88.196991 172.0
88.243729 104.0
88.256821 208.0
88.307312 40.0
88.406464 208.0
88.546875 124.0
88.659286 140.0
88.699654 112.0
88.786766 168.0
88.826157 164.0
88.903084 160.0
88.938744 224.0
88.963142 232.0
88.989433 108.0
89.036636 200.0
89.100243 64.0
89.120995 176.0
89.218636 144.0
89.260002 104.0
89.461319 204.0
89.523453 108.0
89.653442 212.0
89.734497 176.0
90.0383 140.0
90.140312 132.0
90.340729 188.0
90.486458 128.0
90.548943 160.0
90.579247 128.0
90.594406 128.0
90.676262 160.0
90.721375 52.0
90.83326 220.0
90.910004 192.0
90.935722 184.0
90.96907 192.0
91.032501 176.0
91.054482 11212.0
91.079224 124.0
91.099022 32.0
91.118019 56.0
91.139702 160.0
91.243454 56.0
91.302399 56.0
91.327866 144.0
91.37468 184.0
91.424156 36.0
91.438683 76.0
91.605034 140.0
91.633614 36.0
91.824234 148.0
91.93158 196.0
91.959702 176.0
91.98642 108.0
92.007423 156.0
92.057182 916.0
92.083801 176.0
92.162125 200.0
92.26342 220.0
92.353302 84.0
92.439392 132.0
92.628937 160.0
92.742874 224.0
92.818672 188.0
92.85511 156.0
92.883881 216.0
92.958702 136.0
92.973869 160.0
93.024681 364.0
93.070213 10928.0
93.135338 124.0
93.150703 212.0
93.219872 64.0
93.258308 164.0
93.361595 216.0
93.381363 108.0
93.396744 152.0
93.464081 36.0
93.533089 196.0
93.565338 216.0
93.579567 236.0
93.660454 168.0
93.720169 192.0
93.801117 132.0
93.838577 100.0
93.911819 184.0
93.934174 76.0
94.069633 892.0
94.134895 224.0
94.150345 180.0
94.239204 188.0
94.482811 128.0
94.535316 208.0
94.569504 120.0
94.611313 120.0
94.713173 164.0
94.769356 88.0
94.788734 84.0
94.827492 100.0
94.863312 100.0
94.885643 56.0
94.990364 168.0
95.08345 1940.0
95.112617 164.0
95.149498 104.0
95.285454 116.0
95.312653 176.0
95.36512 152.0
95.473999 104.0
95.516792 140.0
95.617966 140.0
95.656891 164.0
95.730881 140.0
95.836067 64.0
95.861397 64.0
95.993958 116.0
96.080917 2192.0
96.12661 68.0
96.140472 400.0
96.390228 116.0
96.431267 52.0
96.47036 204.0
96.644005 168.0
96.757942 136.0
96.80825 196.0
96.869568 176.0
96.889938 232.0
96.919563 180.0
97.032227 148.0
97.057716 196.0
97.08815 868.0
97.142052 48.0
97.177361 64.0
97.240158 208.0
97.277451 152.0
97.760963 92.0
97.812134 208.0
97.916489 40.0
98.096863 1672.0
98.152969 224.0
98.251587 56.0
98.269341 140.0
98.575401 72.0
98.597137 256.0
98.618881 148.0
98.632713 148.0
98.719711 132.0
98.769722 168.0
98.791931 212.0
98.875999 164.0
98.967056 108.0
99.052216 148.0
99.100899 204.0
99.167137 116.0
99.286095 124.0
99.34362 100.0
99.430527 80.0
99.651344 184.0
99.814331 172.0
100.132744 120.0
100.238327 180.0
100.427719 312.0
100.488205 188.0
100.575371 188.0
100.619293 160.0
100.671776 112.0
100.711151 124.0
100.749107 228.0
100.809044 40.0
100.984978 192.0
101.036987 164.0
101.147057 152.0
101.1931 52.0
101.439514 228.0
101.585899 128.0
101.744438 144.0
101.848862 176.0
102.031731 164.0
102.047852 608.0
102.243813 156.0
102.261055 212.0
102.285202 48.0
102.323456 176.0
102.349632 152.0
102.450333 64.0
102.500702 184.0
102.575272 224.0
102.750725 132.0
102.831436 200.0
102.879883 188.0
103.01519 184.0
103.054504 18304.0
103.085793 212.0
103.122284 160.0
103.175934 148.0
103.480339 100.0
103.50666 132.0
103.601852 56.0
103.707222 108.0
103.968857 76.0
104.005386 220.0
104.056572 972.0
104.078476 64.0
104.154457 176.0
104.265366 240.0
104.314148 48.0
104.33651 228.0
104.354805 204.0
104.509384 100.0
104.560265 148.0
104.594864 84.0
104.647797 72.0
104.6763 128.0
104.733322 120.0
104.875954 120.0
104.890221 108.0
104.937111 100.0
105.063393 288.0
105.068169 180.0
105.088043 224.0
105.318726 196.0
105.451538 88.0
105.488327 56.0
105.621246 152.0
105.692848 76.0
105.715355 116.0
105.850464 148.0
106.002052 68.0
106.069901 188.0
106.174248 164.0
106.274765 124.0
106.295288 52.0
106.35891 176.0
106.412857 144.0
106.56427 164.0
106.598328 236.0
107.035294 112.0
107.051773 136.0
107.073227 188.0
107.089302 196.0
107.156822 52.0
107.175362 120.0
107.296967 128.0
107.4207 144.0
107.686974 52.0
107.784897 200.0
107.978394 92.0
108.040451 156.0
108.081757 1424.0
108.135635 160.0
108.164612 196.0
108.784424 260.0
108.813492 188.0
108.894478 180.0
108.969261 88.0
109.069786 176.0
109.088844 1384.0
109.304016 184.0
109.358131 140.0
109.403923 36.0
109.466385 144.0
109.574699 52.0
109.608032 264.0
109.699738 172.0
109.718506 156.0
109.904129 160.0
110.094742 172.0
110.120102 152.0
110.149361 112.0
110.204796 44.0
110.269577 232.0
110.713112 168.0
110.873306 164.0
110.964561 140.0
111.079849 156.0
111.417885 148.0
111.878456 164.0
111.916351 180.0
112.240845 160.0
112.259827 176.0
112.335754 92.0
112.420151 68.0
112.477135 36.0
112.578484 136.0
112.827812 192.0
113.001236 224.0
113.035088 248.0
113.087173 164.0
113.134567 164.0
113.685661 188.0
113.734474 124.0
113.764191 160.0
113.86187 148.0
113.927711 224.0
114.023331 172.0
114.189163 140.0
114.359375 208.0
114.410469 216.0
114.992393 140.0
115.062836 176.0
115.255066 160.0
115.282845 192.0
115.314903 96.0
115.421791 216.0
115.460289 176.0
115.526596 156.0
115.916267 208.0
116.19072 128.0
116.333221 220.0
116.719086 172.0
116.757797 148.0
117.4729 208.0
117.535469 164.0
117.636902 76.0
117.660652 144.0
117.721107 180.0
118.058235 48.0
118.346031 172.0
118.955238 84.0
119.222397 184.0
119.27021 120.0
119.457214 56.0
119.714043 120.0
120.075813 156.0
120.213257 164.0
120.315842 236.0
120.350777 100.0
120.38353 144.0
120.414108 40.0
120.628235 172.0
120.704758 176.0
120.821724 136.0
121.065056 8480.0
121.103065 144.0
121.144684 164.0
121.173164 44.0
121.385201 212.0
121.510803 48.0
121.607353 64.0
121.664429 72.0
121.791794 44.0
121.813759 164.0
121.912628 100.0
122.067383 464.0
122.096321 760.0
122.178688 128.0
122.222687 152.0
122.257896 208.0
122.427414 156.0
122.566193 72.0
123.069099 204.0
123.111053 216.0
123.243591 244.0
123.314308 156.0
123.362938 36.0
123.522156 68.0
123.581886 136.0
123.758957 192.0
123.791786 160.0
123.836472 88.0
123.918434 148.0
123.959541 128.0
123.973831 160.0
124.001259 180.0
124.021454 336.0
124.027618 300.0
124.050331 124.0
124.065102 548.0
124.084068 364.0
124.112984 74784.0
124.245956 176.0
124.27124 128.0
124.280899 92.0
124.307816 176.0
124.344193 176.0
124.384148 52.0
124.401901 76.0
124.434586 144.0
124.452965 68.0
124.478302 476.0
124.517738 120.0
124.576385 56.0
124.589783 220.0
124.606224 84.0
124.639549 60.0
124.68251 72.0
124.705795 84.0
124.740898 72.0
124.834991 52.0
124.861855 64.0
124.906334 140.0
124.926353 64.0
124.946381 220.0
125.000931 60.0
125.041382 184.0
125.116325 6088.0
125.193451 48.0
125.308289 144.0
125.336021 48.0
125.396187 92.0
125.49427 44.0
125.552254 64.0
125.594627 32.0
125.721802 56.0
125.749588 124.0
125.770905 52.0
125.833405 64.0
125.871368 208.0
125.891464 164.0
125.907097 76.0
125.924965 108.0
125.952538 104.0
125.96666 152.0
126.01432 60.0
126.032196 136.0
126.047836 76.0
126.085258 160.0
126.11731 660.0
126.159096 128.0
126.167274 228.0
126.240082 64.0
126.255737 72.0
126.287048 32.0
126.439034 60.0
126.454849 156.0
126.757187 80.0
127.075584 108.0
127.091293 32.0
127.122704 40.0
127.183304 68.0
127.225952 168.0
127.356194 72.0
127.378654 156.0
127.533699 64.0
127.587654 96.0
127.742821 180.0
127.823814 104.0
128.02417 148.0
128.272003 56.0
128.42308 112.0
128.739044 120.0
128.953674 64.0
129.06897 128.0
129.182053 204.0
129.277084 104.0
129.326874 188.0
129.433273 136.0
129.707413 208.0
129.79129 108.0
130.079422 68.0
130.68335 168.0
130.793182 144.0
131.053757 216.0
131.570541 76.0
131.803497 236.0
131.979507 72.0
132.066406 100.0
132.093857 144.0
132.146469 36.0
132.295242 52.0
132.758072 188.0
133.129837 64.0
133.25618 100.0
133.472229 76.0
133.518234 144.0
133.624039 116.0
133.748306 124.0
133.921005 68.0
134.195236 40.0
134.721436 104.0
134.90448 76.0
135.292648 160.0
135.512665 100.0
135.589142 124.0
135.721268 40.0
135.737503 68.0
135.830276 164.0
135.855789 84.0
135.92308 184.0
136.799286 72.0
137.767075 132.0
137.862869 100.0
138.157486 168.0
138.253418 220.0
138.333008 40.0
138.525024 40.0
138.597656 44.0
139.498886 240.0
139.849365 60.0
140.05658 76.0
140.075424 168.0
140.107254 3952.0
140.312469 136.0
140.348801 64.0
140.374741 40.0
140.589417 132.0
140.941269 64.0
140.957809 172.0
141.069016 156.0
141.11142 532.0
141.149277 176.0
141.980484 144.0
142.033905 176.0
142.068237 160.0
142.122498 10832.0
142.152481 88.0
142.229614 64.0
142.300827 48.0
142.353058 80.0
142.462326 52.0
142.580231 80.0
142.597763 52.0
142.752289 76.0
143.09494 192.0
143.124985 1768.0
143.192566 80.0
143.30452 40.0
143.421295 32.0
143.459442 92.0
143.47612 80.0
143.948547 44.0
144.094254 132.0
144.151596 136.0
144.340454 116.0
144.403702 152.0
144.594025 44.0
144.809509 168.0
144.922089 72.0
145.094666 116.0
145.790756 216.0
147.142059 56.0
149.057983 100.0
149.168884 228.0
151.66449 184.0
152.216492 156.0
153.274231 56.0
154.902374 180.0
155.088211 192.0
155.403152 144.0
155.703522 156.0
156.195648 208.0
156.250381 176.0
156.429565 112.0
156.456955 52.0
160.531143 36.0
162.945923 164.0
163.106018 188.0
163.734467 76.0
163.759949 120.0
163.93573 160.0
164.453461 124.0
164.844208 76.0
165.742371 60.0
167.314255 128.0
167.394073 120.0
168.102966 176.0
169.092773 208.0
169.906418 200.0
170.210098 116.0
170.430878 84.0
170.815659 44.0
171.003006 104.0
171.573471 136.0
171.941254 196.0
172.116165 136.0
172.5159 100.0
172.565582 120.0
173.020813 60.0
173.219833 244.0
174.42955 172.0
175.005692 44.0
175.132111 160.0
176.874817 152.0
176.93042 84.0
176.986008 100.0
177.317154 60.0
178.73259 100.0
179.243835 168.0
179.265167 32.0
179.91864 52.0
179.953354 144.0
180.110916 108.0
180.784668 156.0
181.929169 108.0
183.116989 184.0
184.11557 92.0
184.356003 200.0
185.034943 100.0
186.059753 176.0
186.660217 176.0
186.722763 84.0
187.054718 60.0
187.248047 180.0
187.408768 248.0
187.7686 160.0
188.112396 168.0
189.238754 160.0
189.542801 164.0
190.84111 180.0
190.945618 200.0
190.984116 72.0
191.6586 148.0
193.188141 104.0
194.837662 188.0
195.276855 136.0
195.691483 64.0
195.836304 180.0
195.922653 104.0
196.337967 164.0
196.382599 116.0
198.002426 156.0
198.051254 200.0
198.432373 172.0
199.049667 144.0
199.122681 156.0
199.392395 176.0
199.510452 236.0
199.884537 220.0
200.185745 132.0
200.51535 132.0
200.543533 184.0
200.653473 232.0
201.104828 60.0
201.181046 116.0
202.102402 152.0
202.595032 160.0
202.878433 76.0
203.712753 100.0
203.820724 132.0
204.042419 40.0
204.420715 188.0
204.802216 156.0
204.94751 52.0
205.027298 128.0
205.298126 104.0
205.680435 108.0
205.877441 156.0
206.514786 208.0
206.70932 128.0
206.735077 132.0
207.591629 84.0
209.69606 112.0
210.119949 80.0
210.209396 136.0
210.35083 100.0
211.666306 148.0
211.724228 172.0
212.843582 44.0
213.852371 196.0
214.06781 144.0
214.157837 1112.0
214.190125 160.0
215.161224 292.0
216.122223 240.0
218.643539 64.0
218.787766 128.0
218.876099 80.0
218.911438 180.0
220.939194 192.0
221.26178 164.0
221.839478 132.0
222.061859 200.0
223.163589 116.0
223.529449 176.0
223.666351 124.0
225.449921 112.0
226.548019 108.0
227.147568 108.0
228.099457 160.0
228.306915 104.0
228.728149 92.0
229.973007 180.0
230.021301 124.0
230.506027 136.0
230.897537 84.0
232.205917 124.0
232.257477 156.0
232.955643 96.0
233.502777 204.0
233.551437 160.0
234.035324 140.0
234.696518 104.0
238.292923 184.0
238.738632 160.0
242.146622 168.0
242.179886 140.0
242.34407 196.0
244.268906 88.0
244.393341 100.0
244.486694 104.0
244.798004 220.0
246.419998 236.0
247.702652 148.0
248.608765 116.0
248.630737 132.0
248.734314 144.0
249.12999 212.0
249.296509 200.0
250.293686 100.0
251.573746 128.0
251.753723 156.0
252.96785 200.0
253.966003 52.0
254.157974 164.0
255.786713 56.0
256.911621 52.0
256.94989 140.0
257.556427 104.0
257.847198 136.0
258.12851 116.0
258.51239 136.0
258.970032 160.0
259.149567 708.0
260.082825 140.0
260.16214 1964.0
260.330017 240.0
260.423157 144.0
261.166931 452.0
261.223541 132.0
261.767487 152.0
262.012268 56.0
262.166504 176.0
262.647339 88.0
264.657471 88.0
264.799957 56.0
265.260071 196.0
265.52594 60.0
265.847137 128.0
267.7229 192.0
268.094269 132.0
268.172516 148.0
268.893311 248.0
269.464752 164.0
270.537476 212.0
270.655334 44.0
272.166687 164.0
272.37384 88.0
272.801025 96.0
273.169342 136.0
273.228546 164.0
276.108215 52.0
276.842896 160.0
277.883728 52.0
278.933136 228.0
278.976349 112.0
279.33551 40.0
282.20697 152.0
284.193176 128.0
284.434784 116.0
284.878052 208.0
285.207367 152.0
285.27124 92.0
285.314941 88.0
285.48642 56.0
285.765625 220.0
287.146759 132.0
287.406494 192.0
287.463867 164.0
287.980408 168.0
288.105377 112.0
288.392609 96.0
288.696014 108.0
288.784821 68.0
289.129913 80.0
289.397339 84.0
289.438507 128.0
289.526031 140.0
289.57373 184.0
289.729248 204.0
289.860046 120.0
289.932556 60.0
290.034241 164.0
290.094299 220.0
290.11853 116.0
290.175415 47168.0
290.255859 140.0
290.328094 180.0
290.369904 96.0
290.407379 76.0
290.437744 64.0
290.483673 164.0
290.51236 92.0
290.542908 64.0
290.583008 44.0
290.628113 72.0
290.702393 64.0
290.733856 52.0
290.761505 132.0
290.783539 48.0
290.885651 52.0
290.9841 28.0
291.019684 92.0
291.177368 6636.0
291.239685 124.0
291.333923 56.0
291.463013 60.0
291.610413 64.0
291.6474 80.0
291.690735 64.0
291.739502 92.0
291.802917 128.0
291.926422 76.0
292.040955 100.0
292.068176 60.0
292.122589 32.0
292.179108 1752.0
292.228058 56.0
292.275696 84.0
292.302917 44.0
292.582916 60.0
292.629669 64.0
292.667145 32.0
292.718201 92.0
292.793121 80.0
292.929382 112.0
293.014526 80.0
293.045197 136.0
293.10614 196.0
293.175232 128.0
293.279236 112.0
293.557404 76.0
293.611053 60.0
294.116028 72.0
294.158386 116.0
294.24234 76.0
294.314026 48.0
294.773834 92.0
294.812775 140.0
294.85376 64.0
295.086212 52.0
295.22641 72.0
295.671143 116.0
301.289764 52.0
302.174835 56.0
302.949615 96.0
303.265656 64.0
303.605408 76.0
307.313568 72.0
307.344971 136.0
309.71875 76.0
309.963989 136.0
316.052216 108.0
329.601288 96.0
333.897095 32.0
334.068054 108.0
338.90921 60.0
340.820892 36.0
349.957062 120.0
352.639252 64.0
358.452515 92.0
361.386414 96.0
361.973114 92.0
364.909973 56.0
370.056946 52.0
371.540161 100.0
381.476837 44.0
395.536438 88.0
400.687103 48.0
408.618378 52.0
431.318878 88.0
435.63681 48.0
451.121704 112.0
451.544556 68.0
465.446075 88.0
469.14621 48.0
471.598053 52.0
486.847198 68.0
521.722168 56.0
526.776001 88.0
605.722473 48.0
607.266479 48.0
607.438171 76.0
614.339905 72.0
632.683228 92.0
645.124329 92.0
651.403015 60.0
652.617676 44.0
654.093018 32.0
671.091675 160.0
692.345398 208.0
693.429871 36.0
705.378296 136.0
708.516418 140.0
716.197754 88.0
718.788757 116.0
722.657288 192.0
727.67395 140.0
729.979065 124.0
756.117615 88.0
763.969604 92.0
764.679443 64.0
765.367615 148.0
766.921143 184.0
770.828491 192.0
773.145569 64.0
774.419006 152.0
775.183533 184.0
775.521606 40.0
777.484924 228.0
781.697266 88.0
789.585571 136.0
789.859619 60.0
798.053162 88.0
800.298157 196.0
803.651794 44.0
803.708252 156.0
811.768921 168.0
812.687866 60.0
813.726501 172.0
814.941956 84.0
816.044617 244.0
821.392151 112.0
822.99585 76.0
823.304199 184.0
824.36676 176.0
826.299377 140.0
836.60675 128.0
839.037903 44.0
840.110535 148.0
847.635315 272.0
847.777466 216.0
848.577393 220.0
850.94458 156.0
851.687927 144.0
853.58252 200.0
853.850037 212.0
857.13916 124.0
864.204346 84.0
871.046021 196.0
877.507751 96.0
880.907043 148.0
882.461304 176.0
885.656982 156.0
890.52063 228.0
891.667297 96.0
892.594727 200.0
897.763611 132.0
902.708191 52.0
905.335266 196.0
911.087463 212.0
911.652283 96.0
914.069702 92.0
915.381958 188.0
917.647583 204.0
919.300293 172.0
921.921204 248.0
925.254028 116.0
927.847046 224.0
928.089539 184.0
928.695984 180.0
931.075134 208.0
932.284119 212.0
932.460327 248.0
934.734802 148.0
935.27179 184.0
935.361633 160.0
935.958313 64.0
937.153198 152.0
937.200867 48.0
940.542847 192.0
942.442139 244.0
943.108276 116.0
945.309998 188.0
948.507019 188.0
949.84375 184.0
949.917358 244.0
954.634399 172.0
954.960327 160.0
956.344727 156.0
956.455505 180.0
956.498596 176.0
960.466858 188.0
960.861633 260.0
961.614502 208.0
963.979797 152.0
964.115784 116.0
966.744019 144.0
968.347473 60.0
970.814087 152.0
970.90094 72.0
974.339661 176.0
974.830566 196.0
975.526672 204.0
976.627258 156.0
977.012939 180.0
977.539978 200.0
978.786804 124.0
980.381531 128.0
980.587158 132.0
982.994446 224.0
985.123474 180.0
985.642029 160.0
986.260742 136.0
986.579529 132.0
987.217346 136.0
990.340332 84.0
991.342712 216.0
991.931885 44.0
993.34906 180.0
994.108215 220.0
995.539551 268.0
996.456604 160.0
996.990723 196.0
998.398926 112.0
999.600464 56.0
1001.678162 124.0
1002.144348 152.0
1003.127502 160.0
1003.436401 112.0
1007.06488 184.0
1007.456543 172.0
1007.50708 76.0
1007.797729 180.0
1009.156616 112.0
1009.605591 184.0
1011.231506 156.0
1011.2948 148.0
1012.155823 84.0
1013.029846 108.0
1014.018311 148.0
1016.174316 192.0
1016.656555 156.0
1016.75177 140.0
1017.735718 144.0
1020.048218 180.0
1022.019775 168.0
1025.031616 196.0
1025.719971 140.0
1026.644409 192.0
1026.918701 152.0
1029.720581 172.0
1029.848267 52.0
1031.011108 164.0
1032.526245 112.0
1032.839722 196.0
1033.325806 160.0
1034.657104 88.0
1034.727417 188.0
1035.143677 152.0
1035.431885 228.0
1036.899048 200.0
1037.379761 116.0
1037.540039 156.0
1038.091431 136.0
1039.265259 136.0
1041.749878 196.0
1042.026123 240.0
1042.437378 100.0
1042.912964 136.0
1043.009399 104.0
1044.539795 64.0
1045.273193 156.0
1045.53064 44.0
1046.560547 164.0
1047.468628 56.0
1048.88623 176.0
1053.790894 96.0
1053.881348 56.0
1054.307861 192.0
1054.895996 116.0
1054.960693 164.0
1056.512695 120.0
1057.172729 192.0
1057.302124 112.0
1057.489746 160.0
1057.981934 176.0
1058.033569 140.0
1058.324951 224.0
1060.015503 160.0
1061.966919 72.0
1062.52478 80.0
1064.738281 184.0
1065.264404 152.0
1066.115479 148.0
1066.43396 168.0
1070.421997 216.0
1071.160522 172.0
1071.411987 176.0
1071.952759 144.0
1072.226562 160.0
1072.519775 160.0
1074.371704 176.0
1074.684937 248.0
1075.043823 52.0
1076.493042 156.0
1076.584473 144.0
1076.630127 196.0
1077.028564 136.0
1078.864868 248.0
1080.118164 164.0
1082.666382 136.0
1083.400024 120.0
1083.812744 112.0
1084.841675 196.0
1085.261353 164.0
1086.57959 196.0
1087.964355 176.0
1089.481445 176.0
1089.816528 164.0
1090.835205 220.0
1092.40686 236.0
1093.20105 164.0
1093.275269 132.0
1094.414062 152.0
1094.703857 144.0
1094.960815 208.0
1095.210938 172.0
1095.37561 56.0
1095.724731 176.0
1096.61438 116.0
1096.94397 192.0
1097.095581 80.0
1097.227417 160.0
1097.566406 156.0
1098.368286 184.0
1098.797119 148.0
1100.143433 156.0
1100.942383 204.0
1101.609375 68.0
1102.554321 144.0
1102.709473 224.0
1103.585449 104.0
1104.028564 156.0
1105.695679 112.0
1105.808228 196.0
1106.350952 220.0
1107.973511 240.0
1108.954224 160.0
1112.031738 180.0
1112.403442 156.0
1113.399414 172.0
1114.442383 176.0
1114.754639 132.0
1115.432617 204.0
1115.532227 208.0
1115.671875 184.0
1117.068359 192.0
1118.685425 160.0
1119.297974 208.0
1120.869995 204.0
1121.616455 128.0
1122.189819 204.0
1122.849976 152.0
1123.083374 92.0
1123.890625 72.0
1127.376343 156.0
1127.777344 152.0
1127.991211 164.0
1129.589355 192.0
1130.305298 208.0
1131.409668 172.0
1131.777832 156.0
1132.876221 68.0
1133.76062 172.0
1136.624146 232.0
1137.295166 188.0
1137.382446 168.0
1139.14856 196.0
1139.208984 84.0
1139.753174 156.0
1142.604004 156.0
1142.980713 180.0
1143.586426 140.0
1145.835571 160.0
1146.031006 204.0
1149.132446 32.0
1149.598022 156.0
1150.218994 48.0
1151.434326 212.0
1151.66394 176.0
1151.718018 188.0
1151.771973 160.0
1152.684082 200.0
1153.116577 184.0
1153.772217 172.0
1155.375122 216.0
1156.072021 184.0
1156.295288 52.0
1156.471313 108.0
1157.283691 208.0
1157.561279 148.0
1158.658569 168.0
1159.600464 160.0
1159.830933 144.0
1160.31897 156.0
1162.557373 156.0
1162.693237 172.0
1162.903442 136.0
1163.24292 160.0
1164.186646 196.0
1165.694702 124.0
1166.938599 148.0
1167.074585 152.0
1167.2854 172.0
1169.70752 188.0
1170.565308 148.0
1171.26001 176.0
1172.275146 208.0
1172.806763 244.0
1172.88855 124.0
1173.713501 152.0
1173.795288 108.0
1175.261841 180.0
1176.392822 200.0
1176.654175 192.0
1177.37793 72.0
1177.979004 48.0
1178.341064 148.0
1178.908203 96.0
1179.407104 64.0
1180.542114 244.0
1181.643311 144.0
1182.416626 144.0
1182.683472 140.0
1182.976685 140.0
1183.142212 80.0
1183.32019 216.0
1183.546143 120.0
1184.737793 204.0
1184.881714 124.0
1185.06665 172.0
1185.34082 264.0
1186.067261 100.0
1186.979004 184.0
1187.212158 148.0
1187.335693 48.0
1187.884399 124.0
1187.946167 212.0
1188.220581 60.0
1188.474365 56.0
1189.855591 156.0
1190.650513 116.0
1190.739746 128.0
1192.106934 136.0
1192.264893 132.0
1192.505493 184.0
1192.553589 148.0
1192.67041 168.0
1194.279419 192.0
1197.018555 152.0
1197.535034 196.0
1197.583252 100.0
1198.430542 148.0
1198.526978 152.0
1198.761353 196.0
1199.223022 180.0
1200.16748 128.0
1200.28479 120.0
1202.008057 192.0
1202.140381 224.0
1203.755615 148.0
1204.280518 108.0
1205.226929 64.0
1205.662354 164.0
1206.740723 144.0
1208.656616 52.0
1209.258667 152.0
1209.722412 148.0
1209.791626 160.0
1209.978638 156.0
1211.02417 64.0
1211.121216 184.0
1211.904053 168.0
1212.250488 76.0
1213.262451 188.0
1213.830933 144.0
1214.760376 216.0
1216.307739 136.0
1216.682617 176.0
1216.784302 180.0
1219.760132 48.0
1220.306763 264.0
1220.587402 180.0
1220.858643 204.0
1221.331543 188.0
1223.252075 196.0
1223.307739 104.0
1223.77417 176.0
1224.240723 156.0
1224.449707 164.0
1224.547241 192.0
1224.930298 172.0
1225.14624 156.0
1225.738403 160.0
1226.435425 216.0
1226.707275 120.0
1227.564819 200.0
1229.078491 116.0
1230.85144 184.0
1232.066772 80.0
1232.765503 128.0
1232.877319 116.0
1233.457397 260.0
1234.820923 180.0
1235.506348 152.0
1238.16626 172.0
1238.57251 144.0
1239.104858 208.0
1239.852783 212.0
1239.966797 80.0
1240.261108 140.0
1240.422363 156.0
1241.403931 92.0
1241.845825 160.0
1242.309448 148.0
1242.722656 116.0
1243.40332 108.0
1243.452515 56.0
1243.543701 160.0
1243.62793 40.0
1243.901733 108.0
1244.084229 196.0
1244.203613 160.0
1244.379028 84.0
1244.652954 180.0
1244.772339 152.0
1244.856567 56.0
1245.320068 180.0
1245.748535 184.0
1245.832886 188.0
1246.289551 112.0
1246.521362 224.0
1247.97644 156.0
1249.981079 192.0
1250.522949 176.0
1251.536743 176.0
1252.226807 112.0
1252.600098 112.0
1254.171509 388.0
1254.453491 192.0
1254.538086 140.0
1256.011841 188.0
1256.385742 208.0
1257.761719 192.0
1257.899536 172.0
1258.086548 176.0
1258.150024 156.0
1258.997314 212.0
1259.357544 60.0
1259.739014 224.0
1260.940186 184.0
1261.017944 152.0
1261.434937 160.0
1261.859131 148.0
1262.771362 192.0
1265.651611 224.0
1265.849854 200.0
1266.161377 176.0
1266.395142 136.0
1266.678467 60.0
1267.939697 212.0
1268.109741 204.0
1268.211792 212.0
1268.26355 192.0
1269.066772 176.0
1269.229858 184.0
1269.697876 152.0
1270.215698 128.0
1270.541992 156.0
1270.889648 56.0
1272.578857 188.0
1273.310303 176.0
1273.530518 216.0
1273.87146 200.0
1274.496704 180.0
1274.986938 160.0
1275.647949 200.0
1276.195435 152.0
1276.366089 212.0
1276.920776 164.0
1277.276367 140.0
1278.564209 148.0
1279.788574 192.0
1280.230103 132.0
1280.95105 164.0
1282.388794 140.0
1283.429565 128.0
1283.828979 184.0
1285.034424 124.0
1286.004883 140.0
1287.882812 136.0
1288.268555 188.0
1288.61853 56.0
1288.851562 240.0
1289.21875 80.0
1289.325928 140.0
1289.747681 176.0
1290.0979 196.0
1290.484009 204.0
1291.320679 152.0
1292.222046 148.0
1293.596069 160.0
1294.920776 180.0
1295.723022 288.0
1295.959473 232.0
1297.980835 188.0
1298.791138 216.0
1299.348145 156.0
1300.771606 184.0
1301.59729 352.0
1301.647583 204.0
1301.712158 136.0
1301.812744 168.0
1301.942017 164.0
1302.092773 240.0
1302.229248 112.0
1302.724854 116.0
1303.17749 188.0
1303.989502 192.0
1304.083008 192.0
1304.542969 148.0
1305.269165 120.0
1305.930786 176.0
1306.024292 256.0
1306.23291 160.0
1307.247314 124.0
1307.693604 92.0
1308.211792 156.0
1309.274658 212.0
1309.932861 100.0
1310.012085 232.0
1311.066406 192.0
1311.258667 72.0
1311.583008 156.0
1311.679932 132.0
1311.943481 84.0
1312.476929 116.0
1313.335205 236.0
1313.414551 132.0
1315.037964 144.0
1315.203979 92.0
1316.438599 56.0
1317.189697 32.0
1318.822754 188.0
1319.086792 184.0
1319.885376 176.0
1320.109619 192.0
1320.702637 168.0
1321.122192 112.0
1321.180054 220.0
1321.549072 76.0
1321.635864 120.0
1321.881958 136.0
1322.402954 212.0
1324.321655 124.0
1326.422974 132.0
1326.915894 160.0
1326.995728 192.0
1327.27124 160.0
1328.540405 120.0
1329.890137 64.0
1329.969971 192.0
1330.144165 192.0
1330.703247 160.0
1330.754028 128.0
1331.305908 184.0
1332.736938 180.0
1333.376343 132.0
1333.529053 204.0
1333.972412 72.0
1334.211548 184.0
1334.699463 128.0
1334.859375 212.0
1335.58667 264.0
1335.819458 196.0
1337.238281 148.0
1337.362061 216.0
1337.616821 172.0
1338.09729 164.0
1338.264648 188.0
1338.985718 64.0
1342.345215 200.0
1345.358521 200.0
1346.300537 188.0
1346.548828 180.0
1346.884766 164.0
1347.344971 188.0
1347.564209 392.0
1348.148682 184.0
1349.354858 212.0
1349.844727 36.0
1350.071411 80.0
1350.137207 216.0
1351.373413 236.0
1352.34668 164.0
1352.82251 120.0
1353.181274 48.0
1353.466797 132.0
1353.671875 96.0
1353.723145 188.0
1353.906128 168.0
1355.591064 160.0
1356.661133 76.0
1356.771118 60.0
1357.108398 132.0
1358.670654 168.0
1359.595093 92.0
1359.800659 180.0
1359.852051 236.0
1360.34375 164.0
1360.564087 176.0
1361.268921 220.0
1361.36438 196.0
1361.636108 204.0
1362.818848 136.0
1363.325806 200.0
1364.237183 108.0
1364.354858 160.0
1364.685669 188.0
1364.979858 108.0
1365.744629 68.0
1367.105713 172.0
1367.2677 128.0
1367.781616 120.0
1368.128906 180.0
1369.10083 180.0
1369.240723 76.0
1369.741577 124.0
1370.607178 164.0
1370.927856 192.0
1371.244751 132.0
1371.841797 180.0
1372.918213 180.0
1373.582031 192.0
1374.105835 208.0
1374.157471 196.0
1375.126343 176.0
1375.441528 156.0
1376.36438 148.0
1376.704102 180.0
1377.782471 160.0
1378.417847 88.0
1378.499146 92.0
1379.600464 192.0
1379.659546 152.0
1380.140137 60.0
1380.909302 120.0
1381.456665 160.0
1381.552856 244.0
1381.840576 156.0
1382.129883 172.0
1382.544312 68.0
1382.640503 188.0
1382.766357 200.0
1382.877319 152.0
1383.869263 128.0
1384.261719 192.0
1384.624634 196.0
1385.51355 164.0
1385.754028 160.0
1386.180298 180.0
1386.550903 156.0
1387.484863 160.0
1388.597168 160.0
1388.953125 64.0
1390.278809 260.0
1391.647095 160.0
1391.74353 140.0
1391.966309 72.0
1392.588257 132.0
1392.700928 148.0
1393.422119 144.0
1394.321289 156.0
1395.042236 244.0
1395.442383 224.0
1395.503174 80.0
1395.97168 136.0
1397.593262 160.0
1397.86853 136.0
1398.292725 72.0
1398.880737 104.0
1399.089233 168.0
1399.930664 216.0
1400.02002 172.0
1400.109375 200.0
1400.213623 164.0
1401.383179 164.0
1401.845093 108.0
1402.650024 176.0
1403.14209 144.0
1403.484985 176.0
1403.828003 144.0
1403.887695 200.0
1408.104248 172.0
1408.447876 184.0
1408.559937 176.0
1409.008179 128.0
1409.493774 152.0
1409.590942 144.0
1410.009399 192.0
1411.302734 152.0
1412.200073 112.0
1413.359619 152.0
1413.950806 168.0
1414.1604 36.0
1415.9198 164.0
1415.987183 196.0
1416.114502 208.0
1416.211914 108.0
1416.406616 160.0
1416.519043 60.0
1416.93103 128.0
1416.983521 140.0
1417.867676 104.0
1418.047607 180.0
1418.647217 64.0
1419.149536 208.0
1419.261963 196.0
1420.266968 144.0
1420.619507 164.0
1420.694458 196.0
1420.968018 204.0
1421.219727 136.0
1421.474854 196.0
1422.030151 200.0
1422.292847 244.0
1424.402832 32.0
1424.733398 112.0
1425.041504 112.0
1425.101562 128.0
1425.240234 176.0
1425.364502 220.0
1425.574951 156.0
1426.22876 180.0
1426.491943 60.0
1427.664795 132.0
1428.492188 200.0
1428.921021 180.0
1429.086548 220.0
1430.260498 140.0
1431.19751 180.0
1431.660889 156.0
1432.5271 176.0
1432.58728 208.0
1433.378418 164.0
1434.003906 196.0
1434.893433 120.0
1435.059326 120.0
1435.436279 56.0
1437.571167 212.0
1439.22522 156.0
1441.4375 180.0
1442.55603 152.0
1443.039917 160.0
1443.100342 192.0
1443.720459 188.0
1443.909546 72.0
1444.393555 208.0
1445.959839 60.0
1447.537598 176.0
1447.610107 224.0
1448.019165 156.0
1448.450806 148.0
1448.519043 100.0
1448.981079 220.0
1450.602905 120.0
1450.656006 164.0
1451.307983 100.0
1451.376221 172.0
1451.831177 36.0
1452.460693 148.0
1452.946167 172.0
1453.431763 148.0
1453.666992 184.0
1454.000977 176.0
1454.646118 136.0
1455.701416 144.0
1455.845703 232.0
1456.673584 140.0
1456.810303 188.0
1457.197754 136.0
1457.402954 164.0
1459.867432 256.0
1460.717651 156.0
1460.88501 168.0
1461.021973 200.0
1461.105591 156.0
1461.387085 116.0
1461.744751 160.0
1462.064331 208.0
1462.513428 204.0
1463.053955 196.0
1463.929565 80.0
1464.272217 184.0
1467.099121 200.0
1467.282104 224.0
1468.036987 144.0
1469.028564 156.0
1469.173462 148.0
1470.585205 152.0
1471.104248 108.0
1471.409546 188.0
1472.646606 172.0
1472.952148 96.0
1474.312134 180.0
1474.556763 176.0
1477.332397 80.0
1477.653687 168.0
1478.013306 208.0
1478.112793 176.0
1478.281128 56.0
1478.494873 176.0
1478.638062 56.0
1478.96228 144.0
1479.352661 252.0
1479.459839 188.0
1480.263794 140.0
1480.661987 204.0
1480.945435 212.0
1481.880005 200.0
1482.079224 156.0
1482.883789 116.0
1483.35144 144.0
1483.63501 192.0
1483.926392 72.0
1484.969238 268.0
1485.1073 152.0
1485.713379 188.0
1485.84375 216.0
1486.127563 156.0
1486.45752 160.0
1486.541992 212.0
1486.956421 188.0
1487.73938 148.0
1487.906128 220.0
1488.292114 84.0
1488.637695 196.0
1488.80481 140.0
1488.998657 128.0
1489.236694 152.0
1490.803955 200.0
1490.880859 80.0
1491.14209 152.0
1491.211304 176.0
1491.54187 228.0
1491.75708 152.0
1491.887695 160.0
1492.279785 168.0
1492.810425 132.0
1493.179565 160.0
1493.579468 184.0
1494.08667 184.0
1495.811035 192.0
1496.896606 172.0
1497.820801 192.0
1498.512329 180.0
1498.542725 140.0
1498.799194 132.0
1498.930176 224.0
1500.16333 184.0
1500.612427 164.0
1500.857178 152.0
1500.934326 164.0
1501.18103 184.0
1501.265869 164.0
1502.49231 112.0
1503.271606 168.0
1504.313599 124.0
1504.452515 132.0
1504.861694 72.0
