>compound 1_18_1_lysophosphatidylcholine
>formula C26H52NO7P
>ionization [M+H]+
>parentmass 522.356323
#inchi InChI=1S/C26H52NO7P/c1-5-6-7-8-9-10-11-12-13-14-15-16-17-18-19-20-26(29)32-23-25(28)24-34-35(30,31)33-22-21-27(2,3)4/h12-13,25,28H,5-11,14-24H2,1-4H3
#inchikey YAMUFBLWGFFICM
#Ion_Source ESI
#Instrument Q-TOF
#Compound_Source Commercial standard
#PI Dorrestein
#Data_Collector Amina
#Scan -1
#Precursor_MZ 522.356
#ExactMass 521.348
#Charge 1
#CAS_Number 3542-29-8
#Pubmed_ID N/A
#Smiles CCCCCCCCC=CCCCCCCCC(=O)OCC(COP(=O)([O-])OCC[N+](C)(C)C)O
#INCHI_AUX N/A
#Library_Class 2
#SpectrumID CCMSLIB00000077196
#IonMode Positive
#UpdateWorkflowName UPDATE-SINGLE-ANNOTATED-SILVER
#LibraryQualityString Silver
#TaskID 9bb88c04c6204bd4ae13def29ea30c87
##Scan# 2547
#SpectrumFile LysoPhosphatidylcholine_18_1.mzXML
#LibraryName gnps_library.mgf
#MQScore -1
#Organism Standards_Silver
#TIC_Query 0
#RT_Query -1
#MZErrorPPM -1
#SharedPeaks 0
#MassDiff 0
#LibMZ -1
#SpecMZ 522.356
#SpecCharge 0
#internalFilename spec-00000.mgf

>collision 10
75.085266 172.0
75.242256 192.0
75.376518 80.0
75.793877 228.0
75.95681 220.0
80.522041 52.0
82.229095 220.0
85.516487 156.0
87.331192 112.0
90.105026 240.0
90.309135 164.0
90.771133 148.0
90.924759 152.0
91.449203 244.0
92.06105 264.0
92.223412 28.0
93.035431 212.0
93.267815 184.0
93.953201 64.0
95.100441 180.0
95.411179 116.0
95.485054 88.0
95.831474 256.0
96.045876 184.0
96.60051 96.0
97.91925 120.0
98.985062 1060.0
99.054733 52.0
100.250549 196.0
102.079834 208.0
103.449501 136.0
103.868874 308.0
103.945953 128.0
103.964211 164.0
104.10743 5084.0
104.14283 44.0
104.190178 64.0
104.220016 184.0
104.362259 40.0
104.555466 88.0
104.98159 92.0
105.11396 540.0
105.174927 48.0
105.22187 76.0
105.458778 92.0
105.685333 104.0
105.968216 48.0
107.083412 92.0
107.772263 220.0
108.225143 156.0
109.097458 232.0
109.150368 92.0
117.303085 196.0
117.520859 24.0
118.166733 172.0
123.114685 192.0
124.702835 60.0
124.902908 88.0
124.974083 164.0
125.00074 3076.0
125.030281 92.0
125.138748 80.0
125.192177 48.0
125.615562 80.0
125.892258 120.0
126.004997 236.0
126.386162 40.0
126.594292 116.0
127.001564 220.0
129.188889 80.0
129.668808 160.0
130.290421 228.0
132.610596 76.0
133.218536 148.0
134.443176 184.0
148.553268 180.0
149.196655 196.0
152.022049 168.0
152.373093 288.0
155.077072 20.0
157.854828 116.0
157.982361 176.0
158.625793 64.0
158.961792 256.0
163.019043 160.0
165.96669 120.0
166.062653 1420.0
167.066849 164.0
167.807236 144.0
168.070251 128.0
170.750854 132.0
171.01358 80.0
173.030975 232.0
174.878601 176.0
180.202438 100.0
181.026093 180.0
182.818939 92.0
183.691696 208.0
184.073624 12868.0
184.120758 412.0
184.358444 132.0
184.50824 56.0
184.596283 88.0
184.95874 92.0
185.010162 88.0
185.075653 776.0
185.578979 72.0
185.825745 100.0
186.072662 224.0
186.192108 52.0
186.360565 140.0
186.504486 32.0
186.716522 80.0
187.252548 68.0
187.516769 120.0
189.251053 60.0
200.29718 68.0
203.500626 120.0
207.095856 228.0
209.030411 168.0
226.882034 100.0
230.810318 148.0
231.878693 48.0
237.785095 92.0
239.229446 120.0
241.09819 160.0
246.829315 124.0
258.105011 168.0
259.018463 64.0
265.917114 176.0
267.141846 140.0
268.741119 136.0
268.878143 108.0
269.861176 124.0
272.988251 156.0
275.2883 188.0
275.806915 244.0
278.908722 92.0
282.726746 136.0
284.502838 52.0
288.571747 208.0
288.602173 44.0
295.686584 236.0
295.755005 40.0
305.852753 176.0
306.193878 96.0
307.7453 232.0
307.871002 88.0
313.613037 196.0
314.395844 76.0
318.228577 104.0
319.237488 184.0
322.034515 200.0
322.448883 136.0
325.198914 196.0
331.360352 136.0
334.282654 188.0
338.516205 252.0
339.298706 320.0
340.286835 192.0
340.419006 104.0
341.289673 184.0
341.826599 88.0
343.189178 68.0
346.651917 140.0
348.818909 228.0
351.134369 72.0
353.348969 196.0
355.289185 124.0
355.784454 104.0
356.584351 164.0
357.689941 116.0
364.214996 280.0
365.457855 156.0
365.648071 232.0
366.80191 204.0
369.157043 72.0
369.956543 68.0
372.671265 116.0
373.539917 96.0
375.484589 140.0
377.063293 128.0
380.005615 104.0
384.194763 128.0
384.460022 188.0
384.811249 136.0
385.709564 208.0
388.289246 156.0
388.799133 104.0
392.870697 240.0
393.09552 144.0
396.440277 160.0
402.73291 172.0
403.891785 176.0
403.971771 184.0
405.637268 144.0
408.531921 112.0
409.083557 188.0
411.291626 148.0
412.119324 88.0
412.608246 212.0
414.935638 212.0
415.72641 128.0
421.062439 132.0
421.728241 176.0
424.245117 172.0
425.377075 144.0
427.629059 216.0
427.678436 164.0
428.063232 172.0
429.594116 288.0
432.039185 164.0
432.337036 196.0
434.606232 56.0
434.661255 196.0
435.15509 192.0
435.707336 164.0
443.95343 20.0
445.270905 132.0
447.553833 88.0
447.684326 140.0
449.243469 108.0
450.598358 244.0
458.348541 128.0
458.710724 144.0
461.78006 128.0
462.425964 200.0
462.614258 172.0
464.413574 152.0
464.863953 128.0
466.237854 104.0
466.908356 128.0
468.737518 144.0
469.202911 152.0
470.488251 124.0
472.895447 204.0
473.241669 156.0
475.235016 152.0
475.317413 168.0
487.177551 24.0
488.100311 116.0
489.230804 108.0
489.384857 120.0
492.223846 148.0
493.177887 136.0
496.227264 68.0
496.612976 160.0
496.652893 180.0
497.380432 120.0
498.490509 184.0
499.21048 192.0
500.015533 184.0
502.077789 284.0
502.340881 152.0
502.492523 152.0
503.06366 80.0
504.135345 80.0
504.342926 4188.0
504.410431 364.0
504.448608 100.0
505.17691 56.0
505.226105 120.0
505.348999 984.0
506.264282 84.0
506.354645 316.0
507.164612 72.0
507.352844 144.0
507.388702 124.0
507.689056 100.0
508.999115 92.0
510.045654 208.0
510.166992 124.0
511.903351 164.0
512.304138 68.0
514.06665 84.0
514.147827 160.0
514.247131 64.0
514.427612 128.0
515.070679 132.0
515.380371 24.0
515.46167 44.0
515.655945 60.0
516.465088 108.0
516.740967 116.0
516.994324 112.0
517.184387 116.0
517.281616 148.0
517.401611 76.0
517.564575 128.0
517.609863 144.0
517.691345 40.0
517.772827 56.0
518.107971 144.0
518.225708 124.0
518.307251 84.0
518.776245 168.0
518.887268 124.0
518.923523 88.0
518.959839 140.0
519.32251 52.0
519.376953 144.0
519.429138 124.0
519.503906 124.0
519.553833 64.0
519.629028 144.0
519.671753 56.0
519.763367 180.0
519.889526 124.0
519.937012 172.0
520.120911 96.0
520.220764 128.0
520.316101 176.0
520.380371 228.0
520.41925 116.0
520.533997 112.0
520.602051 124.0
520.655701 84.0
520.742798 56.0
520.897217 208.0
521.033508 88.0
521.156128 232.0
521.240051 216.0
521.315125 112.0
521.356018 128.0
521.387817 108.0
521.432922 172.0
521.617126 148.0
521.660461 72.0
521.701355 156.0
521.746826 116.0
521.778625 204.0
521.874817 128.0
521.923462 116.0
521.964478 136.0
522.017639 192.0
522.094421 328.0
522.10614 116.0
522.121399 252.0
522.162048 204.0
522.194763 184.0
522.253235 320.0
522.356323 80348.0
522.510071 136.0
522.595642 136.0
522.637451 56.0
522.678284 188.0
522.773804 96.0
522.881592 152.0
522.899109 84.0
522.938171 232.0
522.945923 48.0
523.0271 112.0
523.043213 296.0
523.102356 392.0
523.255676 240.0
523.360046 27564.0
523.476685 372.0
523.508179 108.0
523.546387 248.0
523.583313 104.0
523.624695 220.0
523.690491 172.0
523.736145 96.0
523.796204 116.0
523.845764 96.0
523.878723 112.0
523.893494 100.0
523.951172 68.0
524.027893 112.0
524.135559 84.0
524.173523 96.0
524.258789 48.0
524.293884 72.0
524.360474 5764.0
524.440247 108.0
524.476746 144.0
524.634399 88.0
524.688843 220.0
524.760071 68.0
524.791992 120.0
524.825256 40.0
524.862122 104.0
524.964294 96.0
524.997437 156.0
525.059082 108.0
525.163086 72.0
525.229736 96.0
525.26886 160.0
525.372192 948.0
525.523071 112.0
525.588074 120.0
525.631104 84.0
525.674316 76.0
525.722961 132.0
525.786194 112.0
525.88446 164.0
525.957581 80.0
526.031433 108.0
526.078247 104.0
526.128479 132.0
526.178223 116.0
526.211121 176.0
526.308594 96.0
526.374756 176.0
526.452576 100.0
526.502808 132.0
526.543884 60.0
526.585022 112.0
526.641174 120.0
526.677551 120.0
526.737366 124.0
526.808777 104.0
526.906982 56.0
526.971497 64.0
527.028015 112.0
527.059998 140.0
527.187927 136.0
527.242737 96.0
527.29071 152.0
527.325012 144.0
527.356995 120.0
527.448364 92.0
527.520813 108.0
527.62207 84.0
527.900879 80.0
527.969482 92.0
528.001465 56.0
528.225586 76.0
528.513733 136.0
528.705872 60.0
528.823059 92.0
528.866028 92.0
528.994141 64.0
529.163513 52.0
529.218445 88.0
529.273376 92.0
529.726685 112.0
529.772461 92.0
530.138916 72.0
530.661377 52.0
530.762207 76.0
531.142761 44.0
531.390442 92.0
531.473022 64.0
531.656555 96.0
532.063843 48.0
532.216431 40.0
533.401489 120.0
533.580688 52.0
533.980713 80.0
534.201416 84.0
535.752441 108.0
537.831665 72.0
538.122437 140.0
538.533325 108.0
538.930542 76.0
538.990601 40.0
539.979675 52.0
540.867859 64.0
541.691895 52.0
543.105347 76.0
543.365051 80.0
544.320984 60.0
546.602844 76.0
547.761841 104.0
547.862854 100.0
547.985413 84.0
552.587952 80.0
558.629089 96.0
567.216858 104.0
625.611328 128.0
632.598633 64.0
636.172119 60.0
646.578369 92.0
649.886658 116.0
654.088623 80.0
655.183228 120.0
661.048584 88.0
668.667847 84.0
674.386353 80.0
679.418518 84.0
682.076721 88.0
686.532471 140.0
713.842773 140.0
735.434387 92.0
737.135193 148.0
763.630798 40.0
771.34845 116.0
780.927795 112.0
799.205872 64.0
799.419678 64.0
800.888733 128.0
811.788391 52.0
814.5802 100.0
819.243835 24.0
828.845886 196.0
830.766174 192.0
850.508606 72.0
850.636292 52.0
851.727722 88.0
853.116211 172.0
870.20697 124.0
877.730835 64.0
878.692017 144.0
879.718689 132.0
881.171143 40.0
918.186035 128.0
919.525085 120.0
925.611389 76.0
927.252747 140.0
928.270996 84.0
933.516479 108.0
935.943848 84.0
949.942627 40.0
959.276794 64.0
964.069946 28.0
974.676453 64.0
997.829041 76.0
1010.041504 116.0
1043.856201 96.0
1074.030396 36.0
1131.180054 120.0
1151.367065 116.0
1151.414307 92.0
1155.705933 140.0
1165.11438 84.0
1170.888062 136.0
1193.953613 48.0
1228.851685 232.0
1245.706055 100.0
1248.798096 196.0
1250.120483 64.0
1256.49585 80.0
1264.719482 64.0
1333.276001 208.0
1344.007324 128.0
1400.706177 220.0
1421.223633 92.0
1519.913574 260.0
1522.156372 88.0
1547.687744 232.0
1549.081543 168.0
1550.021484 92.0
1559.601807 168.0
1559.672485 72.0
1567.848267 212.0
1575.721436 192.0
1592.098633 220.0
1593.528076 232.0
1629.441528 204.0
1642.592896 188.0
1649.026855 140.0
1659.523926 80.0
1668.696533 248.0
1671.103394 212.0
1684.062256 152.0
1709.660889 272.0
1718.56665 44.0
1747.393433 24.0
1778.599365 136.0
1780.958374 144.0
1790.86438 92.0
1797.750854 80.0
1800.460083 84.0
1806.383789 164.0
1823.694824 80.0
1831.044189 176.0
1861.868774 176.0
1878.468384 100.0
1880.987549 104.0
1909.418213 68.0
1938.211182 232.0
1945.577026 224.0
1947.94751 220.0
1951.734619 156.0
1957.664185 88.0
1999.761353 172.0
