>compound Ampiroxicam
>formula C20H21N3O7S
>ionization [M+Na]+
>parentmass 470.100677
#inchi InChI=1S/C20H21N3O7S/c1-4-28-20(25)30-13(2)29-18-14-9-5-6-10-15(14)31(26,27)23(3)17(18)19(24)22-16-11-7-8-12-21-16/h5-13H,4H2,1-3H3,(H,21,22,24)
#inchikey LSNWBKACGXCGAJ
#Ion_Source LC-ESI
#Instrument qTof
#Compound_Source Commercial
#PI Dorrestein
#Data_Collector Garg_Neha
#Scan -1
#Precursor_MZ 470.099
#ExactMass 447.11
#Charge 1
#CAS_Number 99464-64-9
#Pubmed_ID N/A
#Smiles C1(C2=C(S(N(C=1C(NC3C=CC=CN=3)=O)C)(=O)=O)C=CC=C2)OC(OC(OCC)=O)C
#INCHI_AUX N/A
#Library_Class 1
#SpectrumID CCMSLIB00000078621
#IonMode Positive
#UpdateWorkflowName UPDATE-SINGLE-ANNOTATED-GOLD
#LibraryQualityString Gold
#TaskID 77f51c88eb8b467eb4a01dd2d0cb90d2
##Scan# 1616
#SpectrumFile Plate10_1_20_GC1_01_15743.mzXML
#LibraryName FDALibrary_2_04302014.mgf
#MQScore -1
#Organism FDALibrary_2_04302014
#TIC_Query 0
#RT_Query -1
#MZErrorPPM -1
#SharedPeaks 0
#MassDiff 0
#LibMZ -1
#SpecMZ 470.099
#SpecCharge 0
#internalFilename spec-00000.mgf

>collision 10
56.063065 188.0
61.003235 196.0
65.258186 176.0
74.689514 176.0
89.131004 172.0
92.04821 148.0
105.045921 376.0
121.077438 1128.0
122.077789 216.0
125.862885 188.0
129.585831 120.0
130.468292 160.0
134.068832 152.0
143.058228 480.0
146.06929 464.0
149.029037 144.0
152.99855 288.0
162.068527 168.0
162.37738 176.0
182.028336 220.0
186.127655 208.0
189.057831 156.0
190.989334 200.0
191.050049 164.0
199.72377 168.0
210.022278 404.0
211.026291 244.0
212.025711 228.0
225.055878 140.0
227.650986 140.0
229.489517 152.0
233.091492 240.0
236.046829 232.0
239.430099 192.0
252.062408 228.0
255.546814 216.0
256.884857 164.0
259.998901 304.0
267.025055 156.0
272.081512 352.0
274.030365 140.0
281.633881 148.0
296.05069 404.0
297.056976 172.0
299.356323 176.0
310.137146 156.0
314.059753 412.0
319.92569 172.0
323.86795 160.0
334.844513 180.0
336.041199 3068.0
337.040619 592.0
338.035675 328.0
340.072021 164.0
354.049042 468.0
358.085571 948.0
359.094696 144.0
360.091675 104.0
361.096191 148.0
375.441162 160.0
379.582794 144.0
379.791779 112.0
380.068817 15408.0
380.150269 152.0
380.48645 152.0
380.925873 216.0
380.987793 184.0
381.071198 3236.0
381.147095 140.0
382.063934 1104.0
383.075195 464.0
410.185211 148.0
426.073303 112.0
432.315643 176.0
468.072906 148.0
470.100677 8296.0
470.243835 152.0
471.104218 3064.0
472.102417 620.0
473.100586 284.0
629.05127 152.0
632.740601 148.0
1344.134766 244.0
1957.17041 148.0
