>compound TAXIFOLIN-(+/-)
>formula C15H12O7
>ionization [M+H]+
>parentmass 305.065948
#inchi InChI=1S/C15H12O7/c16-7-4-10(19)12-11(5-7)22-15(14(21)13(12)20)6-1-2-8(17)9(18)3-6/h1-5,14-19,21H/t14-,15-/m1/s1
#inchikey CXQWRCVTCMQVQX
#Ion_Source LC-ESI
#Instrument qTof
#Compound_Source Commercial
#PI Dorrestein
#Data_Collector Garg_Neha
#Scan -1
#Precursor_MZ 305.066
#ExactMass 304.058
#Charge 1
#CAS_Number N/A
#Pubmed_ID N/A
#Smiles O[C@H]1[C@H](Oc2cc(O)cc(O)c2C1=O)c3ccc(O)c(O)c3
#INCHI_AUX N/A
#Library_Class 1
#SpectrumID CCMSLIB00000079003
#IonMode Positive
#UpdateWorkflowName UPDATE-SINGLE-ANNOTATED-GOLD
#LibraryQualityString Gold
#TaskID 278b19f5865741e282cec7349aa7e7a1
##Scan# 1099
#SpectrumFile NCP003352_E2_F11_BC6_01_15720.mzXML
#LibraryName NIHcollectionI_05062014.mgf
#MQScore -1
#Organism NIHcollectionI_05062014
#TIC_Query 0
#RT_Query -1
#MZErrorPPM -1
#SharedPeaks 0
#MassDiff 0
#LibMZ -1
#SpecMZ 305.066
#SpecCharge 0
#internalFilename spec-00000.mgf

>collision 10
45.53648 160.0
48.345245 188.0
49.380333 184.0
50.449001 188.0
60.287823 148.0
60.3512 188.0
62.387413 184.0
64.069695 172.0
64.139816 176.0
73.991707 184.0
81.87294 156.0
86.041534 204.0
92.532524 152.0
95.045921 148.0
99.265472 156.0
103.996544 148.0
105.033401 276.0
105.066727 156.0
106.152802 172.0
109.836349 188.0
110.942551 144.0
111.044609 264.0
111.56604 204.0
116.067307 140.0
117.031181 176.0
120.033134 176.0
120.452164 172.0
121.030251 784.0
122.038826 152.0
123.044769 3556.0
124.050797 360.0
126.368423 196.0
127.037621 288.0
129.07077 152.0
130.573257 180.0
133.026108 160.0
133.063995 156.0
133.137466 140.0
133.505157 184.0
135.335022 192.0
136.053741 168.0
137.037521 268.0
139.039734 1088.0
141.069504 172.0
143.040756 156.0
145.028091 152.0
145.066315 244.0
145.558273 168.0
147.046021 212.0
148.483109 172.0
148.917557 160.0
149.024261 3372.0
149.861404 176.0
150.027786 936.0
151.038696 324.0
153.018631 8872.0
154.020874 544.0
155.025162 280.0
155.229889 140.0
157.065674 296.0
160.055161 144.0
160.675186 232.0
161.026367 428.0
161.059509 344.0
162.023804 180.0
162.068283 148.0
163.037552 148.0
163.075348 132.0
164.015152 192.0
165.020767 192.0
167.034439 1256.0
167.111069 152.0
168.039078 312.0
169.063766 144.0
169.344299 180.0
170.16864 160.0
175.073135 296.0
177.020401 156.0
178.602158 184.0
179.032272 756.0
180.033356 148.0
183.044815 156.0
185.018494 148.0
185.06105 784.0
186.067673 208.0
189.056412 196.0
193.126923 140.0
195.030029 3764.0
196.033279 172.0
197.035278 140.0
197.059189 196.0
198.06781 156.0
198.120819 220.0
199.850266 176.0
201.751144 184.0
203.030823 340.0
203.07106 292.0
204.041824 148.0
206.77449 156.0
208.728073 184.0
208.886261 144.0
213.054703 1404.0
214.058029 376.0
216.03125 204.0
217.05632 136.0
221.317062 140.0
225.114273 148.0
230.956848 196.0
231.065994 4132.0
231.849991 156.0
232.069733 1096.0
233.072891 172.0
241.051208 1044.0
242.054169 264.0
243.063065 192.0
245.044067 204.0
246.618454 216.0
257.042847 188.0
258.05423 436.0
258.222626 196.0
259.061462 9576.0
260.062073 1644.0
261.05954 176.0
261.081573 272.0
269.043701 236.0
270.044525 148.0
273.042267 380.0
277.065857 164.0
285.073822 172.0
286.758881 160.0
287.055328 5492.0
288.055573 604.0
288.092712 184.0
289.057251 132.0
303.05188 156.0
304.053497 140.0
305.065948 4772.0
305.155731 100.0
306.069336 1252.0
307.072998 220.0
307.184937 140.0
308.16214 140.0
1511.047119 180.0
1576.781372 156.0
1602.332275 140.0
1771.935547 152.0
1792.462036 144.0
1854.433838 144.0
1855.419556 232.0
1873.964722 160.0
1918.99292 164.0
1924.288818 156.0
