>compound MLS000860067-01!PRE-084
>formula C19H27NO3
>ionization [M+H]+
>parentmass 318.205719
#inchi InChI=1S/C19H27NO3/c21-18(23-16-13-20-11-14-22-15-12-20)19(9-5-2-6-10-19)17-7-3-1-4-8-17/h1,3-4,7-8H,2,5-6,9-16H2
#inchikey RQHKZUBCUZVZEF
#origInchi InChI=1S/C19H27NO3.ClH/c21-18(23-16-13-20-11-14-22-15-12-20)19(9-5-2-6-10-19)17-7-3-1-4-8-17;/h1,3-4,7-8H,2,5-6,9-16H2;1H
#Ion_Source LC-ESI
#Instrument qTof
#Compound_Source NIH Pharmacologically Active Library
#PI Dorrestein
#Data_Collector VP/LMS
#Scan -1
#Precursor_MZ 318.214
#ExactMass 317.199
#Charge 1
#CAS_Number N/A
#Pubmed_ID N/A
#Smiles O=C(OCCN1CCOCC1)C2(CCCCC2)c3ccccc3.Cl
#INCHI_AUX N/A
#Library_Class 1
#SpectrumID CCMSLIB00000086069
#IonMode Positive
#UpdateWorkflowName UPDATE-SINGLE-ANNOTATED-GOLD
#LibraryQualityString Gold
#TaskID d252d724072548979f1f6f1ced849daf
##Scan# 1678
#SpectrumFile p5-D03_GD3_01_18454.mzXML
#LibraryName Pharm_Active_Library.mgf
#MQScore -1
#Organism Pharm_Active_Library
#TIC_Query 0
#RT_Query -1
#MZErrorPPM -1
#SharedPeaks 0
#MassDiff 0
#LibMZ -1
#SpecMZ 318.214
#SpecCharge 0
#internalFilename spec-00000.mgf

>collision 10
44.90464 28.0
44.927319 156.0
44.955338 184.0
44.988705 60.0
45.043453 108.0
45.07819 220.0
45.096901 180.0
45.127068 148.0
45.138569 216.0
45.221283 144.0
45.254749 36.0
45.380692 128.0
45.446411 164.0
45.455807 128.0
45.520237 180.0
45.535007 164.0
45.561874 92.0
45.674789 156.0
45.690933 240.0
45.728611 180.0
45.944126 136.0
45.961742 156.0
46.018433 180.0
46.108936 108.0
46.129276 156.0
46.198895 360.0
46.21035 152.0
46.250946 208.0
46.269318 168.0
46.362003 156.0
46.420826 316.0
46.475906 152.0
46.497952 228.0
46.519337 104.0
46.532913 152.0
46.558712 168.0
46.568783 180.0
46.59893 328.0
46.625278 176.0
46.685127 172.0
46.754566 116.0
46.765362 164.0
46.788502 180.0
46.861435 216.0
46.896114 144.0
46.968376 196.0
47.022953 192.0
47.204647 52.0
47.222424 188.0
47.237469 120.0
47.309998 112.0
47.331902 44.0
47.346966 176.0
47.388058 172.0
47.40176 196.0
47.416836 176.0
47.437393 168.0
47.504585 172.0
47.629498 132.0
47.709198 132.0
47.772457 216.0
47.882568 52.0
47.966618 172.0
47.996948 124.0
48.012115 176.0
48.085838 200.0
48.097656 116.0
48.140453 176.0
48.199852 140.0
48.221962 172.0
48.234402 176.0
48.285561 220.0
48.342278 208.0
48.377045 204.0
48.444733 172.0
48.494617 88.0
48.514023 88.0
48.552845 132.0
48.577488 240.0
48.665241 156.0
48.699959 176.0
48.79306 244.0
48.838951 180.0
48.980923 28.0
49.006001 268.0
49.096603 184.0
49.142635 188.0
49.197063 144.0
49.252918 180.0
49.287846 76.0
49.354904 164.0
49.452862 272.0
49.496258 180.0
49.528469 204.0
49.553684 112.0
49.575237 168.0
49.616749 180.0
49.626564 156.0
49.710724 192.0
49.771084 160.0
49.793549 96.0
49.810406 184.0
49.901749 132.0
49.993179 152.0
50.104412 152.0
50.200256 180.0
50.269375 148.0
50.290546 152.0
50.34137 200.0
50.358315 128.0
50.37809 140.0
50.447334 124.0
50.464298 184.0
50.551994 168.0
50.566147 60.0
50.625607 132.0
50.666683 140.0
50.693829 176.0
50.711018 180.0
50.729034 168.0
50.764481 72.0
50.809868 148.0
50.821217 172.0
50.906902 208.0
50.924847 220.0
50.938301 144.0
50.956558 160.0
50.987358 168.0
51.138111 136.0
51.280537 236.0
51.301918 180.0
51.377499 84.0
51.404606 144.0
51.491688 88.0
51.564552 208.0
51.580273 160.0
51.598858 184.0
51.610294 204.0
51.893787 140.0
51.954681 148.0
51.966934 288.0
52.058319 216.0
52.070286 136.0
52.087521 192.0
52.146431 204.0
52.188118 180.0
52.321918 172.0
52.353596 168.0
52.412655 204.0
52.447243 204.0
52.502029 160.0
52.585705 144.0
52.665112 136.0
52.776386 168.0
52.818325 176.0
52.870018 148.0
52.884884 332.0
52.897911 52.0
52.93121 132.0
52.990593 132.0
53.047112 176.0
53.068859 180.0
53.100761 120.0
53.145077 232.0
53.222656 92.0
53.264771 100.0
53.29528 116.0
53.429035 240.0
53.462502 48.0
53.571701 144.0
53.600838 116.0
53.619682 172.0
53.666428 176.0
53.738571 196.0
53.983284 184.0
54.028625 140.0
54.087158 172.0
54.10619 108.0
54.135471 224.0
54.166229 168.0
54.21751 148.0
54.24622 160.0
54.26807 184.0
54.279076 164.0
54.299606 68.0
54.396446 132.0
54.414062 148.0
54.433147 84.0
54.494839 216.0
54.550686 244.0
54.581558 148.0
54.699253 60.0
54.718391 156.0
54.800865 200.0
54.834465 220.0
54.868828 176.0
54.883404 132.0
54.895203 176.0
54.908474 176.0
54.943874 196.0
54.963055 180.0
54.985191 156.0
55.013233 168.0
55.329594 60.0
55.425865 184.0
55.459949 216.0
55.483665 176.0
55.495525 144.0
55.520737 208.0
55.54298 112.0
55.618656 244.0
55.64389 124.0
55.740433 420.0
55.761238 208.0
55.789482 168.0
55.81773 184.0
55.945869 108.0
55.9561 156.0
56.024609 140.0
56.114025 220.0
56.242313 132.0
56.299049 52.0
56.378223 136.0
56.472408 76.0
56.487366 124.0
56.511303 152.0
56.527763 216.0
56.614586 40.0
56.644539 200.0
56.676003 116.0
56.69698 140.0
56.716465 132.0
56.798931 124.0
56.880493 112.0
56.938515 124.0
56.995598 64.0
57.036175 148.0
57.112858 104.0
57.15498 132.0
57.216686 172.0
57.252823 176.0
57.321453 152.0
57.397488 224.0
57.486485 228.0
57.635685 168.0
57.66922 216.0
57.69038 144.0
57.707012 188.0
57.800789 28.0
57.876469 132.0
57.906757 192.0
57.992443 144.0
58.011303 88.0
58.04921 136.0
58.202465 124.0
58.226761 156.0
58.293602 144.0
58.392418 100.0
58.426983 204.0
58.498924 124.0
58.52879 116.0
58.541557 100.0
58.575653 124.0
58.655823 96.0
58.709183 124.0
58.994701 160.0
59.026318 200.0
59.202785 208.0
59.250267 220.0
59.271717 208.0
59.290108 192.0
59.359486 216.0
59.37674 196.0
59.393108 196.0
59.411236 48.0
59.439026 176.0
59.454197 144.0
59.487965 156.0
59.552456 132.0
59.615444 156.0
59.643108 164.0
59.686153 156.0
59.784599 152.0
59.809013 204.0
59.850834 140.0
60.024136 120.0
60.037243 196.0
60.123634 164.0
60.142155 164.0
60.159134 160.0
60.169941 136.0
60.2966 152.0
60.335243 140.0
60.369259 68.0
60.400192 156.0
60.468269 356.0
60.505417 136.0
60.565811 132.0
60.585949 128.0
60.66188 180.0
60.742516 136.0
60.765335 124.0
60.79837 172.0
60.848038 80.0
60.87133 32.0
60.885303 164.0
60.96854 228.0
61.022045 208.0
61.074184 204.0
61.118477 176.0
61.144409 216.0
61.205639 196.0
61.260151 156.0
61.27417 108.0
61.342739 224.0
61.395748 120.0
61.408226 160.0
61.497158 168.0
61.528378 116.0
61.55336 100.0
61.640831 164.0
61.653332 148.0
61.686157 132.0
61.880142 132.0
61.905621 180.0
61.967846 236.0
62.000751 128.0
62.013081 208.0
62.071293 108.0
62.1105 40.0
62.157566 164.0
62.195229 184.0
62.207787 152.0
62.295727 56.0
62.316147 164.0
62.383724 220.0
62.607147 56.0
62.629196 188.0
62.67173 212.0
62.69379 136.0
62.714279 96.0
62.787693 188.0
62.826233 192.0
62.841953 224.0
62.857788 232.0
62.868332 188.0
62.883038 212.0
62.895664 140.0
62.978573 212.0
62.98555 108.0
62.99115 204.0
63.055183 52.0
63.135811 148.0
63.205994 196.0
63.219654 172.0
63.256058 160.0
63.313057 188.0
63.374832 172.0
63.403355 64.0
63.544029 172.0
63.586933 180.0
63.723885 124.0
63.760433 324.0
63.789154 112.0
63.841507 216.0
63.94173 188.0
64.022469 196.0
64.105759 120.0
64.120148 144.0
64.147202 100.0
64.15995 96.0
64.175896 152.0
64.207222 136.0
64.24128 208.0
64.252449 220.0
64.444031 136.0
64.479187 236.0
64.503166 128.0
64.550591 144.0
64.573517 172.0
64.616707 148.0
64.627899 184.0
64.656708 200.0
64.679115 228.0
64.703125 136.0
64.733543 148.0
64.760773 108.0
64.775185 132.0
64.819244 152.0
64.895378 148.0
64.928352 220.0
64.951508 148.0
65.00766 164.0
65.062233 152.0
65.073471 128.0
65.145737 196.0
65.190727 168.0
65.205185 128.0
65.309692 164.0
65.423943 156.0
65.436821 40.0
65.475464 144.0
65.500305 180.0
65.618874 200.0
65.648956 144.0
65.783424 100.0
65.806023 248.0
65.846397 140.0
65.875465 216.0
65.91909 180.0
65.943108 200.0
65.964638 156.0
66.048424 140.0
66.072693 188.0
66.120056 252.0
66.208305 184.0
66.234718 176.0
66.292892 132.0
66.30497 168.0
66.331795 84.0
66.47776 192.0
66.532944 124.0
66.578407 136.0
66.66288 132.0
66.750656 152.0
66.784813 200.0
66.913361 212.0
66.931274 136.0
66.971985 156.0
66.989906 172.0
67.151268 124.0
67.226311 188.0
67.422279 148.0
67.451698 216.0
67.497475 108.0
67.535088 200.0
67.582527 208.0
67.792122 196.0
67.878998 148.0
67.917885 204.0
67.933121 148.0
67.990547 208.0
68.01992 152.0
68.039436 224.0
68.090691 56.0
68.113686 128.0
68.1987 232.0
68.250092 176.0
68.365234 172.0
68.378403 140.0
68.391563 148.0
68.426132 156.0
68.454124 160.0
68.574387 120.0
68.59417 192.0
68.683205 144.0
68.827141 148.0
68.897804 48.0
68.922989 244.0
68.937454 172.0
68.963898 212.0
69.038292 64.0
69.116043 228.0
69.175621 188.0
69.213699 140.0
69.276634 168.0
69.361145 144.0
69.475563 132.0
69.531975 172.0
69.55687 136.0
69.606674 192.0
69.654839 88.0
69.673111 220.0
69.737915 160.0
69.887627 156.0
69.902557 116.0
69.937508 140.0
70.059723 212.0
70.08905 208.0
70.144051 124.0
70.170723 108.0
70.189064 164.0
70.297485 148.0
70.429375 192.0
70.45443 76.0
70.49453 164.0
70.54969 184.0
70.661736 188.0
70.675072 144.0
70.760483 440.0
70.815735 128.0
70.852592 172.0
70.882751 192.0
70.931351 176.0
71.028603 168.0
71.060478 144.0
71.221634 160.0
71.260269 180.0
71.285477 180.0
71.398102 152.0
71.476982 144.0
71.571503 180.0
71.591637 156.0
71.632057 160.0
71.707878 212.0
71.72979 48.0
71.814095 252.0
71.836845 164.0
71.906891 172.0
71.920616 240.0
71.938957 196.0
71.965965 136.0
72.016632 168.0
72.058861 144.0
72.125679 112.0
72.17379 168.0
72.319275 168.0
72.338013 176.0
72.366676 172.0
72.512352 184.0
72.566597 228.0
72.610687 180.0
72.724358 228.0
72.807549 196.0
72.85511 180.0
72.875496 348.0
72.890785 140.0
72.924004 132.0
73.004677 120.0
73.045494 132.0
73.11866 196.0
73.166031 164.0
73.198669 212.0
73.212288 200.0
73.24295 44.0
73.268501 148.0
73.287239 208.0
73.406555 160.0
73.420197 136.0
73.462837 180.0
73.539619 148.0
73.605591 212.0
73.638649 120.0
73.742867 144.0
73.787308 200.0
73.820503 164.0
73.854004 152.0
73.881371 152.0
73.953239 144.0
73.982338 180.0
74.001793 220.0
74.085083 172.0
74.110786 192.0
74.227341 172.0
74.319962 116.0
74.338837 208.0
74.417793 56.0
74.62397 216.0
74.654915 180.0
74.699638 180.0
74.773621 176.0
74.8442 88.0
74.868309 160.0
74.901031 52.0
74.9217 232.0
74.945824 232.0
75.083725 132.0
75.119949 124.0
75.199318 172.0
75.334 116.0
75.351273 156.0
75.461884 180.0
75.543167 180.0
75.563927 136.0
75.607185 196.0
75.70932 140.0
75.743958 216.0
75.766479 172.0
75.828857 172.0
75.849655 160.0
75.896469 188.0
75.962639 236.0
76.040451 180.0
76.097733 124.0
76.141144 188.0
76.179993 164.0
76.262367 196.0
76.317932 260.0
76.365341 132.0
76.473732 212.0
76.5411 200.0
76.563148 200.0
76.577675 204.0
76.593346 188.0
76.645615 156.0
76.668266 372.0
76.712982 140.0
76.748756 204.0
76.781586 188.0
76.85508 212.0
76.868805 204.0
76.889366 200.0
76.947189 176.0
76.973541 144.0
77.174477 236.0
77.226936 52.0
77.240929 148.0
77.256676 180.0
77.291664 212.0
77.363678 220.0
77.500031 200.0
77.53157 236.0
77.670204 160.0
77.706703 200.0
77.742004 224.0
77.815727 148.0
77.829773 156.0
77.907051 176.0
77.924622 160.0
78.012489 144.0
78.18486 152.0
78.292244 144.0
78.46492 76.0
78.519585 180.0
78.549568 140.0
78.591911 180.0
78.606026 136.0
78.625435 228.0
78.796005 160.0
78.830284 212.0
78.876236 36.0
79.007095 168.0
79.061943 136.0
79.113274 180.0
79.168159 140.0
79.210663 120.0
79.42514 84.0
79.444656 148.0
79.457077 172.0
79.600838 128.0
79.648788 212.0
79.680763 124.0
79.693207 140.0
79.780289 136.0
79.814064 52.0
79.846077 196.0
79.908333 224.0
79.965271 180.0
80.057846 196.0
80.111282 168.0
80.148697 132.0
80.243156 88.0
80.42511 120.0
80.526878 44.0
80.592575 232.0
80.63765 160.0
80.675186 156.0
80.718094 168.0
80.730614 104.0
80.76638 72.0
80.787849 168.0
80.802162 208.0
80.832581 156.0
80.848686 180.0
80.886269 100.0
80.907753 236.0
80.999077 232.0
81.081497 144.0
81.154991 168.0
81.17292 236.0
81.196159 100.0
81.332588 200.0
81.35054 196.0
81.511902 132.0
81.537338 148.0
81.621826 200.0
81.639809 180.0
81.693764 156.0
81.711754 140.0
81.729744 196.0
81.774734 164.0
81.828735 172.0
81.841339 180.0
81.895607 312.0
81.933189 148.0
81.958412 160.0
81.989052 108.0
82.030502 84.0
82.05574 156.0
82.073769 156.0
82.288475 352.0
82.38961 92.0
82.409485 176.0
82.503464 232.0
82.52697 132.0
82.568558 172.0
82.832809 104.0
82.867226 160.0
82.890785 232.0
82.930656 164.0
82.951874 164.0
83.023117 164.0
83.097481 172.0
83.375298 84.0
83.426193 212.0
83.449829 204.0
83.495285 200.0
83.664505 132.0
83.677246 148.0
83.706383 140.0
83.719124 128.0
83.760147 176.0
83.775589 92.0
83.974266 184.0
84.083733 132.0
84.143967 144.0
84.279121 72.0
84.333946 192.0
84.370506 276.0
84.443649 192.0
84.524139 260.0
84.619316 128.0
84.715385 156.0
84.758514 164.0
84.829987 152.0
84.844658 128.0
85.017067 188.0
85.127213 196.0
85.182312 236.0
85.197006 168.0
85.320595 208.0
85.41024 208.0
85.465424 108.0
85.507706 164.0
85.529839 172.0
85.6661 172.0
85.699257 176.0
85.769287 140.0
85.913116 152.0
86.039963 180.0
86.057068 188.0
86.12355 376.0
86.140175 152.0
86.156799 40.0
86.17897 68.0
86.239388 224.0
86.258438 128.0
86.301575 132.0
86.326843 180.0
86.397125 208.0
86.415627 104.0
86.458183 176.0
86.497055 108.0
86.597038 128.0
86.756393 148.0
86.808304 48.0
86.932587 144.0
87.159126 120.0
87.220291 176.0
87.330154 140.0
87.380386 172.0
87.408295 204.0
87.449234 160.0
87.549767 112.0
87.588875 88.0
87.76033 180.0
87.795753 64.0
87.828293 152.0
87.870369 212.0
87.948738 100.0
87.969276 124.0
88.009453 196.0
88.043961 44.0
88.230942 216.0
88.296249 168.0
88.455284 168.0
88.512421 172.0
88.548904 232.0
88.577217 204.0
88.721291 124.0
88.811295 40.0
88.85257 164.0
88.946396 184.0
89.013977 196.0
89.053421 188.0
89.109772 192.0
89.378639 148.0
89.565018 140.0
89.615875 224.0
89.725189 148.0
89.740273 84.0
89.825134 136.0
89.869133 248.0
89.884171 164.0
89.904373 208.0
89.94326 252.0
89.964775 160.0
90.047852 152.0
90.093185 64.0
90.106415 148.0
90.153648 92.0
90.180107 172.0
90.195229 200.0
90.295433 40.0
90.312454 308.0
90.4468 200.0
90.552826 112.0
90.59639 164.0
90.628601 240.0
90.65741 176.0
90.731979 204.0
90.763176 180.0
90.791618 220.0
90.831444 200.0
90.924416 300.0
90.937698 200.0
90.975662 56.0
90.998444 232.0
91.013351 436.0
91.055466 42004.0
91.120499 60.0
91.136177 232.0
91.148697 76.0
91.153069 128.0
91.173195 68.0
91.213112 124.0
91.231781 108.0
91.252083 48.0
91.25592 100.0
91.275848 92.0
91.313629 156.0
91.340508 76.0
91.366768 400.0
91.399879 152.0
91.421539 68.0
91.433304 176.0
91.527016 72.0
91.600189 60.0
91.614624 224.0
91.634445 76.0
91.652725 72.0
91.684418 136.0
91.719948 204.0
91.749924 40.0
91.810944 64.0
91.833824 196.0
91.891052 56.0
91.91777 128.0
91.940666 32.0
91.986473 36.0
92.008904 128.0
92.030968 208.0
92.058594 6540.0
92.095306 84.0
92.122047 80.0
92.151207 168.0
92.168739 176.0
92.211853 188.0
92.265373 56.0
92.338036 92.0
92.413506 160.0
92.43177 80.0
92.462395 100.0
92.478256 152.0
92.495544 112.0
92.517899 180.0
92.552361 44.0
92.617409 120.0
92.636627 140.0
92.663445 136.0
92.682747 112.0
92.744995 108.0
92.767929 224.0
92.791855 140.0
92.845543 156.0
92.86412 64.0
92.897331 116.0
92.921272 148.0
93.000946 48.0
93.0355 168.0
93.057159 344.0
93.086212 136.0
93.196823 164.0
93.225647 104.0
93.392906 64.0
93.421761 68.0
93.466011 192.0
93.529518 88.0
93.550003 56.0
93.625786 156.0
93.689346 148.0
93.724022 100.0
93.757889 132.0
93.787621 124.0
93.813423 144.0
93.938019 188.0
94.063446 140.0
94.090469 60.0
94.214066 180.0
94.328712 156.0
94.428627 156.0
94.467308 112.0
94.500198 160.0
94.562981 160.0
94.649231 196.0
94.844894 164.0
94.864281 56.0
94.926323 128.0
95.000023 216.0
95.031067 164.0
95.057388 184.0
95.151398 52.0
95.290062 228.0
95.310654 176.0
95.367012 140.0
95.497276 88.0
95.559525 156.0
95.575096 180.0
95.631531 36.0
95.65683 212.0
95.687981 80.0
95.804825 160.0
95.8321 156.0
95.855484 48.0
95.882767 108.0
96.015335 196.0
96.082558 336.0
96.105064 120.0
96.222168 96.0
96.311996 152.0
96.376465 168.0
96.468315 172.0
96.51915 200.0
96.58564 116.0
96.689339 188.0
96.728477 168.0
96.765678 36.0
96.885139 128.0
96.914528 216.0
97.045845 140.0
97.065453 144.0
97.086166 196.0
97.18306 196.0
97.295006 260.0
97.34169 108.0
97.503212 132.0
97.518936 148.0
97.64476 108.0
97.676231 168.0
97.742973 104.0
97.768707 116.0
97.790352 56.0
97.812004 172.0
97.912415 180.0
98.103539 192.0
98.128288 144.0
98.182411 128.0
98.338615 204.0
98.397484 124.0
98.41468 180.0
98.545609 152.0
98.759102 164.0
98.848129 156.0
98.881767 128.0
98.908493 168.0
98.94709 92.0
99.042412 208.0
99.075821 212.0
99.103554 224.0
99.289886 104.0
99.305756 48.0
99.502197 172.0
99.581627 152.0
99.601494 88.0
99.64122 144.0
99.688904 168.0
99.738594 312.0
99.798233 144.0
99.851921 60.0
99.97924 216.0
100.106651 152.0
100.277977 196.0
100.383636 104.0
100.680969 200.0
100.734421 216.0
100.820808 36.0
100.976746 172.0
101.10199 272.0
101.210876 124.0
101.278969 212.0
101.471344 188.0
101.515457 52.0
101.563591 132.0
101.681961 132.0
101.736153 164.0
101.77832 176.0
101.812454 172.0
101.836555 188.0
101.973175 216.0
101.995285 196.0
102.017395 172.0
102.041519 132.0
102.10788 184.0
102.248703 180.0
102.29097 184.0
102.323181 128.0
102.361435 188.0
102.385605 180.0
102.407753 92.0
102.4561 220.0
102.524605 188.0
102.54274 128.0
102.619347 104.0
102.663704 212.0
102.740349 220.0
102.770607 204.0
102.792809 100.0
102.915932 112.0
102.952278 124.0
103.010849 160.0
103.053047 180.0
103.196777 148.0
103.21093 48.0
103.267548 212.0
103.320145 244.0
103.519958 144.0
103.640259 108.0
103.794075 184.0
103.899269 180.0
103.90667 156.0
103.945587 184.0
104.071274 52.0
104.667801 140.0
104.810387 168.0
104.847069 176.0
104.891907 228.0
104.946945 152.0
104.993568 176.0
105.033875 15104.0
105.069572 2068.0
105.104004 80.0
105.122368 84.0
105.202545 172.0
105.271385 176.0
105.381683 216.0
105.417259 68.0
105.451157 156.0
105.469559 168.0
105.484367 184.0
105.508392 136.0
105.626999 64.0
105.700653 172.0
105.835739 188.0
105.884888 196.0
105.931999 236.0
105.968872 196.0
106.015999 36.0
106.038689 1844.0
106.079628 180.0
106.13694 92.0
106.223076 184.0
106.264107 128.0
106.317352 80.0
106.369255 152.0
106.40551 120.0
106.468391 84.0
106.609062 52.0
106.650169 168.0
106.715904 172.0
106.742676 120.0
106.807625 144.0
107.046867 116.0
107.104889 108.0
107.125488 64.0
107.162567 148.0
107.308899 224.0
107.354263 104.0
107.374886 92.0
107.41201 164.0
107.426453 196.0
107.442955 68.0
107.729904 144.0
107.745056 144.0
108.099602 168.0
108.147591 220.0
108.184853 204.0
108.251106 196.0
108.286308 124.0
108.354668 208.0
108.651123 196.0
108.94799 152.0
109.024872 128.0
109.063644 288.0
109.184944 116.0
109.253586 172.0
109.297272 176.0
109.378441 180.0
109.447136 148.0
109.50753 188.0
110.09565 88.0
110.177109 132.0
110.373566 156.0
110.436302 156.0
110.601601 124.0
110.656029 164.0
110.695808 152.0
110.733505 164.0
110.760735 224.0
110.775398 192.0
110.9095 148.0
111.060463 108.0
111.07515 144.0
111.261909 108.0
111.352203 120.0
111.446732 124.0
111.587547 260.0
111.616982 52.0
111.677971 180.0
111.812622 124.0
111.837875 168.0
111.97683 36.0
112.010536 128.0
112.033707 196.0
112.078506 180.0
112.099022 156.0
112.210732 140.0
112.301407 172.0
112.35836 156.0
112.508194 156.0
112.558868 152.0
112.590538 260.0
112.674545 208.0
112.793365 88.0
112.81028 160.0
112.869476 168.0
113.057739 144.0
113.221771 172.0
113.254639 136.0
113.349968 76.0
113.470779 132.0
113.636208 188.0
113.651062 224.0
113.697746 240.0
113.731705 220.0
113.755341 148.0
113.784767 200.0
113.825111 136.0
113.877968 220.0
113.919945 208.0
113.957901 172.0
113.99781 212.0
114.045738 136.0
114.065437 336.0
114.09256 46880.0
114.119934 412.0
114.151405 108.0
114.176079 108.0
114.203392 52.0
114.224792 64.0
114.265434 192.0
114.28788 184.0
114.309761 100.0
114.324654 68.0
114.365089 36.0
114.441849 180.0
114.469406 120.0
114.500641 60.0
114.519554 88.0
114.550339 36.0
114.57164 64.0
114.607857 36.0
114.631302 84.0
114.691124 56.0
114.722946 32.0
114.824364 104.0
114.861908 48.0
114.921288 200.0
114.961479 124.0
114.989418 132.0
115.025856 84.0
115.054619 2284.0
115.094589 3388.0
115.173187 96.0
115.189713 136.0
115.224457 148.0
115.288551 92.0
115.403534 96.0
115.421089 128.0
115.483101 196.0
115.560112 44.0
115.605049 160.0
115.66925 44.0
115.688522 40.0
115.752747 48.0
115.773697 148.0
115.832794 80.0
115.853409 132.0
115.883408 144.0
115.923759 48.0
115.934174 104.0
115.964836 112.0
115.992699 60.0
116.01815 96.0
116.057816 160.0
116.091743 184.0
116.479782 172.0
116.522751 140.0
116.544235 148.0
116.636642 208.0
116.764748 192.0
116.830177 200.0
116.847382 192.0
116.886116 96.0
116.908249 168.0
116.993729 96.0
117.032478 336.0
117.070915 17192.0
117.10434 108.0
117.13961 204.0
117.196175 32.0
117.21772 64.0
117.243576 136.0
117.258659 40.0
117.310394 156.0
117.360573 188.0
117.457024 48.0
117.62101 100.0
117.64476 44.0
117.769997 156.0
117.964462 200.0
118.005539 176.0
118.072853 1384.0
118.130974 140.0
118.161255 108.0
118.184486 152.0
118.301926 188.0
118.42318 164.0
118.590012 88.0
118.65921 156.0
119.008064 104.0
119.075996 164.0
119.149857 60.0
119.199829 136.0
119.303177 124.0
119.682709 88.0
119.697952 128.0
119.719727 168.0
119.97683 136.0
119.998627 236.0
120.347717 168.0
120.367371 44.0
120.69294 64.0
120.738861 128.0
120.992676 200.0
121.053986 96.0
121.102165 180.0
121.200745 124.0
121.301552 56.0
121.450661 168.0
121.50914 164.0
121.617409 116.0
121.683266 192.0
121.703362 208.0
122.000717 128.0
122.036995 144.0
122.51226 176.0
122.565239 124.0
122.664413 128.0
122.774651 212.0
122.838615 188.0
123.025429 140.0
123.071671 172.0
123.194016 80.0
123.353119 48.0
123.607452 44.0
123.693764 156.0
123.940842 184.0
123.945641 104.0
123.953621 156.0
124.088089 168.0
124.143517 88.0
124.214493 92.0
124.30545 52.0
124.332085 204.0
124.369812 136.0
124.836357 100.0
125.005417 52.0
125.027672 84.0
125.081085 176.0
125.341652 92.0
125.586876 124.0
125.725197 112.0
125.787697 200.0
125.84127 184.0
126.089218 228.0
126.203224 120.0
126.353073 164.0
126.406769 96.0
126.582962 180.0
126.621674 152.0
126.814354 128.0
126.870392 72.0
126.944382 228.0
127.139542 160.0
127.251778 152.0
127.284386 252.0
127.644981 60.0
127.692207 128.0
127.791183 92.0
127.883446 108.0
127.998253 152.0
128.066269 692.0
128.595657 40.0
128.627258 188.0
129.071564 432.0
129.343796 152.0
129.416229 144.0
129.547592 116.0
129.620087 124.0
129.64502 124.0
129.692612 144.0
129.876266 56.0
129.944321 172.0
130.08046 340.0
130.141769 92.0
130.44165 136.0
130.546234 80.0
130.575806 112.0
130.698639 140.0
131.086807 944.0
131.135864 136.0
131.25441 172.0
131.363876 192.0
131.651459 176.0
131.75882 172.0
131.939362 120.0
132.102371 1984.0
132.128128 140.0
132.385529 80.0
132.479431 140.0
132.545868 52.0
132.626083 76.0
132.73613 188.0
132.928802 236.0
133.059631 152.0
133.107468 172.0
133.169861 128.0
133.21579 200.0
133.397324 84.0
133.498489 156.0
133.519196 32.0
133.634201 156.0
133.700928 164.0
133.746964 200.0
133.926559 64.0
134.000275 144.0
134.069397 172.0
134.108582 128.0
134.514526 96.0
134.646133 216.0
134.847137 164.0
134.879501 168.0
135.041351 100.0
135.094543 128.0
135.184784 184.0
135.238007 192.0
135.270416 116.0
135.293564 60.0
135.457977 128.0
135.532104 156.0
135.571503 212.0
135.754639 200.0
135.910049 180.0
136.07019 208.0
136.832748 48.0
136.905655 128.0
137.007416 104.0
137.044693 136.0
137.249802 184.0
137.525085 168.0
137.578766 180.0
137.749237 176.0
138.247238 192.0
138.821152 128.0
138.914978 188.0
138.972519 144.0
139.001785 108.0
139.076202 168.0
139.114441 60.0
139.133209 132.0
139.645462 168.0
139.718384 124.0
140.19635 116.0
140.229355 172.0
140.274139 120.0
140.392014 120.0
140.429749 152.0
140.542984 128.0
141.020004 160.0
141.069504 828.0
141.105103 184.0
141.386581 272.0
141.500198 108.0
141.583069 160.0
141.803406 144.0
141.872131 112.0
142.078461 124.0
142.128281 132.0
142.905014 140.0
142.921875 196.0
143.026596 104.0
143.045639 96.0
143.062302 152.0
143.086136 172.0
143.107529 132.0
143.421982 160.0
143.538803 128.0
143.581726 204.0
143.696213 164.0
144.00415 40.0
144.054306 144.0
144.091278 320.0
144.130768 152.0
144.152267 84.0
144.168991 60.0
144.434372 48.0
144.465469 176.0
144.597076 160.0
144.707184 64.0
144.747879 120.0
145.291946 72.0
145.507935 168.0
145.750336 152.0
145.858673 128.0
146.149658 124.0
146.640915 136.0
146.720459 112.0
147.154709 136.0
147.186096 136.0
147.263382 64.0
147.652481 132.0
147.734726 96.0
147.858124 188.0
148.148682 196.0
148.209244 136.0
148.260132 136.0
148.352234 160.0
148.417694 92.0
148.531677 176.0
148.550278 156.0
148.61174 144.0
148.672394 164.0
148.79689 164.0
148.869186 188.0
148.927307 108.0
148.966309 76.0
149.027176 144.0
149.060867 37136.0
149.119461 228.0
149.199265 224.0
149.221054 228.0
149.245667 164.0
149.274216 108.0
149.299164 160.0
149.317322 68.0
149.350235 180.0
149.396454 196.0
149.52298 76.0
149.539017 104.0
149.606949 56.0
149.630081 152.0
149.64711 196.0
149.669281 76.0
149.827332 48.0
149.859009 92.0
149.900436 48.0
149.922363 56.0
149.954041 48.0
149.983719 204.0
150.062958 2620.0
150.178345 48.0
150.263733 80.0
150.339371 48.0
150.375977 48.0
150.57373 88.0
150.99321 156.0
151.023438 76.0
151.071365 640.0
151.14505 180.0
151.154617 128.0
151.18634 96.0
151.241196 60.0
151.341568 48.0
151.372269 216.0
151.525253 188.0
151.686996 68.0
151.762985 104.0
151.824295 208.0
151.93222 164.0
152.010727 144.0
152.03772 144.0
152.064713 184.0
152.202194 108.0
152.354462 156.0
152.406052 120.0
153.092346 360.0
153.213028 48.0
153.323914 176.0
153.402786 148.0
153.439758 136.0
153.637054 36.0
153.812256 316.0
154.070862 132.0
154.101181 176.0
154.514053 32.0
154.999344 136.0
155.078644 116.0
155.252182 248.0
155.47049 152.0
155.659149 176.0
156.011948 160.0
156.091507 112.0
156.477173 136.0
156.74617 172.0
156.940582 56.0
157.102692 124.0
157.439636 376.0
157.497086 72.0
158.059586 112.0
158.082092 176.0
158.117142 164.0
158.142166 96.0
158.1772 188.0
158.307388 40.0
158.420105 128.0
158.462692 192.0
158.480225 52.0
158.518463 184.0
158.56041 180.0
158.613052 204.0
158.649933 168.0
158.713333 96.0
158.801102 228.0
158.817352 160.0
158.851257 236.0
158.86882 64.0
158.889969 160.0
158.916489 180.0
158.934052 136.0
158.976089 148.0
159.004944 160.0
159.024399 124.0
159.061661 156.0
159.118164 78852.0
159.203827 68.0
159.244537 76.0
159.304337 220.0
159.359299 120.0
159.387878 108.0
159.439972 76.0
159.475952 76.0
159.506638 40.0
159.532242 344.0
159.572006 68.0
159.626587 76.0
159.687057 132.0
159.716827 128.0
159.758865 160.0
159.821274 72.0
159.861267 40.0
159.940384 220.0
160.002213 76.0
160.043808 84.0
160.072708 148.0
160.121033 8424.0
160.146866 280.0
160.156174 252.0
160.179321 48.0
160.301941 52.0
160.362411 44.0
160.39267 132.0
160.417511 84.0
160.497482 76.0
160.538895 56.0
160.556549 84.0
160.601944 56.0
160.621933 56.0
160.63562 80.0
160.6978 52.0
160.76088 36.0
160.812347 68.0
160.874466 72.0
160.922424 76.0
161.008286 120.0
161.025955 80.0
161.125168 740.0
161.182587 48.0
161.208252 124.0
161.253342 60.0
161.29277 120.0
161.311478 36.0
161.356689 72.0
161.405563 92.0
161.447693 104.0
161.513763 96.0
161.55069 40.0
161.594711 128.0
161.698456 88.0
161.774399 108.0
161.804764 36.0
161.906052 68.0
162.004837 96.0
162.060562 196.0
162.131516 152.0
162.192352 80.0
162.255722 100.0
162.295609 164.0
162.336853 28.0
162.471283 120.0
162.489044 120.0
163.075317 2940.0
163.251038 52.0
163.770218 72.0
164.075348 472.0
164.271179 156.0
164.507126 172.0
164.78038 132.0
164.887695 164.0
165.081985 168.0
165.112671 164.0
165.133133 32.0
167.044022 128.0
167.679993 56.0
167.875916 112.0
167.901703 104.0
168.035828 48.0
168.244873 56.0
168.262939 100.0
168.51088 96.0
168.53154 48.0
168.945206 56.0
169.102982 868.0
169.434479 44.0
170.106125 200.0
170.888367 140.0
171.013275 112.0
171.041901 76.0
171.325745 132.0
171.672394 60.0
171.813232 92.0
172.915909 108.0
173.350632 112.0
174.387238 52.0
174.435257 104.0
175.076523 184.0
175.870087 144.0
176.06282 192.0
176.290009 256.0
176.591385 124.0
176.710419 72.0
179.030334 136.0
179.107574 84.0
180.033035 212.0
180.837738 132.0
182.75914 48.0
185.915268 192.0
185.945129 184.0
186.178604 132.0
187.110413 344.0
187.130524 204.0
188.11084 164.0
188.141739 128.0
188.677185 148.0
189.118134 180.0
189.251724 88.0
189.399597 48.0
189.773331 112.0
192.305847 64.0
193.771423 40.0
193.943222 156.0
194.833969 136.0
196.389999 104.0
197.468079 124.0
198.072647 72.0
198.092255 180.0
199.144104 156.0
199.835617 152.0
200.32547 68.0
200.505798 188.0
200.550888 92.0
202.245575 204.0
203.027527 100.0
203.333908 96.0
203.592255 140.0
205.09729 208.0
205.616379 196.0
206.279022 180.0
206.908371 184.0
207.131729 196.0
207.553009 136.0
207.682053 72.0
208.221634 128.0
208.606644 148.0
210.811493 172.0
211.204681 104.0
211.329071 160.0
213.603485 80.0
214.407074 120.0
218.788986 76.0
218.977448 144.0
219.398804 72.0
219.675995 76.0
219.796967 40.0
220.030121 64.0
222.499176 108.0
224.403244 68.0
224.582169 128.0
225.929337 208.0
226.351349 180.0
226.764755 208.0
226.806717 76.0
227.31955 132.0
229.27121 92.0
229.792862 96.0
230.149002 52.0
230.209396 76.0
230.448013 192.0
230.60817 152.0
230.765366 120.0
230.91832 96.0
230.95285 184.0
230.97403 84.0
231.024643 164.0
231.080566 192.0
231.138901 15956.0
231.207413 200.0
231.28569 196.0
231.315948 44.0
231.346786 64.0
231.412827 80.0
231.449158 52.0
231.791443 72.0
231.936905 60.0
231.973282 204.0
232.094543 48.0
232.141144 3048.0
232.243149 36.0
232.428192 48.0
232.604218 60.0
232.719574 72.0
232.754044 68.0
233.140686 464.0
233.254257 60.0
233.378891 36.0
233.418427 100.0
233.613068 76.0
233.705994 132.0
233.746933 124.0
233.83519 144.0
233.941727 48.0
233.981293 80.0
234.154861 168.0
234.538757 116.0
234.861954 144.0
235.002274 96.0
235.096878 60.0
235.481537 68.0
235.673981 80.0
237.570297 132.0
239.293137 96.0
240.088104 140.0
240.294769 88.0
240.430542 60.0
241.678925 88.0
241.849136 96.0
242.295044 76.0
243.014313 108.0
244.204056 100.0
246.245483 44.0
246.914291 188.0
251.668716 76.0
252.231049 108.0
254.340591 60.0
255.026657 80.0
255.214218 92.0
256.653381 72.0
257.428772 92.0
258.122192 88.0
258.397247 108.0
259.848572 128.0
262.060547 132.0
262.337677 60.0
262.424744 56.0
265.107574 128.0
266.896149 88.0
266.92215 28.0
270.887512 72.0
271.365997 112.0
271.844879 48.0
274.38739 116.0
275.750641 52.0
277.322754 96.0
277.942871 60.0
286.283173 48.0
289.325317 168.0
292.356323 124.0
296.690735 60.0
298.54483 124.0
299.281219 116.0
299.932312 60.0
300.146057 60.0
303.194946 100.0
306.931854 80.0
315.668396 264.0
315.958435 52.0
316.177795 104.0
316.783264 76.0
317.187225 120.0
317.212036 88.0
317.619812 140.0
317.726227 80.0
318.205719 2712.0
318.389984 112.0
318.492981 32.0
319.054413 84.0
319.079315 32.0
319.208496 320.0
319.36377 36.0
319.915314 116.0
320.209229 176.0
320.239349 208.0
320.816589 112.0
321.183868 136.0
321.455017 96.0
321.501404 52.0
321.74411 36.0
325.446045 56.0
339.595795 36.0
341.171051 104.0
344.06665 76.0
346.233398 48.0
350.11792 48.0
352.296173 40.0
356.981171 128.0
359.026001 76.0
360.037384 44.0
362.901825 28.0
382.978577 52.0
393.294617 68.0
393.499908 132.0
397.23172 28.0
406.299255 128.0
408.396057 44.0
416.951141 132.0
417.117767 80.0
420.816772 44.0
422.402405 76.0
427.712036 44.0
439.410706 64.0
439.702789 76.0
443.190308 112.0
444.062225 88.0
455.322388 108.0
480.431335 48.0
481.518188 72.0
482.304657 56.0
503.428253 84.0
504.98349 80.0
507.123596 72.0
515.41748 88.0
517.606689 80.0
539.162659 80.0
583.415955 76.0
600.309082 72.0
620.057312 132.0
626.417114 84.0
665.329346 236.0
675.393188 120.0
686.350952 200.0
697.770081 36.0
702.093018 168.0
711.187622 156.0
723.431519 96.0
726.105164 124.0
729.788879 60.0
734.630432 152.0
742.592468 156.0
747.405518 76.0
747.748352 156.0
753.910889 172.0
758.864563 92.0
759.758484 116.0
761.767639 44.0
764.153564 204.0
769.830872 140.0
769.946838 180.0
772.754822 144.0
773.673523 184.0
774.171814 84.0
778.108582 184.0
778.291809 168.0
778.680481 108.0
784.667847 184.0
786.664978 216.0
786.754333 236.0
787.184204 156.0
789.620728 64.0
790.571777 156.0
790.784424 204.0
791.17627 164.0
792.923889 188.0
794.514038 176.0
796.655151 144.0
797.3125 104.0
801.042847 204.0
802.637756 96.0
803.799744 76.0
804.732971 116.0
806.137451 172.0
806.781799 64.0
808.048584 108.0
808.184387 40.0
809.769409 124.0
810.3302 148.0
811.73584 160.0
812.416443 80.0
813.886353 60.0
815.124634 292.0
815.368958 144.0
815.482666 72.0
815.658875 200.0
816.073853 84.0
816.181885 212.0
816.687988 140.0
817.36499 48.0
817.820251 72.0
819.357727 124.0
821.067688 204.0
821.181763 72.0
821.563965 180.0
822.90509 184.0
823.110657 44.0
825.624939 236.0
827.393005 224.0
827.536133 64.0
827.610535 196.0
831.359375 292.0
832.760132 132.0
833.001404 192.0
834.081665 156.0
834.719788 64.0
836.411194 180.0
841.247437 180.0
842.968567 84.0
843.165039 180.0
843.864441 132.0
844.095764 44.0
845.275757 160.0
846.132385 136.0
846.766968 172.0
846.979065 188.0
848.032349 40.0
848.727966 84.0
849.487671 156.0
852.686951 224.0
853.675232 188.0
854.320801 180.0
854.757141 160.0
855.775757 184.0
856.369751 116.0
856.655151 160.0
858.246155 120.0
859.296021 192.0
859.646057 176.0
861.654602 180.0
864.24469 192.0
865.795837 208.0
865.989136 132.0
866.240967 96.0
866.6745 124.0
867.764648 84.0
867.870178 116.0
869.635925 152.0
869.976379 156.0
870.322754 200.0
871.867676 184.0
872.984619 120.0
873.590393 212.0
874.573059 152.0
875.049866 208.0
876.504639 172.0
877.123474 80.0
877.306213 68.0
877.512512 136.0
877.695312 160.0
877.842712 204.0
878.591797 172.0
880.634155 116.0
882.377319 164.0
883.518738 108.0
883.861877 192.0
885.637878 192.0
886.218384 132.0
886.603577 216.0
886.65094 236.0
889.242676 192.0
889.796143 180.0
890.845825 208.0
890.946838 172.0
891.35675 160.0
891.809753 232.0
892.09967 196.0
892.688293 144.0
894.145752 36.0
898.549194 172.0
898.614807 184.0
899.605469 172.0
900.824829 168.0
901.98291 84.0
902.233948 140.0
903.717163 108.0
905.099792 188.0
907.754272 160.0
907.868225 52.0
908.377991 196.0
908.911926 192.0
909.314575 164.0
910.718933 136.0
911.097351 144.0
911.355713 220.0
913.748596 140.0
914.681335 132.0
915.512146 180.0
916.060242 180.0
916.162659 64.0
917.150879 88.0
917.747681 176.0
918.145691 236.0
918.507568 172.0
920.08252 172.0
920.414612 188.0
920.505188 140.0
920.565552 52.0
920.782959 148.0
920.855469 136.0
921.640747 88.0
923.871643 168.0
924.997192 132.0
925.390686 180.0
925.965942 32.0
926.880676 68.0
927.947388 136.0
928.062622 44.0
928.65686 188.0
928.747864 184.0
930.361938 228.0
930.465149 156.0
930.847656 88.0
930.938782 160.0
932.269104 132.0
932.607361 248.0
933.643005 124.0
934.677124 96.0
934.719727 188.0
936.15625 208.0
936.442505 144.0
936.832336 172.0
937.710693 208.0
937.941345 52.0
938.420837 160.0
941.192993 144.0
941.797546 152.0
943.771423 180.0
945.31897 148.0
945.698853 108.0
946.114624 164.0
947.039246 68.0
947.553833 168.0
950.374084 168.0
951.012268 144.0
951.085938 120.0
951.497253 36.0
951.970032 188.0
952.332336 192.0
952.891357 124.0
953.561157 148.0
955.744141 156.0
956.938171 208.0
957.436951 144.0
957.646362 176.0
958.410217 192.0
959.581238 112.0
959.649109 56.0
959.784729 52.0
959.860901 224.0
960.132202 140.0
960.401428 68.0
961.536621 156.0
963.679321 160.0
963.772034 92.0
964.723755 164.0
965.502808 44.0
967.687134 188.0
969.136414 176.0
969.576355 116.0
969.663086 160.0
970.394531 268.0
970.865784 56.0
971.020874 200.0
971.082886 152.0
972.335754 160.0
973.956543 168.0
974.702026 80.0
975.050049 192.0
975.273804 60.0
976.759827 216.0
976.871826 92.0
977.108215 36.0
977.942017 128.0
978.240784 176.0
978.564514 220.0
978.788696 132.0
978.832275 124.0
979.224609 256.0
979.835022 148.0
980.00946 140.0
981.480408 224.0
981.698669 76.0
982.434631 128.0
983.389343 68.0
983.807556 172.0
983.876221 168.0
983.919922 204.0
984.063477 136.0
984.619263 140.0
984.987732 196.0
985.418152 164.0
985.98114 180.0
986.312378 192.0
986.499939 180.0
986.71875 156.0
987.125122 156.0
987.706787 200.0
988.543152 216.0
988.976929 172.0
989.233582 204.0
989.289917 44.0
990.73645 176.0
990.923157 228.0
991.030945 172.0
991.739075 212.0
992.027405 196.0
992.265625 216.0
992.861267 160.0
993.018066 172.0
993.080811 176.0
993.413208 140.0
993.977905 156.0
995.936584 80.0
996.256897 60.0
996.658997 116.0
997.042297 148.0
997.626892 184.0
998.871948 160.0
998.985046 180.0
1000.533264 124.0
1001.326599 184.0
1001.610046 188.0
1001.717102 184.0
1001.981689 132.0
1002.151794 124.0
1002.44165 192.0
1002.756775 172.0
1003.071899 68.0
1003.2052 160.0
1003.305115 200.0
1003.368164 172.0
1004.440186 196.0
1004.528503 152.0
1004.761902 180.0
1005.348694 208.0
1005.777893 128.0
1005.954651 148.0
1006.244995 148.0
1007.097473 136.0
1007.817688 140.0
1008.095703 164.0
1009.024841 132.0
1009.619202 176.0
1010.074524 144.0
1010.650269 148.0
1011.335754 160.0
1011.415955 144.0
1011.669189 116.0
1011.941406 236.0
1012.030029 180.0
1012.378296 176.0
1013.740234 232.0
1013.797302 140.0
1014.120483 160.0
1016.086243 164.0
1016.930176 128.0
1017.51416 180.0
1018.155518 84.0
1019.743774 160.0
1020.144226 168.0
1020.468445 40.0
1020.716431 236.0
1021.479553 164.0
1021.619507 212.0
1021.994873 128.0
1023.554321 208.0
1023.649841 188.0
1023.923645 320.0
1024.254883 152.0
1024.369507 212.0
1026.32605 136.0
1027.517334 164.0
1028.124878 204.0
1028.322754 152.0
1028.635498 208.0
1028.96106 120.0
1029.209961 304.0
1029.305786 148.0
1030.461914 192.0
1030.723877 136.0
1033.083008 180.0
1033.428467 132.0
1034.279541 188.0
1034.433228 76.0
1035.035034 132.0
1035.342285 164.0
1035.457642 196.0
1035.553711 168.0
1035.758667 232.0
1036.5979 180.0
1037.668335 184.0
1037.937622 220.0
1038.469849 112.0
1038.514771 148.0
1038.841919 152.0
1038.93811 216.0
1040.26001 168.0
1040.587402 156.0
1040.782104 168.0
1040.831421 192.0
1040.88916 152.0
1042.276611 124.0
1042.713623 236.0
1043.632812 140.0
1043.864258 132.0
1044.2052 192.0
1045.150757 120.0
1045.316895 192.0
1045.408203 156.0
1045.987427 180.0
1046.605469 180.0
1048.338135 164.0
1048.486328 184.0
1048.75061 204.0
1048.911743 28.0
1049.047119 136.0
1049.736938 156.0
1050.091675 136.0
1050.56897 200.0
1050.614136 224.0
1050.78186 48.0
1051.156128 144.0
1051.427124 116.0
1052.008057 172.0
1052.892578 124.0
1053.099243 168.0
1053.157349 116.0
1053.848633 200.0
1054.05542 148.0
1054.171631 136.0
1054.817993 136.0
1054.992554 184.0
1055.420288 196.0
1055.490356 132.0
1055.813721 136.0
1056.156494 180.0
1056.324585 116.0
1056.822754 136.0
1057.016846 152.0
1058.110718 160.0
1059.140259 36.0
1059.58728 232.0
1059.64563 192.0
1059.729858 140.0
1060.468506 136.0
1060.695435 132.0
1061.29187 204.0
1061.881958 236.0
1062.686279 188.0
1063.192383 88.0
1063.413086 128.0
1063.75708 148.0
1063.984253 212.0
1064.068726 112.0
1064.425781 160.0
1064.80249 204.0
1064.867432 196.0
1065.361084 108.0
1065.60791 180.0
1065.672852 168.0
1066.21875 68.0
1066.836182 200.0
1067.050659 108.0
1067.330322 212.0
1067.408325 152.0
1068.448975 204.0
1068.56604 180.0
1068.72876 172.0
1069.503174 184.0
1069.568237 164.0
1069.691895 220.0
1071.828003 164.0
1072.137573 164.0
1072.864258 160.0
1073.072876 208.0
1073.509766 200.0
1073.888062 204.0
1074.246704 196.0
1074.957886 152.0
1075.068848 68.0
1075.986816 240.0
1076.37439 176.0
1076.609497 132.0
1076.896851 160.0
1078.046631 160.0
1079.079346 108.0
1080.601685 192.0
1080.819092 168.0
1081.552124 144.0
1081.624023 212.0
1082.016846 232.0
1082.868042 96.0
1083.811401 216.0
1084.755127 172.0
1084.912476 68.0
1085.181274 196.0
1086.49292 156.0
1088.008911 164.0
1088.383057 168.0
1088.82959 176.0
1089.768921 64.0
1089.946411 160.0
1090.8927 132.0
1091.517334 112.0
1092.030273 148.0
1092.43811 136.0
1092.852539 164.0
1092.964355 188.0
1093.536865 160.0
1093.87915 140.0
1093.950928 156.0
1094.425537 168.0
1094.59021 140.0
1094.926025 136.0
1095.40686 168.0
1096.019531 196.0
1096.157959 156.0
1096.744507 148.0
1097.126831 124.0
1097.331177 212.0
1098.161987 144.0
1098.491821 88.0
1099.32312 152.0
1099.474854 240.0
1099.765259 156.0
1100.049072 152.0
1100.710205 188.0
1101.620728 188.0
1101.957642 136.0
1102.162476 132.0
1102.889404 204.0
1104.780518 188.0
1105.051758 148.0
1105.495117 136.0
1105.687012 148.0
1106.170166 168.0
1106.262817 168.0
1106.494629 196.0
1106.779297 64.0
1107.759399 156.0
1108.249634 156.0
1108.607544 188.0
1108.793091 216.0
1108.865967 244.0
1109.044922 168.0
1109.34314 136.0
1109.774048 176.0
1110.304565 120.0
1110.768799 112.0
1111.259766 236.0
1111.677734 304.0
1111.963135 152.0
1112.44104 152.0
1112.560547 192.0
1112.819458 172.0
1113.038574 200.0
1113.682739 220.0
1113.835449 148.0
1114.154297 220.0
1114.945068 164.0
1115.456787 168.0
1116.088379 220.0
1116.567139 180.0
1116.66687 156.0
1118.044067 140.0
1118.536499 152.0
1119.022461 212.0
1119.881592 164.0
1120.387817 136.0
1120.760864 104.0
1120.807495 192.0
1122.327148 144.0
1122.475464 156.0
1122.820679 176.0
1122.947388 180.0
1123.007446 176.0
1123.480957 132.0
1123.547729 180.0
1124.014771 208.0
1124.355103 188.0
1124.521851 112.0
1124.828979 196.0
1125.483154 208.0
1127.286743 208.0
1130.47644 220.0
1130.844482 164.0
1130.924805 156.0
1131.55896 196.0
1132.437988 72.0
1132.535767 192.0
1132.732666 44.0
1133.59021 160.0
1133.650513 116.0
1134.300659 216.0
1134.515137 168.0
1135.084961 184.0
1135.822754 224.0
1135.903198 128.0
1136.12793 160.0
1136.392822 164.0
1136.983398 92.0
1137.117676 160.0
1137.325684 196.0
1137.70166 140.0
1138.332764 208.0
1138.587891 180.0
1138.634888 116.0
1138.963989 132.0
1139.105103 100.0
1139.274414 188.0
1139.716431 248.0
1139.985229 176.0
1140.717773 176.0
1141.659912 196.0
1141.733032 160.0
1141.855469 224.0
1142.661255 40.0
1142.876587 148.0
1142.93042 104.0
1143.448608 200.0
1144.249512 108.0
1144.478516 148.0
1144.700684 184.0
1145.623413 200.0
1145.953491 176.0
1146.135376 80.0
1146.391479 148.0
1146.701416 208.0
1148.609619 52.0
1148.771484 156.0
1148.879395 132.0
1148.997559 196.0
1149.108765 152.0
1149.263916 152.0
1149.709351 128.0
1149.905029 100.0
1150.269531 168.0
1150.467529 48.0
1150.640747 88.0
1150.694824 124.0
1150.870361 132.0
1151.842773 216.0
1152.275146 164.0
1152.383179 156.0
1153.05896 160.0
1153.32251 176.0
1153.768677 164.0
1153.843018 124.0
1154.174316 168.0
1155.161743 176.0
1155.74353 172.0
1156.081909 136.0
1156.230713 224.0
1156.377563 172.0
1156.515015 52.0
1156.907593 144.0
1157.591431 196.0
1157.672729 152.0
1158.641235 180.0
1158.751465 208.0
1159.000366 152.0
1159.149414 160.0
1159.711914 144.0
1160.132202 160.0
1160.45752 152.0
1160.966064 172.0
1161.091553 144.0
1161.651123 204.0
1162.214233 172.0
1162.478882 56.0
1162.885986 168.0
1163.209839 132.0
1163.259399 112.0
1163.35437 100.0
1164.861938 128.0
1165.08606 192.0
1165.622192 208.0
1165.772339 160.0
1166.227661 136.0
1166.744263 184.0
1167.043335 204.0
1167.111328 216.0
1168.114136 168.0
1168.30835 116.0
1168.403564 156.0
1169.893921 148.0
1170.132202 128.0
1170.38916 192.0
1170.506714 112.0
1173.000244 192.0
1173.095581 232.0
1174.207031 204.0
1174.694092 220.0
1174.841309 168.0
1174.93689 156.0
1175.100586 172.0
1176.363159 152.0
1176.479126 152.0
1177.175537 164.0
1177.414551 168.0
1178.364014 208.0
1178.487061 164.0
1178.735718 120.0
1179.430054 220.0
1181.61145 180.0
1182.54895 172.0
1182.726929 152.0
1183.185547 196.0
1183.288208 180.0
1184.541382 196.0
1185.205933 108.0
1185.329346 184.0
1185.418335 128.0
1186.247681 120.0
1187.248657 172.0
1187.344727 84.0
1187.399536 124.0
1187.687622 288.0
1188.064941 160.0
1188.764771 172.0
1189.142212 56.0
1189.315186 204.0
1190.70752 144.0
1191.978394 216.0
1192.102051 156.0
1192.239502 140.0
1192.493774 188.0
1192.58313 196.0
1192.803101 144.0
1193.146729 144.0
1193.380493 200.0
1193.586792 168.0
1194.136963 104.0
1194.185059 168.0
1194.363892 144.0
1194.859253 168.0
1196.104736 148.0
1196.297485 160.0
1196.366699 148.0
1197.152954 144.0
1197.302734 152.0
1197.39917 68.0
1197.757324 220.0
1198.499512 184.0
1198.57019 204.0
1199.438599 220.0
1199.493652 104.0
1199.645386 160.0
1200.389893 176.0
1200.445068 220.0
1200.541626 228.0
1200.996826 124.0
1201.238281 212.0
1201.519409 144.0
1201.755615 172.0
1201.976074 152.0
1202.576782 172.0
1202.977173 160.0
1203.191162 124.0
1203.702148 140.0
1204.316772 184.0
1204.689697 164.0
1205.042114 164.0
1205.125 204.0
1205.17334 204.0
1205.297729 188.0
1205.83667 152.0
1206.320557 220.0
1206.393188 176.0
1207.205566 88.0
1207.523682 124.0
1207.751831 120.0
1207.987061 180.0
1208.16687 192.0
1208.483398 288.0
1208.706543 148.0
1208.775757 164.0
1208.858765 96.0
1210.22937 132.0
1210.381592 156.0
1210.582397 196.0
1210.859497 132.0
1211.399658 176.0
1211.87085 56.0
1212.050903 28.0
1212.217285 188.0
1212.646973 220.0
1212.785522 80.0
1212.965698 216.0
1213.25 44.0
1213.929443 200.0
1214.068115 80.0
1214.338623 168.0
1214.546631 220.0
1215.774658 160.0
1216.006714 208.0
1216.829712 208.0
1217.274048 172.0
1218.18396 76.0
1219.010742 172.0
1219.837769 76.0
1219.942017 104.0
1220.720703 188.0
1220.887573 80.0
1221.026733 152.0
1221.31189 188.0
1221.875244 148.0
1222.16748 124.0
1222.494507 176.0
1223.455078 84.0
1224.680542 188.0
1225.000977 156.0
1225.418945 180.0
1225.816162 128.0
1226.540894 260.0
1226.617554 108.0
1226.952271 152.0
1227.042847 172.0
1227.105591 132.0
1227.775024 160.0
1228.067871 164.0
1228.172485 132.0
1228.535278 244.0
1228.584106 44.0
1228.828247 176.0
1229.02356 184.0
1229.205078 176.0
1230.321777 84.0
1231.194458 96.0
1231.533569 208.0
1231.669678 188.0
1232.794189 140.0
1233.220581 228.0
1233.437256 288.0
1233.835693 120.0
1234.206177 232.0
1234.332031 208.0
1234.814575 368.0
1234.870605 140.0
1235.479126 224.0
1236.234741 36.0
1236.486694 168.0
1236.556641 136.0
1236.766602 168.0
1236.857666 204.0
1237.77478 144.0
1238.047852 128.0
1238.180908 160.0
1238.552124 200.0
1238.874268 184.0
1240.976807 128.0
1242.014648 172.0
1242.589844 156.0
1242.926636 116.0
1243.116089 132.0
1243.228394 168.0
1243.277466 184.0
1243.488037 156.0
1243.656494 176.0
1243.96106 200.0
1244.126831 180.0
1245.025513 168.0
1245.362671 88.0
1246.325073 180.0
1246.4375 140.0
1246.725586 64.0
1246.845093 148.0
1247.407349 148.0
1247.498657 144.0
1247.547852 48.0
1247.716675 128.0
1248.384644 136.0
1248.475952 140.0
1248.574463 188.0
1249.327026 164.0
1249.918091 56.0
1250.283936 204.0
1250.568604 264.0
1251.149658 200.0
1251.216309 160.0
1252.198853 40.0
1252.311523 140.0
1252.396118 132.0
1252.955566 260.0
1253.403442 152.0
1254.009521 168.0
1254.319458 160.0
1254.714355 184.0
1254.97522 200.0
1256.026001 132.0
1256.110718 76.0
1256.223511 156.0
1256.745605 172.0
1256.872559 160.0
1257.538696 52.0
1258.29834 132.0
1258.411255 140.0
1259.13147 156.0
1259.382446 196.0
1260.311157 192.0
1260.537354 196.0
1260.841187 216.0
1261.095581 128.0
1262.042847 180.0
1262.445923 176.0
1262.530762 104.0
1262.723389 184.0
1263.275635 164.0
1263.429077 100.0
1263.542236 276.0
1264.115356 140.0
1264.596558 144.0
1264.752319 104.0
1265.04248 228.0
1265.177002 84.0
1265.559326 184.0
1265.800049 228.0
1265.86377 244.0
1266.012451 160.0
1266.954468 180.0
1267.096191 204.0
1267.365479 52.0
1268.591431 144.0
1268.754517 176.0
1269.016846 160.0
1269.477783 140.0
1269.733032 196.0
1269.825195 160.0
1269.938721 140.0
1270.307495 104.0
1270.896362 152.0
1271.336304 152.0
1272.614014 92.0
1273.430664 184.0
1273.522949 124.0
1274.716431 56.0
1274.879883 152.0
1274.958008 224.0
1275.164185 132.0
1275.739868 276.0
1275.931885 136.0
1276.01709 52.0
1276.251709 168.0
1276.901123 232.0
1277.216797 164.0
1277.389648 156.0
1278.115356 168.0
1278.933716 212.0
1279.218384 188.0
1279.325195 188.0
1280.030029 144.0
1280.314819 160.0
1280.799194 148.0
1281.091187 160.0
1282.031738 152.0
1282.509155 144.0
1283.293335 160.0
1283.649902 188.0
1283.714111 108.0
1283.856689 188.0
1284.612671 156.0
1285.368896 208.0
1285.60437 192.0
1285.704346 188.0
1285.768555 152.0
1285.87561 248.0
1286.061157 208.0
1286.161133 236.0
1286.311035 204.0
1286.88208 196.0
1286.989258 192.0
1287.296265 36.0
1287.835938 216.0
1288.53186 140.0
1288.817749 184.0
1288.953491 132.0
1289.039185 56.0
1289.260742 144.0
1290.075562 208.0
1290.47583 184.0
1291.416016 192.0
1291.593506 152.0
1291.863281 140.0
1292.342651 160.0
1292.714722 176.0
1292.843506 148.0
1293.144043 184.0
1293.251465 220.0
1293.301514 148.0
1293.374023 212.0
1293.602173 208.0
1293.766846 172.0
1293.88855 180.0
1293.967285 140.0
1294.067505 144.0
1294.293945 248.0
1294.432617 148.0
1294.511475 44.0
1294.819336 124.0
1294.998413 144.0
1295.421021 140.0
1295.865112 192.0
1296.237793 176.0
1296.309448 184.0
1296.402588 156.0
1296.789551 96.0
1297.133545 88.0
1297.262573 64.0
1298.603516 220.0
1298.696655 192.0
1299.428345 144.0
1300.074219 172.0
1300.59436 184.0
1301.581543 176.0
1301.861694 132.0
1303.02478 124.0
1303.319824 192.0
1303.794067 132.0
1304.003784 228.0
1304.21814 196.0
1304.599121 224.0
1304.865112 100.0
1304.944214 152.0
1305.052002 164.0
1305.771118 160.0
1306.145142 192.0
1306.419678 156.0
1306.448364 184.0
1306.504761 172.0
1307.001221 140.0
1307.447388 148.0
1307.828735 164.0
1308.946411 200.0
1309.859253 188.0
1310.046509 180.0
1310.11145 148.0
1310.233887 128.0
1310.320312 112.0
1310.937622 176.0
1311.148926 200.0
1311.768799 144.0
1312.359985 180.0
1312.569092 164.0
1313.059448 168.0
1313.319092 184.0
1313.448853 72.0
1313.816772 204.0
1314.076538 188.0
1314.24585 188.0
1314.942383 180.0
1315.17334 188.0
1315.223877 116.0
1315.375488 180.0
1316.319336 140.0
1316.458374 172.0
1316.761719 192.0
1317.289062 180.0
1317.80188 136.0
1317.946411 228.0
1318.53894 172.0
1318.596802 136.0
1319.225586 212.0
1319.449707 248.0
1320.382446 84.0
1321.221558 152.0
1321.518188 152.0
1321.68457 168.0
1321.952271 192.0
1322.183838 172.0
1322.314087 160.0
1322.524048 136.0
1323.182739 100.0
1323.384766 192.0
1324.565918 176.0
1325.196167 188.0
1325.261353 72.0
1325.369995 56.0
1325.515015 176.0
1326.084473 172.0
1326.164551 164.0
1327.058838 160.0
1328.088501 132.0
1328.77771 204.0
1329.662964 192.0
1329.927979 188.0
1330.011353 124.0
1330.116333 224.0
1330.338013 116.0
1330.477417 204.0
1331.51416 168.0
1332.146118 132.0
1332.647339 148.0
1333.148804 136.0
1333.875488 120.0
1334.231689 168.0
1334.55896 176.0
1334.682495 160.0
1334.835205 48.0
1335.031494 232.0
1336.019531 180.0
1336.217163 184.0
1336.326294 136.0
1336.500854 216.0
1336.78064 188.0
1336.842896 164.0
1337.570679 164.0
1337.745361 52.0
1338.153076 80.0
1338.320557 200.0
1338.480713 244.0
1338.764648 224.0
1339.106934 80.0
1340.272583 192.0
1340.717041 140.0
1341.686401 184.0
1341.919678 144.0
1342.087402 172.0
1342.714478 184.0
1343.334473 124.0
1343.480347 148.0
1343.757568 176.0
1344.45813 204.0
1344.53833 184.0
1344.662476 112.0
1344.968994 180.0
1345.450806 224.0
1346.210083 260.0
1346.94043 132.0
1347.444458 144.0
1347.539429 140.0
1348.657471 44.0
1349.227661 268.0
1350.112427 124.0
1350.785278 156.0
1351.39978 172.0
1351.611938 288.0
1351.729004 176.0
1352.336426 172.0
1352.519409 204.0
1352.826904 272.0
1354.195923 176.0
1354.63562 160.0
1355.097168 144.0
1355.155762 128.0
1355.397583 128.0
1355.542725 172.0
1355.705322 204.0
1356.049683 124.0
1356.130371 40.0
1356.408936 188.0
1357.240112 216.0
1357.743286 216.0
1357.801758 136.0
1359.100342 144.0
1359.401123 212.0
1359.812134 88.0
1360.201172 128.0
1360.597534 184.0
1360.65625 188.0
1360.834106 164.0
1360.920532 132.0
1361.265747 200.0
1361.662231 160.0
1361.904663 180.0
1362.036865 224.0
1362.624512 160.0
1363.756104 180.0
1363.866333 164.0
1364.145752 244.0
1364.444336 224.0
1365.050049 180.0
1365.248535 160.0
1365.439819 132.0
1365.7854 148.0
1365.881104 160.0
1366.020874 132.0
1366.26355 104.0
1366.381348 128.0
1366.499023 160.0
1366.557861 188.0
1366.962524 164.0
1367.050903 152.0
1367.109741 168.0
1367.234863 192.0
1367.904541 132.0
1368.486206 160.0
1368.589233 196.0
1370.253784 132.0
1370.614746 116.0
1371.130615 132.0
1371.558105 324.0
1371.860352 332.0
1372.00769 176.0
1372.348145 180.0
1373.457031 156.0
1373.991577 188.0
1375.076172 188.0
1375.282837 44.0
1376.523071 168.0
1377.147217 192.0
1377.889526 36.0
1377.978149 192.0
1378.324829 136.0
1378.532349 164.0
1378.724487 184.0
1379.552246 104.0
1380.165894 172.0
1380.631836 160.0
1380.927612 128.0
1381.164307 56.0
1381.327026 152.0
1381.770874 152.0
1382.38501 196.0
1382.740234 328.0
1382.799438 164.0
1383.302734 104.0
1384.035645 156.0
1384.094849 164.0
1384.161499 184.0
1384.650269 36.0
1385.561401 188.0
1386.079956 176.0
1386.205933 128.0
1386.739502 172.0
1386.984131 204.0
1387.740234 96.0
1387.99231 140.0
1388.28894 212.0
1388.555908 92.0
1390.351318 36.0
1391.041504 188.0
1391.425415 152.0
1392.890503 104.0
1393.009277 124.0
1393.068726 156.0
1393.180176 152.0
1393.447632 220.0
1394.369019 164.0
1394.421021 124.0
1394.911621 132.0
1395.000854 112.0
1396.145752 148.0
1396.324219 152.0
1396.435791 124.0
1396.696167 204.0
1397.417725 208.0
1397.715332 164.0
1397.856689 136.0
1397.939819 148.0
1398.507324 256.0
1398.623291 144.0
1398.824219 52.0
1399.114624 184.0
1399.576172 124.0
1399.784668 52.0
1400.429443 124.0
1400.678345 40.0
1400.918823 232.0
1401.915161 196.0
1401.967285 212.0
1402.697632 144.0
1402.948486 220.0
1403.047974 180.0
1403.554199 180.0
1403.808594 192.0
1403.87561 148.0
1404.17395 92.0
1404.591675 140.0
1404.748291 200.0
1405.151123 176.0
1405.203369 112.0
1405.807739 40.0
1406.046509 200.0
1406.098755 140.0
1406.210693 64.0
1406.412231 212.0
1406.583862 96.0
1406.643677 128.0
1407.681396 188.0
1407.838135 124.0
1408.05481 168.0
1408.144409 104.0
1408.383423 196.0
1408.629883 164.0
1409.541382 72.0
1410.124268 176.0
1411.529663 124.0
1411.776367 200.0
1413.047974 168.0
1413.459473 164.0
1413.661499 160.0
1413.751343 128.0
1413.908447 112.0
1414.17041 152.0
1414.252686 76.0
1414.469849 148.0
1414.986328 100.0
1415.151001 92.0
1415.248413 128.0
1415.345703 180.0
1415.675171 156.0
1415.869873 124.0
1416.049683 232.0
1416.401611 140.0
1416.476562 156.0
1416.776245 128.0
1417.255737 168.0
1417.967529 168.0
1418.177368 168.0
1419.67688 180.0
1420.074341 228.0
1421.081299 196.0
1421.160645 216.0
1421.882446 160.0
1422.269287 160.0
1422.527832 188.0
1422.978271 144.0
1423.075928 176.0
1423.939453 168.0
1424.450195 100.0
1424.502808 204.0
1424.55542 216.0
1424.893433 168.0
1425.314209 120.0
1425.381836 136.0
1425.524536 124.0
1426.915039 36.0
1427.291016 148.0
1427.366211 28.0
1427.7948 116.0
1427.915161 116.0
1428.075073 164.0
1428.148315 124.0
1428.419067 200.0
1428.682373 152.0
1428.885498 140.0
1429.19397 108.0
1429.295288 224.0
1429.585205 64.0
1429.702759 208.0
1429.767578 168.0
1430.097046 140.0
1430.909912 160.0
1431.226196 148.0
1433.169434 96.0
1433.418091 212.0
1434.11145 176.0
1434.518433 152.0
1434.624023 344.0
1434.8125 248.0
1434.945801 184.0
1435.068726 108.0
1435.385498 268.0
1435.7323 204.0
1435.928467 232.0
1435.981201 136.0
1436.373413 104.0
1436.479004 140.0
1436.939209 204.0
1437.731445 188.0
1438.025757 176.0
1438.09375 204.0
1438.182983 220.0
1439.097656 128.0
1439.482788 148.0
1439.679077 132.0
1440.041626 148.0
1440.283325 140.0
1441.303223 136.0
1441.469482 192.0
1441.592041 212.0
1441.696167 152.0
1442.625732 112.0
1443.608643 152.0
1443.759888 200.0
1444.01709 204.0
1444.765869 176.0
1445.109985 196.0
1445.38623 192.0
1445.446777 180.0
1445.688965 188.0
1446.029541 148.0
1446.249023 152.0
1446.30957 120.0
1446.506348 108.0
1447.588989 152.0
1447.73291 140.0
1448.702393 108.0
1449.065918 180.0
1449.52063 140.0
1449.734497 236.0
1450.111694 140.0
1450.495605 188.0
1450.60437 200.0
1451.832642 184.0
1452.446899 132.0
1452.750366 204.0
1453.493896 200.0
1453.804932 120.0
1454.017456 168.0
1454.442505 124.0
1454.784058 176.0
1455.118164 188.0
1455.387695 148.0
1455.581299 160.0
1456.58374 204.0
1457.214233 184.0
1457.943726 200.0
1458.437744 148.0
1459.631226 208.0
1460.034302 200.0
1460.209229 152.0
1460.490601 144.0
1460.825317 172.0
1460.969849 112.0
1461.11438 340.0
1461.822021 44.0
1461.936157 152.0
1462.994019 104.0
1463.093018 80.0
1463.740234 176.0
1464.174316 176.0
1465.217773 36.0
1465.476807 140.0
1466.124512 44.0
1466.353149 160.0
1466.779907 128.0
1467.443237 184.0
1467.862549 56.0
1468.487915 172.0
1468.991333 36.0
1469.63208 104.0
1469.685547 60.0
1469.75415 192.0
1469.822876 208.0
1470.02124 164.0
1470.402832 232.0
1470.824585 200.0
1471.052734 220.0
1472.204468 180.0
1472.418335 128.0
1473.044556 140.0
1473.327271 148.0
1473.449463 136.0
1474.712524 164.0
1475.046631 144.0
1475.253052 216.0
1475.527344 264.0
1475.994629 208.0
1476.185791 144.0
1476.320923 168.0
1476.407593 248.0
1476.820557 180.0
1476.874023 144.0
1477.478394 152.0
1478.266479 196.0
1478.664429 220.0
1479.054688 188.0
1479.539307 168.0
1479.781982 168.0
1480.256714 132.0
1480.325562 152.0
1480.570679 228.0
1480.739136 216.0
1481.244629 124.0
1481.359497 180.0
1481.436157 76.0
1481.706665 208.0
1481.880493 200.0
1482.23291 308.0
1482.577759 148.0
1482.784668 208.0
1483.569946 148.0
1483.650757 140.0
1483.99585 220.0
1484.14917 32.0
1484.37915 132.0
1484.432861 180.0
1484.486572 156.0
1484.785645 156.0
1485.498901 148.0
1485.805786 72.0
1486.112671 156.0
1486.511597 184.0
1486.787842 188.0
1487.064209 156.0
1487.194702 304.0
1487.256104 100.0
1488.00061 152.0
1488.161865 152.0
1488.415283 60.0
1488.515137 180.0
1488.883667 192.0
1488.96814 116.0
1489.644043 148.0
1489.766968 120.0
1490.504517 140.0
1490.781128 176.0
1491.265259 172.0
1491.357544 208.0
1492.364624 208.0
1492.772095 136.0
1493.533447 192.0
1493.96228 164.0
1494.22583 132.0
1494.633545 168.0
1495.01062 192.0
1495.464722 140.0
1496.257568 148.0
1496.311401 120.0
1496.604004 156.0
1496.842651 144.0
1497.243164 176.0
1497.759766 152.0
1497.843872 148.0
1498.090332 72.0
1498.638916 192.0
1498.76062 124.0
1498.86084 84.0
1499.099731 132.0
1499.384277 188.0
1499.46228 148.0
1499.669922 104.0
1500.016846 152.0
1500.286621 84.0
1500.932129 148.0
1501.019043 160.0
1501.566528 236.0
1501.713135 136.0
1501.959961 96.0
1502.098755 204.0
1502.468994 184.0
1502.561646 128.0
1502.793091 128.0
1503.109375 132.0
1503.75769 112.0
1504.128174 144.0
1504.460083 188.0
