>compound MLS001158988-01!(3S)-N-[(2R)-1-[(4-methoxyphenyl)methylamino]-1-oxopropan-2-yl]-1,2,3,4-tetrahydroisoquinoline-3-carboxamide
>formula C21H25N3O3
>ionization [M+H]+
>parentmass 368.197
#inchi InChI=1S/C21H25N3O3/c1-14(20(25)23-12-15-7-9-18(27-2)10-8-15)24-21(26)19-11-16-5-3-4-6-17(16)13-22-19/h3-10,14,19,22H,11-13H2,1-2H3,(H,23,25)(H,24,26)/t14-,19+/m1/s1
#inchikey FFQIKUBCTCLQFD
#Ion_Source LC-ESI
#Instrument qTof
#Compound_Source NIH Natural Product Library
#PI Dorrestein
#Data_Collector VVP/LMS
#Scan -1
#Precursor_MZ 368.197
#ExactMass 367.19
#Charge 1
#CAS_Number N/A
#Pubmed_ID N/A
#Smiles COc1ccc(CNC(=O)[C@@H](C)NC(=O)[C@@H]2Cc3ccccc3CN2)cc1
#INCHI_AUX N/A
#Library_Class 1
#SpectrumID CCMSLIB00000079907
#IonMode Positive
#UpdateWorkflowName UPDATE-SINGLE-ANNOTATED-GOLD
#LibraryQualityString Gold
#TaskID b1d8e8f6646f4e71acdff9ca3d919d08
##Scan# 1495
#SpectrumFile p1-F12_GF12_01_17944.mzXML
#LibraryName NIH_Natural_Products_Library.mgf
#MQScore -1
#Organism NIH_Natural_Products_Library
#TIC_Query 0
#RT_Query -1
#MZErrorPPM -1
#SharedPeaks 0
#MassDiff 0
#LibMZ -1
#SpecMZ 368.197
#SpecCharge 0
#internalFilename spec-00000.mgf

>collision 10
95.156136 240.0
95.203911 260.0
95.370995 164.0
95.396263 128.0
95.415703 208.0
95.45459 204.0
95.482567 156.0
95.509048 44.0
95.6297 204.0
95.691971 272.0
95.73481 124.0
96.017395 160.0
96.101273 252.0
96.122734 44.0
96.235947 132.0
96.273048 232.0
96.327736 188.0
96.368759 144.0
96.409065 168.0
96.489029 276.0
96.581848 132.0
96.804955 244.0
96.855881 204.0
97.059692 124.0
97.230362 176.0
97.352081 176.0
97.435066 192.0
97.519073 124.0
97.55838 52.0
97.619652 124.0
97.692108 232.0
97.807068 248.0
97.835762 168.0
97.853485 192.0
97.886955 108.0
97.926346 100.0
97.975586 148.0
98.070175 168.0
98.131973 172.0
98.18058 336.0
98.225945 188.0
98.492424 252.0
98.690048 152.0
98.719704 172.0
98.737503 224.0
98.771126 204.0
98.881927 232.0
98.949234 188.0
99.001907 260.0
99.022499 180.0
99.089851 56.0
99.137405 120.0
99.290863 156.0
99.317818 124.0
99.331703 164.0
99.395187 116.0
99.424957 172.0
99.470604 96.0
99.542084 88.0
99.595703 128.0
99.647354 120.0
99.782501 192.0
99.823502 200.0
99.978333 204.0
100.106827 212.0
100.152634 176.0
100.16658 48.0
100.215424 216.0
100.232323 144.0
100.314041 236.0
100.415726 148.0
100.471581 64.0
100.514328 272.0
100.555389 96.0
100.572807 176.0
100.892967 68.0
100.976944 188.0
101.066963 196.0
101.126083 192.0
101.147018 128.0
101.191063 204.0
101.221092 148.0
101.247124 156.0
101.287186 176.0
101.367325 180.0
101.455513 172.0
101.524307 276.0
101.599907 120.0
101.632004 88.0
101.674149 128.0
101.714287 108.0
101.777 84.0
101.943245 48.0
102.00354 120.0
102.045609 160.0
102.077927 168.0
102.218742 108.0
102.305283 348.0
102.444237 56.0
102.524834 276.0
102.569176 164.0
102.680069 36.0
102.764786 132.0
102.812057 216.0
102.821114 92.0
102.826454 208.0
102.867714 188.0
102.952515 216.0
102.976746 164.0
102.99897 152.0
103.017151 188.0
103.05352 888.0
103.08786 272.0
103.10807 124.0
103.143349 168.0
103.170731 136.0
103.190948 116.0
103.297523 160.0
103.397278 212.0
103.413467 80.0
103.431061 172.0
103.445854 128.0
103.50457 112.0
103.551147 44.0
103.579216 144.0
103.660538 108.0
103.694695 192.0
103.784187 184.0
103.863281 60.0
103.945923 136.0
104.041603 196.0
104.046013 172.0
104.055908 204.0
104.058975 360.0
104.073021 164.0
104.123077 144.0
104.153542 192.0
104.192139 132.0
104.285614 108.0
104.303406 164.0
104.370995 80.0
104.434784 208.0
104.474724 348.0
104.574425 184.0
104.625313 164.0
104.684364 84.0
104.743423 148.0
104.930908 164.0
105.034912 120.0
105.069572 1832.0
105.214493 32.0
105.282013 208.0
105.318634 68.0
105.410568 128.0
105.426918 68.0
105.670242 164.0
105.715263 124.0
105.83194 172.0
105.993752 176.0
106.041199 816.0
106.072731 316.0
106.161842 236.0
106.313652 176.0
106.3937 180.0
106.412178 196.0
106.607315 124.0
106.66169 184.0
106.698807 220.0
106.738876 220.0
106.800568 192.0
106.827309 220.0
106.864342 180.0
106.89315 120.0
107.044678 288.0
107.07019 164.0
107.126862 200.0
107.171555 192.0
107.202034 156.0
107.223267 180.0
107.313347 128.0
107.342209 40.0
107.441216 196.0
107.486603 160.0
107.52375 172.0
107.646797 172.0
107.730232 140.0
107.875046 156.0
107.914795 144.0
107.949318 168.0
108.013428 160.0
108.052734 144.0
108.226593 112.0
108.527031 172.0
108.583015 160.0
108.605835 48.0
108.641098 120.0
108.672218 100.0
108.722015 236.0
108.832039 84.0
108.848648 176.0
108.906799 196.0
108.927567 132.0
108.962883 164.0
109.04808 128.0
109.064713 236.0
109.139389 208.0
109.158264 220.0
109.200005 112.0
109.249847 120.0
109.505806 144.0
109.537651 208.0
109.570717 272.0
109.612053 136.0
109.702782 168.0
109.726692 188.0
109.949883 48.0
109.972839 232.0
110.006241 164.0
110.054253 136.0
110.073051 216.0
110.139877 168.0
110.28405 180.0
110.365578 160.0
110.428314 132.0
110.514084 116.0
110.535011 184.0
110.801498 216.0
110.895218 68.0
110.930847 176.0
110.964394 140.0
111.010521 248.0
111.046173 108.0
111.139648 100.0
111.163658 184.0
111.348396 80.0
111.415611 192.0
111.451332 156.0
111.51017 192.0
111.529541 184.0
111.560616 120.0
111.714134 216.0
111.735168 184.0
111.756462 164.0
111.770706 180.0
111.903542 176.0
111.983559 120.0
112.013046 144.0
112.055183 136.0
112.085609 172.0
112.209038 72.0
112.413155 352.0
112.430511 148.0
112.468506 88.0
112.502281 128.0
112.556725 164.0
112.574066 160.0
112.692352 192.0
112.916428 148.0
112.950272 112.0
112.965073 44.0
113.043358 176.0
113.242363 156.0
113.377953 92.0
113.426704 144.0
113.564522 164.0
113.590294 188.0
113.643013 160.0
113.71006 208.0
113.744881 164.0
113.834053 196.0
113.948509 212.0
114.108147 144.0
114.208092 124.0
114.381912 128.0
114.776711 160.0
114.953758 152.0
115.015732 212.0
115.053596 4304.0
115.278 200.0
115.327499 444.0
115.378799 140.0
115.399719 176.0
115.423698 116.0
115.487862 152.0
115.511391 144.0
115.537056 64.0
115.690071 208.0
115.847473 148.0
115.864609 128.0
115.911743 76.0
116.056274 580.0
116.138992 96.0
116.295029 144.0
116.407265 160.0
116.422295 216.0
116.443771 212.0
116.518951 192.0
116.540436 120.0
116.611351 224.0
116.703789 176.0
116.718842 76.0
116.791962 200.0
116.912445 216.0
116.941032 180.0
117.056519 5276.0
117.211769 36.0
117.252823 152.0
117.274261 168.0
117.364807 72.0
117.44239 176.0
117.554626 120.0
117.574051 192.0
117.657738 176.0
117.682861 176.0
117.705734 156.0
117.75972 180.0
117.809402 124.0
117.906631 188.0
118.058899 652.0
118.144478 160.0
118.168282 264.0
118.193466 244.0
118.224541 172.0
118.289467 80.0
118.304626 64.0
118.397728 180.0
118.65992 152.0
118.729309 68.0
118.824745 196.0
118.861633 168.0
118.888092 248.0
118.937592 212.0
119.002716 172.0
119.02877 140.0
119.047363 208.0
119.062309 592.0
119.144562 336.0
119.224281 168.0
119.239494 132.0
119.365585 148.0
119.455627 220.0
119.476509 188.0
119.513496 196.0
119.552666 160.0
119.58313 144.0
119.620132 160.0
119.639725 220.0
119.661499 132.0
119.689499 248.0
119.705048 164.0
119.7836 172.0
119.849258 192.0
119.883675 136.0
119.90329 40.0
119.925079 204.0
119.944695 44.0
120.051529 164.0
120.066795 112.0
120.133171 148.0
120.284294 228.0
120.309601 216.0
120.340286 320.0
120.420578 196.0
120.483704 136.0
120.523033 148.0
120.566734 100.0
120.582031 136.0
120.634491 152.0
120.683952 128.0
120.702271 136.0
120.717575 216.0
120.746002 176.0
120.825562 140.0
120.856346 200.0
120.88636 176.0
120.911179 176.0
120.920441 164.0
120.968056 356.0
121.011398 128.0
121.065216 87440.0
121.142677 48.0
121.197098 160.0
121.219521 80.0
121.255791 80.0
121.267204 152.0
121.289612 100.0
121.34375 88.0
121.405746 84.0
121.424225 396.0
121.44635 68.0
121.51268 76.0
121.545593 60.0
121.587097 136.0
121.677544 188.0
121.741692 84.0
121.776375 64.0
121.795868 180.0
121.860046 56.0
121.885941 172.0
121.986122 48.0
122.015617 32.0
122.06797 7928.0
122.111389 144.0
122.253166 100.0
122.300751 144.0
122.356621 56.0
122.40506 52.0
122.43589 184.0
122.459328 112.0
122.550873 96.0
122.605522 76.0
122.639175 164.0
122.671646 96.0
122.711327 116.0
122.732422 120.0
122.814972 28.0
122.832619 120.0
122.856888 184.0
122.907944 84.0
122.932701 100.0
122.993698 136.0
123.026199 172.0
123.069832 468.0
123.101883 124.0
123.11734 132.0
123.150467 164.0
123.182732 132.0
123.225578 44.0
123.294075 84.0
123.319214 192.0
123.481995 184.0
123.566055 100.0
123.590393 136.0
123.614731 136.0
123.657776 80.0
123.72097 68.0
123.749756 168.0
123.818398 88.0
123.853836 156.0
123.901886 156.0
123.986771 100.0
124.006721 108.0
124.022232 172.0
124.048836 56.0
124.086517 80.0
124.150826 40.0
124.208488 88.0
124.314987 72.0
124.419571 168.0
124.468147 188.0
124.525887 72.0
124.6996 152.0
124.877846 180.0
125.012764 156.0
125.175262 168.0
125.195305 168.0
125.297371 156.0
125.406548 172.0
125.76078 152.0
125.821869 60.0
126.163673 228.0
126.324684 188.0
126.501472 96.0
126.633575 128.0
126.660873 216.0
126.68734 72.0
126.862129 164.0
126.917953 200.0
127.097046 104.0
127.113327 204.0
127.171677 136.0
127.216576 116.0
127.245758 96.0
127.315369 104.0
127.411949 140.0
127.437988 204.0
127.737915 40.0
127.773911 168.0
127.904427 140.0
127.926941 104.0
128.052032 144.0
128.140884 208.0
128.250488 188.0
128.427185 140.0
128.451553 144.0
128.483566 56.0
128.567062 140.0
128.6754 64.0
128.695724 108.0
128.711533 168.0
128.761215 184.0
128.824463 128.0
128.973587 128.0
129.050461 108.0
129.104721 132.0
129.131866 164.0
129.172577 164.0
129.24498 152.0
129.312866 172.0
129.396622 300.0
129.457748 36.0
129.548355 36.0
129.671555 172.0
129.697906 140.0
129.734177 188.0
129.750046 216.0
129.770447 168.0
129.821701 192.0
129.856628 128.0
129.874771 204.0
129.904617 128.0
129.921082 144.0
129.940552 192.0
129.982559 152.0
129.999542 44.0
130.018631 136.0
130.064987 43612.0
130.119843 128.0
130.153061 184.0
130.208405 84.0
130.240204 48.0
130.309235 124.0
130.33107 80.0
130.351196 56.0
130.458344 160.0
130.492111 108.0
130.535645 52.0
130.729004 204.0
130.846832 168.0
130.896011 244.0
130.938446 64.0
130.983246 252.0
131.039886 136.0
131.067947 3888.0
131.118439 160.0
131.143509 224.0
131.162277 128.0
131.18454 204.0
131.2005 60.0
131.216446 148.0
131.291702 72.0
131.312225 172.0
131.332748 172.0
131.433136 48.0
131.497025 184.0
131.563217 80.0
131.6203 196.0
131.647202 144.0
131.67511 148.0
131.695663 176.0
131.732147 160.0
131.737839 156.0
131.74736 76.0
131.793076 156.0
131.808456 160.0
131.837845 208.0
131.864197 236.0
131.873367 124.0
131.878281 224.0
131.912537 220.0
131.941925 136.0
131.974213 148.0
131.991577 156.0
132.01947 176.0
132.042343 472.0
132.081009 97468.0
132.13768 536.0
132.160492 92.0
132.165131 52.0
132.173965 128.0
132.203003 104.0
132.216599 260.0
132.268539 172.0
132.29451 72.0
132.33139 72.0
132.350723 136.0
132.383835 40.0
132.426041 24.0
132.456268 700.0
132.477585 168.0
132.505295 56.0
132.524643 156.0
132.554764 100.0
132.603989 224.0
132.629196 36.0
132.698273 60.0
132.744797 124.0
132.773651 192.0
132.801163 156.0
132.847046 44.0
132.885788 228.0
132.947998 108.0
132.978348 160.0
133.028885 84.0
133.083694 10648.0
133.140457 104.0
133.161118 48.0
133.207611 56.0
133.278671 40.0
133.301651 144.0
133.363693 108.0
133.387238 60.0
133.434952 48.0
133.453354 76.0
133.480942 64.0
133.529236 60.0
133.575241 100.0
133.65419 88.0
133.687653 28.0
133.724792 48.0
133.759186 208.0
133.793854 84.0
133.829437 92.0
133.85141 120.0
133.879044 108.0
133.908066 124.0
133.936111 124.0
133.966568 100.0
133.991333 80.0
134.009674 152.0
134.034988 104.0
134.085785 244.0
134.133331 88.0
134.174515 276.0
134.250946 112.0
134.275436 64.0
134.342331 116.0
134.367706 56.0
134.443848 112.0
134.47847 76.0
134.522324 36.0
134.677032 44.0
134.787933 92.0
134.805557 68.0
135.007538 88.0
135.088898 92.0
135.556168 152.0
135.595566 44.0
135.720749 72.0
136.087341 44.0
136.391678 160.0
136.677734 60.0
136.754532 44.0
137.820267 80.0
137.913742 112.0
138.054016 92.0
138.250519 92.0
138.397995 88.0
138.512741 108.0
139.481857 88.0
139.622925 84.0
139.959427 28.0
140.235062 68.0
140.336426 116.0
140.463776 60.0
140.754059 84.0
140.839081 64.0
141.288223 40.0
141.949036 76.0
142.063736 220.0
142.167282 112.0
142.61377 76.0
142.800583 112.0
143.068115 136.0
143.542252 84.0
143.799896 56.0
143.94075 108.0
144.019547 48.0
144.072113 192.0
144.732208 104.0
145.149139 92.0
145.46344 76.0
145.828537 56.0
146.061966 184.0
146.141159 124.0
147.105164 92.0
147.281433 132.0
147.474731 44.0
148.089279 88.0
149.035385 64.0
149.064545 144.0
150.213699 64.0
152.100327 84.0
152.59903 44.0
154.47084 28.0
154.777725 68.0
156.085388 200.0
156.120209 52.0
157.084091 120.0
157.608383 72.0
158.063187 184.0
158.097946 184.0
158.118515 188.0
159.058426 172.0
160.074142 144.0
160.610947 136.0
160.964264 72.0
163.305939 32.0
166.390289 92.0
167.715088 44.0
168.083878 196.0
170.066513 164.0
171.330032 80.0
172.365845 28.0
173.099426 168.0
178.050873 116.0
178.624985 152.0
181.008301 96.0
181.522797 48.0
182.992554 128.0
185.066132 168.0
186.857452 44.0
186.936371 244.0
187.481003 52.0
188.064651 172.0
190.144745 212.0
192.437759 60.0
194.850098 84.0
195.962967 112.0
196.311401 132.0
197.937729 52.0
198.259888 48.0
198.503769 144.0
201.044006 108.0
201.101974 696.0
202.101593 192.0
203.116867 2196.0
203.174622 36.0
203.31366 56.0
203.932785 72.0
204.122131 164.0
205.12999 120.0
206.121475 36.0
207.346283 92.0
207.452347 144.0
207.503937 48.0
209.126968 228.0
209.965378 124.0
210.138443 80.0
210.259644 104.0
210.28273 128.0
218.368088 88.0
218.624039 128.0
219.613953 116.0
229.095245 208.0
230.091721 132.0
231.108368 352.0
231.603714 64.0
235.54892 88.0
237.348465 72.0
239.207184 144.0
246.210938 88.0
246.333328 56.0
247.853821 124.0
250.370041 108.0
252.131134 280.0
253.690857 80.0
260.745117 84.0
264.062653 96.0
264.344116 32.0
267.137604 40.0
269.667908 48.0
277.897461 76.0
280.449768 20.0
284.5896 124.0
293.362427 80.0
293.788696 84.0
297.927582 144.0
299.66153 76.0
299.740784 92.0
300.351013 68.0
301.521454 96.0
303.942078 68.0
306.39325 68.0
308.071259 128.0
312.203705 48.0
319.408356 88.0
319.749939 124.0
319.949249 116.0
322.299652 44.0
325.078369 64.0
327.984314 92.0
328.756134 64.0
331.232788 184.0
335.225647 72.0
340.302704 116.0
340.743439 88.0
352.657501 92.0
360.958466 60.0
361.257233 76.0
372.295624 68.0
377.099854 188.0
395.35733 104.0
408.512634 80.0
408.838531 144.0
409.744507 68.0
420.086395 60.0
423.528198 36.0
437.677338 52.0
443.014923 52.0
447.011963 32.0
454.631226 56.0
458.803864 76.0
469.773834 156.0
473.31781 48.0
480.903961 40.0
493.087646 200.0
535.267212 40.0
542.094604 84.0
546.557007 108.0
557.518127 72.0
580.059204 68.0
595.35907 172.0
612.699158 164.0
639.314453 36.0
646.849915 132.0
661.746033 224.0
689.368835 156.0
710.875732 176.0
712.649231 156.0
720.22998 172.0
731.291443 68.0
737.245483 144.0
740.935242 228.0
741.656433 160.0
748.50708 208.0
751.308594 128.0
754.284729 136.0
766.424377 68.0
771.78949 116.0
773.886536 76.0
775.83667 208.0
777.234314 40.0
782.136047 80.0
782.308594 220.0
790.45166 160.0
793.980896 88.0
794.468872 68.0
801.355896 184.0
809.05365 176.0
818.85437 132.0
819.68042 176.0
820.848938 172.0
828.47345 184.0
837.981628 164.0
843.885986 236.0
844.805542 160.0
848.76123 164.0
851.488708 160.0
852.203186 160.0
853.051697 188.0
856.822754 92.0
857.609375 168.0
858.005798 56.0
859.773193 116.0
859.872375 232.0
860.701355 240.0
863.646729 156.0
870.221863 156.0
874.937012 40.0
879.086487 60.0
880.227112 88.0
881.980408 172.0
882.837646 128.0
891.385803 128.0
891.932556 124.0
892.402222 28.0
892.467651 212.0
893.419189 32.0
897.153137 204.0
897.487 148.0
897.802368 168.0
898.053528 140.0
901.922668 176.0
903.124512 188.0
903.746643 180.0
905.818054 140.0
908.677612 176.0
912.467346 152.0
914.307983 180.0
915.006226 176.0
915.873352 144.0
916.867493 192.0
919.65387 164.0
920.191101 84.0
925.045593 112.0
926.983704 192.0
929.105835 220.0
933.290466 84.0
934.008118 168.0
935.091125 140.0
938.917175 184.0
941.300293 144.0
941.346008 224.0
942.561584 120.0
942.805969 104.0
945.570312 176.0
946.115051 140.0
947.885132 160.0
949.38092 184.0
949.761169 156.0
950.227356 144.0
951.055786 112.0
952.443481 156.0
952.713745 56.0
954.114929 60.0
954.754395 212.0
961.457153 200.0
964.996643 132.0
966.864746 212.0
970.172302 216.0
970.755127 200.0
972.225403 152.0
974.982727 196.0
975.828125 208.0
976.636536 156.0
977.190186 48.0
978.764893 152.0
981.874451 240.0
982.111511 144.0
983.596558 60.0
983.889954 120.0
985.313843 124.0
988.665344 192.0
988.940735 156.0
990.412109 176.0
990.831848 220.0
995.014954 220.0
996.440613 152.0
996.754761 164.0
997.320374 152.0
997.370667 160.0
999.389343 176.0
999.729126 184.0
1000.320801 204.0
1001.02594 172.0
1002.128235 196.0
1004.000366 100.0
1007.168701 136.0
1007.396118 144.0
1009.083496 136.0
1013.710449 232.0
1023.371765 240.0
1024.040405 188.0
1026.321777 64.0
1030.131836 188.0
1030.444946 108.0
1030.770752 152.0
1035.440796 260.0
1035.991577 124.0
1036.84375 188.0
1037.984863 208.0
1040.936646 184.0
1041.469604 152.0
1041.752319 120.0
1041.983521 204.0
1042.831787 200.0
1045.076172 160.0
1046.859497 144.0
1047.045898 56.0
1048.282837 112.0
1048.52124 176.0
1050.681274 200.0
1053.043823 40.0
1053.470215 128.0
1055.079346 212.0
1055.299194 144.0
1055.396118 88.0
1056.967896 116.0
1057.414429 192.0
1057.634521 192.0
1058.592651 212.0
1059.156128 200.0
1061.251587 224.0
1061.379028 168.0
1063.74707 192.0
1066.098267 140.0
1066.293335 172.0
1067.092773 140.0
1067.326782 204.0
1068.51709 220.0
1072.385132 140.0
1072.521973 72.0
1073.335205 172.0
1073.656372 108.0
1074.908936 36.0
1075.581177 152.0
1076.201294 164.0
1078.001465 216.0
1079.06958 152.0
1080.14209 140.0
1080.48877 124.0
1080.842041 48.0
1081.365601 204.0
1083.101074 216.0
1084.61438 132.0
1085.138794 236.0
1086.174927 204.0
1086.391357 132.0
1086.529175 220.0
1086.929443 188.0
1088.327515 32.0
1088.380005 60.0
1089.391479 160.0
1091.172363 148.0
1091.494629 168.0
1092.619263 192.0
1092.935059 168.0
1093.323364 180.0
1095.259033 76.0
1097.69751 132.0
1099.089355 64.0
1099.802002 112.0
1103.534424 216.0
1104.394165 128.0
1108.02832 144.0
1110.414673 212.0
1111.456177 196.0
1113.706665 120.0
1117.16333 160.0
1117.735474 108.0
1118.986816 96.0
1119.166504 88.0
1120.905029 184.0
1121.918091 156.0
1123.638794 220.0
1124.059082 68.0
1124.119141 164.0
1124.319336 220.0
1124.432861 156.0
1125.293945 216.0
1125.681152 172.0
1126.041748 160.0
1126.328979 148.0
1126.549438 156.0
1127.671997 160.0
1128.795166 148.0
1129.878662 140.0
1130.273438 164.0
1131.350952 232.0
1131.739258 188.0
1131.906738 148.0
1133.199463 220.0
1133.320068 188.0
1134.151001 220.0
1135.398071 72.0
1137.316895 148.0
1139.452393 136.0
1140.204956 168.0
1140.420044 200.0
1142.121094 148.0
1146.133545 132.0
1147.029785 228.0
1147.348999 176.0
1147.474731 184.0
1148.695435 192.0
1149.727661 204.0
1150.598389 132.0
1151.861206 200.0
1152.009888 144.0
1152.219238 152.0
1152.746338 164.0
1153.516846 48.0
1154.67981 160.0
1155.031494 156.0
1155.200562 184.0
1156.120728 236.0
1156.279175 116.0
1158.985107 156.0
1159.330688 168.0
1159.479858 192.0
1160.116943 212.0
1160.544067 36.0
1161.47998 148.0
1161.914062 164.0
1162.199097 96.0
1163.203491 136.0
1163.318848 128.0
1164.208374 184.0
1165.057373 104.0
1166.531982 144.0
1166.933105 188.0
1168.075562 132.0
1168.505249 124.0
1168.619873 120.0
1168.851196 152.0
1169.681519 240.0
1169.844849 212.0
1170.661865 220.0
1172.317261 104.0
1172.623901 44.0
1174.089722 156.0
1174.723999 176.0
1175.235718 108.0
1175.542847 164.0
1176.068237 148.0
1176.325073 220.0
1177.187988 176.0
1177.747925 140.0
1178.554077 192.0
1179.046143 224.0
1180.351807 148.0
1180.440674 140.0
1181.644531 152.0
1182.157715 196.0
1182.23291 160.0
1182.862671 156.0
1183.273315 156.0
1183.69104 160.0
1183.971802 148.0
1184.944458 152.0
1185.006104 124.0
1185.66394 140.0
1185.924438 204.0
1187.55481 216.0
1189.017578 148.0
1189.621582 72.0
1189.861938 180.0
1190.081543 128.0
1190.520996 128.0
1192.245361 184.0
1193.042725 264.0
1194.266724 120.0
1194.411133 168.0
1194.58313 168.0
1194.865112 128.0
1195.057739 160.0
1195.677124 96.0
1196.110718 124.0
1197.832153 196.0
1198.087036 132.0
1198.58313 172.0
1199.630737 204.0
1199.962402 236.0
1200.837402 140.0
1201.182251 252.0
1201.458252 80.0
1201.589478 216.0
1202.237915 180.0
1203.19043 248.0
1204.709717 60.0
1205.504272 112.0
1206.153931 156.0
1206.465088 232.0
1207.516113 36.0
1207.875732 120.0
1208.297729 108.0
1208.380737 216.0
1208.442993 132.0
1208.657471 160.0
1208.920898 188.0
1209.741943 208.0
1210.49646 136.0
1211.710938 232.0
1212.064209 168.0
1212.237427 180.0
1212.639404 196.0
1212.895874 220.0
1213.915039 144.0
1213.97168 120.0
1214.017578 92.0
1214.567017 176.0
1214.823608 196.0
1215.628418 160.0
1215.71167 128.0
1215.899048 192.0
1216.398804 132.0
1216.82312 148.0
1217.037598 112.0
1217.113892 180.0
1217.24585 76.0
1217.90564 180.0
1218.016724 120.0
1218.230347 160.0
1218.6073 104.0
1218.996338 96.0
1219.25354 128.0
1220.407349 168.0
1221.276733 244.0
1221.374023 204.0
1221.49231 216.0
1222.048828 148.0
1222.744751 188.0
1223.273682 180.0
1223.865479 80.0
1224.137085 160.0
1224.617554 128.0
1224.78479 172.0
1225.348999 148.0
1225.864624 128.0
1226.422119 160.0
1227.258667 144.0
1227.977051 152.0
1228.535034 228.0
1228.981567 180.0
1229.546753 132.0
1229.825928 68.0
1230.370361 92.0
1231.906738 220.0
1232.158325 124.0
1232.346924 112.0
1232.535522 208.0
1232.640381 128.0
1233.25647 132.0
1233.430176 136.0
1233.620728 188.0
1236.388672 124.0
1237.31958 236.0
1238.405762 168.0
1238.468018 240.0
1238.62915 172.0
1238.790283 76.0
1239.757202 216.0
1239.946411 168.0
1240.093506 68.0
1241.243286 160.0
1241.755249 116.0
1243.375854 124.0
1244.112793 144.0
1244.386597 208.0
1245.123901 264.0
1245.489136 156.0
1245.671875 328.0
1245.994995 108.0
1247.569214 60.0
1247.794189 72.0
1247.885498 172.0
1248.265259 160.0
1248.989624 200.0
1249.313232 52.0
1249.974609 208.0
1250.05896 184.0
1250.389771 36.0
1251.166992 236.0
1251.720215 156.0
1252.213257 144.0
1252.600586 148.0
1253.410889 180.0
1254.157837 144.0
1254.341064 160.0
1254.92627 204.0
1256.146362 116.0
1256.851807 144.0
1258.934204 84.0
1259.084473 144.0
1259.167236 128.0
1259.414429 172.0
1259.541626 140.0
1261.449463 84.0
1262.043335 164.0
1263.047607 196.0
1263.281006 140.0
1263.946045 48.0
1264.92981 116.0
1265.793579 148.0
1266.083862 188.0
1266.692993 156.0
1268.301514 192.0
1268.5 56.0
1268.599243 144.0
1269.967773 132.0
1270.223022 156.0
1270.556519 220.0
1271.8125 224.0
1271.940308 188.0
1272.302246 156.0
1272.827759 152.0
1272.934204 324.0
1273.758057 172.0
1275.594849 156.0
1275.621826 220.0
1275.71228 216.0
1276.088989 136.0
1276.387695 192.0
1276.712524 220.0
1276.871216 116.0
1277.508179 204.0
1277.5896 176.0
1278.315308 168.0
1280.230347 176.0
1281.434082 208.0
1281.954224 136.0
1282.731079 148.0
1283.579468 152.0
1284.235596 196.0
1284.506714 52.0
1284.884766 180.0
1285.070312 208.0
1285.83374 140.0
1286.012207 56.0
1286.0979 168.0
1287.297241 192.0
1287.497192 240.0
1287.597168 148.0
1287.725708 96.0
1287.847168 176.0
1289.719238 160.0
1290.162354 220.0
1290.92749 100.0
1291.127686 224.0
1291.299316 176.0
1291.349365 168.0
1291.463867 84.0
1291.513916 156.0
1292.307983 152.0
1293.359985 140.0
1293.410034 192.0
1293.653442 188.0
1294.125977 188.0
1294.870728 124.0
1295.185791 148.0
1295.505981 168.0
1295.831421 164.0
1296.195923 132.0
1297.023682 188.0
1297.259644 188.0
1297.320312 188.0
1297.651001 140.0
1297.866089 104.0
1297.937744 136.0
1298.429199 204.0
1298.511475 128.0
1298.604736 176.0
1298.812744 160.0
1299.429688 216.0
1300.276367 184.0
1300.380493 120.0
1300.982422 140.0
1301.209595 116.0
1301.740845 140.0
1302.559692 104.0
1302.681763 212.0
1302.825439 208.0
1303.155884 148.0
1303.529541 176.0
1304.054199 164.0
1304.571777 172.0
1305.024658 72.0
1305.204468 64.0
1305.592773 148.0
1305.72937 156.0
1306.464355 168.0
1306.714844 160.0
1307.880615 224.0
1308.600464 172.0
1308.766113 120.0
1308.953369 176.0
1310.285767 184.0
1310.393921 224.0
1311.712646 152.0
1311.797852 148.0
1312.138062 160.0
1312.484131 160.0
1313.255737 52.0
1313.674072 196.0
1314.179077 188.0
1315.081177 88.0
1315.593628 124.0
1316.604492 192.0
1316.864502 236.0
1317.036377 196.0
1317.375488 188.0
1317.488525 124.0
1317.557983 240.0
1317.945801 76.0
1318.03479 112.0
1318.56958 168.0
1318.724121 116.0
1319.285156 156.0
1319.639404 160.0
1319.928589 220.0
1320.369751 48.0
1320.565063 164.0
1320.847168 116.0
1322.113281 208.0
1322.612671 64.0
1322.692261 220.0
1322.750244 164.0
1322.996338 176.0
1323.293213 84.0
1323.589966 152.0
1324.104126 160.0
1324.488037 176.0
1324.582275 144.0
1324.744995 200.0
1325.241455 248.0
1325.748657 176.0
1326.014526 144.0
1327.575562 64.0
1328.794067 72.0
1329.069824 208.0
1329.302002 124.0
1329.468994 72.0
1329.541504 92.0
1329.622192 144.0
1330.4198 224.0
1330.623047 100.0
1330.993286 116.0
1331.429077 212.0
1331.799438 200.0
1331.879395 132.0
1332.860107 124.0
1333.928467 124.0
1334.635132 164.0
1335.2854 108.0
1336.051392 188.0
1336.52478 100.0
1336.677612 92.0
1336.983276 84.0
1337.217773 232.0
1337.572754 176.0
1337.900391 132.0
1338.02417 204.0
1338.1698 184.0
1339.997803 224.0
1340.50061 212.0
1340.573486 48.0
1340.850342 168.0
1341.222168 124.0
1341.273071 140.0
1341.346069 72.0
1341.397095 208.0
1342.796997 192.0
1342.848022 188.0
1342.964722 148.0
1343.424316 112.0
1343.876587 224.0
1343.963257 156.0
1344.307129 132.0
1344.613647 184.0
1345.825439 128.0
1346.533813 180.0
1346.738281 164.0
1347.183838 192.0
1347.914429 164.0
1348.447876 108.0
1348.813354 104.0
1349.588257 160.0
1350.948608 160.0
1351.255859 200.0
1351.350952 136.0
1351.453491 160.0
1351.987671 136.0
1352.068115 120.0
1352.690308 124.0
1353.759155 208.0
1355.114258 64.0
1356.418701 188.0
1357.738525 196.0
1357.958496 148.0
1358.354614 108.0
1359.036865 204.0
1359.179565 136.0
1359.484497 176.0
1360.090576 212.0
1360.416626 232.0
1360.673584 128.0
1361.481323 176.0
1363.009277 212.0
1363.112061 160.0
1363.175049 228.0
1363.259888 184.0
1363.729492 152.0
1364.192505 140.0
1364.251343 56.0
1365.376343 164.0
1365.869141 196.0
1366.325195 196.0
1366.626831 72.0
1367.252319 192.0
1367.318604 204.0
1367.718872 212.0
1367.980957 44.0
1368.828613 164.0
1369.615723 56.0
1370.035645 196.0
1370.661865 104.0
1370.846069 164.0
1370.971313 136.0
1371.074463 220.0
1371.244019 152.0
1371.33252 40.0
1372.025391 184.0
1372.59314 164.0
1372.703735 48.0
1372.821655 116.0
1373.14624 288.0
1373.278931 132.0
1374.178955 52.0
1374.304321 124.0
1374.385498 188.0
1374.50354 152.0
1374.724976 244.0
1374.9021 192.0
1375.337524 136.0
1375.522095 168.0
1375.986938 184.0
1376.2677 184.0
1376.710693 172.0
1376.880615 144.0
1377.087402 176.0
1378.010742 204.0
1378.133179 176.0
1378.28418 140.0
1378.594482 112.0
1378.99707 212.0
1379.111206 204.0
1379.185791 104.0
1380.109863 188.0
1381.053589 232.0
1381.233887 136.0
1381.803589 148.0
1382.513916 208.0
1382.832153 156.0
1383.13562 244.0
1383.379883 164.0
1383.621338 204.0
1384.409058 196.0
1385.342285 148.0
1385.510742 196.0
1386.357422 140.0
1386.913208 148.0
1387.684204 104.0
1388.092041 188.0
1388.596313 236.0
1389.813599 172.0
1390.065186 168.0
1390.547485 80.0
1391.289795 120.0
1391.512573 168.0
1392.054565 216.0
1392.188232 168.0
1392.329346 136.0
1392.411011 216.0
1392.789795 152.0
1393.213257 204.0
1393.285645 224.0
1393.547607 172.0
1394.134644 204.0
1394.848145 140.0
1395.048828 124.0
1396.104614 132.0
1397.607178 188.0
1398.016479 200.0
1398.476807 132.0
1398.857544 356.0
1399.132935 172.0
1399.88501 100.0
1400.115845 252.0
1400.227539 244.0
1400.495728 144.0
1401.42688 184.0
1403.044189 180.0
1403.521362 156.0
1404.401367 144.0
1404.662354 108.0
1404.848877 180.0
1406.738403 176.0
1406.886108 148.0
1407.065308 48.0
1407.266968 192.0
1407.520752 204.0
1408.260132 176.0
1408.469238 188.0
1408.872681 120.0
1409.05188 156.0
1411.525879 228.0
1411.914795 124.0
1412.034424 188.0
1412.184082 68.0
1412.969482 184.0
1413.104126 132.0
1413.614014 196.0
1413.912354 156.0
1413.994629 164.0
1414.256592 176.0
1414.331421 108.0
1415.214844 44.0
1415.648926 160.0
1416.240723 116.0
1416.585327 40.0
1416.83252 208.0
1417.581787 188.0
1417.70166 84.0
1417.78064 152.0
1417.911499 120.0
1418.901001 104.0
1419.013428 232.0
1419.290894 44.0
1419.388306 148.0
1419.890747 76.0
1421.533691 208.0
1421.796387 116.0
1421.908936 192.0
1422.291748 176.0
1422.584473 168.0
1422.779663 188.0
1423.012329 128.0
1423.530518 200.0
1423.921021 72.0
1424.101196 204.0
1424.491821 180.0
1424.769775 220.0
1425.077759 88.0
1425.303223 80.0
1425.528687 196.0
1426.610962 104.0
1426.783813 176.0
1427.460571 160.0
1428.069702 240.0
1428.265259 148.0
1429.085327 192.0
1429.284546 148.0
1429.596924 120.0
1429.664673 96.0
1429.845337 144.0
1429.973267 196.0
1430.05603 176.0
1430.31189 252.0
1430.996948 112.0
1431.935181 176.0
1432.01355 140.0
1432.473022 192.0
1432.623779 184.0
1433.791626 256.0
1434.188721 168.0
1434.239136 184.0
1435.223877 160.0
1436.21936 168.0
1436.347534 184.0
1436.69458 176.0
1436.785156 316.0
1437.652832 136.0
1438.196289 76.0
1438.415161 48.0
1438.679321 204.0
1439.147461 164.0
1439.547607 216.0
1441.073364 180.0
1441.133911 180.0
1441.47229 192.0
1441.572144 160.0
1442.531982 104.0
1442.690796 180.0
1442.940186 188.0
1443.015869 184.0
1443.242676 124.0
1444.460205 56.0
1444.745605 144.0
1445.209229 96.0
1445.65564 204.0
1445.761597 200.0
1445.814575 92.0
1447.237671 208.0
1447.790527 224.0
1448.123657 72.0
1448.388794 144.0
1449.449463 224.0
1449.835938 232.0
1450.290649 240.0
1450.624146 160.0
1451.018433 300.0
1451.533936 168.0
1451.95105 244.0
1452.178589 160.0
1452.390991 160.0
1453.066162 200.0
1453.961548 124.0
1454.12085 92.0
1454.652222 152.0
1454.720581 188.0
1455.016602 172.0
1455.229126 144.0
1456.345459 124.0
1456.40625 48.0
1456.816406 196.0
1456.894165 188.0
1457.333008 160.0
1457.713013 180.0
1458.032104 124.0
1458.092896 180.0
1459.286377 212.0
1459.377563 260.0
1460.274902 76.0
1461.294312 164.0
1462.047607 128.0
1462.10083 372.0
1462.215088 136.0
1462.382446 128.0
1462.968628 156.0
1463.098022 168.0
1463.486328 148.0
1463.539551 136.0
1463.608154 200.0
1465.055176 84.0
1465.222778 184.0
1465.824707 168.0
1466.457275 148.0
1466.685913 156.0
1466.92981 296.0
1467.082275 200.0
1468.96582 176.0
1469.286255 172.0
1469.35498 172.0
1469.568604 156.0
1469.751709 164.0
1470.293457 172.0
1470.468994 80.0
1470.644531 156.0
1471.032837 148.0
1471.062988 128.0
1471.476685 184.0
1471.557373 172.0
1472.079834 236.0
1472.209595 124.0
1472.64502 164.0
1472.80542 68.0
1472.858887 120.0
1473.458618 164.0
1473.882568 192.0
1474.088867 180.0
1474.291138 248.0
1474.608521 264.0
1474.699097 220.0
1475.02124 232.0
1475.181763 180.0
1475.365234 100.0
1475.724609 152.0
1475.801025 136.0
1476.114624 176.0
1476.244507 200.0
1477.342285 124.0
1477.437744 176.0
1477.88916 164.0
1478.700317 116.0
1479.406372 144.0
1480.430542 220.0
1480.874634 148.0
1481.426147 156.0
1481.579468 156.0
1482.91272 192.0
1483.157959 140.0
1484.660645 208.0
1485.044189 212.0
1485.619507 132.0
1486.225586 52.0
1486.432739 216.0
1486.555542 240.0
1487.875732 72.0
1488.408325 196.0
1488.605103 144.0
1488.981445 224.0
1489.634277 176.0
1489.72644 160.0
1490.529907 176.0
1490.702271 160.0
1490.855957 180.0
1491.024658 220.0
1491.217163 132.0
1491.37854 168.0
1491.686035 148.0
1492.239502 112.0
1492.600952 184.0
1492.722656 220.0
1493.077637 128.0
1493.300659 188.0
1493.508423 80.0
1493.907227 184.0
1494.037476 200.0
1494.147583 196.0
1494.500732 72.0
1495.039429 132.0
1495.20105 164.0
1498.057617 124.0
1498.436035 152.0
1498.627686 204.0
1498.828125 120.0
1499.575562 156.0
1499.930176 152.0
1500.207642 148.0
1500.523682 172.0
1500.739624 140.0
1500.90918 120.0
1501.125122 192.0
1501.772949 156.0
1502.150879 188.0
1502.382324 140.0
1502.61377 156.0
1503.103638 164.0
1503.13269 220.0
1503.861328 188.0
1503.987427 152.0
1504.11084 200.0
