>compound MLS001075522-01!N-(2-pyridin-3-ylpiperidine-1-carbothioyl)benzamide
>formula C18H19N3OS
>ionization [M+H]+
>parentmass 326.131409
#inchi InChI=1S/C18H19N3OS/c22-17(14-7-2-1-3-8-14)20-18(23)21-12-5-4-10-16(21)15-9-6-11-19-13-15/h1-3,6-9,11,13,16H,4-5,10,12H2,(H,20,22,23)
#inchikey DMBUIFMXQQFLAB
#Ion_Source LC-ESI
#Instrument qTof
#Compound_Source NIH Natural Product Library
#PI Dorrestein
#Data_Collector VVP/LMS
#Scan -1
#Precursor_MZ 326.133
#ExactMass 325.125
#Charge 1
#CAS_Number N/A
#Pubmed_ID N/A
#Smiles O=C(NC(=S)N1CCCCC1c2cccnc2)c3ccccc3
#INCHI_AUX N/A
#Library_Class 1
#SpectrumID CCMSLIB00000079370
#IonMode Positive
#UpdateWorkflowName UPDATE-SINGLE-ANNOTATED-GOLD
#LibraryQualityString Gold
#TaskID b1d8e8f6646f4e71acdff9ca3d919d08
##Scan# 1593
#SpectrumFile p1-C05_GC5_01_17901.mzXML
#LibraryName NIH_Natural_Products_Library.mgf
#MQScore -1
#Organism NIH_Natural_Products_Library
#TIC_Query 0
#RT_Query -1
#MZErrorPPM -1
#SharedPeaks 0
#MassDiff 0
#LibMZ -1
#SpecMZ 326.133
#SpecCharge 0
#internalFilename spec-00000.mgf

>collision 10
94.971474 148.0
95.01561 220.0
95.033989 180.0
95.075127 220.0
95.108757 152.0
95.138969 184.0
95.273811 208.0
95.306839 144.0
95.38652 236.0
95.404938 152.0
95.456512 140.0
95.567383 168.0
95.682205 160.0
95.701675 172.0
95.790657 232.0
95.87114 132.0
95.945206 152.0
96.042709 232.0
96.056358 92.0
96.078773 148.0
96.128548 168.0
96.216377 200.0
96.255424 232.0
96.300346 208.0
96.339409 132.0
96.44297 176.0
96.503571 116.0
96.550499 152.0
96.589615 192.0
96.615051 160.0
96.628746 104.0
96.685486 208.0
96.775528 104.0
96.810776 192.0
96.85582 60.0
96.955742 144.0
96.984741 196.0
97.012581 140.0
97.21067 200.0
97.318634 180.0
97.352013 192.0
97.505898 192.0
97.570107 140.0
97.602127 224.0
97.879005 96.0
97.985359 200.0
97.999153 88.0
98.052353 140.0
98.12529 152.0
98.176552 136.0
98.269264 96.0
98.315651 212.0
98.447784 144.0
98.476532 144.0
98.567406 224.0
98.678085 252.0
98.723564 136.0
98.755211 220.0
98.786858 236.0
99.008003 164.0
99.062012 208.0
99.187126 200.0
99.264168 176.0
99.30603 184.0
99.329613 116.0
99.399796 256.0
99.458588 216.0
99.52211 212.0
99.752563 100.0
99.911652 108.0
99.94149 152.0
99.987259 152.0
100.094757 136.0
100.142555 120.0
100.172432 204.0
100.25013 136.0
100.329857 164.0
100.359764 88.0
100.44352 40.0
100.475441 152.0
100.591179 212.0
100.643089 184.0
100.698997 216.0
100.790894 148.0
100.866837 116.0
100.958801 188.0
101.010803 160.0
101.12085 116.0
101.280136 172.0
101.369179 84.0
101.419281 172.0
101.561638 152.0
101.583702 164.0
101.629845 148.0
101.64991 132.0
101.669975 168.0
101.686028 176.0
101.724167 232.0
101.78038 200.0
101.810501 132.0
101.85067 132.0
102.013428 148.0
102.031517 196.0
102.134071 120.0
102.20002 156.0
102.234673 152.0
102.361488 148.0
102.413849 184.0
102.438019 192.0
102.506523 236.0
102.673836 256.0
102.730309 168.0
102.786316 132.0
102.9907 128.0
103.055054 476.0
103.194801 140.0
103.253441 156.0
103.32019 164.0
103.354584 128.0
103.405174 112.0
103.518547 196.0
103.557022 180.0
103.605637 212.0
103.627922 176.0
103.672501 128.0
103.729248 132.0
103.80426 132.0
103.832649 204.0
103.934082 184.0
103.952339 172.0
104.003075 204.0
104.029465 164.0
104.050941 404.0
104.088341 172.0
104.21563 192.0
104.261009 128.0
104.307755 136.0
104.32402 168.0
104.433823 472.0
104.494843 212.0
104.537575 152.0
104.621025 128.0
104.639343 164.0
104.657913 168.0
104.700432 168.0
104.790054 228.0
104.884666 304.0
104.90918 168.0
104.957748 160.0
104.969872 216.0
104.989815 228.0
105.034233 11680.0
105.071777 348.0
105.102005 40.0
105.12928 188.0
105.181366 36.0
105.205849 68.0
105.291481 44.0
105.314316 56.0
105.375595 192.0
105.467552 184.0
105.507774 184.0
105.532974 44.0
105.551376 196.0
105.607185 164.0
105.655678 176.0
105.682281 104.0
105.698647 76.0
105.739571 128.0
105.764137 196.0
105.803413 64.0
105.854218 136.0
105.938957 128.0
106.035255 696.0
106.066269 1584.0
106.133469 168.0
106.146805 228.0
106.239532 176.0
106.253891 132.0
106.282616 96.0
106.313393 80.0
106.375923 172.0
106.481735 136.0
106.50843 196.0
106.547462 180.0
106.578285 48.0
106.627602 216.0
106.65226 164.0
106.728325 84.0
106.759171 120.0
106.777679 224.0
106.855843 96.0
106.872307 220.0
106.899055 124.0
106.931976 192.0
107.036964 364.0
107.068024 708.0
107.101028 148.0
107.157921 160.0
107.228546 76.0
107.245033 180.0
107.339867 168.0
107.552361 120.0
107.581261 144.0
107.692764 160.0
107.70858 152.0
107.758865 132.0
107.874596 160.0
107.904037 196.0
108.081512 160.0
108.108307 208.0
108.184883 212.0
108.199379 36.0
108.425148 72.0
108.487335 88.0
108.624191 164.0
108.667755 200.0
108.692657 204.0
108.769447 192.0
108.927254 64.0
108.96257 236.0
109.041527 168.0
109.078362 172.0
109.114281 136.0
109.147545 128.0
109.276505 140.0
109.305634 80.0
109.324356 56.0
109.430519 300.0
109.590889 208.0
109.707596 196.0
109.772232 168.0
109.803513 196.0
109.876518 180.0
109.905724 136.0
109.932854 188.0
110.014252 172.0
110.029602 240.0
110.062271 124.0
110.083145 200.0
110.178894 152.0
110.202209 100.0
110.223099 144.0
110.246086 124.0
110.285797 152.0
110.302521 236.0
110.34433 140.0
110.471893 164.0
110.63974 212.0
110.668617 160.0
110.758667 160.0
110.889404 140.0
110.913719 168.0
110.987099 140.0
111.087761 176.0
111.247246 128.0
111.303368 164.0
111.333328 72.0
111.358528 184.0
111.394234 200.0
111.432053 176.0
111.497192 200.0
111.652756 116.0
111.76004 120.0
111.852638 136.0
111.913689 180.0
111.932632 52.0
112.025307 172.0
112.139084 224.0
112.164375 168.0
112.219193 104.0
112.280342 224.0
112.339394 244.0
112.358597 160.0
112.385811 88.0
112.485001 56.0
112.499771 144.0
112.527222 192.0
112.56311 156.0
112.622246 40.0
112.698296 120.0
112.774368 120.0
112.844131 32.0
112.985825 216.0
113.004868 96.0
113.028137 40.0
113.076813 184.0
113.125496 148.0
113.218658 112.0
113.248306 268.0
113.26313 144.0
113.282196 192.0
113.345757 60.0
113.436882 132.0
113.559921 156.0
113.678665 180.0
113.825134 220.0
113.844246 144.0
113.895218 140.0
113.973816 72.0
114.001442 292.0
114.069107 124.0
114.171509 128.0
114.258713 144.0
114.326805 160.0
114.463043 236.0
114.49498 208.0
114.512016 196.0
114.554619 172.0
114.720833 176.0
114.894569 324.0
114.912766 176.0
115.056725 212.0
115.162521 192.0
115.207382 124.0
115.222336 96.0
115.241463 172.0
115.318489 184.0
115.376205 168.0
115.398239 208.0
115.427521 176.0
115.457458 52.0
115.506645 136.0
115.564407 208.0
115.611481 208.0
115.75312 192.0
115.774178 168.0
115.840576 164.0
115.956276 184.0
115.988426 160.0
116.04641 500.0
116.117073 72.0
116.306931 124.0
116.344513 224.0
116.359543 240.0
116.564957 340.0
116.636658 184.0
116.73555 176.0
116.795769 152.0
116.849548 152.0
116.924858 132.0
116.95372 236.0
116.984467 156.0
116.99334 108.0
117.000641 136.0
117.057579 8620.0
117.101402 56.0
117.124184 76.0
117.132927 44.0
117.215576 220.0
117.254364 96.0
117.424683 68.0
117.534698 148.0
117.554123 180.0
117.700905 140.0
117.731804 180.0
117.764687 172.0
117.834816 96.0
117.960152 244.0
117.997314 212.0
118.030327 428.0
118.065659 16904.0
118.115837 88.0
118.219688 64.0
118.288948 32.0
118.3041 164.0
118.332245 72.0
118.375549 88.0
118.397202 128.0
118.431496 212.0
118.473007 212.0
118.555344 156.0
118.609528 220.0
118.702751 124.0
118.734734 160.0
118.785164 112.0
118.802521 216.0
118.843231 224.0
118.865433 264.0
118.886948 92.0
118.932663 188.0
118.936394 184.0
118.982635 180.0
119.013031 148.0
119.071655 4412.0
119.186798 40.0
119.26503 108.0
119.319374 100.0
119.347641 136.0
119.36721 108.0
119.395477 80.0
119.416847 324.0
119.43898 72.0
119.504585 200.0
119.545578 112.0
119.595634 196.0
119.617401 212.0
119.636993 88.0
119.699158 152.0
119.747177 192.0
119.812485 144.0
119.893745 132.0
119.918129 120.0
119.939774 180.0
119.987663 184.0
120.048599 208.0
120.081688 72016.0
120.125122 156.0
120.148102 216.0
120.167549 44.0
120.195496 140.0
120.227303 72.0
120.251671 36.0
120.275681 56.0
120.304062 176.0
120.362175 64.0
120.441216 240.0
120.51123 88.0
120.531754 168.0
120.608047 116.0
120.63578 136.0
120.678459 80.0
120.78479 60.0
120.800102 88.0
120.823929 148.0
120.861702 52.0
120.972977 144.0
120.990494 132.0
121.084679 4844.0
121.12188 44.0
121.163498 80.0
121.196365 28.0
121.255531 56.0
121.284019 176.0
121.299362 44.0
121.371437 288.0
121.402412 72.0
121.45285 120.0
121.540604 72.0
121.607262 80.0
121.62619 100.0
121.643494 68.0
121.752533 88.0
121.768906 140.0
121.854576 60.0
121.872147 48.0
121.927086 164.0
121.988625 128.0
122.028198 112.0
122.060966 1204.0
122.082977 320.0
122.118355 92.0
122.311974 168.0
122.344994 228.0
122.402237 132.0
122.441879 68.0
122.466103 64.0
122.604904 136.0
122.629143 128.0
122.677017 184.0
122.763626 48.0
122.798912 188.0
122.865082 172.0
122.900383 40.0
122.920242 80.0
122.951134 180.0
123.004105 184.0
123.037216 148.0
123.062744 164.0
123.07917 136.0
123.112289 72.0
123.240402 100.0
123.262497 172.0
123.569832 92.0
123.629105 232.0
123.76548 196.0
123.857613 148.0
123.975037 64.0
124.019363 132.0
124.136864 120.0
124.170128 180.0
124.192307 208.0
124.210045 72.0
124.247757 152.0
124.307663 148.0
124.454163 212.0
124.582977 148.0
124.602966 244.0
124.685394 128.0
124.720741 156.0
125.065498 108.0
125.14341 148.0
125.19017 176.0
125.314911 136.0
125.343872 216.0
125.380211 196.0
125.426331 152.0
125.622559 152.0
125.653786 240.0
125.702873 172.0
125.847961 28.0
125.94175 176.0
125.975258 148.0
126.008766 156.0
126.033684 184.0
126.27253 184.0
126.379906 40.0
126.395569 44.0
126.532097 96.0
126.590309 156.0
126.664223 176.0
126.832268 228.0
126.865891 80.0
126.90625 244.0
126.973518 216.0
127.05513 364.0
127.090164 204.0
127.108116 148.0
127.330353 176.0
127.348915 244.0
127.373032 184.0
127.476372 100.0
127.512329 96.0
127.622482 128.0
127.757416 120.0
127.809166 124.0
127.878929 72.0
127.926193 172.0
128.062637 580.0
128.095078 152.0
128.401031 188.0
128.477966 192.0
128.570816 68.0
128.620468 160.0
128.819168 220.0
128.862091 76.0
128.945694 132.0
128.977341 188.0
129.069397 1380.0
129.106216 144.0
129.151443 136.0
129.228363 168.0
129.257767 56.0
129.300766 132.0
129.45018 80.0
129.481888 148.0
129.524918 208.0
129.741913 168.0
129.762863 80.0
129.778732 92.0
129.803665 148.0
129.87851 148.0
130.065811 11508.0
130.236969 160.0
130.321182 148.0
130.359818 156.0
130.402985 184.0
130.496185 164.0
130.523468 212.0
130.539398 68.0
130.568954 44.0
130.780548 68.0
130.816956 136.0
130.87616 144.0
130.902344 216.0
130.953583 204.0
130.980057 160.0
131.025711 168.0
131.072784 8216.0
131.101654 172.0
131.126724 28.0
131.180237 144.0
131.229309 128.0
131.270355 144.0
131.301239 88.0
131.384384 100.0
131.445999 136.0
131.642303 40.0
131.671997 120.0
131.713104 60.0
131.729095 84.0
131.87532 116.0
132.009033 148.0
132.081116 3668.0
132.115417 36.0
132.145157 44.0
132.250427 240.0
132.285263 252.0
132.383209 44.0
132.412979 212.0
132.662735 132.0
132.747559 196.0
132.800308 80.0
132.820953 132.0
132.949432 44.0
133.020584 212.0
133.084122 424.0
133.146851 40.0
133.181305 112.0
133.217056 164.0
133.236435 80.0
133.252518 160.0
133.289276 204.0
133.592758 96.0
133.615768 72.0
133.675583 140.0
133.857437 176.0
133.974899 108.0
134.000244 224.0
134.073654 192.0
134.095901 2764.0
134.119431 216.0
134.140625 152.0
134.143646 140.0
134.253784 68.0
134.387573 36.0
134.466034 144.0
134.634613 180.0
134.666885 124.0
134.82399 44.0
134.842484 168.0
134.879456 176.0
134.904892 116.0
134.95343 184.0
135.029739 272.0
135.095444 296.0
135.161606 168.0
135.305099 152.0
135.420883 236.0
135.912338 40.0
135.933212 140.0
136.021942 980.0
136.063187 96.0
136.109634 336.0
136.304749 116.0
136.486038 120.0
136.502319 252.0
136.555801 136.0
136.700043 96.0
136.723312 216.0
136.765213 96.0
137.026886 204.0
137.175156 120.0
137.20314 100.0
137.237091 168.0
137.261429 144.0
137.343048 112.0
137.483032 192.0
137.721161 200.0
137.751526 136.0
137.784225 104.0
137.926773 196.0
137.98288 36.0
138.039215 220.0
138.118515 144.0
138.247192 108.0
138.46257 236.0
138.495346 48.0
138.593735 176.0
138.687485 188.0
138.821106 136.0
138.990005 188.0
139.0121 260.0
139.043976 180.0
139.255264 124.0
139.289795 172.0
139.365677 68.0
139.494934 128.0
139.647766 140.0
139.706573 160.0
139.760681 148.0
139.79834 68.0
139.843048 140.0
139.883057 156.0
139.908951 168.0
139.960114 164.0
140.092636 176.0
140.149185 92.0
140.219879 176.0
140.269363 232.0
140.526413 132.0
140.712875 164.0
140.748291 172.0
140.797516 132.0
140.965591 124.0
141.090866 116.0
141.235107 56.0
141.258759 172.0
141.384155 128.0
141.452805 200.0
141.620911 108.0
141.658813 52.0
141.921875 116.0
142.062027 424.0
142.415466 204.0
142.604858 168.0
142.688736 148.0
142.938477 164.0
142.961761 204.0
143.007492 212.0
143.026535 200.0
143.068146 816.0
143.142258 164.0
143.21225 72.0
143.522049 140.0
143.543503 176.0
143.610291 128.0
143.63652 156.0
143.703323 148.0
143.736725 216.0
143.846497 112.0
143.867981 140.0
143.906189 64.0
144.080124 6588.0
144.12561 152.0
144.159378 40.0
144.233459 256.0
144.357788 68.0
144.668823 60.0
144.798111 108.0
144.836441 240.0
144.976822 248.0
145.016129 92.0
145.08342 1156.0
145.183945 88.0
145.227127 52.0
145.270294 156.0
145.328735 216.0
145.476669 152.0
145.596725 84.0
145.635147 140.0
145.676575 60.0
145.704803 60.0
145.85379 260.0
145.940338 140.0
145.983627 172.0
146.031723 180.0
146.048553 136.0
146.071915 592.0
146.096985 36036.0
146.175125 92.0
146.204941 44.0
146.224182 36.0
146.281357 64.0
146.334915 120.0
146.354187 52.0
146.404739 60.0
146.430038 52.0
146.464951 104.0
146.522766 184.0
146.648071 120.0
146.710739 92.0
146.756546 104.0
146.828888 120.0
146.868439 80.0
146.922226 184.0
146.992935 144.0
147.055679 176.0
147.099869 4752.0
147.132919 164.0
147.161316 184.0
147.35994 52.0
147.408264 196.0
147.434845 196.0
147.467438 136.0
147.490433 68.0
147.554321 220.0
147.623398 36.0
147.727402 128.0
147.782654 148.0
147.876068 72.0
147.904037 212.0
147.942764 104.0
147.991196 112.0
148.020248 80.0
148.098007 132.0
148.126801 60.0
148.156769 120.0
148.197067 128.0
148.232193 144.0
148.252396 144.0
148.306107 104.0
148.323074 116.0
148.415192 108.0
148.764557 148.0
148.911011 152.0
149.0401 140.0
149.121613 140.0
149.160507 156.0
149.240723 172.0
149.262604 176.0
149.306381 208.0
149.591049 176.0
149.946655 180.0
149.997849 200.0
150.041183 312.0
150.083176 140.0
150.153885 64.0
150.385666 76.0
150.456451 204.0
150.48819 96.0
150.612732 48.0
150.810638 200.0
150.945099 192.0
151.033142 60.0
151.118759 88.0
151.135895 136.0
151.304764 168.0
151.736542 208.0
151.779205 148.0
151.841385 92.0
151.868362 120.0
151.919861 176.0
151.983658 136.0
152.048401 332.0
152.079361 172.0
152.111267 44.0
152.307709 152.0
152.342102 176.0
152.361755 136.0
152.560806 56.0
152.602402 148.0
152.671448 172.0
152.700958 196.0
152.833801 160.0
152.863327 28.0
153.070099 116.0
153.486511 48.0
153.822037 60.0
153.901031 148.0
153.923264 164.0
154.064728 400.0
154.128281 172.0
154.175232 168.0
154.729279 204.0
154.830795 152.0
155.019073 124.0
155.061478 528.0
155.123169 232.0
155.187622 156.0
155.227295 144.0
155.348816 68.0
155.408371 188.0
155.492966 172.0
156.006882 216.0
156.068665 188.0
156.129654 220.0
156.280457 80.0
156.352615 108.0
156.519394 140.0
156.728622 44.0
156.795914 40.0
156.885635 100.0
156.930511 120.0
156.965424 180.0
157.075439 388.0
157.125046 28.0
157.152496 192.0
157.394592 148.0
157.477005 156.0
157.72937 120.0
157.769363 180.0
157.849045 184.0
157.8647 184.0
157.909378 144.0
158.00444 136.0
158.046967 92.0
158.075394 268.0
158.147064 168.0
158.172104 272.0
158.24971 120.0
158.324829 132.0
158.422501 128.0
158.497665 208.0
158.540268 76.0
158.653061 144.0
158.959045 172.0
159.004211 96.0
159.082092 392.0
159.345703 248.0
159.559021 160.0
159.833481 156.0
159.987 160.0
160.034836 132.0
160.085541 468.0
160.14563 204.0
160.450531 64.0
160.516098 172.0
160.652283 84.0
160.677505 84.0
160.725449 188.0
160.796112 100.0
160.897079 228.0
160.917267 192.0
161.015747 176.0
161.107483 3156.0
161.627487 100.0
161.660385 128.0
161.695816 140.0
161.799591 100.0
161.83757 48.0
161.905945 120.0
161.951538 176.0
162.0354 512.0
162.088333 84.0
162.114059 716.0
162.146622 92.0
162.199265 68.0
162.237869 92.0
162.291107 120.0
162.521912 56.0
162.558762 148.0
162.590424 136.0
162.615585 228.0
162.643723 88.0
162.666565 132.0
162.722092 152.0
162.868774 176.0
162.887482 144.0
162.927048 168.0
162.958618 64.0
162.978943 188.0
163.025635 348.0
163.043655 224.0
163.059814 116.0
163.079086 308.0
163.123566 74776.0
163.186752 136.0
163.213028 172.0
163.233124 48.0
163.266098 164.0
163.291748 276.0
163.31781 152.0
163.335358 184.0
163.355209 68.0
163.378006 144.0
163.413712 52.0
163.440918 56.0
163.494843 68.0
163.503967 60.0
163.512848 96.0
163.543091 248.0
163.576584 36.0
163.617935 196.0
163.645325 152.0
163.663147 64.0
163.683517 36.0
163.706436 40.0
163.740479 92.0
163.759903 40.0
163.810852 44.0
163.832794 104.0
163.851608 88.0
163.889832 60.0
163.920639 216.0
164.017975 796.0
164.082886 160.0
164.127182 6244.0
164.162445 168.0
164.228882 56.0
164.256927 68.0
164.307953 44.0
164.330917 68.0
164.399811 144.0
164.435532 144.0
164.499344 64.0
164.545303 80.0
164.60051 204.0
164.660202 84.0
164.709534 64.0
164.83902 104.0
164.887573 140.0
164.918243 136.0
164.955612 88.0
165.035141 220.0
165.101395 176.0
165.128525 456.0
165.176193 68.0
165.192566 84.0
165.214859 164.0
165.250687 140.0
165.281387 92.0
165.319763 112.0
165.344757 136.0
165.378632 52.0
165.421173 148.0
165.447739 108.0
165.483582 108.0
165.662857 124.0
165.757645 32.0
165.934494 52.0
165.967438 132.0
165.993469 228.0
166.011429 176.0
166.128433 132.0
166.234604 88.0
166.306458 144.0
166.411697 132.0
166.48616 44.0
166.578629 72.0
166.658264 56.0
166.681396 120.0
166.840744 176.0
167.100494 172.0
167.162247 244.0
167.200836 104.0
167.677292 36.0
167.850006 192.0
168.138916 140.0
168.370209 208.0
168.536591 40.0
168.947662 56.0
169.07579 484.0
169.359238 108.0
170.0811 396.0
170.196869 148.0
170.326706 44.0
170.415039 96.0
170.555374 112.0
170.648956 92.0
170.700958 192.0
170.78157 136.0
170.85701 192.0
170.95668 248.0
171.029907 172.0
171.091812 3736.0
171.145905 132.0
171.25267 140.0
171.364685 152.0
171.424698 120.0
171.448059 152.0
171.664429 72.0
171.690506 60.0
171.724411 100.0
171.985321 116.0
172.098953 3824.0
172.251648 216.0
172.371826 48.0
172.596619 52.0
172.766617 124.0
172.910538 28.0
173.030945 144.0
173.103241 588.0
173.148773 128.0
173.174957 40.0
173.346252 96.0
173.641479 76.0
173.67981 224.0
173.775253 48.0
173.798874 84.0
173.905518 120.0
174.021957 140.0
174.113861 140.0
174.384476 116.0
174.416016 176.0
174.479095 244.0
174.497498 112.0
174.704605 144.0
174.776291 96.0
174.876297 156.0
174.899979 96.0
174.934204 76.0
175.040588 284.0
175.15802 88.0
175.239685 128.0
175.719528 80.0
175.906891 180.0
176.049026 504.0
176.181534 60.0
176.38765 212.0
176.84259 192.0
177.047424 740.0
177.075562 104.0
177.162979 52.0
177.208008 100.0
177.303406 88.0
177.478363 204.0
177.645447 184.0
177.679932 80.0
177.711761 52.0
178.064041 436.0
178.495316 136.0
179.072784 144.0
179.733902 80.0
179.805954 76.0
179.902039 180.0
179.971451 120.0
180.08255 512.0
180.177109 84.0
180.215485 104.0
180.251907 176.0
180.390884 116.0
180.845612 232.0
181.07991 184.0
181.097275 232.0
181.298218 192.0
181.375931 140.0
181.424179 184.0
181.834579 180.0
181.872147 52.0
181.928513 136.0
182.076187 168.0
182.135284 40.0
182.527649 128.0
182.974274 176.0
183.077423 196.0
183.133148 200.0
183.389114 96.0
183.583221 132.0
183.715378 128.0
183.888062 124.0
184.690506 100.0
184.977325 128.0
185.03418 188.0
185.188522 192.0
185.413391 136.0
185.879822 88.0
185.928665 108.0
186.103653 1840.0
186.327805 96.0
186.697479 144.0
186.792664 112.0
187.002167 108.0
187.034744 124.0
187.099396 128.0
187.113525 176.0
187.14917 120.0
187.173676 176.0
187.192734 96.0
187.282608 172.0
187.451523 80.0
187.506012 100.0
187.544174 104.0
187.585068 104.0
187.609589 132.0
187.685928 152.0
187.748657 124.0
187.8358 88.0
187.871384 160.0
187.925171 112.0
187.963943 256.0
188.053619 224.0
188.118744 55572.0
188.163635 180.0
188.195312 52.0
188.224426 196.0
188.253113 28.0
188.269165 92.0
188.296158 176.0
188.356033 132.0
188.361526 72.0
188.372803 100.0
188.398254 92.0
188.444168 204.0
188.478333 76.0
188.510269 32.0
188.540604 80.0
188.562897 124.0
188.595001 72.0
188.634415 124.0
188.667557 88.0
188.690323 64.0
188.77269 72.0
188.835236 60.0
188.891205 108.0
189.04747 232.0
189.068146 60.0
189.121033 6628.0
189.266144 48.0
189.301926 60.0
189.333694 96.0
189.356323 212.0
189.384811 96.0
189.413116 36.0
189.454941 60.0
189.588455 60.0
189.703568 144.0
189.755661 152.0
189.825775 84.0
189.847153 76.0
189.884537 36.0
189.972305 80.0
190.040436 48.0
190.067261 164.0
190.126831 452.0
190.164383 216.0
190.252213 68.0
190.29512 64.0
190.397736 52.0
190.433441 80.0
190.4729 132.0
190.518143 96.0
190.526978 80.0
190.579498 72.0
190.639984 112.0
190.785156 80.0
190.826401 56.0
191.054657 76.0
191.239029 48.0
191.272049 120.0
191.296829 124.0
191.322113 64.0
191.390808 172.0
191.519867 188.0
191.58046 196.0
191.602509 68.0
191.665863 152.0
191.729248 96.0
191.908417 60.0
192.151123 104.0
192.39122 96.0
193.821091 136.0
194.095505 200.0
194.17038 148.0
195.871353 120.0
196.710678 112.0
197.504242 52.0
198.316208 60.0
198.389084 136.0
198.748077 208.0
198.922073 164.0
199.486694 124.0
200.108414 160.0
200.590134 124.0
200.90596 76.0
200.92572 172.0
201.023727 76.0
201.332169 140.0
201.45079 128.0
201.549667 128.0
201.795563 108.0
201.829498 212.0
202.217056 40.0
202.256683 200.0
202.452026 68.0
202.514328 60.0
202.990433 188.0
203.049988 108.0
203.532394 140.0
203.566467 120.0
203.84201 112.0
203.89032 104.0
204.065872 252.0
204.123428 60.0
204.151855 116.0
204.245483 192.0
204.464783 84.0
204.516022 108.0
204.561554 104.0
204.581482 80.0
204.636978 328.0
204.718155 176.0
204.755066 224.0
204.800735 116.0
204.883347 100.0
204.923233 192.0
204.948883 112.0
204.976425 228.0
205.015808 196.0
205.027832 96.0
205.079803 51976.0
205.127396 200.0
205.175461 56.0
205.199463 200.0
205.251266 44.0
205.270966 128.0
205.298172 104.0
205.345215 108.0
205.38562 224.0
205.446304 84.0
205.478592 96.0
205.548874 140.0
205.595261 76.0
205.61615 44.0
205.644684 60.0
205.676086 92.0
205.701767 60.0
205.750305 92.0
205.776001 44.0
205.875931 40.0
205.918335 52.0
205.93866 148.0
205.967331 140.0
205.992081 60.0
206.02446 48.0
206.08136 5484.0
206.128326 168.0
206.153595 184.0
206.179062 96.0
206.277359 60.0
206.31308 44.0
206.338821 44.0
206.375977 68.0
206.453186 48.0
206.513245 56.0
206.533264 64.0
206.746323 64.0
206.848007 32.0
206.902405 56.0
207.009171 248.0
207.076309 1784.0
207.129074 76.0
207.16301 44.0
207.18306 68.0
207.29631 68.0
207.395096 116.0
207.487976 100.0
207.515991 276.0
207.575714 192.0
207.595779 156.0
207.618729 80.0
207.651627 76.0
207.680756 140.0
207.716248 64.0
207.756393 148.0
207.813782 60.0
207.851288 56.0
208.074951 160.0
208.339157 84.0
208.429993 52.0
209.01767 68.0
209.230652 128.0
209.593552 76.0
209.6483 140.0
209.786652 112.0
210.104706 68.0
210.938416 96.0
211.302795 60.0
211.864426 88.0
212.528336 44.0
212.772125 40.0
214.867523 104.0
215.109741 136.0
215.862564 112.0
216.021439 40.0
216.747498 84.0
218.285599 56.0
218.950668 48.0
219.339569 68.0
219.5784 88.0
220.139099 92.0
220.348816 92.0
220.937119 80.0
220.996292 84.0
221.407745 64.0
221.864044 72.0
224.098953 224.0
224.722092 100.0
225.128036 76.0
225.396866 100.0
226.713516 100.0
232.109406 92.0
232.52803 84.0
234.090591 76.0
234.352554 68.0
236.282089 92.0
238.124313 132.0
241.143616 76.0
242.768936 84.0
243.945648 52.0
246.098373 144.0
250.155106 140.0
250.277893 56.0
250.851273 72.0
257.02301 108.0
257.064484 132.0
259.771179 152.0
259.883484 72.0
260.493439 48.0
260.602661 80.0
263.705872 164.0
264.440063 72.0
264.899841 88.0
266.872986 96.0
267.151306 204.0
268.295715 56.0
269.401978 108.0
270.592377 72.0
271.44754 56.0
272.609589 64.0
274.129883 324.0
275.138397 172.0
275.836151 36.0
276.404999 52.0
277.146698 176.0
279.134918 56.0
284.937286 92.0
286.100891 68.0
289.40274 112.0
289.436584 104.0
290.646667 112.0
290.928345 68.0
292.138733 176.0
293.06073 148.0
293.138489 180.0
294.384186 72.0
295.207733 64.0
298.059662 48.0
303.496033 144.0
306.439911 152.0
306.830231 100.0
307.321991 52.0
309.100311 260.0
309.180969 108.0
309.331482 44.0
309.954865 44.0
311.874481 40.0
313.088257 64.0
314.202087 72.0
316.807526 92.0
318.538605 32.0
326.131409 124.0
326.930023 36.0
328.475677 80.0
328.670471 100.0
332.328491 76.0
335.259277 48.0
342.134277 100.0
342.384674 64.0
342.554077 48.0
343.534637 84.0
345.488831 88.0
346.177246 116.0
372.276489 100.0
372.941132 52.0
374.453186 100.0
375.675018 48.0
375.883362 104.0
376.141937 52.0
392.52066 60.0
394.312897 44.0
394.901978 128.0
395.356934 104.0
403.559082 68.0
411.57489 124.0
418.015808 72.0
425.089203 52.0
428.473053 120.0
430.696472 116.0
441.176392 48.0
445.265869 20.0
454.990326 60.0
460.863464 48.0
465.377808 92.0
470.04361 60.0
473.09491 96.0
473.961121 56.0
476.177826 124.0
481.272736 156.0
482.386749 140.0
484.465332 96.0
488.75473 72.0
496.090485 68.0
498.856018 88.0
505.975891 92.0
508.508484 104.0
514.264893 64.0
514.851807 52.0
518.117493 76.0
520.035583 56.0
529.61499 80.0
532.04071 92.0
532.885742 80.0
551.510437 44.0
558.18158 48.0
558.294434 68.0
564.63739 112.0
568.308533 116.0
570.84021 88.0
576.092468 40.0
589.796997 104.0
594.86853 48.0
601.029846 76.0
604.401306 72.0
612.550903 88.0
614.927429 56.0
626.914124 32.0
631.952332 104.0
655.283752 144.0
679.909668 204.0
683.578491 188.0
685.18573 64.0
688.666626 120.0
717.228516 52.0
720.8255 228.0
737.63678 136.0
737.755737 88.0
737.907104 44.0
749.696594 160.0
750.481506 184.0
753.630737 60.0
757.372559 72.0
760.860107 144.0
763.921082 88.0
768.741943 144.0
771.76886 48.0
788.255249 240.0
788.847656 188.0
793.931519 172.0
806.135986 36.0
809.405457 204.0
812.931274 144.0
814.753845 64.0
815.589111 56.0
816.635315 152.0
817.181396 148.0
820.273682 88.0
821.756409 220.0
827.883911 244.0
829.482361 204.0
829.780457 76.0
831.495544 104.0
838.921143 180.0
840.888062 124.0
843.180847 172.0
845.320496 136.0
847.445496 180.0
852.06366 232.0
854.674133 72.0
862.032837 164.0
862.319214 156.0
871.478271 180.0
883.097168 164.0
886.436035 176.0
886.969421 156.0
894.281067 104.0
899.25769 188.0
901.807983 96.0
905.42627 228.0
907.081177 184.0
908.274414 180.0
909.474426 36.0
918.047546 260.0
918.548157 228.0
920.75116 144.0
924.111267 168.0
924.783691 152.0
925.885559 76.0
926.715454 164.0
928.424805 92.0
929.043457 36.0
934.529419 224.0
935.381409 156.0
935.503174 212.0
936.105957 260.0
937.397339 136.0
937.89093 188.0
947.656311 224.0
951.685913 196.0
954.217224 244.0
955.393433 196.0
961.207947 220.0
968.255127 220.0
970.399109 156.0
972.303406 164.0
972.526855 160.0
973.954895 176.0
976.229553 144.0
980.269531 124.0
982.108643 224.0
984.929871 76.0
988.831299 192.0
993.035217 184.0
994.007568 216.0
995.018066 88.0
995.953735 200.0
997.059509 188.0
1004.047485 120.0
1005.208191 48.0
1007.61377 192.0
1007.860168 192.0
1010.136108 180.0
1012.560242 220.0
1014.277283 108.0
1019.322632 196.0
1020.009033 156.0
1020.880005 144.0
1022.521362 136.0
1024.654419 148.0
1025.457397 68.0
1028.104004 196.0
1028.869873 64.0
1028.991211 76.0
1030.990479 224.0
1033.401123 144.0
1033.593018 172.0
1034.098633 192.0
1034.277832 144.0
1035.238159 148.0
1037.025513 100.0
1037.224243 164.0
1037.628174 144.0
1038.109009 116.0
1038.378296 120.0
1038.442505 84.0
1039.006958 184.0
1040.181274 92.0
1040.797607 116.0
1044.113403 136.0
1045.150024 128.0
1045.50293 76.0
1046.816162 168.0
1047.299194 160.0
1047.376465 128.0
1047.485962 60.0
1048.020752 60.0
1049.683716 188.0
1050.773682 132.0
1052.503418 148.0
1053.091064 152.0
1054.447876 112.0
1054.919678 180.0
1055.139526 32.0
1055.288208 196.0
1055.908936 232.0
1057.75293 80.0
1059.080322 140.0
1059.449463 188.0
1060.460327 72.0
1061.35498 156.0
1062.152588 56.0
1062.197998 168.0
1064.463013 60.0
1066.249512 132.0
1067.614624 168.0
1068.121948 152.0
1068.187012 156.0
1068.881958 68.0
1069.175903 132.0
1069.670654 112.0
1070.738403 180.0
1071.99292 192.0
1073.762329 108.0
1075.863403 136.0
1076.777466 220.0
1077.05188 164.0
1079.090698 44.0
1079.61377 116.0
1080.117432 188.0
1080.254761 156.0
1081.19043 184.0
1081.249268 108.0
1081.380127 228.0
1083.717896 68.0
1083.875244 200.0
1083.986572 152.0
1084.104492 184.0
1086.209106 144.0
1086.64856 176.0
1087.692017 220.0
1088.44043 164.0
1090.549194 232.0
1090.786499 180.0
1091.693115 128.0
1092.094238 80.0
1092.311279 140.0
1092.521851 204.0
1092.639282 220.0
1092.771851 144.0
1093.633911 224.0
1093.969604 136.0
1094.621338 228.0
1096.894287 188.0
1098.984863 176.0
1099.387329 132.0
1099.525879 180.0
1102.848022 136.0
1103.21814 44.0
1106.890137 292.0
1107.393433 132.0
1107.565552 180.0
1107.969604 124.0
1108.459961 128.0
1109.334839 144.0
1109.553589 256.0
1110.050781 128.0
1110.680908 160.0
1111.403931 156.0
1112.882568 88.0
1113.634521 72.0
1115.288818 140.0
1116.166382 188.0
1119.114014 160.0
1119.200562 160.0
1119.406982 156.0
1119.660034 192.0
1120.112915 236.0
1122.485474 160.0
1124.472778 204.0
1124.727051 124.0
1124.91394 220.0
1126.396362 44.0
1126.543335 124.0
1126.944092 176.0
1127.512085 68.0
1127.598999 148.0
1128.0802 124.0
1129.250366 160.0
1130.019653 192.0
1130.689453 156.0
1130.963135 200.0
1131.639282 44.0
1131.860229 208.0
1133.353882 176.0
1133.44104 232.0
1134.654175 68.0
1135.700195 140.0
1135.800781 108.0
1140.621948 120.0
1140.870605 148.0
1141.549683 116.0
1141.670776 160.0
1142.155029 128.0
1142.390381 144.0
1142.713379 132.0
1143.38623 224.0
1143.547729 192.0
1146.039307 164.0
1146.126953 184.0
1146.504272 200.0
1146.854736 156.0
1147.899658 164.0
1148.661743 128.0
1148.945068 184.0
1151.314209 196.0
1151.73291 116.0
1152.638184 84.0
1152.921997 164.0
1153.685791 164.0
1153.895386 172.0
1153.98999 236.0
1155.437378 92.0
1156.418457 68.0
1156.513184 188.0
1156.743408 156.0
1156.892334 164.0
1157.169922 132.0
1157.880859 304.0
1157.989258 192.0
1158.036621 192.0
1158.097534 196.0
1158.947388 212.0
1159.076294 144.0
1159.567749 88.0
1160.747314 172.0
1162.33313 164.0
1164.486572 192.0
1164.744629 76.0
1165.852051 180.0
1165.933594 68.0
1166.055908 144.0
1166.144287 28.0
1166.926025 144.0
1167.605957 216.0
1167.925659 216.0
1168.143311 152.0
1168.83728 180.0
1169.268188 176.0
1170.641113 96.0
1170.872681 192.0
1171.867188 128.0
1172.943848 124.0
1173.012085 152.0
1173.666504 208.0
1174.634888 104.0
1174.976074 172.0
1175.078369 164.0
1178.526245 168.0
1178.908936 68.0
1179.681152 112.0
1180.057251 196.0
1182.074951 172.0
1182.321289 92.0
1183.991699 144.0
1184.320435 120.0
1184.772583 120.0
1185.046631 104.0
1185.546753 136.0
1185.985352 76.0
1186.972656 32.0
1188.028809 116.0
1188.852173 200.0
1189.380615 140.0
1189.716919 124.0
1189.957275 188.0
1190.211304 120.0
1190.678223 140.0
1191.117798 60.0
1191.282715 164.0
1192.162109 184.0
1192.753174 96.0
1193.00061 80.0
1193.069336 120.0
1193.509399 164.0
1193.571289 132.0
1194.018188 148.0
1194.148926 204.0
1195.800049 124.0
1196.05481 96.0
1196.357666 60.0
1198.451294 56.0
1198.685547 180.0
1198.762695 100.0
1199.140381 108.0
1199.354004 192.0
1199.574585 148.0
1200.036499 76.0
1200.788086 208.0
1201.298584 164.0
1201.381348 136.0
1201.546875 120.0
1203.106567 188.0
1203.181885 216.0
1203.962769 128.0
1204.287354 200.0
1205.143921 44.0
1206.443237 224.0
1207.279785 144.0
1207.348999 180.0
1207.895386 124.0
1208.68396 212.0
1209.272217 104.0
1213.865234 164.0
1214.981934 212.0
1215.252441 232.0
1215.557739 184.0
1216.147705 108.0
1217.938965 156.0
1219.637817 212.0
1220.204346 168.0
1221.004028 120.0
1221.286011 196.0
1221.915283 108.0
1223.202637 200.0
1224.253906 148.0
1224.922607 136.0
1225.06189 100.0
1225.187256 64.0
1225.25 168.0
1225.458984 188.0
1226.831909 200.0
1227.047974 104.0
1228.714844 224.0
1228.901123 148.0
1229.161377 40.0
1229.224121 40.0
1229.468384 196.0
1230.859619 216.0
1230.948242 204.0
1231.842285 160.0
1232.163574 120.0
1232.282349 124.0
1232.331299 108.0
1232.855347 168.0
1233.051025 104.0
1233.743042 152.0
1234.008667 88.0
1234.484131 156.0
1234.910767 124.0
1235.106567 220.0
1235.435303 156.0
1236.393921 160.0
1237.009766 216.0
1237.408813 156.0
1238.235107 148.0
1239.503052 212.0
1240.077759 56.0
1240.659546 136.0
1241.0802 148.0
1241.598999 212.0
1242.686279 184.0
1242.75647 212.0
1242.959961 164.0
1243.5354 428.0
1245.76123 148.0
1246.105469 56.0
1246.25293 204.0
1247.166504 112.0
1247.756958 140.0
1248.115601 172.0
1248.277344 36.0
1249.170532 204.0
1249.536255 144.0
1249.888062 200.0
1250.218872 124.0
1251.042358 128.0
1251.161987 188.0
1251.682983 208.0
1251.880127 172.0
1251.98584 124.0
1252.067017 128.0
1252.119629 176.0
1252.48584 176.0
1252.838013 168.0
1252.964844 204.0
1253.042358 136.0
1253.310059 104.0
1253.627197 164.0
1253.944336 148.0
1255.072144 84.0
1255.593994 252.0
1255.918457 88.0
1256.973389 240.0
1257.167114 160.0
1257.731812 192.0
1258.098877 164.0
1259.332275 200.0
1259.419312 80.0
1259.934937 168.0
1260.175171 128.0
1261.235107 148.0
1261.638062 152.0
1261.807739 120.0
1262.528931 188.0
1262.707886 168.0
1263.688965 212.0
1264.339966 148.0
1265.352173 152.0
1265.564575 176.0
1266.414307 104.0
1267.07312 148.0
1267.399048 188.0
1269.395874 152.0
1269.590454 132.0
1270.227661 176.0
1270.957764 228.0
1271.27063 156.0
1271.888062 172.0
1272.676025 148.0
1274.28833 148.0
1275.005981 172.0
1275.404053 76.0
1275.62439 192.0
1275.802124 188.0
1276.228638 224.0
1276.313965 132.0
1276.648193 168.0
1277.430542 184.0
1278.348267 216.0
1279.423096 184.0
1279.892944 184.0
1280.612183 48.0
1280.690552 156.0
1280.776001 292.0
1281.674316 132.0
1281.987183 192.0
1282.450439 172.0
1283.120483 176.0
1283.191772 140.0
1284.09729 96.0
1284.24707 256.0
1284.404053 208.0
1284.910522 168.0
1285.060303 344.0
1285.652588 112.0
1286.530518 172.0
1286.651855 112.0
1286.787476 192.0
1287.144531 200.0
1287.430176 140.0
1288.251465 240.0
1288.622925 88.0
1289.223145 128.0
1290.273926 112.0
1290.803589 240.0
1290.917236 152.0
1291.117676 200.0
1291.396484 36.0
1291.717773 188.0
1291.947266 164.0
1292.44812 116.0
1292.934692 168.0
1293.750732 184.0
1293.929688 200.0
1294.373535 64.0
1295.519531 180.0
1295.920654 140.0
1296.895264 124.0
1297.045776 40.0
1297.533203 180.0
1297.941895 80.0
1298.293335 128.0
1298.522827 112.0
1299.182617 48.0
1299.304565 116.0
1299.383545 184.0
1300.302002 204.0
1300.603394 208.0
1301.141846 76.0
1301.199219 216.0
1302.427246 136.0
1303.253296 164.0
1304.446289 148.0
1305.258667 40.0
1305.977905 156.0
1306.366333 196.0
1306.992188 120.0
1307.085693 40.0
1307.395142 124.0
1307.495972 176.0
1308.129272 116.0
1309.035522 160.0
1309.122803 172.0
1309.900635 132.0
1311.48584 128.0
1312.033691 144.0
1312.769165 72.0
1313.180176 72.0
1313.46875 152.0
1313.578735 140.0
1314.243408 148.0
1314.75293 160.0
1317.821777 164.0
1319.267212 164.0
1320.127563 220.0
1320.424072 144.0
1320.785767 160.0
1320.966553 236.0
1321.089478 148.0
1321.581421 152.0
1321.914307 208.0
1322.225464 116.0
1323.484985 180.0
1324.013672 152.0
1324.826782 168.0
1326.506104 148.0
1327.172974 140.0
1327.405029 204.0
1328.006958 168.0
1329.109619 164.0
1329.595825 140.0
1329.733765 164.0
1330.016724 52.0
1330.26355 196.0
1331.664917 128.0
1331.744873 52.0
1332.493042 160.0
1332.73999 140.0
1333.270508 160.0
1333.779297 72.0
1334.822021 212.0
1334.978882 160.0
1335.167969 84.0
1335.953491 100.0
1337.401489 76.0
1337.969238 188.0
1339.003174 104.0
1339.585938 208.0
1339.964722 44.0
1341.174316 160.0
1341.465942 60.0
1341.68457 76.0
1342.515869 208.0
1342.668945 172.0
1342.749146 216.0
1342.822144 144.0
1343.121216 320.0
1343.179565 128.0
1343.609863 116.0
1344.580322 108.0
1345.273804 156.0
1346.098755 108.0
1346.237549 56.0
1346.458374 232.0
1346.785278 140.0
1347.092041 196.0
1348.809204 156.0
1349.065063 168.0
1349.44519 244.0
1349.635254 72.0
1350.417725 152.0
1350.571411 184.0
1350.644531 112.0
1350.739624 132.0
1351.75647 36.0
1351.939453 132.0
1352.159058 124.0
1352.546875 224.0
1352.598145 160.0
1353.000366 160.0
1354.01123 112.0
1355.703491 96.0
1355.930664 160.0
1356.157837 100.0
1356.392456 220.0
1357.052246 116.0
1357.213501 176.0
1357.558105 196.0
1358.276855 220.0
1358.35022 108.0
1359.531494 180.0
1359.817627 104.0
1361.530029 196.0
1361.910156 164.0
1362.380249 180.0
1362.439087 184.0
1362.512451 376.0
1362.621826 176.0
1362.872559 172.0
1363.578003 176.0
1363.636719 124.0
1364.011597 188.0
1364.268921 176.0
1364.967285 108.0
1365.033569 124.0
1365.783691 108.0
1366.070557 124.0
1366.636963 184.0
1367.740845 304.0
1367.924927 88.0
1368.801025 160.0
1369.994141 228.0
1370.08252 212.0
1370.229858 212.0
1371.025635 104.0
1371.47522 192.0
1372.005981 72.0
1372.164429 236.0
1372.315552 176.0
1372.912842 148.0
1373.325806 208.0
1373.783203 164.0
1373.886475 180.0
1374.425049 128.0
1374.491455 80.0
1374.727539 140.0
1375.015381 76.0
1375.089233 56.0
1376.237915 228.0
1376.728149 108.0
1376.831543 184.0
1377.104736 112.0
1377.245117 116.0
1377.422363 164.0
1377.762207 68.0
1378.257202 96.0
1378.707886 148.0
1378.833496 148.0
1379.033081 244.0
1379.22522 192.0
1379.690918 128.0
1380.067993 180.0
1380.239746 204.0
1380.674316 188.0
1380.748291 196.0
1380.903564 64.0
1381.103271 48.0
1381.233276 188.0
1381.650757 176.0
1382.087158 152.0
1382.257446 216.0
1383.056641 140.0
1383.360107 124.0
1383.796875 200.0
1384.545898 56.0
1384.759521 224.0
1385.171875 200.0
1385.240967 140.0
1386.470947 144.0
1386.591187 172.0
1387.315918 180.0
1387.469604 216.0
1388.643188 160.0
1389.347778 128.0
1389.844849 108.0
1390.143677 304.0
1390.334595 108.0
1390.475586 224.0
1390.751343 224.0
1391.485107 224.0
1391.626221 176.0
1391.78064 164.0
1392.056885 172.0
1392.383667 216.0
1393.557251 60.0
1393.668701 192.0
1393.8396 132.0
1394.188843 220.0
1394.70166 64.0
1394.894897 176.0
1395.378174 216.0
1396.181152 164.0
1396.634888 196.0
1396.901489 104.0
1397.006836 208.0
1397.415894 124.0
1397.936768 84.0
1398.182373 144.0
1398.82251 228.0
1399.678589 124.0
1399.968994 156.0
1400.28186 104.0
1400.371216 152.0
1400.522827 296.0
1401.488525 168.0
1402.97168 192.0
1403.07605 132.0
1403.605469 100.0
1404.328735 172.0
1404.560059 108.0
1404.671875 136.0
1404.918091 64.0
1405.5 164.0
1405.641724 152.0
1405.80481 132.0
1406.074585 128.0
1406.798584 48.0
1407.425659 76.0
1408.187378 240.0
1409.144165 144.0
1410.249512 124.0
1410.60083 124.0
1410.660645 128.0
1411.323608 156.0
1411.497925 148.0
1412.223389 116.0
1413.307983 216.0
1413.592407 128.0
1413.869263 160.0
1414.198608 152.0
1414.647705 140.0
1414.774902 52.0
1415.613525 44.0
1415.808228 192.0
1416.047852 192.0
1416.886719 152.0
1417.141479 168.0
1417.778442 144.0
1417.91333 164.0
1418.550415 252.0
1418.752808 36.0
1418.872803 120.0
1419.559082 160.0
1419.630005 128.0
1419.690063 112.0
1419.915039 156.0
1420.912598 116.0
1421.191528 252.0
1421.415283 200.0
1421.925659 252.0
1422.03064 164.0
1422.946533 124.0
1423.104126 180.0
1423.502075 136.0
1424.561035 176.0
1425.282349 116.0
1425.522827 180.0
1426.605103 168.0
1426.672729 244.0
1427.597534 140.0
1427.665161 192.0
1428.379639 232.0
1428.432373 188.0
1429.66626 168.0
1430.147949 192.0
1430.351074 192.0
1430.546875 132.0
1431.653564 108.0
1432.090454 112.0
1432.873779 212.0
1433.755371 124.0
1434.011597 136.0
1435.172485 232.0
1435.44397 200.0
1435.670166 160.0
1435.730591 156.0
1436.409302 156.0
1436.628052 212.0
1436.846924 164.0
1437.435425 184.0
1438.325928 184.0
1438.899658 160.0
1440.334473 156.0
1440.901001 164.0
1441.021851 144.0
1441.218262 224.0
1441.39209 184.0
1441.803711 200.0
1441.943726 144.0
1443.296875 200.0
1443.78833 92.0
1443.947144 140.0
1444.166504 184.0
1445.081787 112.0
1445.56604 172.0
1445.770386 100.0
1445.830933 220.0
1446.7771 160.0
1447.201538 164.0
1447.776489 136.0
1447.837158 148.0
1447.897705 176.0
1448.056763 72.0
1448.276367 176.0
1448.70813 192.0
1449.299072 108.0
1449.496094 156.0
1450.375122 56.0
1450.557129 116.0
1450.784546 184.0
1451.967285 176.0
1452.11145 248.0
1452.478882 164.0
1452.748535 224.0
1452.862427 156.0
1453.150635 184.0
1453.287231 132.0
1453.530029 60.0
1453.605957 184.0
1454.061279 172.0
1454.144653 136.0
1454.281372 188.0
1454.421753 56.0
1454.492798 208.0
1455.188599 136.0
1455.647827 184.0
1456.06543 112.0
1456.498413 200.0
1456.954224 148.0
1457.128906 132.0
1457.402466 156.0
1457.537842 212.0
1457.637939 256.0
1458.268677 312.0
1459.507812 196.0
1459.682739 144.0
1459.735962 112.0
1460.57251 136.0
1460.678955 204.0
1460.846313 108.0
1461.044189 348.0
1461.614746 56.0
1462.254028 64.0
1462.588867 176.0
1462.733521 124.0
1462.961792 84.0
1463.167358 204.0
1464.324829 112.0
1464.644653 180.0
1464.720825 140.0
1465.033203 48.0
1465.16272 204.0
1465.497925 148.0
1465.671021 160.0
1465.878906 164.0
1466.259888 156.0
1466.526611 260.0
1466.770508 172.0
1467.327026 184.0
1467.40332 164.0
1467.546143 152.0
1468.188721 84.0
1468.318359 116.0
1469.027588 208.0
1469.538818 248.0
1469.698975 100.0
1469.851562 80.0
1469.927979 148.0
1470.179688 132.0
1470.912476 180.0
1471.013428 152.0
1471.248291 164.0
1471.401001 144.0
1471.530762 140.0
1471.584229 64.0
1472.057617 172.0
1472.172119 220.0
1472.271484 152.0
1472.485229 212.0
1472.615112 92.0
1472.98938 76.0
1473.233765 172.0
1473.317871 40.0
1473.745728 192.0
1473.86792 144.0
1473.990234 144.0
1474.502197 148.0
1474.578613 60.0
1474.769653 128.0
1475.05249 240.0
1475.350586 208.0
1475.862793 248.0
1476.076904 136.0
1476.245117 164.0
1476.428711 160.0
1476.489868 196.0
1476.589355 48.0
1476.803467 188.0
1477.530151 148.0
1477.85144 112.0
1477.976318 76.0
1478.042725 128.0
1478.096313 188.0
1478.417725 48.0
1478.501831 160.0
1478.716187 176.0
1479.045288 160.0
1479.137085 144.0
1479.911499 188.0
1479.971558 156.0
1480.063477 144.0
1481.143311 44.0
1481.288818 144.0
1481.342407 200.0
1481.679443 148.0
1481.855713 164.0
1482.851807 172.0
1482.959106 124.0
1483.342407 132.0
1483.396118 120.0
1484.040039 152.0
1484.139648 216.0
1485.052246 184.0
1485.121338 164.0
1485.558472 160.0
1485.681274 180.0
1486.847534 224.0
1488.660767 224.0
1488.789795 104.0
1488.874268 148.0
1489.035522 44.0
1489.212158 160.0
1490.034058 76.0
1490.195435 160.0
1490.664185 124.0
1492.055298 196.0
1493.445312 216.0
1493.716309 148.0
1495.085815 92.0
1495.30127 220.0
1495.58606 156.0
1495.778442 156.0
1495.978638 144.0
1496.309692 124.0
1496.398071 200.0
1496.594482 204.0
1498.64624 132.0
1498.751221 184.0
1498.951538 116.0
1499.051636 160.0
1499.86377 160.0
1499.893555 212.0
1500.07666 128.0
1500.21936 124.0
1500.431274 220.0
1501.148438 176.0
1501.426025 132.0
1501.942749 176.0
1502.590698 72.0
1502.814453 164.0
1503.809937 40.0
1503.93335 312.0
