>compound MLS001158613-01!2-(4,7-dimethyl-2-oxochromen-5-yl)oxy-N-[2-(1H-indol-3-yl)ethyl]propanamide
>formula C24H24N2O4
>ionization [M+H]+
>parentmass 405.181
#inchi InChI=1S/C24H24N2O4/c1-14-10-20(23-15(2)12-22(27)30-21(23)11-14)29-16(3)24(28)25-9-8-17-13-26-19-7-5-4-6-18(17)19/h4-7,10-13,16,26H,8-9H2,1-3H3,(H,25,28)
#inchikey MFIFALKLGXNXSM
#Ion_Source LC-ESI
#Instrument qTof
#Compound_Source NIH Natural Product Library
#PI Dorrestein
#Data_Collector VVP/LMS
#Scan -1
#Precursor_MZ 405.181
#ExactMass 404.174
#Charge 1
#CAS_Number N/A
#Pubmed_ID N/A
#Smiles CC(Oc1cc(C)cc2oc(=O)cc(C)c12)C(=O)NCCc3c[nH]c4ccccc34
#INCHI_AUX N/A
#Library_Class 1
#SpectrumID CCMSLIB00000079964
#IonMode Positive
#UpdateWorkflowName UPDATE-SINGLE-ANNOTATED-GOLD
#LibraryQualityString Gold
#TaskID b1d8e8f6646f4e71acdff9ca3d919d08
##Scan# 2226
#SpectrumFile p2-D02_GD2_01_18014.mzXML
#LibraryName NIH_Natural_Products_Library.mgf
#MQScore -1
#Organism NIH_Natural_Products_Library
#TIC_Query 0
#RT_Query -1
#MZErrorPPM -1
#SharedPeaks 0
#MassDiff 0
#LibMZ -1
#SpecMZ 405.181
#SpecCharge 0
#internalFilename spec-00000.mgf

>collision 10
94.94577 116.0
95.01754 152.0
95.046638 168.0
95.104858 56.0
95.118446 36.0
95.13398 192.0
95.194168 180.0
95.236893 128.0
95.269913 216.0
95.504868 156.0
95.695824 124.0
95.713348 204.0
95.728928 124.0
95.816574 144.0
95.869186 140.0
95.945198 200.0
95.999794 88.0
96.060799 172.0
96.095192 176.0
96.124641 404.0
96.142204 32.0
96.294479 116.0
96.331589 144.0
96.396065 144.0
96.540718 168.0
96.836235 200.0
96.895004 152.0
96.983185 216.0
96.996902 152.0
97.020424 184.0
97.03611 172.0
97.085129 92.0
97.299461 172.0
97.491493 168.0
97.558319 140.0
97.627289 152.0
97.743195 148.0
97.794365 200.0
97.833733 176.0
97.898705 176.0
98.020836 192.0
98.058624 304.0
98.0839 160.0
98.09967 136.0
98.210091 32.0
98.362022 128.0
98.385712 204.0
98.419327 160.0
98.433098 212.0
98.470619 32.0
98.48642 128.0
98.547371 164.0
98.935295 196.0
99.024399 160.0
99.0858 172.0
99.107597 156.0
99.159119 44.0
99.236427 184.0
99.369705 192.0
99.444717 136.0
99.49633 180.0
99.518166 180.0
99.746628 212.0
99.846039 164.0
99.877861 124.0
99.947037 176.0
100.0271 144.0
100.102753 188.0
100.204338 140.0
100.387711 116.0
100.426155 72.0
100.517372 132.0
100.533333 156.0
100.547302 44.0
100.774948 168.0
100.804916 164.0
101.03685 196.0
101.070862 132.0
101.092873 132.0
101.145279 152.0
101.162926 136.0
101.259033 136.0
101.291084 240.0
101.345169 152.0
101.391991 164.0
101.537613 148.0
101.588524 156.0
101.623863 160.0
101.865944 172.0
101.929062 220.0
101.94313 60.0
101.959206 48.0
101.981316 176.0
102.052193 140.0
102.093903 140.0
102.14418 180.0
102.40535 164.0
102.474335 52.0
102.530754 152.0
102.58316 180.0
102.631546 188.0
102.770714 128.0
102.796944 176.0
102.952385 136.0
102.982681 172.0
103.017014 176.0
103.056686 2004.0
103.073586 120.0
103.099854 52.0
103.162514 216.0
103.194527 120.0
103.225189 48.0
103.439644 168.0
103.54493 52.0
103.565186 140.0
103.607727 188.0
103.6604 132.0
103.753639 192.0
103.782021 140.0
103.863136 148.0
103.913857 164.0
103.962555 128.0
103.995026 124.0
104.052948 336.0
104.143242 160.0
104.411514 348.0
104.455032 208.0
104.706612 164.0
104.745308 168.0
104.826805 164.0
104.940948 72.0
105.036797 124.0
105.069199 928.0
105.404282 76.0
105.647575 156.0
105.811302 184.0
105.954659 184.0
106.067368 108.0
106.147324 136.0
106.280136 176.0
106.451019 184.0
106.467445 56.0
106.50647 196.0
106.627686 68.0
106.664688 156.0
106.779823 92.0
106.860046 148.0
107.0 108.0
107.028824 56.0
107.051247 252.0
107.084999 820.0
107.166824 148.0
107.338127 184.0
107.438965 116.0
107.463722 176.0
107.542137 152.0
107.59581 188.0
107.666008 208.0
107.756897 220.0
107.779625 200.0
107.938782 192.0
108.054558 156.0
108.088638 152.0
108.120827 128.0
108.329948 160.0
108.5289 128.0
108.630524 204.0
108.651268 248.0
108.674088 60.0
108.777855 196.0
108.80069 192.0
108.862976 124.0
109.014626 228.0
109.032242 416.0
109.0653 576.0
109.139343 152.0
109.235008 204.0
109.309906 144.0
109.326553 92.0
109.451454 164.0
109.468109 212.0
109.505592 208.0
109.582672 208.0
109.668106 68.0
109.741066 184.0
109.864113 228.0
110.033157 176.0
110.069946 148.0
110.107376 228.0
110.131302 212.0
110.265015 184.0
110.438553 152.0
110.687592 116.0
110.880318 164.0
110.930618 164.0
110.964157 192.0
111.018677 136.0
111.096283 72.0
111.215477 204.0
111.272568 168.0
111.360764 148.0
111.423782 156.0
111.507828 204.0
111.524643 232.0
111.600327 180.0
111.648689 152.0
111.758072 100.0
111.810677 232.0
111.861191 152.0
112.017014 176.0
112.158974 108.0
112.196136 112.0
112.236198 136.0
112.375404 136.0
112.407051 68.0
112.481781 224.0
112.510475 188.0
112.537918 116.0
112.780853 116.0
112.907181 144.0
112.939438 152.0
112.9627 200.0
113.036751 188.0
113.10659 116.0
113.148926 184.0
113.197624 148.0
113.239983 80.0
113.259041 144.0
113.278107 144.0
113.305649 208.0
113.390404 164.0
113.41584 148.0
113.587593 252.0
113.693672 96.0
113.717018 152.0
113.795563 188.0
113.886871 212.0
113.961296 124.0
114.063232 124.0
114.082367 152.0
114.099373 208.0
114.146149 36.0
114.175919 160.0
114.207817 216.0
114.290787 120.0
114.32058 120.0
114.469589 136.0
114.563301 60.0
114.614433 136.0
114.652786 172.0
114.780693 224.0
114.883064 44.0
114.919334 184.0
114.970543 168.0
114.985481 404.0
115.014656 288.0
115.054672 4144.0
115.129173 248.0
115.184052 132.0
115.267372 112.0
115.299423 44.0
115.414062 108.0
115.489708 148.0
115.590508 168.0
115.622353 104.0
115.641617 100.0
115.735809 80.0
115.912598 216.0
115.928589 184.0
116.060158 1356.0
116.088753 224.0
116.170868 136.0
116.199875 184.0
116.323227 120.0
116.353279 224.0
116.402664 112.0
116.477829 172.0
116.55732 136.0
116.583107 172.0
116.617493 188.0
116.828217 124.0
116.903526 96.0
116.923882 200.0
117.026215 152.0
117.070671 7920.0
117.107567 108.0
117.145523 180.0
117.185791 44.0
117.200676 112.0
117.230843 184.0
117.279137 108.0
117.294373 84.0
117.314903 60.0
117.364487 88.0
117.414085 136.0
117.444283 40.0
117.528412 176.0
117.668701 136.0
117.783157 184.0
117.806915 148.0
117.86525 96.0
117.962502 196.0
118.027649 184.0
118.067467 1600.0
118.173515 64.0
118.21772 136.0
118.27832 164.0
118.31945 60.0
118.466705 152.0
118.492142 108.0
118.503845 252.0
118.789703 152.0
118.854782 188.0
118.948105 52.0
119.085281 1496.0
119.21183 204.0
119.298477 176.0
119.345665 144.0
119.391335 184.0
119.458755 172.0
119.491386 184.0
119.51532 116.0
119.622086 72.0
119.656792 204.0
119.746071 172.0
120.001022 124.0
120.06208 320.0
120.092064 428.0
120.143669 148.0
120.182053 140.0
120.29554 144.0
120.387238 84.0
120.484985 176.0
120.527039 140.0
120.867653 124.0
121.064064 344.0
121.098007 160.0
121.288628 188.0
121.30397 220.0
121.37632 168.0
121.611053 96.0
121.633003 140.0
121.71862 136.0
121.771324 152.0
121.786697 180.0
121.806465 156.0
121.922913 172.0
121.966873 108.0
121.99765 168.0
122.035019 168.0
122.202171 160.0
122.307808 52.0
122.490562 200.0
122.541229 172.0
122.569878 128.0
122.75724 80.0
122.977852 68.0
122.993309 140.0
123.026413 120.0
123.046288 180.0
123.101486 84.0
123.49044 188.0
123.760414 216.0
123.862289 164.0
124.005714 164.0
124.048424 140.0
124.117149 212.0
124.232475 144.0
124.354515 136.0
124.472176 120.0
124.505486 168.0
124.523254 100.0
124.607658 160.0
124.664276 216.0
124.822296 148.0
124.844193 204.0
124.932243 176.0
125.06353 128.0
125.088013 196.0
125.192657 172.0
125.357498 72.0
125.413216 116.0
125.475632 156.0
125.573746 220.0
125.696442 184.0
125.729912 132.0
125.756699 216.0
125.78125 96.0
125.888412 216.0
126.04705 312.0
126.067123 232.0
126.178879 64.0
126.288452 132.0
126.360039 184.0
126.597298 176.0
127.054977 1276.0
127.256531 220.0
127.357834 180.0
127.436203 136.0
127.575546 60.0
127.726204 164.0
127.758148 40.0
127.789192 304.0
127.897209 72.0
127.971497 84.0
128.021042 376.0
128.061874 3196.0
128.153931 92.0
128.449265 84.0
128.478592 164.0
128.611725 108.0
128.672668 40.0
129.000244 32.0
129.034149 104.0
129.068542 684.0
129.276169 196.0
129.350861 88.0
129.437042 228.0
129.624893 232.0
129.683823 80.0
129.708755 228.0
129.724609 108.0
129.765427 140.0
129.864944 108.0
129.871445 96.0
129.87941 180.0
129.906021 208.0
129.999054 64.0
130.065567 4812.0
130.137512 52.0
130.187469 140.0
130.216995 56.0
130.285141 356.0
130.362381 116.0
130.394196 112.0
130.439667 224.0
130.56926 48.0
130.783127 204.0
130.892838 220.0
130.978943 148.0
131.020081 200.0
131.073639 4220.0
131.177185 56.0
131.242691 180.0
131.290909 240.0
131.370224 172.0
131.471405 44.0
131.553574 56.0
131.676865 180.0
131.754532 116.0
131.790604 172.0
131.836792 184.0
131.898911 132.0
131.928207 168.0
131.976227 180.0
132.058762 2652.0
132.07988 2264.0
132.108307 296.0
132.134033 148.0
132.15921 56.0
132.20726 72.0
132.269058 176.0
132.307968 124.0
132.346893 176.0
132.484299 176.0
132.53241 172.0
132.626373 72.0
132.676804 144.0
132.692856 236.0
132.743301 156.0
132.874039 104.0
132.961227 176.0
133.061584 496.0
133.100632 840.0
133.135696 52.0
133.222977 52.0
133.271225 148.0
133.439011 136.0
133.611496 96.0
133.636795 128.0
133.70813 192.0
133.854523 104.0
133.988739 232.0
134.101959 152.0
134.237976 204.0
134.318695 164.0
134.404068 132.0
134.5056 164.0
134.686707 136.0
134.731903 152.0
134.750397 196.0
134.819717 156.0
134.952133 196.0
135.004654 120.0
135.042557 248.0
135.08165 1664.0
135.117981 176.0
135.138809 40.0
135.235199 208.0
135.256836 196.0
135.358704 164.0
135.502304 168.0
135.562546 140.0
135.594986 184.0
135.890808 176.0
135.910355 188.0
136.088425 192.0
136.135529 40.0
136.249329 128.0
136.321365 184.0
136.428268 224.0
136.621887 200.0
136.83075 112.0
137.05899 48.0
137.084625 164.0
137.18251 80.0
137.408722 212.0
137.441391 92.0
137.499725 172.0
137.686493 140.0
137.754227 184.0
137.917801 92.0
137.994934 212.0
138.237885 176.0
138.411423 172.0
138.56131 52.0
138.69957 136.0
138.730042 204.0
138.788666 140.0
138.922333 204.0
139.063126 180.0
139.309677 132.0
139.450653 136.0
139.500015 132.0
139.662262 164.0
139.737534 176.0
139.817535 168.0
139.885803 132.0
139.937592 136.0
140.057693 160.0
140.356995 104.0
140.494919 232.0
140.511917 140.0
140.57872 172.0
140.623566 192.0
140.689651 120.0
140.736877 200.0
140.852585 148.0
140.910416 192.0
140.970718 260.0
141.02507 144.0
141.071014 516.0
141.100723 32.0
141.315933 136.0
141.370361 140.0
141.469772 236.0
141.614212 136.0
141.756348 160.0
141.834564 192.0
141.870117 172.0
141.972076 144.0
142.067871 1508.0
142.138123 148.0
142.154724 48.0
142.192703 96.0
142.229736 224.0
142.34938 188.0
142.484772 172.0
142.501389 52.0
142.525864 176.0
142.54892 168.0
142.575058 132.0
142.646362 232.0
142.662994 120.0
142.717682 120.0
142.73671 120.0
142.796158 204.0
142.840591 212.0
142.89299 204.0
142.955673 148.0
143.006714 232.0
143.022522 420.0
143.040695 108.0
143.074387 26352.0
143.133301 160.0
143.167419 28.0
143.201508 152.0
143.255539 68.0
143.273285 80.0
143.292526 84.0
143.346069 40.0
143.362762 324.0
143.41362 116.0
143.457169 72.0
143.531296 152.0
143.621796 172.0
143.670334 176.0
143.712814 252.0
143.739853 176.0
143.797226 176.0
143.825104 224.0
143.8517 136.0
143.875565 192.0
143.910934 208.0
143.914551 160.0
143.925629 308.0
143.961517 108.0
143.98201 184.0
144.010483 336.0
144.04541 488.0
144.08197 90628.0
144.128082 44.0
144.137802 200.0
144.145966 152.0
144.153656 136.0
144.185547 108.0
144.232986 160.0
144.26123 304.0
144.286484 32.0
144.304337 76.0
144.351959 144.0
144.37973 116.0
144.439514 108.0
144.47525 352.0
144.495544 96.0
144.532822 88.0
144.563934 176.0
144.60701 80.0
144.635513 108.0
144.6884 64.0
144.725967 92.0
144.769806 232.0
144.792786 40.0
144.829681 68.0
144.848831 56.0
144.925186 60.0
144.964813 232.0
144.985413 132.0
145.002945 164.0
145.00827 52.0
145.018066 140.0
145.084854 7348.0
145.17186 112.0
145.186783 148.0
145.232346 140.0
145.279129 88.0
145.30191 64.0
145.31871 44.0
145.352295 56.0
145.383286 92.0
145.399384 136.0
145.441101 52.0
145.515518 72.0
145.534714 68.0
145.577942 76.0
145.630783 64.0
145.6548 136.0
145.694 100.0
145.746094 136.0
145.815781 48.0
145.84462 44.0
145.868652 152.0
145.890289 132.0
145.930161 112.0
145.950226 56.0
145.962738 60.0
145.991272 112.0
146.012909 104.0
146.048767 88.0
146.072556 600.0
146.081955 624.0
146.11235 132.0
146.192047 260.0
146.244858 100.0
146.291946 136.0
146.298584 132.0
146.349808 40.0
146.426865 100.0
146.479965 116.0
146.549713 64.0
146.703949 44.0
146.810043 120.0
146.899277 52.0
146.916168 88.0
146.940292 32.0
146.969254 176.0
147.044464 264.0
147.08136 2940.0
147.200974 104.0
147.365219 100.0
147.488464 40.0
147.589996 208.0
147.985352 140.0
148.049866 368.0
148.08696 176.0
148.808716 96.0
149.060562 272.0
149.09549 136.0
149.170685 180.0
149.484436 136.0
149.572037 208.0
149.835037 188.0
149.98613 240.0
150.098267 132.0
150.662064 88.0
150.745132 56.0
150.820892 176.0
150.979813 116.0
151.075211 196.0
151.209778 108.0
151.564865 196.0
151.635925 96.0
151.697205 180.0
151.974335 92.0
152.062302 292.0
152.109299 100.0
152.141602 104.0
152.222244 96.0
152.271362 92.0
152.406464 92.0
152.531799 84.0
152.573593 76.0
152.750641 104.0
153.070709 356.0
153.151855 140.0
153.228226 68.0
153.245468 56.0
153.296967 204.0
153.371155 132.0
153.531403 156.0
153.568405 92.0
153.88179 132.0
153.913895 116.0
153.943527 244.0
154.00032 212.0
154.066498 1748.0
154.099136 228.0
154.264709 112.0
154.31662 72.0
154.349289 196.0
154.375977 144.0
154.504593 68.0
154.568909 92.0
154.635727 148.0
154.660477 188.0
154.950211 76.0
155.072296 5724.0
155.133591 224.0
155.183182 56.0
155.262527 52.0
155.346863 52.0
155.547852 72.0
155.763885 52.0
156.004929 48.0
156.076324 544.0
156.116806 212.0
156.161575 236.0
156.218781 32.0
156.365585 60.0
156.39296 60.0
156.440262 60.0
156.731644 132.0
156.868149 120.0
156.918579 124.0
157.002243 64.0
157.050751 116.0
157.088501 656.0
157.285294 144.0
157.490036 140.0
157.712402 80.0
157.894913 136.0
158.002472 160.0
158.047684 176.0
158.096634 14064.0
158.136124 196.0
158.180145 120.0
158.2202 32.0
158.254227 72.0
158.286346 96.0
158.308243 104.0
158.397995 56.0
158.485687 176.0
158.515747 56.0
158.550827 76.0
158.629364 96.0
158.67366 28.0
158.794022 64.0
158.850754 104.0
158.949951 100.0
158.99472 84.0
159.014801 60.0
159.042404 188.0
159.096664 1188.0
159.18985 44.0
159.220673 180.0
159.539764 88.0
159.831512 144.0
159.947281 32.0
160.047974 124.0
160.11377 1440.0
160.163818 148.0
160.229324 192.0
160.334686 132.0
160.461182 224.0
160.486389 100.0
160.589783 68.0
160.655365 40.0
160.799194 116.0
160.842102 52.0
160.938034 76.0
161.059753 364.0
161.09584 1884.0
161.116608 200.0
161.387772 60.0
161.448456 124.0
161.525131 44.0
161.990097 184.0
162.069702 712.0
162.101181 132.0
162.137054 172.0
162.258728 56.0
162.431168 60.0
162.705231 104.0
162.728073 36.0
162.74585 188.0
162.763626 180.0
162.862671 156.0
162.933792 76.0
163.040512 196.0
163.075363 524.0
163.182861 104.0
163.312546 124.0
163.770691 72.0
163.847107 112.0
163.864944 140.0
163.915894 192.0
164.015289 200.0
164.080124 224.0
164.387634 96.0
164.752747 144.0
165.258957 152.0
165.310135 92.0
165.463364 132.0
165.786438 76.0
166.217239 100.0
166.630615 44.0
166.995636 148.0
167.070236 208.0
167.304413 112.0
167.502701 160.0
167.866089 128.0
168.083832 1308.0
168.237625 64.0
168.537216 68.0
168.583725 184.0
168.87587 172.0
169.084656 652.0
169.19931 112.0
169.427216 72.0
169.530853 184.0
169.798355 108.0
169.854935 200.0
169.880875 160.0
169.973373 196.0
169.998734 188.0
170.021942 76.0
170.097473 18532.0
170.164612 72.0
170.259827 44.0
170.350739 68.0
170.402695 36.0
170.455948 136.0
170.488434 76.0
170.561203 44.0
170.712006 36.0
170.77182 44.0
170.808228 180.0
170.930511 200.0
171.000763 56.0
171.100983 3712.0
171.219452 48.0
171.366287 108.0
171.438293 68.0
171.493011 48.0
171.5634 56.0
171.701584 208.0
172.076553 612.0
172.103622 244.0
172.20874 112.0
172.324326 148.0
172.411682 96.0
172.524078 132.0
172.560684 40.0
172.662659 48.0
172.790833 312.0
173.059464 188.0
173.098526 352.0
173.193954 52.0
174.071213 336.0
174.348358 152.0
174.382523 120.0
174.571808 76.0
174.803284 176.0
174.984894 96.0
175.077835 308.0
176.010544 164.0
176.12674 148.0
176.877686 224.0
177.047134 148.0
177.367722 100.0
177.579834 148.0
177.685928 216.0
178.02037 148.0
178.328537 200.0
178.730087 184.0
179.073502 148.0
179.244492 212.0
179.84938 92.0
180.081665 180.0
180.149429 216.0
181.049805 124.0
181.090149 124.0
181.191757 168.0
182.088623 336.0
182.093613 188.0
182.466553 72.0
182.59024 176.0
182.751633 176.0
183.069916 308.0
183.373688 112.0
183.498779 168.0
183.770081 68.0
184.064285 152.0
184.083191 140.0
185.674423 112.0
186.092041 736.0
186.14389 168.0
186.613953 56.0
186.9077 60.0
187.041046 104.0
187.096008 188.0
187.122742 1076.0
187.204407 64.0
187.310623 96.0
187.553131 52.0
188.125015 420.0
188.456406 84.0
188.649673 140.0
189.011459 140.0
189.091003 2836.0
189.136749 72.0
189.189362 36.0
189.345428 72.0
189.80307 228.0
189.975845 256.0
190.063416 1140.0
190.093033 912.0
190.218842 160.0
190.242035 212.0
190.283218 64.0
190.335388 64.0
190.431503 144.0
190.484467 276.0
190.513901 72.0
190.546875 132.0
190.566101 180.0
190.601822 84.0
190.634796 56.0
190.733734 156.0
190.755722 124.0
190.825989 164.0
190.862946 120.0
190.933014 232.0
190.986496 208.0
191.014206 284.0
191.071884 45552.0
191.117737 292.0
191.162125 68.0
191.204056 92.0
191.233047 104.0
191.308258 84.0
191.3582 84.0
191.451813 160.0
191.493134 52.0
191.520676 48.0
191.581268 64.0
191.607956 196.0
191.688721 52.0
191.738327 100.0
191.807236 72.0
191.902115 100.0
191.93956 140.0
191.989197 60.0
192.022293 208.0
192.075012 5432.0
192.160217 44.0
192.192764 60.0
192.240234 52.0
192.293793 88.0
192.356155 48.0
192.389282 76.0
192.430679 60.0
192.646103 64.0
192.742798 40.0
192.939026 68.0
192.98111 108.0
193.076492 828.0
193.151947 116.0
193.218338 48.0
193.365906 164.0
193.472946 132.0
193.490646 68.0
193.586472 104.0
193.675644 120.0
194.043655 80.0
194.071381 148.0
194.187851 112.0
194.257187 140.0
194.28215 124.0
194.390366 116.0
194.53746 44.0
194.992981 64.0
195.207794 176.0
195.471298 52.0
195.538086 88.0
196.368332 64.0
197.111145 256.0
197.133255 108.0
197.538651 100.0
198.092834 288.0
198.692825 64.0
199.054886 156.0
199.10025 356.0
199.24588 52.0
200.252899 88.0
200.413467 40.0
200.630478 88.0
200.825043 76.0
201.045105 176.0
201.070496 72.0
202.058685 128.0
202.167007 72.0
202.866577 76.0
203.067902 124.0
204.44577 52.0
206.866119 84.0
207.086594 52.0
208.133301 116.0
208.702209 128.0
212.056625 200.0
212.221863 32.0
213.063507 228.0
214.110641 116.0
215.120163 332.0
215.756317 104.0
215.920059 60.0
216.116043 296.0
216.64595 40.0
216.930206 96.0
217.087402 3524.0
217.3936 96.0
218.090668 560.0
218.224869 76.0
219.088028 124.0
219.387329 84.0
219.732803 76.0
224.806686 48.0
227.056351 204.0
229.278015 80.0
229.305145 40.0
230.092422 132.0
231.271347 88.0
234.859711 20.0
236.58313 72.0
237.204971 72.0
241.014999 88.0
242.912781 152.0
244.833572 116.0
245.079102 492.0
246.080475 136.0
249.65921 72.0
251.369736 44.0
256.097839 168.0
256.265411 140.0
259.724365 84.0
259.820587 52.0
262.102722 528.0
263.120941 156.0
265.805695 60.0
274.111481 200.0
279.069824 120.0
280.124786 68.0
281.121643 32.0
282.043427 88.0
282.327606 136.0
287.656372 80.0
288.121033 120.0
288.598907 76.0
289.079224 104.0
302.4375 116.0
306.98172 72.0
312.308533 36.0
316.214264 60.0
316.841003 60.0
317.663422 92.0
319.585388 44.0
320.058777 124.0
327.424866 44.0
330.543823 108.0
331.159271 56.0
333.859375 52.0
334.139465 200.0
334.608948 80.0
337.692352 84.0
337.789429 64.0
340.095886 204.0
342.581573 20.0
347.18692 68.0
355.112091 176.0
360.14801 100.0
360.53717 76.0
371.913605 112.0
377.213745 156.0
378.366547 40.0
381.256226 100.0
382.731445 80.0
385.777466 48.0
391.316864 32.0
403.329132 192.0
404.289001 152.0
405.167572 188.0
405.402252 60.0
406.190399 176.0
406.296387 200.0
407.20755 88.0
409.165802 220.0
409.773926 120.0
412.235229 44.0
412.619202 76.0
414.874115 40.0
430.409363 48.0
440.597504 64.0
442.709717 36.0
444.822815 72.0
453.46106 80.0
453.787476 88.0
467.830353 88.0
472.387268 112.0
497.179169 80.0
501.965698 60.0
513.946533 40.0
545.620422 104.0
547.37915 96.0
547.663208 56.0
551.447083 104.0
562.395264 100.0
573.188965 96.0
632.509705 92.0
637.927124 204.0
639.622253 68.0
655.280457 172.0
673.805176 28.0
676.516479 32.0
684.465088 100.0
703.623474 192.0
716.798401 72.0
734.706055 128.0
755.884888 64.0
771.278198 112.0
772.372986 84.0
773.169678 60.0
789.844666 96.0
803.410095 68.0
806.956665 92.0
814.181213 120.0
815.527649 80.0
826.282227 72.0
836.652344 136.0
843.378235 196.0
864.489563 52.0
868.103882 100.0
873.065979 120.0
874.177795 208.0
877.440857 72.0
880.119385 132.0
887.651733 152.0
903.357056 224.0
907.447266 164.0
907.860962 156.0
909.399597 136.0
914.902771 184.0
917.107422 204.0
918.186584 68.0
922.636597 160.0
929.626099 248.0
931.119507 80.0
940.403931 116.0
941.875427 136.0
946.951904 152.0
953.38739 116.0
953.584045 36.0
955.847107 240.0
958.457825 208.0
959.184998 172.0
960.615601 76.0
967.475464 184.0
967.747192 180.0
968.186829 72.0
969.971191 200.0
974.439209 132.0
977.442261 160.0
981.946167 228.0
983.025391 200.0
984.173889 128.0
988.912292 108.0
990.646729 88.0
991.010071 168.0
991.223145 72.0
993.787598 156.0
995.507446 180.0
998.630798 120.0
1002.017334 124.0
1003.939758 188.0
1004.6651 280.0
1006.375427 120.0
1009.338684 124.0
1009.76239 176.0
1012.509033 256.0
1014.574585 204.0
1015.018433 164.0
1015.899963 184.0
1016.35675 100.0
1020.173645 108.0
1024.488159 52.0
1025.539551 56.0
1026.534058 152.0
1028.664917 116.0
1029.973877 188.0
1034.289795 144.0
1034.565063 88.0
1036.403198 168.0
1039.391113 280.0
1039.769653 144.0
1040.090576 204.0
1044.015991 120.0
1044.710693 220.0
1053.723145 148.0
1060.588867 76.0
1062.988403 208.0
1064.208618 124.0
1065.663452 132.0
1067.659058 152.0
1068.790894 180.0
1071.069336 208.0
1075.444336 188.0
1077.80835 164.0
1080.979614 48.0
1081.954834 180.0
1082.328003 196.0
1086.279907 132.0
1087.211548 92.0
1088.104248 236.0
1090.212646 216.0
1090.54126 148.0
1092.763794 192.0
1093.513916 188.0
1096.200806 168.0
1096.51709 180.0
1100.349487 192.0
1101.359863 192.0
1101.980835 224.0
1103.831421 128.0
1104.016602 200.0
1106.080811 160.0
1110.002808 140.0
1110.41394 96.0
1111.594727 212.0
1112.430908 192.0
1115.473267 32.0
1116.078247 164.0
1116.949463 172.0
1117.887451 92.0
1118.732788 204.0
1119.811401 156.0
1121.163818 236.0
1122.563721 156.0
1122.957153 140.0
1123.390747 188.0
1124.718506 212.0
1125.239258 124.0
1126.601562 212.0
1126.748535 188.0
1127.102661 124.0
1128.907471 52.0
1129.542847 112.0
1129.64978 84.0
1131.61731 76.0
1133.579834 324.0
1136.134277 124.0
1136.872314 132.0
1138.852783 144.0
1139.416992 124.0
1140.512329 124.0
1141.540894 64.0
1141.883911 160.0
1142.287476 192.0
1147.533447 232.0
1148.126831 160.0
1148.20105 216.0
1149.266846 64.0
1149.74585 72.0
1151.008179 128.0
1151.514648 160.0
1155.123901 164.0
1155.218628 152.0
1155.759888 192.0
1159.612183 224.0
1162.386597 40.0
1165.136353 140.0
1166.842163 48.0
1168.848511 184.0
1170.107666 124.0
1170.270996 236.0
1173.500488 224.0
1174.503052 264.0
1175.171387 124.0
1175.942505 172.0
1176.085815 256.0
1176.353149 188.0
1177.123535 20.0
1180.177734 176.0
1182.962158 88.0
1183.475586 128.0
1184.728882 36.0
1185.797729 68.0
1186.853394 172.0
1187.847778 180.0
1188.300537 172.0
1188.575073 204.0
1190.778564 64.0
1190.984619 76.0
1191.032715 160.0
1191.403687 160.0
1191.479248 220.0
1192.317505 140.0
1195.804321 116.0
1197.628784 140.0
1199.309937 200.0
1203.869507 208.0
1204.505493 48.0
1204.726562 164.0
1205.009766 184.0
1205.293091 124.0
1208.84021 180.0
1210.120728 172.0
1210.293823 192.0
1210.965576 200.0
1211.831421 124.0
1212.080811 176.0
1212.323364 196.0
1213.376953 208.0
1213.855347 196.0
1214.195068 40.0
1214.701416 180.0
1216.214111 148.0
1218.408325 164.0
1218.533325 84.0
1219.068359 172.0
1219.339478 212.0
1221.689575 156.0
1221.786987 184.0
1222.6427 196.0
1222.802856 148.0
1223.672974 140.0
1223.90271 192.0
1224.146362 240.0
1227.651489 216.0
1228.300049 48.0
1231.168579 188.0
1231.999756 180.0
1232.887085 92.0
1233.117676 196.0
1235.222168 144.0
1236.110718 148.0
1236.572632 228.0
1237.027588 140.0
1241.81311 156.0
1242.956543 108.0
1244.943115 176.0
1245.540039 148.0
1245.764771 116.0
1247.690308 176.0
1248.168335 176.0
1248.60437 192.0
1250.405396 184.0
1250.69397 268.0
1252.440063 168.0
1252.799316 104.0
1253.214966 344.0
1253.496826 112.0
1254.243896 200.0
1254.406006 148.0
1254.65979 116.0
1257.248291 152.0
1258.836548 92.0
1258.936523 156.0
1259.959595 208.0
1260.750977 128.0
1261.754639 176.0
1262.143433 140.0
1264.831787 208.0
1265.334351 172.0
1265.62439 152.0
1265.702515 204.0
1265.837036 200.0
1266.1698 168.0
1266.311523 144.0
1266.991455 212.0
1269.507568 132.0
1270.48645 156.0
1270.706299 152.0
1271.238525 208.0
1271.522339 184.0
1272.090088 128.0
1272.707764 160.0
1273.140869 168.0
1273.517334 60.0
1274.589966 120.0
1276.687012 188.0
1277.191895 136.0
1279.020508 172.0
1279.397827 160.0
1280.99292 80.0
1282.924072 148.0
1283.615845 108.0
1283.715454 228.0
1285.313232 88.0
1289.154785 116.0
1289.247681 44.0
1289.762329 164.0
1291.084961 120.0
1291.74292 248.0
1292.737427 192.0
1292.930664 160.0
1294.949463 136.0
1295.235962 152.0
1296.396606 144.0
1297.364136 176.0
1297.658081 184.0
1297.708252 176.0
1298.58313 160.0
1298.891602 152.0
1300.233154 144.0
1301.475098 212.0
1301.704834 124.0
1302.739014 188.0
1303.069458 136.0
1304.276733 188.0
1305.463013 212.0
1305.923218 228.0
1306.304443 252.0
1307.405273 124.0
1308.009766 216.0
1309.442627 96.0
1309.73584 204.0
1310.105225 144.0
1310.220459 164.0
1311.596802 172.0
1311.97168 164.0
1312.771973 148.0
1313.118164 212.0
1314.070312 120.0
1314.532104 36.0
1314.661987 116.0
1315.520752 52.0
1319.725342 156.0
1319.82666 276.0
1320.571411 144.0
1322.698608 132.0
1322.886841 152.0
1323.494995 128.0
1324.986938 164.0
1326.81311 244.0
1327.124878 208.0
1327.596191 184.0
1327.879028 228.0
1328.894531 208.0
1335.614136 176.0
1335.897827 136.0
1336.050537 184.0
1337.862549 228.0
1339.565674 176.0
1340.032715 96.0
1340.819702 272.0
1341.11853 144.0
1341.56311 196.0
1342.233887 152.0
1343.181885 140.0
1343.656128 192.0
1344.130371 160.0
1345.575439 104.0
1346.860718 224.0
1347.686157 116.0
1348.453369 120.0
1348.884644 196.0
1351.385742 240.0
1351.861328 268.0
1352.849365 136.0
1353.142212 92.0
1353.200684 168.0
1353.735229 172.0
1353.903687 120.0
1356.255371 172.0
1358.249756 76.0
1358.513794 116.0
1359.585083 112.0
1361.860962 68.0
1362.30896 164.0
1362.426514 152.0
1362.896729 124.0
1363.64624 96.0
1365.675415 184.0
1367.389648 52.0
1368.302368 184.0
1369.248413 148.0
1371.550903 152.0
1372.907471 180.0
1373.121338 128.0
1374.707397 140.0
1374.773804 140.0
1375.622559 152.0
1376.124634 168.0
1376.464233 52.0
1376.561157 124.0
1376.870361 212.0
1378.758057 124.0
1379.005493 204.0
1379.759399 176.0
1380.920288 84.0
1382.185303 128.0
1383.043701 148.0
1383.206543 180.0
1383.290771 152.0
1383.69519 164.0
1383.798828 144.0
1384.576294 160.0
1385.605835 48.0
1385.774292 184.0
1386.235596 160.0
1386.294922 80.0
1386.406128 224.0
1386.695068 152.0
1386.843384 176.0
1387.080566 188.0
1387.718018 204.0
1388.281616 208.0
1389.223511 148.0
1389.661255 164.0
1389.80957 192.0
1390.123413 208.0
1390.83374 144.0
1391.115723 136.0
1391.368164 80.0
1391.709595 152.0
1392.073486 220.0
1392.689941 136.0
1393.29895 124.0
1393.477295 236.0
1393.67627 208.0
1393.915649 220.0
1394.473022 192.0
1394.807495 228.0
1395.967285 132.0
1396.346558 164.0
1398.362671 216.0
1399.583496 176.0
1400.223877 164.0
1400.305786 140.0
1400.983643 120.0
1401.393311 52.0
1401.572144 180.0
1401.639282 208.0
1402.220459 132.0
1403.003174 212.0
1403.800903 72.0
1404.054443 100.0
1404.748047 56.0
1404.932373 68.0
1405.300171 160.0
1405.628418 60.0
1406.47168 148.0
1406.620972 84.0
1407.942505 148.0
1408.159058 104.0
1408.532471 144.0
1408.681885 64.0
1409.130127 180.0
1409.697998 100.0
1411.17041 96.0
1412.561401 124.0
1414.432007 120.0
1414.84375 116.0
1416.453735 104.0
1418.78418 200.0
1419.098999 128.0
1419.856445 84.0
1420.021362 220.0
1420.72644 160.0
1421.514282 188.0
1421.904419 152.0
1422.685059 172.0
1423.55603 116.0
1423.916504 268.0
1425.388794 176.0
1425.704468 136.0
1426.899536 152.0
1427.094971 156.0
1430.826538 212.0
1431.105103 68.0
1431.993652 200.0
1433.847046 212.0
1434.192749 160.0
1434.706299 176.0
1435.490356 208.0
1436.614136 124.0
1438.141113 216.0
1438.583618 104.0
1438.92334 132.0
1439.829468 156.0
1439.942749 172.0
1440.479004 232.0
1441.461182 152.0
1441.604736 228.0
1441.778564 144.0
1443.252563 144.0
1444.243164 160.0
1444.364136 168.0
1444.53064 160.0
1445.105591 148.0
1446.255737 116.0
1446.543335 100.0
1447.504883 204.0
1447.641235 216.0
1447.966797 224.0
1448.201538 52.0
1448.413696 36.0
1448.69397 136.0
1450.31543 240.0
1450.436768 160.0
1451.725586 168.0
1451.80896 60.0
1451.930298 160.0
1452.461182 148.0
1453.121216 216.0
1455.071655 164.0
1456.020752 104.0
1456.911011 212.0
1457.540039 200.0
1457.752808 228.0
1458.299927 120.0
1458.421509 188.0
1459.082886 216.0
1460.57666 200.0
1461.151367 164.0
1461.747559 56.0
1461.950317 116.0
1462.224243 144.0
1462.490601 200.0
1462.993042 164.0
1463.692749 168.0
1464.310303 200.0
1464.782471 148.0
1465.110107 132.0
1465.262451 216.0
1466.283447 156.0
1466.923706 44.0
1467.152344 108.0
1467.579346 148.0
1468.799438 220.0
1469.844604 104.0
1470.187988 168.0
1470.424561 260.0
1472.837158 172.0
1473.539917 208.0
1473.952515 88.0
1474.63269 172.0
1474.81604 196.0
1475.137085 192.0
1475.27478 184.0
1476.796387 208.0
1477.171143 208.0
1477.576538 140.0
1479.214111 80.0
1479.764038 180.0
1480.240112 168.0
1480.408569 172.0
1480.799072 124.0
1482.116699 232.0
1482.377197 156.0
1482.775635 152.0
1484.155396 140.0
1484.362427 160.0
1484.78418 64.0
1485.934814 112.0
1486.044312 208.0
1486.410522 176.0
1487.231689 192.0
1488.820801 220.0
1489.558105 288.0
1490.18042 132.0
1490.526123 148.0
1490.795044 200.0
1491.145996 128.0
1492.616821 136.0
1493.101318 176.0
1493.570435 192.0
1493.639648 212.0
1493.924316 108.0
1494.847534 84.0
1495.270752 40.0
1496.294434 136.0
1497.232178 244.0
1497.503418 140.0
1498.913208 32.0
1500.894043 160.0
1501.26416 160.0
1502.0354 140.0
1502.259155 176.0
1503.347046 100.0
