>compound AMOXICILLIN CRYSTALLINE
>formula C16H19N3O5S 
>ionization [M+H]+
>parentmass 366.111969
#inchi InChI=1S/C16H19N3O5S/c1-16(2)11(15(23)24)19-13(22)10(14(19)25-16)18-12(21)9(17)7-3-5-8(20)6-4-7/h3-6,9-11,14,20H,17H2,1-2H3,(H,18,21)(H,23,24)/t9-,10-,11+,14-/m1/s1
#inchikey LSQZJLSUYDQPKJ
#Ion_Source LC-ESI
#Instrument qTof
#Compound_Source Commercial
#PI Dorrestein
#Data_Collector Garg_Neha
#Scan -1
#Precursor_MZ 366.114
#ExactMass 365.105
#Charge 1
#CAS_Number N/A
#Pubmed_ID N/A
#Smiles N/A
#INCHI_AUX N/A
#Library_Class 1
#SpectrumID CCMSLIB00000077122
#IonMode Positive
#UpdateWorkflowName UPDATE-SINGLE-ANNOTATED-GOLD
#LibraryQualityString Gold
#TaskID 48f7f52fc6d249b5abbcc6e7b3df5969
##Scan# 1103
#SpectrumFile NCP003106_G2_H11_BB5_01_15708.mzXML
#LibraryName NIH_Clinical_Collection_2.mgf
#MQScore -1
#Organism NIHcollection2_04212014_2_mgf
#TIC_Query 0
#RT_Query -1
#MZErrorPPM -1
#SharedPeaks 0
#MassDiff 0
#LibMZ -1
#SpecMZ 366.114
#SpecCharge 0
#internalFilename spec-00000.mgf

>collision 10
44.898552 300.0
46.861336 180.0
47.01815 144.0
47.316139 156.0
47.753883 192.0
48.329147 160.0
50.13195 160.0
54.023682 184.0
56.660519 156.0
59.160999 164.0
59.588886 200.0
60.700226 164.0
66.979851 236.0
70.892609 140.0
71.991127 216.0
72.273422 244.0
82.182037 192.0
82.729652 280.0
83.102997 172.0
85.963066 196.0
87.038551 152.0
87.110977 188.0
90.820297 164.0
93.028099 208.0
93.312431 240.0
94.031013 168.0
95.027512 168.0
96.048836 164.0
96.076149 184.0
97.012619 148.0
98.080276 168.0
101.061218 184.0
101.279427 148.0
103.29435 196.0
104.052269 172.0
105.047417 180.0
106.028862 200.0
106.049171 176.0
107.047195 772.0
107.235283 160.0
108.050262 296.0
109.01358 352.0
110.01371 180.0
110.491356 148.0
111.00032 156.0
111.082115 192.0
112.023865 312.0
113.0243 168.0
113.039413 160.0
114.037216 1152.0
114.321144 156.0
115.021507 648.0
115.041557 292.0
116.037727 156.0
117.212059 140.0
119.068161 148.0
120.318031 232.0
121.335335 212.0
122.060654 1652.0
123.065102 524.0
124.007027 188.0
124.040939 160.0
124.841782 184.0
125.048683 148.0
126.039864 172.0
132.04567 140.0
133.034637 184.0
133.801086 152.0
134.05899 280.0
135.030975 168.0
135.067993 192.0
136.078384 164.0
137.02002 328.0
138.992966 172.0
139.010345 148.0
139.034073 296.0
139.087555 200.0
140.015503 304.0
140.039474 328.0
140.0728 180.0
140.332031 168.0
141.028427 184.0
141.05127 180.0
141.338226 168.0
142.034744 320.0
142.364639 232.0
145.04425 180.0
146.035629 188.0
148.040878 184.0
149.034607 176.0
149.069733 204.0
150.045319 676.0
151.048615 688.0
152.034393 360.0
152.671829 152.0
154.03035 272.0
154.869675 188.0
155.032227 112.0
155.06427 148.0
156.013153 352.0
156.065826 164.0
157.042023 156.0
158.027237 316.0
159.052551 272.0
160.043381 13228.0
161.047028 1080.0
161.088348 152.0
162.03772 628.0
162.054367 860.0
162.993576 192.0
163.062622 140.0
163.087509 200.0
164.016663 176.0
164.067642 252.0
165.012726 816.0
165.050613 164.0
166.019272 160.0
167.027405 800.0
167.084854 156.0
168.010376 400.0
169.055832 176.0
170.926788 156.0
173.072861 180.0
174.055725 288.0
174.084564 216.0
174.444519 164.0
175.049652 156.0
177.030853 144.0
178.838165 172.0
179.045807 948.0
179.080505 204.0
179.976486 224.0
180.050415 744.0
182.024902 152.0
182.051193 208.0
183.023026 264.0
184.069763 132.0
184.080154 184.0
185.014114 192.0
185.076614 212.0
185.578537 152.0
186.066895 160.0
186.104904 148.0
187.052322 232.0
187.849396 144.0
188.01857 204.0
188.084076 232.0
188.324341 144.0
189.066696 768.0
190.051743 120.0
190.071793 384.0
191.080276 172.0
191.580368 176.0
192.062759 176.0
193.004822 1796.0
193.061249 296.0
194.012207 152.0
195.018661 184.0
195.759933 140.0
198.066864 144.0
198.092072 152.0
199.048447 148.0
200.036804 1424.0
200.069061 380.0
201.066956 324.0
202.042709 248.0
202.922867 156.0
203.058609 188.0
203.251511 156.0
204.015518 164.0
205.031662 156.0
206.018921 144.0
206.078903 164.0
207.076157 584.0
208.04071 144.0
208.081299 116.0
209.052811 188.0
209.262558 160.0
210.059586 168.0
210.586166 152.0
211.016785 2832.0
211.068344 344.0
211.273773 160.0
212.021713 132.0
214.023224 156.0
215.016678 148.0
215.046951 200.0
215.081787 168.0
216.023911 144.0
216.065887 168.0
216.124191 152.0
217.061249 1940.0
218.070801 180.0
219.072845 188.0
221.039932 152.0
222.793396 180.0
222.986542 164.0
223.048965 180.0
224.101776 184.0
225.035034 208.0
225.077805 148.0
226.091278 132.0
227.057068 128.0
228.040604 180.0
228.079437 152.0
229.058731 388.0
230.037628 156.0
231.075653 496.0
231.105927 232.0
232.054047 296.0
232.078552 304.0
234.028336 564.0
234.081757 148.0
234.100311 280.0
235.026276 308.0
236.016754 172.0
238.085434 144.0
239.055161 116.0
241.100281 200.0
243.041595 748.0
244.050583 436.0
244.114441 164.0
245.053497 128.0
247.065048 184.0
247.096069 212.0
247.954315 152.0
248.095367 216.0
250.08046 176.0
251.091949 212.0
254.085144 136.0
255.045868 1104.0
257.057495 216.0
258.033478 140.0
258.151764 188.0
259.042145 344.0
259.102417 164.0
259.990601 144.0
260.049286 128.0
261.030731 340.0
261.056488 124.0
261.123596 216.0
262.072479 140.0
264.062836 152.0
264.096039 452.0
265.063171 160.0
268.988678 172.0
269.09314 144.0
271.108521 152.0
272.069946 220.0
272.115784 380.0
272.59259 116.0
273.0354 160.0
273.179871 196.0
274.078674 180.0
275.008636 168.0
275.06778 1004.0
276.070648 440.0
278.020386 184.0
282.167389 180.0
284.107452 136.0
285.056641 140.0
287.040741 236.0
290.053741 244.0
290.577271 172.0
291.07135 112.0
291.575562 228.0
291.813538 164.0
292.031494 124.0
292.078003 856.0
293.098755 132.0
293.556885 144.0
293.587585 160.0
294.080688 136.0
296.589417 160.0
297.079773 328.0
297.591125 288.0
302.067841 208.0
303.078033 328.0
303.910919 176.0
304.074005 140.0
305.096985 240.0
306.076385 192.0
308.064362 248.0
309.089661 184.0
310.578827 972.0
310.844299 160.0
311.103058 708.0
312.08139 368.0
312.111084 236.0
315.069122 152.0
315.097198 280.0
316.200897 180.0
318.054352 1700.0
318.610168 176.0
319.062347 264.0
319.107666 148.0
319.507996 168.0
320.058044 132.0
320.108307 152.0
321.089142 532.0
323.109772 164.0
324.701691 144.0
326.594482 184.0
328.128326 144.0
329.13147 140.0
330.104034 164.0
331.072632 132.0
331.221924 144.0
332.074036 388.0
332.13208 176.0
332.19339 172.0
334.59317 360.0
335.371429 256.0
335.586487 164.0
336.064728 3284.0
337.071411 352.0
338.066589 408.0
338.123474 376.0
339.055481 140.0
339.09433 536.0
340.071411 148.0
340.097595 272.0
340.605957 136.0
341.555817 196.0
343.105865 720.0
343.600922 340.0
344.106934 196.0
344.600128 412.0
346.476593 168.0
348.091949 140.0
348.885132 156.0
349.017731 144.0
349.084747 12076.0
349.623627 96.0
350.087067 2776.0
350.130646 224.0
350.273529 136.0
351.087463 880.0
352.091461 268.0
352.732208 140.0
353.063477 172.0
356.592865 196.0
357.600311 1076.0
357.664795 172.0
357.819153 240.0
358.095581 336.0
358.600677 568.0
360.095734 184.0
361.079376 148.0
361.105865 172.0
363.103973 132.0
364.062744 468.0
365.078064 144.0
365.210449 140.0
365.396088 144.0
365.62439 160.0
366.029816 112.0
366.06665 116.0
366.111969 7096.0
366.185577 100.0
366.214508 164.0
366.447632 124.0
366.613647 2008.0
367.11322 1144.0
367.263489 132.0
367.612549 348.0
368.120972 312.0
368.617981 208.0
369.107239 140.0
369.161285 152.0
374.980835 160.0
383.133881 136.0
385.150146 332.0
392.100708 168.0
396.11795 620.0
397.104279 216.0
399.133575 148.0
407.117706 196.0
412.163239 112.0
413.144714 508.0
414.171692 200.0
421.110809 324.0
422.124023 108.0
423.13327 392.0
424.139343 296.0
425.128235 108.0
428.218445 160.0
431.151794 156.0
433.104614 148.0
441.156525 144.0
447.137848 216.0
449.160278 164.0
450.15976 136.0
470.133759 396.0
470.200562 180.0
471.136932 140.0
472.14325 124.0
480.144318 144.0
487.165131 232.0
498.13623 312.0
499.145691 252.0
511.154175 152.0
514.163574 168.0
526.174316 148.0
527.160034 292.0
528.156799 164.0
536.169556 132.0
544.188538 168.0
554.781006 140.0
555.148193 708.0
556.152832 208.0
565.118652 300.0
571.184082 96.0
571.395569 140.0
572.177612 744.0
572.766602 144.0
573.185852 260.0
582.143738 260.0
599.127319 128.0
599.206055 252.0
600.17926 296.0
602.176453 140.0
615.129456 156.0
624.325317 152.0
714.195679 516.0
716.176453 116.0
920.104675 148.0
1439.703247 144.0
1575.873291 180.0
1625.970093 232.0
1677.355957 200.0
1833.906006 148.0
1877.382202 216.0
1890.86792 176.0
1939.749634 176.0
1951.663086 152.0
1965.959717 180.0
1975.811646 160.0
1985.661621 180.0
1988.234497 224.0
1988.633789 172.0
1992.443237 148.0
