>compound MLS002172474-01!RX 821002
>formula C12H14N2O3
>ionization [M+H]+
>parentmass 235.1077187600905
#inchi InChI=1S/C12H14N2O3/c1-15-12(11-13-6-7-14-11)8-16-9-4-2-3-5-10(9)17-12/h2-5H,6-8H2,1H3,(H,13,14)
#inchikey HQGWKNGAKBPTBX
#origInchi InChI=1S/C12H14N2O3.ClH/c1-15-12(11-13-6-7-14-11)8-16-9-4-2-3-5-10(9)17-12;/h2-5H,6-8H2,1H3,(H,13,14);1H
#Ion_Source LC-ESI
#Instrument qTof
#Compound_Source NIH Pharmacologically Active Library
#PI Dorrestein
#Data_Collector VP/LMS
#Scan -1
#Precursor_MZ 235.108
#ExactMass 234.1
#Charge 1
#CAS_Number N/A
#Pubmed_ID N/A
#Smiles COC1(COc2ccccc2O1)C3=NCCN3.Cl
#INCHI_AUX N/A
#Library_Class 1
#SpectrumID CCMSLIB00000084984
#IonMode Positive
#UpdateWorkflowName UPDATE-SINGLE-ANNOTATED-GOLD
#LibraryQualityString Gold
#TaskID d252d724072548979f1f6f1ced849daf
##Scan# 1212
#SpectrumFile p3-D05_GD5_01_18262.mzXML
#LibraryName Pharm_Active_Library.mgf
#MQScore -1
#Organism Pharm_Active_Library
#TIC_Query 0
#RT_Query -1
#MZErrorPPM -1
#SharedPeaks 0
#MassDiff 0
#LibMZ -1
#SpecMZ 235.108
#SpecCharge 0
#internalFilename spec-00000.mgf

>collision 10
45.096581 144.0
45.357601 180.0
45.476986 136.0
45.710838 132.0
46.023579 168.0
46.119499 168.0
46.306225 172.0
46.563927 216.0
46.629143 68.0
47.144321 156.0
47.925148 52.0
48.163826 52.0
48.804119 216.0
49.3619 180.0
49.595715 88.0
50.060768 212.0
50.375309 172.0
50.688 112.0
53.150311 160.0
53.186592 56.0
53.593811 136.0
53.979183 208.0
54.520138 196.0
54.767323 128.0
55.204193 168.0
55.239693 204.0
55.815163 196.0
56.609055 104.0
57.548889 200.0
57.677307 120.0
57.755936 164.0
58.529961 184.0
59.255497 100.0
59.322929 172.0
59.591515 60.0
59.922318 144.0
59.956219 60.0
60.348316 164.0
60.43803 136.0
60.623856 228.0
60.799103 192.0
60.994808 112.0
61.206402 180.0
61.254684 140.0
61.326363 124.0
61.787037 180.0
61.880947 188.0
62.653679 136.0
62.876015 156.0
63.133537 196.0
63.196812 124.0
63.466084 196.0
63.933121 148.0
63.972916 192.0
64.344383 160.0
65.415314 96.0
65.5345 232.0
65.671524 180.0
65.850685 140.0
66.287506 128.0
66.53405 156.0
66.654243 160.0
67.092079 44.0
67.202988 168.0
67.531349 132.0
67.619705 152.0
68.653114 168.0
68.854462 96.0
68.97673 100.0
69.292824 136.0
69.340881 272.0
69.420464 128.0
70.850624 152.0
70.905922 48.0
71.160904 160.0
71.522346 156.0
72.062012 140.0
72.285217 56.0
72.556221 164.0
73.08445 160.0
73.292191 188.0
73.327972 152.0
73.530937 176.0
73.886368 176.0
74.367905 136.0
74.783859 192.0
75.076759 132.0
75.199249 124.0
75.762978 156.0
75.872162 268.0
76.161972 164.0
76.490616 240.0
76.896751 132.0
77.265465 180.0
77.994995 132.0
78.294106 164.0
78.756203 76.0
78.773872 224.0
79.81958 148.0
79.954781 180.0
79.977921 140.0
80.16671 96.0
80.711166 56.0
81.352585 152.0
81.478302 148.0
81.940681 264.0
83.154083 224.0
83.879845 148.0
83.93454 168.0
84.272224 216.0
84.398346 188.0
84.422112 152.0
84.467842 296.0
84.535538 160.0
85.267288 132.0
85.318756 132.0
85.401505 152.0
85.683159 168.0
85.821396 48.0
85.878563 140.0
86.460556 160.0
86.488319 232.0
87.029663 188.0
88.037086 176.0
88.085655 196.0
88.287514 224.0
88.744423 88.0
89.039047 140.0
89.993797 156.0
90.438057 136.0
90.500534 144.0
90.701355 128.0
91.054031 172.0
91.263306 56.0
91.341278 80.0
92.054108 208.0
92.344597 144.0
92.459396 144.0
92.769699 192.0
92.949989 168.0
93.049797 220.0
93.07476 156.0
93.207298 176.0
93.243813 180.0
93.861778 152.0
94.046013 172.0
94.522018 176.0
94.588219 232.0
94.861359 140.0
94.902077 136.0
94.944733 124.0
95.006805 164.0
95.020386 184.0
95.059937 3024.0
95.107712 160.0
95.198967 108.0
95.270836 96.0
95.764923 64.0
95.858437 140.0
96.063118 184.0
96.098282 136.0
96.34819 176.0
97.080719 164.0
97.531822 140.0
98.515144 108.0
98.637665 120.0
98.708839 176.0
98.857201 148.0
99.05439 256.0
99.376366 140.0
100.596367 160.0
101.076042 164.0
101.186134 136.0
102.091103 192.0
102.773994 104.0
102.864815 156.0
103.052864 276.0
103.070816 196.0
104.049118 124.0
104.215668 312.0
104.349815 212.0
104.524742 220.0
104.675377 152.0
104.921921 208.0
105.032562 636.0
105.62851 156.0
105.91304 152.0
106.070824 92.0
106.277962 128.0
106.910881 140.0
107.047928 392.0
107.071465 196.0
107.085876 204.0
107.131195 84.0
107.269264 272.0
107.93821 188.0
108.052742 168.0
108.093353 248.0
108.223763 60.0
108.594711 188.0
109.031158 432.0
109.063965 144.0
109.43219 160.0
110.306328 140.0
110.649422 196.0
111.054665 296.0
111.309906 192.0
111.370811 32.0
111.461151 128.0
111.774467 200.0
111.810242 160.0
111.957611 172.0
112.06366 420.0
113.067719 176.0
113.275604 176.0
113.404861 232.0
114.037369 212.0
114.141541 120.0
114.184074 104.0
114.750511 160.0
115.583534 184.0
116.04834 144.0
116.531265 184.0
116.617226 160.0
116.673119 220.0
117.038887 100.0
117.057487 144.0
117.135803 136.0
117.267242 84.0
117.288795 152.0
117.763496 144.0
117.981743 228.0
118.054413 268.0
118.505508 44.0
118.932732 140.0
119.052147 168.0
119.07386 160.0
119.178139 164.0
119.471649 180.0
119.545624 188.0
120.044136 352.0
120.616524 212.0
120.655869 192.0
120.736778 108.0
120.80677 72.0
120.883354 160.0
121.029243 2720.0
121.413506 112.0
121.892075 72.0
121.960205 56.0
121.979988 128.0
122.035835 3176.0
122.070137 68.0
122.085526 32.0
122.105324 156.0
122.292336 88.0
122.541183 164.0
122.665253 152.0
122.920441 100.0
123.037621 188.0
123.112495 148.0
123.29586 176.0
123.861259 60.0
124.042015 188.0
124.478859 80.0
124.561035 200.0
125.045761 100.0
125.915283 136.0
125.959961 128.0
126.013573 164.0
126.713875 168.0
126.898041 164.0
126.967178 172.0
127.023659 152.0
127.08519 2216.0
127.467796 268.0
127.539711 200.0
127.613899 132.0
127.816338 184.0
128.079208 184.0
128.085983 140.0
128.627701 88.0
128.78801 172.0
129.052429 180.0
129.099915 144.0
129.849548 152.0
130.060562 180.0
130.099152 120.0
130.551315 108.0
130.605896 104.0
131.054337 188.0
131.068344 876.0
131.353043 136.0
131.61322 156.0
131.715988 164.0
131.779953 180.0
132.038269 164.0
132.066147 192.0
132.084015 140.0
132.312851 136.0
132.397583 68.0
132.70694 40.0
132.888123 36.0
133.029037 1140.0
133.074036 116.0
133.094711 80.0
133.795975 92.0
133.86734 76.0
134.032959 464.0
134.05394 172.0
134.215302 60.0
134.515228 36.0
134.942627 200.0
135.04303 1640.0
135.136917 156.0
135.153107 68.0
135.586151 116.0
135.827286 180.0
136.048752 156.0
136.296265 212.0
136.370621 188.0
136.828888 176.0
136.963959 80.0
137.05719 348.0
137.180679 136.0
137.392899 156.0
137.479233 236.0
137.864563 116.0
138.205963 72.0
139.19986 56.0
139.347839 184.0
141.044617 140.0
141.191208 184.0
141.494095 168.0
142.426071 68.0
142.442688 92.0
142.806366 204.0
144.060196 232.0
144.406799 128.0
144.744232 144.0
144.990982 64.0
145.074844 348.0
145.194763 216.0
145.422699 192.0
146.061157 968.0
146.085724 160.0
146.167709 112.0
146.19899 104.0
146.276001 48.0
146.420471 104.0
147.045044 148.0
147.051086 308.0
147.092697 740.0
148.007065 96.0
148.04808 188.0
148.181458 124.0
148.620316 144.0
149.315094 160.0
149.806778 64.0
149.836014 52.0
149.987106 132.0
150.032532 756.0
150.087051 160.0
150.609314 88.0
150.917252 204.0
151.03952 476.0
152.238037 140.0
152.734512 168.0
153.059372 48.0
153.180054 96.0
154.377106 60.0
156.063309 156.0
157.076782 180.0
158.028778 160.0
158.053802 148.0
158.082794 172.0
159.03244 568.0
159.156708 172.0
159.404404 176.0
159.543625 60.0
159.79512 168.0
159.825317 188.0
159.878159 64.0
160.04068 1152.0
160.069489 208.0
160.172745 164.0
161.045929 140.0
161.068222 348.0
161.687683 204.0
162.056778 460.0
162.602615 180.0
163.052155 120.0
163.075027 148.0
164.095825 76.0
164.149384 164.0
164.261597 152.0
164.851395 164.0
164.971512 228.0
165.004761 356.0
165.053711 7244.0
165.103271 212.0
165.487167 284.0
165.849533 80.0
166.055908 720.0
166.46785 72.0
166.855835 100.0
167.239136 108.0
167.339523 68.0
167.512085 48.0
167.914185 28.0
168.968109 136.0
169.004333 232.0
169.721817 216.0
173.028229 148.0
173.072754 200.0
174.053894 360.0
174.075211 336.0
174.413345 120.0
174.51062 104.0
174.584244 148.0
175.048752 336.0
175.08165 184.0
175.817184 168.0
176.009888 192.0
176.0495 216.0
176.085129 180.0
178.905197 184.0
180.511414 72.0
180.915436 136.0
181.078766 140.0
182.783493 100.0
183.27356 116.0
184.950653 128.0
185.072266 540.0
186.056671 136.0
191.077316 144.0
191.881531 124.0
192.557602 196.0
193.389832 64.0
193.603012 224.0
195.947418 164.0
196.036591 172.0
197.91095 128.0
197.93335 224.0
198.549866 148.0
198.937073 172.0
200.588364 140.0
200.73497 104.0
200.760345 104.0
200.81958 76.0
201.065033 96.0
201.285233 96.0
201.663803 80.0
202.071014 156.0
202.42955 132.0
202.509781 156.0
202.841309 148.0
202.863983 84.0
202.921219 152.0
202.997253 76.0
203.081589 23144.0
203.147568 176.0
203.185867 48.0
203.29512 36.0
203.320648 40.0
203.343353 140.0
203.463974 84.0
203.519363 68.0
203.540756 60.0
203.581833 108.0
203.600174 52.0
203.635803 36.0
203.785706 176.0
203.902863 80.0
203.92276 44.0
203.948349 96.0
204.08548 2768.0
204.134689 88.0
204.17865 104.0
204.394852 40.0
204.443222 64.0
204.491608 92.0
204.548538 76.0
204.568466 120.0
204.605469 96.0
204.657761 76.0
204.842239 56.0
204.873169 64.0
204.927307 92.0
204.961502 52.0
205.058395 68.0
205.088043 412.0
205.178116 148.0
205.303574 88.0
205.334946 64.0
205.443344 76.0
205.473175 140.0
205.524826 64.0
205.557465 100.0
205.620255 56.0
205.723007 124.0
206.068573 76.0
206.228607 84.0
206.620377 60.0
207.436554 84.0
207.522568 92.0
207.680283 96.0
207.866776 164.0
207.981567 40.0
211.663193 68.0
212.0224 168.0
214.510452 116.0
220.631454 56.0
222.361359 40.0
234.961761 144.0
235.104462 172.0
235.939056 184.0
281.9664 108.0
283.623199 80.0
283.753937 96.0
291.646698 104.0
300.740936 96.0
306.449127 96.0
330.67572 60.0
331.200714 124.0
361.508026 72.0
362.144073 100.0
385.972809 96.0
386.641754 100.0
395.12558 88.0
398.980499 28.0
424.124603 80.0
437.979706 72.0
505.08313 160.0
707.566162 80.0
728.665466 80.0
791.273804 168.0
798.164001 224.0
887.736389 32.0
891.826965 312.0
894.688232 164.0
921.219788 168.0
944.606079 112.0
951.432922 40.0
962.812073 148.0
985.573425 204.0
986.379639 192.0
997.745239 180.0
1024.375977 224.0
1026.951172 252.0
1034.491211 172.0
1035.253174 44.0
1053.979126 76.0
1066.682007 188.0
1074.679565 208.0
1076.853394 164.0
1078.88562 208.0
1088.9375 168.0
1147.455078 160.0
1151.787598 184.0
1152.314575 148.0
1166.675781 216.0
1175.189209 160.0
1177.339478 228.0
1179.102051 124.0
1195.651245 192.0
1199.088013 196.0
1204.269531 164.0
1208.611084 132.0
1211.879272 196.0
1215.949829 156.0
1231.029297 80.0
1231.539062 188.0
1238.043457 188.0
1244.810791 160.0
1246.974609 224.0
1247.101807 184.0
1247.220581 200.0
1258.153564 232.0
1262.796265 192.0
1262.916504 48.0
1264.657104 208.0
1273.996094 36.0
1277.963257 128.0
1281.829712 144.0
1285.487915 128.0
1286.244507 148.0
1288.886963 208.0
1289.280029 144.0
1290.55249 172.0
1290.959961 188.0
1293.127808 148.0
1293.514282 120.0
1298.931641 220.0
1299.692139 144.0
1306.388306 136.0
1315.201172 160.0
1316.898071 164.0
1325.108643 180.0
1335.104126 180.0
1338.087524 204.0
1341.045166 140.0
1348.906494 212.0
1350.50061 200.0
1350.581055 164.0
1351.57605 160.0
1359.74707 180.0
1362.03064 112.0
1365.477783 148.0
1370.741577 172.0
1370.807861 192.0
1371.456421 172.0
1371.707031 44.0
1373.39563 196.0
1373.808716 136.0
1373.948975 152.0
1375.041016 180.0
1379.975586 144.0
1388.602783 68.0
1390.464966 188.0
1399.981079 140.0
1400.159912 172.0
1402.678345 184.0
1430.500244 160.0
1433.769165 196.0
1444.090088 244.0
1444.203491 172.0
1448.093994 192.0
1448.45752 156.0
1449.177246 156.0
1449.525757 236.0
1452.56604 132.0
1453.772461 160.0
1454.19751 144.0
1457.371826 224.0
1460.610474 148.0
1471.363159 244.0
1471.783203 68.0
1472.149658 200.0
1472.516235 184.0
1473.13501 136.0
1474.869629 180.0
1478.946533 236.0
1486.6875 164.0
1491.403198 176.0
1500.348267 176.0
