>compound MLS001075900-01!N-[2-[7-methoxy-6-[(Z)-(1-methyl-2,4,6-trioxo-1,3-diazinan-5-ylidene)methyl]-1,3-benzodioxol-5-yl]ethyl]-N-methylbenzamide
>formula C24H23N3O7
>ionization [M+H]+
>parentmass 466.16095
#inchi InChI=1S/C24H23N3O7/c1-26(22(29)14-7-5-4-6-8-14)10-9-15-11-18-20(34-13-33-18)19(32-3)16(15)12-17-21(28)25-24(31)27(2)23(17)30/h4-8,11-12H,9-10,13H2,1-3H3,(H,25,28,31)/b17-12-
#inchikey FVTFBLAMRNBDGF
#Ion_Source LC-ESI
#Instrument qTof
#Compound_Source NIH Natural Product Library
#PI Dorrestein
#Data_Collector VVP/LMS
#Scan -1
#Precursor_MZ 466.161
#ExactMass 465.154
#Charge 1
#CAS_Number N/A
#Pubmed_ID N/A
#Smiles COc1c2OCOc2cc(CCN(C)C(=O)c3ccccc3)c1/C=C\4/C(=O)NC(=O)N(C)C4=O
#INCHI_AUX N/A
#Library_Class 1
#SpectrumID CCMSLIB00000079777
#IonMode Positive
#UpdateWorkflowName UPDATE-SINGLE-ANNOTATED-GOLD
#LibraryQualityString Gold
#TaskID b1d8e8f6646f4e71acdff9ca3d919d08
##Scan# 1920
#SpectrumFile p1-H10_GH10_01_17966.mzXML
#LibraryName NIH_Natural_Products_Library.mgf
#MQScore -1
#Organism NIH_Natural_Products_Library
#TIC_Query 0
#RT_Query -1
#MZErrorPPM -1
#SharedPeaks 0
#MassDiff 0
#LibMZ -1
#SpecMZ 466.161
#SpecCharge 0
#internalFilename spec-00000.mgf

>collision 10
95.284126 164.0
95.791878 116.0
95.832794 188.0
95.865921 224.0
95.893204 48.0
96.11747 120.0
96.197495 72.0
96.258018 136.0
96.39476 212.0
96.455345 216.0
96.707672 156.0
96.766396 164.0
96.795769 200.0
97.861977 216.0
98.027443 168.0
98.076714 160.0
98.421959 48.0
98.593819 68.0
98.748024 112.0
99.161827 260.0
99.48912 164.0
99.721527 100.0
100.137215 168.0
100.274834 116.0
100.312706 172.0
100.332642 124.0
100.516136 120.0
100.613937 52.0
100.953621 160.0
101.036652 164.0
101.20649 108.0
101.658775 156.0
101.771187 120.0
101.968048 132.0
102.207359 128.0
102.469109 184.0
102.767509 100.0
102.836121 56.0
102.914848 104.0
103.057236 376.0
103.620735 160.0
103.640991 332.0
104.054756 188.0
104.434769 152.0
104.530388 132.0
104.768608 172.0
104.786942 164.0
104.819542 172.0
104.843994 132.0
104.903687 240.0
104.935722 120.0
104.995529 208.0
105.011177 84.0
105.033531 41164.0
105.125427 52.0
105.145828 132.0
105.181648 168.0
105.205765 88.0
105.266281 60.0
105.295815 60.0
105.317337 56.0
105.367706 152.0
105.413361 48.0
105.593262 56.0
105.612732 52.0
105.662811 52.0
105.681931 116.0
105.720108 104.0
105.752853 48.0
105.818359 144.0
105.924088 108.0
105.986313 32.0
106.000656 36.0
106.036499 4732.0
106.066238 188.0
106.140045 76.0
106.375984 64.0
106.45401 64.0
106.478653 108.0
106.529999 64.0
106.556709 48.0
106.618355 108.0
106.682076 60.0
106.743752 128.0
106.838364 56.0
106.867172 76.0
106.906265 72.0
106.997345 48.0
107.039108 324.0
107.09156 48.0
107.295563 204.0
107.384232 104.0
107.510086 32.0
108.005943 120.0
108.268799 120.0
108.739426 80.0
108.789238 224.0
109.631622 92.0
109.752525 172.0
109.961136 72.0
110.032112 52.0
110.414505 124.0
110.56514 284.0
110.766144 96.0
112.037125 336.0
112.363853 44.0
112.403946 164.0
112.750275 164.0
113.007996 64.0
113.279251 152.0
113.353401 144.0
113.658752 92.0
113.992134 156.0
114.409019 40.0
114.46225 92.0
115.05349 212.0
116.498405 116.0
116.56501 112.0
116.866043 140.0
117.021011 52.0
117.059769 56.0
117.074844 152.0
118.0373 196.0
118.067833 160.0
119.04892 240.0
119.431808 168.0
120.019814 132.0
120.056885 160.0
120.657356 56.0
120.992088 124.0
121.073105 232.0
121.28344 132.0
121.662941 44.0
122.032036 156.0
122.300423 224.0
122.44249 160.0
122.507408 72.0
122.663872 140.0
122.835869 88.0
123.054352 96.0
123.613579 140.0
123.675545 216.0
123.817245 140.0
126.044083 216.0
126.757904 148.0
127.056114 148.0
127.329964 124.0
127.50071 188.0
128.024887 172.0
128.103729 160.0
128.225403 152.0
129.035995 212.0
129.067444 136.0
129.637878 156.0
129.85553 104.0
130.041779 164.0
130.9328 200.0
131.003418 172.0
131.045578 436.0
132.017532 168.0
132.07872 188.0
133.018753 136.0
133.059647 172.0
133.424698 160.0
134.031235 160.0
134.06604 184.0
134.163696 112.0
134.212112 56.0
135.124451 152.0
135.335068 112.0
135.937744 168.0
136.073502 348.0
136.339508 216.0
136.623184 180.0
136.800049 152.0
137.823898 128.0
137.849609 244.0
138.699188 152.0
138.746063 164.0
139.685425 148.0
140.052628 148.0
140.847534 188.0
141.055466 140.0
142.244614 184.0
142.817276 200.0
143.049347 172.0
143.705856 132.0
143.74881 156.0
144.020981 148.0
144.211182 192.0
144.441666 100.0
144.551727 68.0
144.58284 180.0
145.023529 172.0
145.065765 384.0
145.208145 148.0
145.263306 68.0
146.058411 200.0
146.727875 168.0
147.044281 144.0
147.058807 172.0
147.29982 168.0
147.437546 160.0
148.070755 196.0
148.161026 108.0
149.090363 216.0
149.464844 136.0
149.53299 28.0
149.654709 168.0
149.964096 224.0
150.088425 196.0
150.156708 144.0
150.66687 216.0
151.393326 108.0
152.151001 136.0
152.288101 72.0
152.890869 220.0
153.282425 76.0
154.254837 132.0
155.042908 1504.0
156.045547 192.0
156.198944 160.0
156.656982 188.0
157.033371 132.0
157.078278 176.0
158.03511 116.0
158.057632 68.0
159.040405 192.0
159.137955 128.0
160.046097 88.0
160.076431 348.0
160.479019 64.0
160.597534 96.0
160.930649 40.0
161.029144 176.0
161.061981 216.0
161.188293 204.0
161.790268 116.0
162.025787 92.0
162.066483 208.0
162.09697 212.0
162.223465 40.0
162.629318 76.0
163.066177 268.0
163.095139 316.0
163.241592 128.0
163.475632 164.0
163.618179 168.0
164.44664 52.0
164.52832 148.0
164.681534 96.0
164.980499 172.0
165.021408 80.0
165.052902 1768.0
165.279739 76.0
166.058594 152.0
166.243256 76.0
166.877716 196.0
167.088486 160.0
167.134918 120.0
167.173523 168.0
167.261032 56.0
168.034149 172.0
168.371674 180.0
169.331818 84.0
169.482056 80.0
169.707565 136.0
171.041138 372.0
171.232574 132.0
172.051987 176.0
172.307693 144.0
173.060181 736.0
173.160461 168.0
174.028748 352.0
174.063156 200.0
174.490875 144.0
174.656555 68.0
174.982864 128.0
175.032654 280.0
175.056595 164.0
175.130341 32.0
175.21463 180.0
176.039536 200.0
176.061356 180.0
176.082474 208.0
176.970993 48.0
177.018661 140.0
177.052139 100.0
178.060287 140.0
179.03302 144.0
179.067322 324.0
180.069061 124.0
180.461884 44.0
180.737381 144.0
180.820343 104.0
182.075058 116.0
183.032394 140.0
183.417664 176.0
183.741272 36.0
183.886978 80.0
184.040817 216.0
186.02536 160.0
186.066071 164.0
186.090851 160.0
187.038467 120.0
188.045334 344.0
188.068451 296.0
188.676071 160.0
188.870224 160.0
188.990601 80.0
189.053406 4256.0
189.261566 44.0
189.310867 124.0
189.562881 96.0
189.71637 284.0
189.993362 40.0
190.057846 492.0
190.223877 48.0
190.580902 164.0
190.630371 96.0
190.759552 180.0
191.072891 388.0
191.152847 32.0
191.191376 128.0
191.637466 128.0
191.833145 76.0
192.059265 76.0
192.282745 120.0
192.743927 96.0
192.865524 68.0
193.070496 152.0
193.191833 172.0
194.072556 160.0
194.316635 88.0
194.705246 52.0
195.027542 196.0
195.080353 144.0
196.001587 156.0
196.051758 124.0
196.09288 132.0
196.456055 48.0
196.536957 72.0
196.779785 140.0
197.094543 492.0
197.716217 60.0
198.018585 172.0
198.052277 344.0
198.099823 92.0
198.941116 184.0
199.041168 144.0
200.047775 84.0
200.837723 52.0
201.053268 916.0
201.766785 156.0
202.052841 380.0
203.066284 1532.0
203.270782 60.0
203.344574 144.0
204.071289 268.0
204.168488 52.0
204.22821 128.0
204.720581 160.0
205.070587 1372.0
205.775604 48.0
205.946945 132.0
206.074936 196.0
206.144073 172.0
206.819031 68.0
207.056671 172.0
207.085205 1028.0
207.520905 100.0
207.655685 164.0
207.675766 132.0
208.048798 192.0
208.088562 468.0
208.792999 204.0
209.10112 128.0
210.061401 192.0
210.096542 160.0
210.119125 224.0
210.299835 68.0
211.01915 124.0
211.075287 164.0
212.017807 184.0
212.093155 156.0
212.252609 120.0
213.018814 132.0
213.046783 404.0
213.393723 176.0
214.022186 1020.0
214.05423 140.0
214.095001 332.0
214.115387 216.0
215.052002 368.0
215.728958 52.0
216.038177 484.0
216.060104 180.0
216.598053 104.0
217.046478 448.0
217.551102 172.0
218.08017 1052.0
219.053802 112.0
219.09079 780.0
219.631561 184.0
219.920715 144.0
219.976807 140.0
220.095566 4452.0
220.139191 116.0
220.210068 52.0
220.348907 36.0
220.529175 68.0
220.922455 108.0
221.011215 76.0
221.074966 360.0
221.10231 460.0
221.173981 64.0
221.313126 44.0
222.647537 80.0
223.063522 140.0
223.316254 88.0
224.032227 336.0
224.060455 144.0
225.044678 160.0
225.087906 120.0
225.110382 64.0
225.486801 180.0
226.046127 132.0
226.396286 144.0
226.752792 180.0
226.863708 164.0
227.029968 716.0
227.063751 156.0
227.38562 148.0
228.029114 204.0
228.059219 268.0
228.671982 120.0
228.927887 140.0
229.047775 2028.0
229.096558 140.0
229.283371 120.0
229.34967 128.0
229.455185 112.0
229.590881 96.0
229.841263 76.0
230.047638 692.0
230.137054 120.0
230.547882 236.0
230.974182 144.0
231.02562 152.0
231.064682 3116.0
231.285858 60.0
231.343369 100.0
231.3797 136.0
231.567444 80.0
231.643173 132.0
231.685577 64.0
231.915878 92.0
232.03714 104.0
232.068527 580.0
232.102066 164.0
232.319183 128.0
232.82608 68.0
233.008331 124.0
233.056061 164.0
233.436905 108.0
233.497726 100.0
233.522064 152.0
233.622437 68.0
233.753281 80.0
233.850662 84.0
234.067795 124.0
235.07135 160.0
235.882111 72.0
236.078262 132.0
236.261322 160.0
238.106277 188.0
238.687408 148.0
239.053467 184.0
240.05661 212.0
240.076233 420.0
240.165665 140.0
241.047714 180.0
241.097565 100.0
242.044846 1092.0
242.081848 196.0
242.760513 48.0
243.014862 116.0
243.043076 340.0
243.095535 160.0
243.35939 84.0
244.053375 356.0
244.090714 376.0
244.112198 220.0
245.035812 192.0
245.063873 208.0
245.095001 116.0
245.710617 36.0
246.087646 164.0
247.062042 1416.0
247.115173 56.0
248.06044 496.0
248.324356 72.0
249.080811 148.0
250.068649 120.0
250.685394 64.0
251.057388 188.0
253.057602 148.0
253.089264 320.0
254.062271 132.0
254.122543 160.0
255.082932 128.0
255.106323 212.0
255.351913 88.0
256.057678 592.0
256.101501 180.0
256.437622 72.0
257.055908 160.0
257.107361 44.0
258.078308 220.0
258.657532 60.0
258.699158 68.0
259.06665 144.0
259.10907 148.0
259.2052 88.0
259.384674 48.0
259.583435 216.0
260.08902 252.0
260.177032 64.0
260.755219 76.0
261.045288 160.0
261.078369 116.0
262.006958 140.0
262.061737 120.0
262.093933 260.0
263.048584 144.0
264.043762 124.0
264.108459 108.0
266.072479 168.0
267.103699 452.0
268.010712 144.0
268.069824 180.0
268.103638 136.0
269.042236 160.0
269.080933 156.0
269.462646 60.0
270.064148 136.0
270.088226 228.0
271.062653 168.0
272.061127 160.0
272.848206 140.0
273.097076 200.0
274.013275 144.0
274.070496 588.0
275.072174 132.0
275.098846 164.0
276.056366 172.0
281.074829 188.0
283.068085 148.0
283.096069 296.0
284.06665 120.0
285.0271 148.0
285.383392 44.0
286.066345 196.0
287.071167 192.0
288.084381 132.0
289.049927 140.0
289.08197 128.0
290.435577 40.0
292.378998 144.0
293.078186 144.0
294.335754 164.0
294.475769 164.0
295.039581 120.0
299.063049 672.0
299.108124 124.0
300.017548 84.0
300.04361 316.0
300.074432 452.0
300.538361 148.0
300.669464 68.0
301.083832 732.0
301.114929 176.0
302.081177 276.0
302.186462 100.0
303.094604 144.0
303.42984 152.0
304.091888 248.0
304.130585 72.0
305.103241 168.0
305.450989 64.0
305.913788 84.0
306.112244 148.0
306.13736 152.0
306.547699 40.0
309.096863 108.0
309.271851 76.0
310.943695 104.0
311.867432 108.0
312.120789 1188.0
312.500427 56.0
313.120789 376.0
313.232666 28.0
313.694305 80.0
314.092773 92.0
314.133453 144.0
314.593872 64.0
315.219025 64.0
315.469971 84.0
316.070068 160.0
317.081604 164.0
318.126862 116.0
321.069458 140.0
322.95166 144.0
324.128723 252.0
325.112091 128.0
330.123169 152.0
330.47403 108.0
330.76355 152.0
331.092133 752.0
331.161835 200.0
331.237915 40.0
332.093384 304.0
332.978943 100.0
333.08905 188.0
333.305878 56.0
333.763885 44.0
335.088776 148.0
336.912933 64.0
344.093079 228.0
346.556213 160.0
347.038055 168.0
349.184448 124.0
351.031616 160.0
351.352386 80.0
356.068848 192.0
357.09491 136.0
358.706451 52.0
360.095001 316.0
361.368958 40.0
361.804199 80.0
371.115906 92.0
375.133484 56.0
390.153229 120.0
393.103363 100.0
393.719208 44.0
394.976105 148.0
400.107208 172.0
417.104492 132.0
418.121338 156.0
420.272949 64.0
424.174561 96.0
434.135956 136.0
435.103516 156.0
435.572021 36.0
442.988922 140.0
448.152283 80.0
449.159882 80.0
466.16095 208.0
466.771362 160.0
467.924469 140.0
469.311829 80.0
473.620514 128.0
518.320129 68.0
551.505615 56.0
587.996582 36.0
589.455017 96.0
647.763306 72.0
680.438354 52.0
684.926208 68.0
687.825439 112.0
691.358643 104.0
699.394043 172.0
751.923218 84.0
757.451111 68.0
832.320923 200.0
842.191956 112.0
847.184021 32.0
877.40509 200.0
878.183472 148.0
880.951904 196.0
937.73407 160.0
945.4729 116.0
945.962585 164.0
959.595032 152.0
961.636902 200.0
968.93988 180.0
985.939758 204.0
990.64502 72.0
997.10791 180.0
1014.326721 112.0
1024.194824 152.0
1033.029419 128.0
1039.012939 140.0
1046.526245 132.0
1048.130127 172.0
1048.381348 144.0
1051.612549 160.0
1051.857788 156.0
1053.065308 200.0
1063.203979 236.0
1064.216675 184.0
1066.958496 220.0
1067.192505 136.0
1074.839478 100.0
1079.510132 208.0
1079.828979 84.0
1081.577515 176.0
1097.462769 188.0
1107.507812 136.0
1113.058838 104.0
1119.509155 180.0
1125.317017 148.0
1130.832031 176.0
1141.485474 164.0
1150.912476 188.0
1156.347656 156.0
1161.910889 136.0
1165.849243 192.0
1165.944336 168.0
1171.912231 196.0
1171.980347 200.0
1178.742432 136.0
1182.469604 152.0
1184.146973 192.0
1189.289307 136.0
1197.119995 104.0
1198.463257 144.0
1201.524536 144.0
1202.338745 240.0
1204.893555 196.0
1206.476196 44.0
1209.09082 196.0
1209.166992 92.0
1210.378418 200.0
1213.718262 48.0
1214.911255 204.0
1216.104736 124.0
1217.028076 156.0
1220.780396 152.0
1221.928101 48.0
1222.81189 140.0
1223.772583 260.0
1227.409668 116.0
1227.883911 216.0
1228.009521 232.0
1228.211792 132.0
1230.165649 128.0
1231.310669 188.0
1235.644653 120.0
1238.86499 184.0
1239.495605 148.0
1239.579712 216.0
1240.175415 180.0
1242.244019 240.0
1242.57373 152.0
1245.796143 124.0
1247.503784 192.0
1247.883423 148.0
1251.711182 176.0
1252.22522 188.0
1252.295654 164.0
1252.380127 120.0
1255.142822 160.0
1258.120239 52.0
1273.82019 180.0
1274.580322 148.0
1276.186768 164.0
1289.767578 120.0
1289.953491 224.0
1301.452271 64.0
1304.131836 188.0
1308.800781 200.0
1310.709595 168.0
1312.100586 164.0
1312.987549 196.0
1313.636719 164.0
1316.856079 96.0
1318.792358 140.0
1319.840698 144.0
1321.012329 216.0
1321.106323 128.0
1327.349609 144.0
1336.9823 232.0
1338.736694 216.0
1342.744995 68.0
1345.547119 88.0
1351.841919 96.0
1352.330811 196.0
1356.095459 200.0
1358.397827 148.0
1358.75 204.0
1359.417725 208.0
1363.927246 84.0
1364.846191 64.0
1365.096191 88.0
1366.817505 208.0
1367.082397 20.0
1367.200195 96.0
1368.127563 172.0
1369.246826 180.0
1369.644531 164.0
1369.733032 156.0
1371.412964 124.0
1372.378662 248.0
1372.585205 36.0
1373.374268 264.0
1378.438843 144.0
1379.133545 192.0
1379.961548 224.0
1381.692139 48.0
1381.936279 176.0
1382.750366 172.0
1382.979736 188.0
1383.860718 220.0
1391.890869 132.0
1394.989014 144.0
1400.830688 112.0
1404.244507 124.0
1408.449951 124.0
1409.619751 116.0
1410.352173 216.0
1410.434326 148.0
1410.875366 132.0
1411.638062 152.0
1411.839966 208.0
1418.856079 176.0
1419.890869 140.0
1420.730957 124.0
1426.393066 36.0
1426.844116 128.0
1429.694946 20.0
1436.136719 152.0
1437.970093 164.0
1439.140137 88.0
1439.510254 176.0
1439.608398 144.0
1441.791626 256.0
1443.341309 160.0
1445.005371 128.0
1445.527466 172.0
1446.738403 92.0
1448.540771 108.0
1450.366943 176.0
1451.231201 208.0
1451.390381 188.0
1454.493286 132.0
1460.412476 200.0
1460.975342 168.0
1461.218872 160.0
1461.546021 148.0
1467.060181 180.0
1469.439575 164.0
1470.286621 152.0
1470.42395 104.0
1470.546021 188.0
1473.669434 172.0
1474.051392 192.0
1474.456421 224.0
1476.413574 164.0
1477.69873 148.0
1479.443604 152.0
1480.691772 136.0
1480.79895 96.0
1481.75647 188.0
1483.833496 144.0
1485.206177 196.0
1486.832764 224.0
1489.650635 308.0
1492.032959 120.0
1492.186768 124.0
1493.932495 80.0
1494.324829 176.0
1496.649292 144.0
1497.080566 184.0
1498.004761 160.0
1503.016235 92.0
