>compound MLS001141243-01!2-[[2-(4-butyl-7-methyl-2-oxochromen-5-yl)oxyacetyl]amino]-3-(4-chlorophenyl)propanoic acid
>formula C25H26ClNO6
>ionization [M+H]+
>parentmass 472.1521416840905
#inchi InChI=1S/C25H26ClNO6/c1-3-4-5-17-13-23(29)33-21-11-15(2)10-20(24(17)21)32-14-22(28)27-19(25(30)31)12-16-6-8-18(26)9-7-16/h6-11,13,19H,3-5,12,14H2,1-2H3,(H,27,28)(H,30,31)
#inchikey GEDJNXCDCHZLBD
#Ion_Source LC-ESI
#Instrument qTof
#Compound_Source NIH Natural Product Library
#PI Dorrestein
#Data_Collector VVP/LMS
#Scan -1
#Precursor_MZ 472.153
#ExactMass 471.145
#Charge 1
#CAS_Number N/A
#Pubmed_ID N/A
#Smiles CCCCc1cc(=O)oc2cc(C)cc(OCC(=O)NC(Cc3ccc(Cl)cc3)C(=O)O)c12
#INCHI_AUX N/A
#Library_Class 1
#SpectrumID CCMSLIB00000079487
#IonMode Positive
#UpdateWorkflowName UPDATE-SINGLE-ANNOTATED-GOLD
#LibraryQualityString Gold
#TaskID b1d8e8f6646f4e71acdff9ca3d919d08
##Scan# 2405
#SpectrumFile p1-A07_GA7_01_17880.mzXML
#LibraryName NIH_Natural_Products_Library.mgf
#MQScore -1
#Organism NIH_Natural_Products_Library
#TIC_Query 0
#RT_Query -1
#MZErrorPPM -1
#SharedPeaks 0
#MassDiff 0
#LibMZ -1
#SpecMZ 472.153
#SpecCharge 0
#internalFilename spec-00000.mgf

>collision 10
95.04435 140.0
95.267616 192.0
95.308418 172.0
95.364769 124.0
95.390038 220.0
95.420044 92.0
95.563118 168.0
95.750069 188.0
95.767517 128.0
96.1633 152.0
96.227722 128.0
96.288254 224.0
96.405464 128.0
96.638153 224.0
96.700768 148.0
96.792778 204.0
96.808746 156.0
96.927933 164.0
97.072983 108.0
97.159286 176.0
97.194603 240.0
97.23777 232.0
97.297043 184.0
97.624786 144.0
97.768387 124.0
97.792007 124.0
98.018433 172.0
98.156456 84.0
98.193924 196.0
98.385323 188.0
98.606544 188.0
98.776581 116.0
98.814171 208.0
99.035881 224.0
99.216194 144.0
99.46019 84.0
99.571373 204.0
99.713394 140.0
99.870224 196.0
99.923203 144.0
100.134201 160.0
100.166069 172.0
100.325485 136.0
100.463081 100.0
100.483032 128.0
100.540894 148.0
100.556862 124.0
100.59079 84.0
100.790504 152.0
100.840462 72.0
101.06443 196.0
101.162491 84.0
101.308678 132.0
101.338493 208.0
101.426903 148.0
101.440933 176.0
101.490662 144.0
101.525139 216.0
101.567261 160.0
101.621422 148.0
101.685638 132.0
101.828178 144.0
101.880402 88.0
102.051445 188.0
102.240311 124.0
102.590775 176.0
102.637146 188.0
102.869148 156.0
102.909821 192.0
102.949913 172.0
102.979599 228.0
103.053955 1692.0
103.097382 128.0
103.139488 184.0
103.220688 88.0
103.246979 60.0
103.516121 52.0
103.619415 172.0
103.655884 108.0
103.738983 164.0
103.787636 188.0
103.872818 168.0
103.897156 104.0
104.056328 208.0
104.181366 164.0
104.294266 188.0
104.453758 36.0
104.506653 144.0
104.664558 224.0
104.844666 160.0
104.899696 192.0
105.005722 124.0
105.069328 504.0
105.391533 92.0
105.414009 68.0
105.465103 148.0
105.743042 168.0
105.835373 168.0
105.929581 44.0
105.962357 176.0
106.036125 196.0
106.064819 128.0
106.080299 232.0
106.411507 148.0
106.475159 184.0
106.532669 208.0
107.049995 408.0
107.086555 176.0
107.28791 140.0
107.376572 176.0
107.663429 172.0
107.946022 176.0
107.992035 164.0
108.230011 200.0
108.398109 208.0
108.435829 168.0
108.594734 160.0
108.677711 148.0
108.931931 212.0
109.062675 644.0
109.215752 180.0
109.286484 196.0
109.353073 48.0
109.421768 172.0
109.480064 268.0
109.549492 180.0
109.630051 140.0
109.65506 164.0
109.734276 208.0
109.834373 144.0
109.930336 188.0
109.96373 200.0
109.980423 96.0
110.040962 188.0
110.068108 164.0
110.088989 136.0
110.139114 104.0
110.393791 144.0
110.481926 52.0
110.582367 196.0
110.597015 208.0
110.8078 224.0
111.070549 156.0
111.116699 80.0
111.274986 220.0
111.591347 52.0
111.664948 176.0
111.679665 44.0
111.71122 204.0
111.744881 144.0
111.801689 196.0
112.0354 148.0
112.163948 124.0
112.237732 164.0
112.346161 184.0
112.416618 144.0
112.520454 164.0
112.864838 120.0
113.01078 232.0
113.285995 32.0
113.347435 40.0
113.449165 200.0
113.521255 160.0
113.553062 128.0
113.652763 220.0
113.676102 176.0
114.086021 144.0
114.160431 132.0
114.239128 140.0
114.281677 180.0
114.468987 248.0
114.569084 220.0
114.603172 168.0
114.620224 116.0
114.937927 168.0
115.004082 48.0
115.027565 88.0
115.052895 556.0
115.223114 216.0
115.31591 136.0
115.347557 184.0
115.572517 128.0
115.647423 168.0
115.75985 124.0
115.787743 132.0
115.972313 208.0
116.03083 340.0
116.058189 364.0
116.129494 84.0
116.215294 228.0
116.236755 176.0
116.318306 80.0
116.444321 220.0
116.513718 80.0
116.612564 140.0
116.70182 176.0
116.72435 160.0
116.816826 144.0
117.029884 136.0
117.069519 1068.0
117.167725 180.0
117.207108 244.0
117.230209 44.0
117.277618 144.0
117.450111 144.0
117.670219 176.0
117.737007 236.0
117.950554 104.0
118.005096 188.0
118.064507 1636.0
118.0952 216.0
118.204086 96.0
118.346939 104.0
118.459282 160.0
118.593895 212.0
118.663261 116.0
118.691452 56.0
118.867149 212.0
118.930084 136.0
118.947449 156.0
118.971321 140.0
119.07415 2128.0
119.121162 220.0
119.151573 208.0
119.2537 140.0
119.379791 112.0
119.453743 176.0
119.558174 48.0
119.586472 172.0
119.686607 92.0
119.704025 84.0
119.734512 176.0
119.771538 160.0
119.836891 88.0
120.057045 388.0
120.074684 332.0
120.229385 144.0
120.255569 96.0
120.397476 144.0
120.785477 220.0
120.884964 68.0
120.913414 40.0
120.941864 144.0
121.030823 216.0
121.065262 2104.0
121.086365 116.0
121.149887 184.0
121.171051 180.0
121.187134 192.0
121.321495 180.0
121.421677 36.0
121.654259 160.0
121.711342 176.0
121.816757 172.0
121.931007 228.0
122.016731 156.0
122.049713 284.0
122.067703 132.0
122.183876 176.0
122.225677 124.0
122.359932 208.0
122.463432 204.0
122.522903 68.0
122.622055 104.0
122.666138 216.0
122.723457 224.0
122.749916 156.0
122.796227 224.0
122.906525 236.0
122.950661 200.0
123.043365 236.0
123.19574 52.0
123.363686 152.0
123.441071 140.0
123.520691 224.0
123.550301 172.0
123.633522 164.0
123.657867 188.0
123.722061 176.0
123.939102 136.0
123.987854 120.0
124.049706 296.0
124.087601 184.0
124.214005 124.0
124.418159 276.0
124.451462 156.0
124.62915 136.0
124.695816 164.0
124.710388 156.0
124.771385 188.0
124.891464 156.0
125.015106 2004.0
125.058701 196.0
125.203049 124.0
125.236176 160.0
125.257133 156.0
125.546242 208.0
125.581924 48.0
125.644379 184.0
125.740326 88.0
125.905533 40.0
125.951073 164.0
126.01857 320.0
126.040085 204.0
126.128952 64.0
126.19825 164.0
126.231789 172.0
126.571907 156.0
126.946121 64.0
127.01223 796.0
127.055229 352.0
127.098648 36.0
127.332108 92.0
127.561287 184.0
127.621986 100.0
127.700691 140.0
127.791374 192.0
127.819923 248.0
127.981979 228.0
128.061005 844.0
128.180191 168.0
128.362778 184.0
128.62674 184.0
128.933899 120.0
129.068817 2524.0
129.384018 68.0
129.479111 208.0
129.497238 180.0
129.637695 196.0
129.753296 252.0
129.907501 172.0
130.064087 4420.0
130.119843 172.0
130.223007 220.0
130.254807 188.0
130.48204 172.0
130.661713 176.0
130.689011 144.0
130.747757 152.0
130.784592 184.0
130.855164 200.0
130.975845 80.0
131.028244 68.0
131.048157 676.0
131.071548 3560.0
131.167252 348.0
131.201447 64.0
131.263 132.0
131.288086 48.0
131.342819 228.0
131.399857 140.0
131.447769 124.0
131.589279 72.0
132.058411 412.0
132.076904 528.0
132.153793 76.0
132.28653 200.0
132.341476 168.0
132.39415 120.0
132.426208 144.0
132.533875 196.0
132.586578 140.0
132.620956 152.0
132.721817 172.0
132.818039 172.0
132.896133 184.0
133.065842 892.0
133.09227 160.0
133.098267 296.0
133.196869 144.0
133.24971 56.0
133.364609 152.0
133.391785 116.0
133.442764 132.0
133.466904 96.0
133.562347 76.0
133.583038 184.0
133.63826 232.0
133.757919 92.0
133.80397 160.0
133.861526 96.0
133.893768 96.0
133.919098 260.0
134.036591 204.0
134.057953 192.0
134.073029 284.0
134.200241 240.0
134.32016 200.0
134.449356 192.0
134.731049 260.0
135.00148 172.0
135.033844 108.0
135.080597 1332.0
135.286057 56.0
135.515335 208.0
135.618362 156.0
135.642792 164.0
135.712341 52.0
135.823654 196.0
135.903534 256.0
136.025528 140.0
136.088211 212.0
136.227539 48.0
136.383224 68.0
136.401825 124.0
136.693726 180.0
136.790283 156.0
137.015396 444.0
137.058975 3400.0
137.126648 192.0
137.239899 188.0
137.337845 172.0
137.377502 140.0
137.505829 224.0
137.524506 80.0
137.582855 60.0
137.634232 156.0
137.811737 156.0
137.879501 108.0
138.017761 324.0
138.066559 1544.0
138.129669 28.0
138.146042 48.0
138.258804 144.0
138.34964 180.0
138.405823 184.0
138.637726 140.0
138.752579 184.0
138.797119 128.0
138.872162 168.0
138.89328 56.0
138.930817 140.0
138.984772 156.0
139.030777 3680.0
139.073517 876.0
139.123245 60.0
139.170197 84.0
139.210114 92.0
139.255386 196.0
139.287613 168.0
139.440338 220.0
139.475586 144.0
139.753082 108.0
139.833099 152.0
139.884872 48.0
140.004944 216.0
140.031296 436.0
140.086075 180.0
140.290039 144.0
140.363129 164.0
140.396149 104.0
140.502289 188.0
140.624985 244.0
140.686356 188.0
140.707596 72.0
140.837479 56.0
140.903625 96.0
140.955597 84.0
140.983963 228.0
141.025711 1176.0
141.070953 1024.0
141.227463 108.0
141.292603 140.0
141.395447 120.0
141.435684 84.0
141.528015 180.0
141.554062 144.0
141.584839 32.0
141.632202 64.0
141.738815 68.0
141.843094 216.0
142.008896 152.0
142.014648 136.0
142.026367 148.0
142.033203 180.0
142.054123 184.0
142.07901 772.0
142.134796 56.0
142.177795 196.0
142.281952 68.0
142.313065 180.0
142.341309 216.0
142.381668 212.0
142.448181 36.0
142.55809 152.0
142.716721 92.0
143.007721 328.0
143.050308 200.0
143.083206 760.0
143.204117 176.0
143.273636 100.0
143.297455 156.0
143.876984 136.0
143.90802 72.0
143.94899 148.0
144.015472 180.0
144.058655 608.0
144.091385 364.0
144.204224 208.0
144.479202 172.0
144.584488 156.0
144.716141 136.0
144.787979 104.0
144.834976 244.0
145.063217 1144.0
145.097076 128.0
145.136505 160.0
145.197311 124.0
145.495316 200.0
145.81958 128.0
145.874863 132.0
145.918137 112.0
145.956604 80.0
146.072617 1496.0
146.107193 164.0
146.136993 236.0
146.534256 220.0
146.746338 204.0
147.044846 764.0
147.080383 1276.0
147.161316 64.0
147.238159 112.0
147.2724 168.0
147.434265 120.0
147.451187 168.0
147.705063 60.0
147.724411 164.0
147.743759 100.0
147.789734 92.0
148.054443 584.0
148.084671 164.0
148.189224 236.0
148.259491 64.0
148.312805 104.0
148.482529 208.0
148.61351 128.0
148.763977 196.0
148.960709 232.0
149.010193 352.0
149.05928 1020.0
149.090515 136.0
149.138046 112.0
149.193954 208.0
149.448334 108.0
149.69516 136.0
149.72522 256.0
149.76091 60.0
149.892471 108.0
149.977768 60.0
149.999695 112.0
150.029922 692.0
150.059708 336.0
150.109406 208.0
150.167938 196.0
150.238678 68.0
150.265518 108.0
150.343597 164.0
150.433899 152.0
150.604828 192.0
150.69545 156.0
150.773392 192.0
150.894211 160.0
151.031082 1576.0
151.074829 1488.0
151.21521 168.0
151.365387 100.0
151.522141 140.0
151.713287 88.0
151.762329 196.0
151.799103 124.0
151.965897 44.0
151.99968 176.0
152.029373 604.0
152.056686 224.0
152.080734 356.0
152.172058 64.0
152.272736 72.0
152.297287 84.0
152.422577 220.0
152.486481 188.0
152.571503 196.0
152.619217 40.0
152.636429 224.0
152.685608 120.0
152.734802 160.0
152.899643 120.0
153.026855 660.0
153.060013 160.0
153.103973 148.0
153.177856 96.0
153.214813 188.0
153.256699 192.0
153.273941 52.0
153.303268 200.0
153.377182 160.0
153.485916 140.0
153.821442 264.0
153.900436 96.0
153.942413 240.0
153.959702 220.0
153.97699 236.0
153.995377 204.0
154.041412 10264.0
154.07933 316.0
154.121811 180.0
154.182037 128.0
154.236832 48.0
154.261139 120.0
154.364975 124.0
154.409485 176.0
154.439163 128.0
154.467178 256.0
154.72374 128.0
154.857452 208.0
154.949097 36.0
154.969849 148.0
155.006088 140.0
155.044464 976.0
155.081406 376.0
155.177109 144.0
155.221741 176.0
155.293655 168.0
155.320938 188.0
155.469803 112.0
155.546738 96.0
155.939178 152.0
156.038773 3312.0
156.096634 584.0
156.267654 120.0
156.346771 184.0
156.399307 156.0
156.508835 260.0
156.548676 180.0
156.668228 84.0
156.827698 116.0
156.957336 244.0
157.059372 548.0
157.099396 452.0
157.204285 104.0
157.334076 56.0
157.398987 100.0
157.433945 128.0
157.606293 160.0
157.642563 164.0
157.736252 120.0
157.78746 148.0
157.888763 80.0
157.984924 180.0
158.040619 228.0
158.07077 1768.0
158.104004 228.0
158.131439 28.0
158.163971 172.0
158.23407 176.0
158.429413 284.0
158.509583 184.0
158.53714 228.0
158.863083 132.0
158.913269 184.0
158.970978 208.0
159.046265 156.0
159.080276 3060.0
159.113541 672.0
159.332535 104.0
159.374741 40.0
159.425491 52.0
159.636658 88.0
159.67186 44.0
159.710815 136.0
159.895767 52.0
159.961212 52.0
159.981354 176.0
160.050674 684.0
160.083099 732.0
160.142502 56.0
160.540695 120.0
160.593643 176.0
160.634003 216.0
161.059311 5100.0
161.0961 1336.0
161.124649 168.0
161.171356 132.0
161.194489 48.0
161.335373 188.0
161.361298 40.0
161.472565 196.0
161.492798 116.0
161.576263 132.0
161.87999 136.0
161.92305 260.0
162.06543 1256.0
162.098267 364.0
162.120651 136.0
162.148529 56.0
162.17894 164.0
162.244843 72.0
162.554276 316.0
162.576752 144.0
162.762421 104.0
162.83606 248.0
162.879242 136.0
162.955444 116.0
163.038696 140.0
163.074814 1152.0
163.156219 104.0
163.283356 48.0
163.303696 176.0
163.532684 72.0
163.578186 100.0
163.695618 48.0
163.73381 120.0
163.834274 108.0
163.896835 48.0
163.997803 200.0
164.025543 1756.0
164.078659 172.0
164.15683 100.0
164.20018 40.0
164.371109 136.0
164.866501 116.0
164.930389 208.0
165.006943 512.0
165.053711 8648.0
165.09169 144.0
165.151093 100.0
165.28331 104.0
165.335693 144.0
165.448196 168.0
165.485504 92.0
165.667343 56.0
165.698074 68.0
165.822433 204.0
165.840775 76.0
165.963058 216.0
165.982574 92.0
166.04155 17904.0
166.108246 84.0
166.12619 88.0
166.154419 52.0
166.180557 128.0
166.241898 92.0
166.275009 64.0
166.321213 192.0
166.341751 172.0
166.364853 56.0
166.385391 60.0
166.439301 36.0
166.513779 96.0
166.56514 116.0
166.647354 188.0
166.709015 72.0
166.772842 72.0
166.80925 88.0
166.896652 168.0
166.972717 164.0
167.003464 360.0
167.045166 2160.0
167.084137 300.0
167.213058 48.0
167.331467 220.0
167.568405 80.0
167.596756 64.0
167.686951 44.0
167.784897 64.0
167.872559 60.0
167.91124 48.0
167.937027 104.0
168.006683 112.0
168.038269 6608.0
168.169861 100.0
168.231186 168.0
168.30336 180.0
168.406769 132.0
168.528183 172.0
168.616043 72.0
168.825439 32.0
169.006516 48.0
169.042297 868.0
169.10379 320.0
169.148849 56.0
169.304184 152.0
169.462204 128.0
169.705826 40.0
169.723969 44.0
169.957413 192.0
170.009308 168.0
170.068481 496.0
170.112335 220.0
170.310471 160.0
170.333847 128.0
170.372818 136.0
170.435165 100.0
170.46048 140.0
170.671692 100.0
170.767914 160.0
170.793915 64.0
170.874557 236.0
170.944809 40.0
170.996857 36.0
171.054123 176.0
171.079086 1108.0
171.113724 424.0
171.173874 64.0
171.259827 144.0
171.366623 196.0
171.509949 192.0
171.916794 56.0
171.96521 132.0
172.087173 1060.0
172.123016 156.0
172.151749 44.0
172.360718 72.0
172.517517 232.0
172.614258 164.0
172.648895 132.0
172.902008 240.0
172.959595 40.0
173.058624 284.0
173.094574 1380.0
173.127151 212.0
173.415329 104.0
173.491348 200.0
173.672272 100.0
173.779831 152.0
173.895294 156.0
173.955658 172.0
174.005539 164.0
174.042297 132.0
174.066391 876.0
174.099167 744.0
174.163101 64.0
174.186737 176.0
174.2603 104.0
174.402191 112.0
174.607269 144.0
174.682205 204.0
174.849304 204.0
175.0746 7528.0
175.112045 1044.0
175.146011 172.0
175.254822 120.0
175.280014 100.0
175.31189 220.0
175.331085 136.0
175.658173 68.0
175.705658 88.0
175.850784 152.0
175.887741 132.0
175.953735 120.0
175.980133 208.0
176.040146 196.0
176.047791 156.0
176.079987 1416.0
176.114594 548.0
176.139587 84.0
176.172928 164.0
176.393967 172.0
176.413391 228.0
176.460983 88.0
176.498001 44.0
176.585266 68.0
176.77005 136.0
176.791367 212.0
176.836609 116.0
176.926605 76.0
176.990143 100.0
177.021927 168.0
177.054779 5656.0
177.084946 224.0
177.124695 424.0
177.186142 60.0
177.219437 112.0
177.273911 160.0
177.294769 80.0
177.347778 128.0
177.392838 200.0
177.514801 96.0
177.68985 56.0
177.851715 68.0
178.022385 168.0
178.057938 480.0
178.085373 196.0
178.146469 76.0
178.291473 88.0
178.361694 176.0
178.489304 124.0
178.563766 200.0
178.728699 112.0
178.904343 136.0
179.042801 60.0
179.065796 312.0
179.090744 128.0
179.191971 176.0
179.301224 116.0
179.413162 128.0
179.482483 120.0
179.839951 180.0
179.986786 216.0
180.022873 316.0
180.096268 316.0
180.187088 160.0
180.403564 168.0
181.005066 924.0
181.053726 56.0
181.07515 148.0
181.431534 120.0
181.471741 224.0
181.627274 92.0
181.925125 172.0
181.960022 104.0
182.010956 488.0
182.046234 148.0
182.081009 148.0
182.231293 120.0
182.376404 96.0
182.435532 208.0
183.017105 280.0
183.040878 220.0
183.078079 196.0
183.20787 132.0
183.22673 96.0
183.296768 152.0
183.560928 196.0
183.976425 120.0
184.015045 292.0
184.051849 828.0
184.087158 344.0
184.272415 140.0
184.384293 148.0
184.465378 92.0
184.511322 212.0
184.665451 120.0
184.800705 48.0
184.889999 196.0
184.963074 112.0
185.013458 216.0
185.022751 184.0
185.031235 224.0
185.060028 436.0
185.094757 1232.0
185.136353 208.0
185.241989 148.0
185.390991 160.0
185.453323 188.0
185.52652 132.0
185.876389 52.0
185.925232 36.0
185.998505 52.0
186.050003 352.0
186.102829 2176.0
186.237457 204.0
186.299927 132.0
186.321655 136.0
186.454803 52.0
186.481979 72.0
186.568954 220.0
186.639648 192.0
186.75386 116.0
186.791946 184.0
187.023224 156.0
187.073502 632.0
187.11026 1348.0
187.156616 64.0
187.502563 60.0
187.751846 100.0
188.052643 280.0
188.080719 920.0
188.117264 180.0
188.389328 128.0
188.484955 48.0
188.575134 52.0
188.648941 100.0
188.668076 196.0
188.900513 132.0
188.927872 128.0
188.99353 84.0
189.015411 156.0
189.053894 2436.0
189.088776 2080.0
189.125443 644.0
189.220688 56.0
189.250809 64.0
189.304199 48.0
189.365814 44.0
189.467163 116.0
189.538406 60.0
189.908493 92.0
190.023697 160.0
190.060547 4732.0
190.093201 512.0
190.124619 144.0
190.213058 68.0
190.273453 96.0
190.361313 44.0
190.418976 124.0
190.443695 208.0
190.55632 156.0
190.616776 32.0
190.756927 76.0
190.979721 156.0
191.006699 120.0
191.038834 264.0
191.069778 4620.0
191.10495 632.0
191.183243 64.0
191.466797 60.0
191.533585 144.0
191.579727 40.0
191.612778 68.0
192.071243 804.0
192.10762 148.0
192.227631 72.0
192.387711 200.0
192.578247 60.0
192.824127 96.0
192.984467 204.0
193.053421 140.0
193.241669 132.0
193.49353 184.0
193.535049 204.0
193.687363 164.0
193.989395 204.0
194.033035 372.0
194.658035 76.0
195.043503 632.0
195.094238 52.0
195.37233 168.0
195.653397 116.0
195.837173 184.0
196.046707 128.0
196.087448 544.0
196.124161 224.0
196.352783 160.0
197.044418 260.0
197.054688 204.0
197.098389 204.0
197.159592 36.0
197.461517 188.0
198.065216 596.0
198.29863 120.0
198.553741 188.0
198.853943 104.0
199.050446 172.0
199.075607 316.0
199.110779 336.0
199.143127 152.0
199.311676 88.0
199.412842 196.0
199.483109 144.0
199.865585 152.0
199.913422 132.0
200.047119 684.0
200.084457 172.0
200.125336 236.0
200.244537 84.0
200.270966 128.0
200.524536 208.0
200.578079 248.0
200.820572 176.0
200.880951 88.0
200.930573 152.0
200.981369 120.0
201.053116 1724.0
201.087128 384.0
201.124298 708.0
201.27121 220.0
201.36528 68.0
201.427414 160.0
201.56868 64.0
201.596939 52.0
201.725204 52.0
202.058945 808.0
202.098679 1272.0
202.131958 156.0
202.182312 140.0
202.306839 132.0
202.397446 64.0
202.578705 168.0
202.751526 76.0
202.803558 156.0
202.836563 140.0
202.858856 60.0
202.95575 184.0
203.037857 208.0
203.070114 22300.0
203.106415 3344.0
203.146729 160.0
203.165497 144.0
203.23085 80.0
203.283905 136.0
203.338577 264.0
203.372635 92.0
203.398178 124.0
203.420303 168.0
203.608292 76.0
203.64946 72.0
203.673615 64.0
203.716217 44.0
203.758835 140.0
203.881012 88.0
203.920792 76.0
203.966278 88.0
203.991852 120.0
204.073227 3132.0
204.109848 624.0
204.349518 172.0
204.458313 156.0
204.600616 104.0
205.010773 112.0
205.080765 340.0
205.12059 608.0
205.184647 108.0
205.267319 136.0
205.418488 48.0
205.44986 88.0
205.492645 128.0
205.586807 240.0
205.638184 72.0
205.666718 152.0
205.712387 56.0
205.738083 72.0
206.046509 160.0
206.077942 164.0
206.132889 212.0
206.223679 64.0
206.423798 112.0
206.518173 72.0
206.543915 148.0
206.752762 176.0
207.039047 92.0
208.07988 176.0
208.680344 192.0
208.752228 104.0
208.815491 64.0
208.933426 120.0
208.990967 164.0
209.08017 52.0
209.29895 52.0
210.019394 76.0
210.048248 108.0
210.100159 148.0
210.69487 96.0
210.918884 76.0
211.46402 88.0
211.519012 132.0
211.907059 168.0
212.046799 848.0
212.080231 1016.0
212.112808 228.0
212.205582 80.0
212.225876 160.0
212.318665 80.0
212.338959 44.0
212.370865 160.0
212.575638 96.0
212.617477 168.0
212.695831 84.0
213.048874 384.0
213.089554 1292.0
213.413391 184.0
213.550064 44.0
213.689682 104.0
213.916672 88.0
213.951614 84.0
214.038101 464.0
214.060303 204.0
214.108841 228.0
215.070129 2928.0
215.105957 956.0
215.193558 64.0
215.229477 240.0
215.374619 64.0
215.403824 100.0
215.476852 68.0
215.722336 40.0
215.810043 204.0
216.070786 888.0
216.109009 92.0
216.380554 120.0
216.503525 152.0
216.566742 212.0
216.597244 108.0
216.617752 100.0
216.816986 76.0
216.855087 68.0
216.972336 192.0
217.050095 1100.0
217.084442 1580.0
217.12149 8724.0
217.180801 88.0
217.212067 48.0
217.327209 56.0
217.509155 52.0
217.601395 48.0
217.632462 120.0
217.726425 40.0
217.808655 48.0
217.88504 76.0
218.054871 308.0
218.084549 340.0
218.125702 504.0
218.258301 132.0
218.322983 28.0
218.346512 28.0
218.403976 112.0
218.500793 80.0
218.581848 60.0
218.820267 68.0
219.063751 168.0
219.131058 148.0
219.209061 132.0
219.335785 52.0
219.453705 176.0
219.49498 68.0
219.648331 116.0
219.681595 72.0
219.992706 204.0
220.043762 120.0
220.12471 116.0
220.572556 148.0
220.838364 204.0
221.101959 144.0
221.273651 212.0
221.655716 80.0
222.029236 280.0
222.551483 56.0
222.655411 108.0
223.089218 152.0
223.228958 116.0
223.538315 152.0
223.663315 40.0
224.269226 176.0
224.640671 60.0
225.085358 116.0
225.39003 140.0
226.089752 164.0
227.061722 140.0
227.105942 1408.0
227.291382 192.0
227.336395 104.0
227.612549 60.0
227.690628 68.0
227.828796 168.0
227.865143 204.0
228.078201 108.0
228.110428 476.0
228.538315 36.0
228.947693 156.0
229.082825 648.0
229.23085 104.0
230.039124 92.0
230.091751 1948.0
230.231186 144.0
230.437759 60.0
230.460373 108.0
230.706726 32.0
230.803482 152.0
230.994003 96.0
231.030304 40.0
231.064621 232.0
231.102356 1464.0
231.59938 76.0
231.623611 124.0
231.650879 120.0
232.070999 172.0
232.101471 424.0
232.521057 128.0
232.618195 152.0
232.776062 100.0
232.964371 68.0
233.04335 204.0
233.116531 14100.0
233.345673 196.0
233.368561 80.0
233.439758 144.0
233.5784 72.0
233.633148 80.0
233.657486 40.0
233.754852 72.0
233.882675 64.0
233.916153 128.0
234.078613 156.0
234.119095 1844.0
234.171921 56.0
234.202377 48.0
234.223694 96.0
234.27243 152.0
234.342499 116.0
234.433914 60.0
234.491821 36.0
234.685898 60.0
234.711304 104.0
234.88208 88.0
235.019363 88.0
235.062958 180.0
235.124466 644.0
235.449768 84.0
235.755264 60.0
235.779709 32.0
235.840836 84.0
235.905029 56.0
236.097641 156.0
236.122116 136.0
236.318619 116.0
236.522919 80.0
236.571899 172.0
237.058868 84.0
237.426743 56.0
238.264694 236.0
239.054886 120.0
239.08873 204.0
239.510529 136.0
240.045502 196.0
240.312027 160.0
241.049988 152.0
241.087067 32.0
241.182877 160.0
242.076965 168.0
243.062683 176.0
243.09639 364.0
243.832809 100.0
243.938492 128.0
244.097046 140.0
244.314758 52.0
244.336533 48.0
244.573029 160.0
244.851547 180.0
244.934219 88.0
245.033569 184.0
245.066986 208.0
245.08049 172.0
245.116623 24620.0
245.180344 136.0
245.23645 32.0
245.314377 48.0
245.401657 76.0
245.431427 44.0
245.479614 84.0
245.507675 44.0
245.591888 56.0
245.629318 72.0
245.697937 92.0
245.744736 52.0
245.847702 72.0
245.891403 64.0
245.913254 172.0
245.978012 64.0
246.120239 3916.0
246.191101 72.0
246.247314 40.0
246.306656 84.0
246.341019 72.0
246.37851 40.0
246.469101 76.0
246.58786 76.0
246.837936 44.0
247.123672 896.0
247.473114 96.0
247.560791 96.0
247.679794 104.0
247.810074 116.0
247.861496 80.0
248.019974 148.0
248.055801 120.0
248.097443 156.0
248.334869 80.0
248.394455 100.0
248.425827 204.0
248.488571 64.0
248.664291 72.0
249.069321 196.0
249.204407 52.0
249.367798 104.0
250.377686 124.0
251.831604 160.0
252.697739 144.0
254.375046 72.0
254.774277 112.0
254.934723 40.0
255.055603 172.0
255.099396 232.0
257.111359 132.0
257.61264 120.0
258.056854 72.0
258.226349 104.0
259.010498 160.0
259.129028 72.0
259.776611 36.0
261.058105 88.0
261.083832 76.0
261.109558 152.0
262.32016 72.0
263.071777 200.0
265.475708 92.0
267.115875 88.0
267.431488 104.0
268.885071 92.0
269.476074 132.0
269.512024 112.0
269.623138 176.0
271.112122 324.0
272.138824 152.0
272.168365 128.0
272.276733 80.0
272.753143 144.0
272.993134 80.0
273.045319 148.0
273.11142 5960.0
273.160858 132.0
273.223358 72.0
273.473755 92.0
273.542572 84.0
273.578796 144.0
273.746704 44.0
273.769745 36.0
273.802673 104.0
273.852081 76.0
273.889404 84.0
274.113586 1488.0
274.273834 52.0
274.34964 64.0
274.40567 48.0
274.738403 72.0
274.890533 52.0
275.075348 116.0
275.123505 348.0
275.240417 68.0
275.322998 60.0
275.464996 96.0
275.742554 72.0
275.828491 108.0
275.934265 92.0
275.95636 144.0
276.089661 80.0
276.221985 100.0
277.110077 144.0
277.38092 104.0
277.818634 44.0
281.205933 32.0
282.542511 124.0
284.120392 164.0
284.583557 52.0
285.410095 164.0
287.09375 148.0
287.508667 144.0
289.096985 164.0
289.594635 204.0
290.138 400.0
291.083405 132.0
291.123413 312.0
292.121033 312.0
293.127747 172.0
297.845154 184.0
298.068756 176.0
298.780518 44.0
300.071991 136.0
301.787903 84.0
302.057648 156.0
302.092255 180.0
302.216797 36.0
303.10318 120.0
311.476227 104.0
311.785431 64.0
311.954132 48.0
312.516815 116.0
313.058899 140.0
314.102112 144.0
315.967285 40.0
316.087585 128.0
316.661072 28.0
317.01889 112.0
317.898315 92.0
318.094971 380.0
318.136108 212.0
318.292328 68.0
318.548035 132.0
319.088196 168.0
319.942017 72.0
320.092377 196.0
321.317627 104.0
322.478149 32.0
323.03952 96.0
323.121796 108.0
324.088623 184.0
324.181641 56.0
326.058502 152.0
326.997162 60.0
328.499664 184.0
330.085297 372.0
330.208099 52.0
331.088348 288.0
331.15271 52.0
332.079926 236.0
335.381897 40.0
335.753754 36.0
338.161346 104.0
338.205261 68.0
339.069611 128.0
339.095276 88.0
342.096161 148.0
342.129272 172.0
343.09079 160.0
344.09259 208.0
345.115692 188.0
345.154633 52.0
348.022461 180.0
350.205353 200.0
354.097046 160.0
354.985199 160.0
356.096039 112.0
358.104401 108.0
358.443451 200.0
361.517212 44.0
362.160828 124.0
362.566193 140.0
364.095032 104.0
365.330322 52.0
366.080109 132.0
366.956482 68.0
368.146973 164.0
369.014313 332.0
369.136688 208.0
369.21698 288.0
369.469421 140.0
369.7258 56.0
369.93631 44.0
370.08136 1136.0
370.139221 148.0
370.495392 40.0
370.821106 92.0
370.931244 184.0
370.968597 100.0
371.078033 152.0
371.254303 72.0
371.634033 160.0
372.07782 520.0
372.198273 56.0
373.085754 60.0
373.114441 124.0
375.735291 56.0
376.109955 128.0
376.410736 88.0
377.098358 168.0
378.08844 168.0
380.130646 128.0
380.157806 176.0
382.143341 124.0
384.130157 164.0
385.132385 136.0
386.114288 92.0
388.805695 56.0
390.18045 172.0
391.767273 88.0
392.113129 184.0
398.148682 136.0
399.169281 156.0
399.664764 100.0
403.145813 144.0
408.130005 172.0
408.727631 204.0
409.126068 164.0
410.112946 124.0
413.797028 108.0
416.095947 532.0
417.094391 96.0
418.097931 144.0
419.089111 144.0
422.706787 72.0
423.525574 140.0
424.960358 100.0
425.608856 140.0
425.760773 64.0
425.818268 84.0
426.060638 60.0
426.143921 1572.0
426.342621 76.0
426.446869 68.0
426.683197 84.0
426.751068 60.0
426.800415 76.0
427.14444 564.0
427.244598 52.0
428.144867 840.0
428.809265 120.0
429.144073 184.0
430.13739 88.0
432.145813 156.0
444.114197 80.0
444.143555 200.0
445.156799 156.0
445.553986 96.0
446.167542 176.0
446.234802 116.0
447.61908 60.0
449.250153 120.0
454.152618 192.0
454.852722 120.0
455.134277 124.0
455.205109 100.0
456.14093 160.0
457.203064 108.0
458.365601 64.0
461.810699 80.0
462.199982 72.0
462.97049 48.0
463.2146 112.0
465.431824 200.0
467.051971 64.0
467.172424 52.0
470.659027 64.0
470.68927 100.0
471.004517 108.0
471.177307 72.0
471.514343 208.0
471.829895 148.0
472.028778 64.0
472.148987 1964.0
472.374756 48.0
472.612701 124.0
472.733856 48.0
473.153534 1148.0
473.235962 52.0
473.513092 32.0
473.721008 196.0
473.946289 144.0
474.147278 828.0
474.622437 60.0
474.843597 88.0
474.886963 80.0
475.141937 476.0
475.220978 40.0
475.277405 104.0
475.329468 104.0
475.361755 72.0
475.420593 56.0
475.637604 44.0
475.902405 80.0
476.06308 68.0
476.145569 136.0
476.215057 80.0
476.375763 100.0
476.888489 68.0
477.184082 64.0
478.876801 52.0
479.464966 48.0
480.18866 100.0
482.983948 28.0
483.473938 40.0
491.493469 80.0
494.936676 108.0
510.469666 96.0
523.037903 80.0
525.27063 112.0
529.081726 84.0
548.847412 68.0
552.196716 84.0
552.579163 80.0
555.345886 32.0
556.82135 76.0
564.460266 80.0
564.814941 88.0
571.327881 204.0
572.489258 80.0
590.718262 40.0
599.740112 88.0
600.164185 212.0
631.279602 44.0
646.441284 100.0
661.516663 252.0
662.30011 84.0
670.566956 48.0
673.507874 116.0
674.929016 60.0
725.950806 68.0
730.85498 108.0
747.237976 60.0
748.898254 44.0
750.762146 92.0
769.95343 108.0
771.323669 144.0
772.230408 76.0
774.345215 184.0
789.14093 128.0
795.88678 92.0
819.04541 184.0
825.494446 196.0
837.465881 220.0
852.693726 236.0
859.652893 152.0
864.397766 44.0
879.284912 64.0
888.175598 104.0
888.359497 204.0
890.395325 180.0
902.39624 220.0
911.651001 152.0
913.424622 88.0
915.591309 64.0
918.031982 64.0
922.765808 164.0
930.186768 108.0
933.169556 156.0
938.448181 140.0
941.578491 96.0
950.424011 148.0
976.393677 40.0
977.233398 116.0
986.656982 212.0
987.995239 224.0
1003.803955 136.0
1004.106628 88.0
1005.822815 164.0
1009.158325 168.0
1017.864075 108.0
1020.837952 100.0
1032.770264 200.0
1033.505859 128.0
1033.729858 108.0
1040.812866 100.0
1045.601929 140.0
1046.091064 192.0
1056.629272 256.0
1064.2771 176.0
1064.900513 136.0
1066.49231 184.0
1068.508179 148.0
1082.096069 120.0
1082.47583 136.0
1088.954956 192.0
1091.360962 168.0
1104.377686 76.0
1105.899414 144.0
1109.78125 104.0
1110.026611 208.0
1117.226196 124.0
1120.468262 152.0
1121.807739 80.0
1123.128052 168.0
1124.736084 168.0
1125.189941 60.0
1125.410278 192.0
1125.997925 196.0
1129.04541 140.0
1130.711182 104.0
1132.398315 228.0
1133.718018 80.0
1135.340332 156.0
1135.65564 180.0
1137.205444 208.0
1138.0177 52.0
1138.071411 244.0
1138.43396 68.0
1140.113403 208.0
1142.305298 136.0
1146.526733 148.0
1146.648071 164.0
1147.551392 204.0
1149.426392 216.0
1150.830322 80.0
1156.359863 220.0
1157.166138 188.0
1168.118408 188.0
1168.349731 180.0
1172.69397 160.0
1174.698608 140.0
1180.03894 180.0
1181.030518 128.0
1184.79541 144.0
1185.734131 120.0
1188.833862 272.0
1189.890869 244.0
1192.123169 40.0
1193.442871 136.0
1194.350586 60.0
1196.738525 132.0
1199.053101 176.0
1199.204712 172.0
1200.535278 192.0
1203.861328 268.0
1204.130737 176.0
1206.777222 172.0
1207.856079 104.0
1212.487915 148.0
1216.073486 200.0
1218.615112 104.0
1219.379395 208.0
1220.227417 176.0
1221.242676 124.0
1222.181885 148.0
1223.190918 216.0
1225.43335 168.0
1228.772827 164.0
1229.721802 52.0
1236.235229 156.0
1236.879028 148.0
1239.463257 184.0
1240.563599 136.0
1241.299683 116.0
1241.818726 128.0
1244.702881 208.0
1245.292847 128.0
1247.070312 96.0
1247.470947 200.0
1249.454102 100.0
1250.284424 48.0
1250.706665 72.0
1251.81897 152.0
1252.488037 116.0
1254.28479 168.0
1254.848755 176.0
1257.127075 116.0
1257.642212 100.0
1261.357544 136.0
1261.56958 108.0
1264.030762 232.0
1264.469604 192.0
1266.451904 204.0
1269.478149 224.0
1269.804321 216.0
1276.031738 120.0
1276.351685 216.0
1279.055054 212.0
1279.268555 164.0
1281.31958 188.0
1281.405029 204.0
1284.655884 244.0
1285.647583 160.0
1286.325684 164.0
1289.424683 180.0
1291.069702 188.0
1293.079956 156.0
1295.858398 108.0
1303.018433 240.0
1303.190796 112.0
1304.117798 136.0
1305.886475 240.0
1307.05188 144.0
1307.634766 204.0
1308.635376 128.0
1309.275879 156.0
1309.917236 76.0
1310.507935 148.0
1312.237671 176.0
1312.915527 144.0
1314.033569 176.0
1315.852295 176.0
1317.52771 148.0
1326.521851 176.0
1329.220581 156.0
1332.124634 140.0
1336.792236 208.0
1337.068848 180.0
1339.843018 68.0
1341.497192 292.0
1343.050293 68.0
1343.466064 84.0
1343.568237 188.0
1345.443726 152.0
1347.715088 88.0
1352.241577 124.0
1353.434814 160.0
1353.866821 84.0
1354.137817 92.0
1358.029541 220.0
1361.170532 164.0
1361.339355 108.0
1361.890259 180.0
1363.513916 60.0
1363.881348 68.0
1366.76416 196.0
1367.706177 168.0
1368.398071 156.0
1368.872437 208.0
1371.20459 144.0
1371.315186 64.0
1371.794189 204.0
1372.221802 140.0
1375.113403 148.0
1375.497192 196.0
1376.678467 84.0
1377.269287 172.0
1377.993286 160.0
1378.857788 72.0
1381.416016 152.0
1381.667603 152.0
1384.102539 156.0
1384.317261 164.0
1385.117188 36.0
1385.813477 148.0
1386.517456 140.0
1388.763916 176.0
1389.520508 152.0
1389.839478 100.0
1390.871094 124.0
1390.982422 60.0
1391.390625 132.0
1393.054077 144.0
1393.596436 172.0
1393.648438 80.0
1396.131226 84.0
1398.630981 156.0
1399.107422 176.0
1400.678589 52.0
1401.900391 144.0
1403.875366 260.0
1403.987793 176.0
1404.069824 48.0
1404.532227 132.0
1405.115723 232.0
1410.049683 172.0
1410.460815 148.0
1411.784058 44.0
1412.18042 120.0
1414.59729 68.0
1415.360962 160.0
1415.998413 172.0
1417.046143 140.0
1420.802124 200.0
1421.27478 172.0
1421.980225 152.0
1423.301392 132.0
1424.442871 180.0
1424.931152 176.0
1425.765259 28.0
1426.125977 80.0
1427.29126 128.0
1429.058716 96.0
1430.609009 212.0
1430.706909 100.0
1433.169678 144.0
1435.046387 180.0
1435.430908 132.0
1436.441528 132.0
1437.505249 84.0
1438.010864 136.0
1440.056885 96.0
1440.615845 56.0
1441.666138 100.0
1441.839966 212.0
1442.61084 148.0
1442.724243 180.0
1442.86792 236.0
1442.943481 72.0
1443.29126 216.0
1443.684448 188.0
1444.531616 200.0
1444.614746 212.0
1444.803955 192.0
1445.953979 132.0
1449.452637 144.0
1449.840088 168.0
1450.46814 108.0
1450.710693 180.0
1452.29541 204.0
1452.925049 80.0
1453.19812 164.0
1453.327148 204.0
1454.973999 168.0
1455.110718 200.0
1455.520752 44.0
1456.34082 148.0
1458.55957 44.0
1458.878784 180.0
1459.646606 164.0
1459.867188 148.0
1460.582031 84.0
1461.578613 224.0
1463.256836 188.0
1463.481445 160.0
1466.056152 128.0
1466.849121 188.0
1467.862671 28.0
1469.113525 204.0
1470.143555 116.0
1472.280029 192.0
1472.693481 152.0
1472.823242 156.0
1473.358032 176.0
1473.419067 172.0
1473.519653 172.0
1474.397095 180.0
1475.956543 212.0
1476.384766 132.0
1477.616211 192.0
1477.937622 132.0
1479.108398 48.0
1479.766846 164.0
1479.950562 144.0
1480.06543 140.0
1480.731567 148.0
1480.823486 152.0
1481.229492 120.0
1481.40564 140.0
1481.895996 168.0
1482.800171 44.0
1483.03772 76.0
1484.425293 216.0
1485.460693 148.0
1486.051392 184.0
1486.220215 200.0
1488.046875 168.0
1488.423096 176.0
1490.935059 120.0
1491.419189 204.0
1492.226318 76.0
1492.341675 124.0
1493.456665 156.0
1501.497314 256.0
