>compound KITASAMYCIN
>formula C42H69NO15
>ionization [M+H]+
>parentmass 828.472717
#inchi InChI=1S/C42H69NO15/c1-23(2)19-33(48)58-42(8)22-34(53-27(6)40(42)50)56-37-26(5)54-41(36(49)35(37)43(9)10)57-38-29(17-18-44)20-24(3)30(46)16-14-12-13-15-25(4)52-32(47)21-31(39(38)51-11)55-28(7)45/h12-14,16,18,23-27,29-31,34-41,46,49-50H,15,17,19-22H2,1-11H3/t24-,25-,26-,27+,29+,30+,31-,34+,35-,36-,37-,38+,39+,40+,41+,42-/m1/s1
#inchikey UKNSBNVKSFTZOJ
#Ion_Source LC-ESI
#Instrument qTof
#Compound_Source Commercial
#PI Dorrestein
#Data_Collector Garg_Neha
#Scan -1
#Precursor_MZ 828.474
#ExactMass 827.467
#Charge 1
#CAS_Number N/A
#Pubmed_ID N/A
#Smiles CO[C@H]1[C@@H](CC(=O)O[C@H](C)CC=CC=C[C@H](O)[C@H](C)C[C@H](CC=O)[C@@H]1O[C@@H]2O[C@H](C)[C@@H](O[C@H]3C[C@@](C)(OC(=O)CC(C)C)[C@@H](O)[C@H](C)O3)[C@@H]([C@H]2O)N(C)C)OC(=O)C
#INCHI_AUX N/A
#Library_Class 1
#SpectrumID CCMSLIB00000078993
#IonMode Positive
#UpdateWorkflowName UPDATE-SINGLE-ANNOTATED-GOLD
#LibraryQualityString Gold
#TaskID 278b19f5865741e282cec7349aa7e7a1
##Scan# 1288
#SpectrumFile NCP003352_C2_D11_BC5_01_15719.mzXML
#LibraryName NIHcollectionI_05062014.mgf
#MQScore -1
#Organism NIHcollectionI_05062014
#TIC_Query 0
#RT_Query -1
#MZErrorPPM -1
#SharedPeaks 0
#MassDiff 0
#LibMZ -1
#SpecMZ 828.474
#SpecCharge 0
#internalFilename spec-00000.mgf

>collision 10
49.792381 204.0
53.518143 160.0
56.318859 176.0
60.837677 224.0
94.255898 196.0
101.100182 220.0
109.065346 1108.0
116.071587 144.0
127.078651 180.0
130.087021 148.0
132.100174 328.0
147.132904 156.0
156.10759 240.0
172.565613 148.0
174.112885 2536.0
175.042557 232.0
175.119614 184.0
183.139069 164.0
185.115967 168.0
201.129684 152.0
221.077286 172.0
226.952698 132.0
229.143036 732.0
230.146927 304.0
271.162201 148.0
320.177368 160.0
353.775909 196.0
382.164124 160.0
447.912079 140.0
480.283234 196.0
516.869507 144.0
562.740112 140.0
569.739929 140.0
576.716125 148.0
597.320374 164.0
600.319458 236.0
614.343323 212.0
683.166382 160.0
689.893555 148.0
735.761841 160.0
738.133789 156.0
742.01593 160.0
747.697632 140.0
760.311096 152.0
786.775391 148.0
827.434998 128.0
828.312073 160.0
828.472717 5256.0
829.263916 108.0
829.477539 2404.0
829.663513 112.0
830.030579 164.0
830.477844 712.0
831.484558 140.0
