>compound MLS000863591-01!methyl 3-ethenyl-4-[[6-[4-(4-hydroxyphenyl)-2-oxobutyl]-4-oxooxan-2-yl]methyl]-2-[3,4,5-trihydroxy-6-(hydroxymethyl)oxan-2-yl]oxy-3,4-dihydro-2H-pyran-5-carboxylate
>formula C31H40O13
>ionization [M+H]+
>parentmass 621.255
#inchi InChI=1S/C31H40O13/c1-3-22-23(13-21-12-19(35)11-20(42-21)10-18(34)9-6-16-4-7-17(33)8-5-16)24(29(39)40-2)15-41-30(22)44-31-28(38)27(37)26(36)25(14-32)43-31/h3-5,7-8,15,20-23,25-28,30-33,36-38H,1,6,9-14H2,2H3
#inchikey BAKYVUHOODEWGV
#Ion_Source LC-ESI
#Instrument qTof
#Compound_Source NIH Natural Product Library
#PI Dorrestein
#Data_Collector VVP/LMS
#Scan -1
#Precursor_MZ 621.255
#ExactMass 620.247
#Charge 1
#CAS_Number N/A
#Pubmed_ID N/A
#Smiles COC(=O)C1=COC(OC2OC(CO)C(O)C(O)C2O)C(C=C)C1CC3CC(=O)CC(CC(=O)CCc4ccc(O)cc4)O3
#INCHI_AUX N/A
#Library_Class 1
#SpectrumID CCMSLIB00000080618
#IonMode Positive
#UpdateWorkflowName UPDATE-SINGLE-ANNOTATED-GOLD
#LibraryQualityString Gold
#TaskID b1d8e8f6646f4e71acdff9ca3d919d08
##Scan# 1670
#SpectrumFile p2-H11_GH11_01_18071.mzXML
#LibraryName NIH_Natural_Products_Library.mgf
#MQScore -1
#Organism NIH_Natural_Products_Library
#TIC_Query 0
#RT_Query -1
#MZErrorPPM -1
#SharedPeaks 0
#MassDiff 0
#LibMZ -1
#SpecMZ 621.255
#SpecCharge 0
#internalFilename spec-00000.mgf

>collision 10
95.049919 188.0
95.673828 184.0
95.839378 64.0
95.864716 192.0
96.071396 64.0
96.153351 188.0
96.321266 120.0
96.616455 204.0
96.94149 176.0
97.028336 300.0
97.066948 244.0
98.016396 180.0
98.247086 112.0
99.172539 116.0
99.374809 112.0
99.404579 88.0
99.428391 172.0
99.917213 88.0
100.544899 220.0
101.238625 180.0
101.300713 108.0
101.948082 236.0
102.68969 184.0
102.778458 168.0
102.96418 212.0
103.044983 192.0
103.40493 164.0
103.842567 196.0
104.260803 40.0
104.32991 224.0
105.069992 184.0
105.138565 44.0
105.365227 100.0
106.177872 124.0
106.321487 200.0
106.409752 100.0
106.857811 136.0
106.879578 200.0
107.012177 196.0
107.026588 140.0
107.048798 9384.0
107.093269 116.0
107.134659 136.0
107.249084 92.0
107.288254 36.0
107.337738 144.0
107.376923 104.0
107.403732 52.0
107.457375 84.0
107.523407 64.0
107.77948 116.0
107.926239 52.0
108.006897 140.0
108.051826 1036.0
108.391975 124.0
108.561966 96.0
108.703026 120.0
108.798134 112.0
108.854568 124.0
108.875336 72.0
108.914795 88.0
109.029068 44.0
109.063591 540.0
109.657608 160.0
109.751419 112.0
109.939163 100.0
110.186897 56.0
110.218987 124.0
110.336037 104.0
110.716866 120.0
111.042572 284.0
111.079475 164.0
111.528839 248.0
111.991753 228.0
112.008598 88.0
112.046524 152.0
112.434509 208.0
112.588631 36.0
112.635094 56.0
113.055847 148.0
113.816872 72.0
115.050537 144.0
115.186317 196.0
115.616081 204.0
115.703842 140.0
115.877327 176.0
115.969475 64.0
116.720871 164.0
117.072853 200.0
117.388428 140.0
118.445305 112.0
118.763939 140.0
118.881096 64.0
118.996147 172.0
119.054771 52.0
119.083008 56.0
119.794304 72.0
119.811157 180.0
120.173653 148.0
120.818535 144.0
121.027321 500.0
121.063576 708.0
121.102745 216.0
122.067833 344.0
122.616577 200.0
122.986374 260.0
123.009193 156.0
123.043373 556.0
123.082054 120.0
123.725456 212.0
124.047165 384.0
125.021988 308.0
125.057472 420.0
125.095207 172.0
125.784027 240.0
126.009583 48.0
126.063423 208.0
126.27784 152.0
127.046875 352.0
127.086548 156.0
128.06131 332.0
128.944397 192.0
128.989609 192.0
129.06926 412.0
129.716248 120.0
130.797531 116.0
130.999527 176.0
131.047882 392.0
131.087402 292.0
131.260025 132.0
131.588593 192.0
132.098236 172.0
132.826691 124.0
132.911575 188.0
133.010269 152.0
133.027863 80.0
133.062943 960.0
133.086029 368.0
133.148026 40.0
133.453659 132.0
133.8172 220.0
134.069992 492.0
134.852982 112.0
135.044983 492.0
135.070328 140.0
135.135101 76.0
135.165192 100.0
135.422165 52.0
135.8974 44.0
136.052902 148.0
136.080765 176.0
136.603668 184.0
137.02272 132.0
137.058884 92.0
137.098694 212.0
137.232483 164.0
137.475082 96.0
137.734238 220.0
137.862747 140.0
138.103561 224.0
138.916382 240.0
139.038605 1000.0
139.062195 204.0
139.079834 316.0
139.223862 168.0
139.244995 92.0
139.863388 152.0
139.9599 52.0
140.050125 208.0
140.494934 140.0
141.064056 232.0
141.111343 104.0
141.177551 176.0
142.05629 176.0
142.766479 248.0
143.054382 180.0
143.093948 232.0
143.178192 88.0
143.249649 116.0
143.435532 124.0
143.596405 136.0
143.673996 108.0
143.728882 252.0
143.778992 92.0
143.974762 140.0
144.048798 28.0
144.089417 184.0
144.840591 148.0
145.064117 144.0
145.094727 152.0
145.180923 72.0
145.380051 64.0
146.069809 220.0
146.103302 184.0
146.608948 196.0
147.042984 860.0
147.079849 1060.0
147.729294 48.0
148.079773 224.0
149.022583 668.0
149.058029 1332.0
149.096848 140.0
149.388626 180.0
149.56871 116.0
149.963303 132.0
150.033997 172.0
150.495117 144.0
150.539078 172.0
150.60257 88.0
150.947174 72.0
151.038223 3280.0
151.074356 172.0
151.284821 84.0
151.328888 252.0
151.38765 64.0
151.571381 116.0
151.664963 160.0
152.046661 244.0
152.76062 180.0
152.991013 100.0
153.052017 848.0
153.078018 132.0
153.222198 120.0
153.27919 48.0
153.311234 120.0
153.345734 180.0
153.609573 120.0
153.629303 44.0
154.052277 128.0
154.833069 112.0
155.036652 204.0
155.055527 324.0
155.062698 152.0
155.090744 132.0
155.51738 116.0
155.537231 60.0
156.034073 60.0
156.628845 132.0
157.065628 372.0
157.177338 84.0
157.209778 52.0
157.2547 96.0
157.394501 52.0
158.075745 196.0
159.044647 524.0
159.080566 320.0
159.112122 184.0
159.295456 200.0
160.040497 380.0
160.077438 136.0
160.3069 68.0
161.072037 156.0
161.095428 276.0
161.17244 176.0
161.311447 168.0
162.068176 128.0
162.717484 164.0
162.863022 176.0
162.988678 88.0
163.037537 28.0
163.074692 428.0
164.114319 32.0
164.760056 68.0
164.890366 184.0
164.987503 236.0
165.017624 164.0
165.054962 6552.0
165.087723 156.0
165.120468 100.0
165.184418 60.0
165.230469 68.0
165.256058 140.0
165.302109 68.0
165.476166 64.0
165.811737 36.0
166.000595 84.0
166.016846 240.0
166.05661 1456.0
166.093246 172.0
166.216934 244.0
166.255432 128.0
167.069946 2444.0
167.101639 192.0
167.175446 68.0
167.375305 252.0
167.432892 104.0
167.762711 60.0
168.069382 320.0
168.431061 108.0
169.066269 136.0
169.091949 180.0
169.818451 200.0
169.966324 156.0
170.8367 92.0
171.080368 328.0
171.117783 104.0
172.040695 200.0
172.085083 188.0
173.05928 928.0
173.09761 440.0
173.188675 56.0
174.056473 152.0
174.09877 164.0
174.753296 120.0
174.981186 144.0
175.038376 524.0
175.076859 2248.0
175.266754 72.0
175.395889 132.0
176.007965 144.0
176.039337 172.0
176.085388 204.0
176.41748 184.0
176.753387 108.0
176.967789 36.0
177.058365 776.0
177.129333 44.0
177.182312 64.0
177.241364 168.0
177.298904 116.0
178.062988 224.0
179.078629 320.0
179.302811 192.0
179.334793 176.0
179.777512 240.0
180.084549 156.0
181.062454 160.0
181.848999 232.0
182.085266 148.0
182.19809 80.0
182.230331 64.0
182.738495 72.0
182.937653 176.0
183.039963 184.0
183.066818 264.0
183.468369 140.0
184.824219 48.0
185.054291 208.0
185.100662 128.0
186.03743 108.0
187.033371 116.0
187.080444 148.0
187.110291 224.0
188.118286 144.0
188.790436 76.0
189.056992 396.0
189.091553 324.0
189.737854 72.0
190.061493 148.0
190.086197 176.0
190.223419 136.0
190.81958 136.0
191.030289 652.0
191.070877 1460.0
191.106827 292.0
191.207443 36.0
192.034454 168.0
192.072433 180.0
192.610886 80.0
193.049805 188.0
193.085648 1220.0
193.119476 136.0
193.648132 240.0
193.839294 68.0
194.085373 124.0
195.076553 164.0
196.66214 84.0
197.061478 204.0
197.093872 128.0
197.626282 64.0
197.654266 192.0
198.093033 200.0
199.077179 448.0
199.778183 112.0
200.01738 152.0
200.079315 184.0
201.053589 324.0
201.092697 544.0
202.055496 180.0
203.079834 172.0
204.07283 128.0
205.081818 132.0
207.067368 76.0
208.085815 148.0
208.105911 184.0
209.078308 604.0
209.630463 52.0
209.722687 96.0
210.071594 132.0
211.065063 176.0
211.076096 172.0
211.111389 164.0
212.104477 92.0
213.056931 172.0
213.088287 160.0
214.138428 156.0
214.32196 92.0
215.070404 340.0
215.101883 584.0
215.816422 48.0
216.082581 128.0
216.144028 100.0
216.199631 104.0
217.049576 248.0
217.085938 1968.0
217.148865 140.0
217.677124 68.0
218.088562 364.0
218.120941 68.0
218.620773 56.0
219.063843 1400.0
219.094284 212.0
219.236267 32.0
220.07402 276.0
220.647217 124.0
221.083298 140.0
221.117538 184.0
222.501862 152.0
223.10495 368.0
223.449936 156.0
223.860718 128.0
225.095367 304.0
225.896271 64.0
226.063828 140.0
227.070999 144.0
227.109436 192.0
227.463516 92.0
228.066833 164.0
228.247665 164.0
229.099426 172.0
229.210907 60.0
231.064819 108.0
232.076447 132.0
233.075653 212.0
233.113739 144.0
234.112396 176.0
234.554184 72.0
235.094025 160.0
235.118439 176.0
235.600891 204.0
237.092026 188.0
238.088104 196.0
238.260117 92.0
238.296997 56.0
239.104599 196.0
240.103943 176.0
241.118439 188.0
243.100739 400.0
243.865738 148.0
245.081284 1360.0
245.116806 168.0
245.621887 48.0
246.08696 492.0
246.824295 72.0
247.061996 156.0
247.087448 148.0
247.119949 92.0
247.384338 112.0
248.07666 112.0
248.126816 108.0
248.813904 92.0
249.077698 104.0
249.112244 104.0
249.244202 172.0
251.083771 328.0
251.111038 140.0
252.573456 148.0
253.653244 192.0
254.119446 128.0
255.088745 248.0
257.078735 156.0
257.121735 256.0
257.493774 152.0
258.11026 224.0
259.041901 132.0
259.093231 204.0
259.126617 296.0
259.554688 164.0
260.096893 116.0
260.739258 68.0
261.111786 1188.0
262.120422 88.0
262.14563 228.0
262.455078 76.0
262.990631 148.0
263.09494 252.0
265.083313 192.0
265.109039 140.0
267.102875 120.0
269.116608 108.0
269.753693 104.0
270.699249 60.0
271.109985 148.0
271.633331 120.0
272.066528 120.0
272.575623 220.0
273.101624 140.0
275.127136 144.0
276.122833 128.0
277.106262 696.0
277.172272 164.0
278.014557 68.0
278.115509 200.0
279.123779 1388.0
279.440063 52.0
279.569855 96.0
279.909393 108.0
280.123962 740.0
280.922607 32.0
281.126251 132.0
281.24585 144.0
284.31546 104.0
284.510132 160.0
285.116547 180.0
286.109131 260.0
287.904266 92.0
289.483551 56.0
290.103607 36.0
291.614105 160.0
292.893494 132.0
293.37738 76.0
295.100433 180.0
295.121765 112.0
296.093872 148.0
296.128113 292.0
296.254852 80.0
296.402191 132.0
296.559845 44.0
297.079529 100.0
301.106903 144.0
303.115387 604.0
305.1315 288.0
306.123169 220.0
310.014801 212.0
311.513 112.0
311.850342 120.0
312.033142 96.0
312.602966 68.0
318.141602 332.0
320.460449 116.0
321.110901 488.0
321.680145 60.0
322.117981 332.0
322.162262 168.0
322.691193 72.0
322.741241 136.0
323.131104 76.0
324.130096 168.0
325.130615 136.0
331.144379 136.0
333.139404 164.0
335.147705 164.0
337.136475 92.0
338.101959 152.0
339.116058 556.0
339.15274 180.0
339.838898 60.0
340.110474 300.0
340.165527 140.0
340.301361 72.0
341.56192 60.0
341.870972 100.0
342.106537 48.0
345.157898 124.0
346.145782 140.0
346.323547 76.0
347.124084 132.0
347.153748 132.0
348.984375 96.0
352.630219 172.0
353.120026 140.0
357.131683 360.0
358.134521 184.0
363.100922 148.0
363.161896 112.0
364.162628 148.0
365.186066 228.0
368.926819 84.0
371.150787 336.0
372.145081 116.0
373.148346 132.0
373.567078 188.0
374.163574 120.0
381.172241 172.0
382.058716 84.0
389.875153 68.0
391.149384 448.0
392.090851 84.0
392.154205 352.0
393.171478 80.0
394.66864 72.0
394.700256 88.0
395.14328 180.0
396.144867 100.0
397.163635 152.0
400.191864 96.0
405.164093 124.0
407.061523 88.0
409.163422 2216.0
409.353668 108.0
409.736298 40.0
410.166473 508.0
410.788513 80.0
411.15567 32.0
411.192017 108.0
411.81781 80.0
422.742218 112.0
423.178406 320.0
424.186462 84.0
427.115845 144.0
427.169312 220.0
428.172699 144.0
429.179108 128.0
432.045471 124.0
437.502808 72.0
439.286407 64.0
441.180298 144.0
442.194641 76.0
443.182922 120.0
450.14032 96.0
452.499725 52.0
457.649933 108.0
459.182312 176.0
478.137421 72.0
478.180939 104.0
479.16507 124.0
494.132507 100.0
506.517609 52.0
515.995178 104.0
516.836487 104.0
518.79303 156.0
529.963867 92.0
545.968445 124.0
563.646606 84.0
582.51886 28.0
605.24176 92.0
606.368469 96.0
623.3255 112.0
627.571411 52.0
780.044739 188.0
801.880432 72.0
821.362915 140.0
822.475586 152.0
824.537476 80.0
860.696594 160.0
878.757324 120.0
892.742554 44.0
965.703674 32.0
970.186829 144.0
971.389893 152.0
973.605713 196.0
1001.80304 128.0
1007.39856 100.0
1014.505249 76.0
1021.891357 160.0
1025.756958 164.0
1029.093506 216.0
1038.243286 156.0
1053.479492 160.0
1060.130859 156.0
1066.458618 220.0
1075.551514 116.0
1096.599731 28.0
1097.318237 160.0
1100.102295 140.0
1100.240967 108.0
1108.117798 216.0
1119.82251 152.0
1122.408203 180.0
1122.594849 176.0
1124.716553 172.0
1129.233276 100.0
1139.751465 168.0
1140.047119 172.0
1143.813599 212.0
1159.4021 160.0
1171.373901 144.0
1173.738892 156.0
1179.863281 92.0
1183.058105 172.0
1184.955078 172.0
1185.667725 148.0
1186.277832 180.0
1189.584229 196.0
1191.184204 220.0
1193.067139 144.0
1194.800171 268.0
1200.813721 136.0
1201.938232 72.0
1204.810425 164.0
1205.577393 136.0
1211.659424 172.0
1219.3479 120.0
1224.203735 168.0
1226.823608 104.0
1232.686401 188.0
1233.650879 140.0
1235.427246 20.0
1242.839722 200.0
1242.895874 216.0
1247.243042 188.0
1249.971802 136.0
1253.098022 120.0
1257.660645 68.0
1260.577393 128.0
1269.149414 152.0
1269.461426 216.0
1270.596313 180.0
1279.487061 204.0
1279.693481 124.0
1280.006836 72.0
1284.767944 204.0
1291.504028 164.0
1292.627197 188.0
1294.581543 184.0
1294.925293 52.0
1296.716431 60.0
1300.223511 180.0
1300.438843 140.0
1308.77063 160.0
1310.326416 192.0
1313.996094 144.0
1321.119385 36.0
1321.87915 168.0
1323.080566 156.0
1325.898315 92.0
1338.786133 180.0
1339.718384 188.0
1343.195557 144.0
1350.55835 152.0
1355.529419 144.0
1356.049683 172.0
1363.219849 176.0
1363.337402 44.0
1366.307983 184.0
1366.984863 168.0
1368.449707 252.0
1371.366821 88.0
1373.932983 128.0
1374.582275 88.0
1375.438354 104.0
1376.767334 68.0
1378.126465 84.0
1378.178223 156.0
1382.822266 60.0
1383.110962 196.0
1387.659424 180.0
1392.824463 144.0
1393.389038 208.0
1394.919922 108.0
1406.510498 160.0
1406.936035 204.0
1407.734863 236.0
1409.311035 168.0
1411.538452 228.0
1412.772583 148.0
1417.377075 188.0
1423.483032 140.0
1438.223999 32.0
1441.305298 168.0
1445.252197 160.0
1449.128784 164.0
1452.95752 168.0
1458.607422 128.0
1465.509888 168.0
1473.551636 176.0
1474.804932 184.0
1478.322998 144.0
1479.471069 136.0
1492.221802 224.0
1497.816528 192.0
1503.22876 40.0
