>compound MLS001159063-01!3-(4-chlorophenyl)-2-[[2-(4-methyl-6-oxobenzo[c]chromen-3-yl)oxyacetyl]amino]propanoic acid
>formula C25H20ClNO6
>ionization [M+H]+
>parentmass 466.106
#inchi InChI=1S/C25H20ClNO6/c1-14-21(11-10-18-17-4-2-3-5-19(17)25(31)33-23(14)18)32-13-22(28)27-20(24(29)30)12-15-6-8-16(26)9-7-15/h2-11,20H,12-13H2,1H3,(H,27,28)(H,29,30)
#inchikey CSYGMMBAZUTWOT
#Ion_Source LC-ESI
#Instrument qTof
#Compound_Source NIH Natural Product Library
#PI Dorrestein
#Data_Collector VVP/LMS
#Scan -1
#Precursor_MZ 466.106
#ExactMass 465.098
#Charge 1
#CAS_Number N/A
#Pubmed_ID N/A
#Smiles Cc1c(OCC(=O)NC(Cc2ccc(Cl)cc2)C(=O)O)ccc3c4ccccc4c(=O)oc13
#INCHI_AUX N/A
#Library_Class 1
#SpectrumID CCMSLIB00000080069
#IonMode Positive
#UpdateWorkflowName UPDATE-SINGLE-ANNOTATED-GOLD
#LibraryQualityString Gold
#TaskID b1d8e8f6646f4e71acdff9ca3d919d08
##Scan# 2321
#SpectrumFile p2-G03_GG3_01_18051.mzXML
#LibraryName NIH_Natural_Products_Library.mgf
#MQScore -1
#Organism NIH_Natural_Products_Library
#TIC_Query 0
#RT_Query -1
#MZErrorPPM -1
#SharedPeaks 0
#MassDiff 0
#LibMZ -1
#SpecMZ 466.106
#SpecCharge 0
#internalFilename spec-00000.mgf

>collision 10
95.060974 72.0
95.0765 180.0
95.233765 200.0
95.35228 156.0
95.369774 128.0
95.443649 76.0
95.591492 144.0
95.655716 128.0
95.79203 76.0
95.827095 180.0
95.91674 132.0
96.039589 136.0
96.172272 180.0
96.291374 224.0
96.32653 112.0
96.359741 212.0
96.498512 152.0
96.590424 196.0
96.701958 204.0
96.882111 160.0
96.897781 104.0
97.284134 136.0
97.653549 180.0
97.747986 216.0
98.033524 208.0
98.493233 136.0
98.568306 124.0
98.592018 192.0
99.38015 168.0
99.441666 124.0
99.483353 40.0
100.159462 200.0
100.76593 136.0
100.853859 168.0
101.217972 64.0
101.294075 128.0
101.422325 104.0
101.644936 204.0
101.809547 100.0
102.045395 260.0
102.155266 68.0
102.201538 168.0
102.271973 168.0
102.356529 112.0
102.431053 136.0
102.501564 176.0
102.820198 164.0
102.862587 148.0
102.97364 160.0
103.030197 144.0
103.054108 1060.0
103.13932 188.0
103.25457 84.0
103.40834 216.0
103.454895 112.0
103.594627 128.0
103.943359 44.0
104.026573 60.0
104.055672 396.0
104.184975 108.0
104.459419 52.0
104.596016 156.0
104.793297 216.0
105.19915 140.0
105.282867 136.0
105.494232 180.0
105.74955 228.0
106.123901 104.0
106.398827 184.0
106.970337 160.0
107.038284 112.0
107.159813 120.0
107.306145 140.0
107.444328 204.0
107.514488 112.0
107.549576 124.0
107.576408 128.0
107.836678 64.0
107.863548 124.0
108.080704 128.0
108.113815 108.0
108.223526 132.0
108.544701 176.0
108.567513 188.0
108.882965 180.0
109.026314 156.0
109.1157 112.0
109.144806 164.0
109.313301 56.0
109.556908 212.0
109.644424 100.0
109.807045 152.0
109.83416 200.0
109.847412 136.0
110.088791 212.0
110.25383 92.0
110.272644 152.0
110.303993 116.0
110.427361 128.0
110.548706 124.0
110.722466 148.0
111.011673 144.0
111.032646 184.0
111.089279 200.0
111.391563 136.0
111.705582 124.0
111.835243 76.0
112.026863 216.0
112.31144 188.0
112.888023 136.0
113.018295 356.0
113.108063 192.0
113.139816 192.0
113.357979 108.0
113.514847 208.0
113.729126 220.0
114.081749 180.0
114.268898 168.0
114.313583 156.0
114.731056 60.0
114.820618 160.0
115.054108 348.0
115.315948 176.0
115.940895 188.0
116.005196 156.0
116.063179 272.0
116.144577 120.0
116.26902 216.0
116.434334 216.0
116.455811 132.0
116.503067 36.0
116.558929 116.0
116.65995 160.0
116.748108 76.0
116.834145 172.0
117.068558 968.0
117.875557 144.0
118.066193 620.0
118.139626 152.0
118.20858 60.0
118.305977 196.0
118.672119 56.0
118.897728 136.0
119.030151 156.0
119.072182 2472.0
119.101814 144.0
119.119194 164.0
119.493126 44.0
119.728218 152.0
119.854561 148.0
119.933022 160.0
119.950455 228.0
119.994057 172.0
120.068199 156.0
120.356255 112.0
121.076233 168.0
121.192795 168.0
121.43734 152.0
121.496574 124.0
121.645798 156.0
122.210625 108.0
122.232628 88.0
122.311859 200.0
122.380104 132.0
122.662102 176.0
122.737061 64.0
122.995186 88.0
123.021675 140.0
123.311043 128.0
123.890793 232.0
123.970558 128.0
124.287659 164.0
124.371994 184.0
124.678497 180.0
124.787415 128.0
124.887489 252.0
125.015572 1668.0
125.150093 144.0
125.357254 160.0
125.495453 156.0
125.685051 84.0
125.910965 60.0
126.040199 152.0
126.230087 172.0
126.740456 188.0
127.011856 624.0
127.055298 236.0
127.404572 96.0
127.431534 164.0
127.8069 140.0
128.018631 124.0
128.063568 420.0
128.203354 60.0
128.525818 176.0
128.658981 196.0
128.78093 204.0
128.95491 116.0
129.070206 184.0
129.468475 56.0
129.572678 104.0
129.615723 100.0
129.831085 108.0
130.065796 4016.0
130.12381 76.0
130.250977 132.0
130.375946 56.0
130.482773 256.0
130.737534 68.0
130.812653 176.0
131.073441 5384.0
131.145218 72.0
131.256927 36.0
131.400635 104.0
131.428009 212.0
131.644867 120.0
131.697388 144.0
131.914474 60.0
132.076279 400.0
132.134018 132.0
132.166046 132.0
132.303375 80.0
132.743301 80.0
132.83963 168.0
132.878632 188.0
132.954361 228.0
132.991074 84.0
133.071426 64.0
133.087494 168.0
133.157318 168.0
133.48732 228.0
133.524124 192.0
133.611526 132.0
133.860107 128.0
134.021362 120.0
134.062836 188.0
134.214981 72.0
134.542603 112.0
134.631241 52.0
134.66037 96.0
135.370377 68.0
135.453751 176.0
135.493134 212.0
135.606674 164.0
135.63681 220.0
135.653046 76.0
135.752731 128.0
136.031158 124.0
136.158875 128.0
136.928696 140.0
136.991577 136.0
137.016068 336.0
137.070801 156.0
137.567596 104.0
137.593277 160.0
137.936676 136.0
138.007294 176.0
138.219681 124.0
138.453766 176.0
138.760742 172.0
138.929596 124.0
138.982452 204.0
139.009232 208.0
139.030441 3620.0
139.062149 144.0
139.331055 84.0
139.378036 60.0
139.408585 92.0
139.551987 40.0
139.606064 72.0
139.846039 32.0
140.03093 356.0
140.065018 172.0
140.081512 72.0
140.456314 92.0
140.857605 80.0
141.008255 280.0
141.025803 1588.0
141.068558 140.0
141.181412 32.0
141.24054 84.0
142.019791 236.0
142.026047 232.0
142.057785 200.0
142.088623 224.0
142.363968 120.0
142.670486 120.0
142.877396 128.0
143.004211 344.0
143.087418 176.0
143.117783 192.0
143.148743 88.0
143.98819 80.0
144.050293 152.0
144.406448 180.0
144.739105 200.0
144.988235 208.0
145.074524 220.0
145.386353 156.0
145.94606 48.0
146.047058 136.0
146.357513 108.0
146.571899 176.0
146.85025 164.0
146.885315 124.0
147.141129 56.0
147.353653 188.0
147.936508 124.0
148.011566 124.0
148.183533 152.0
148.556885 216.0
148.879715 208.0
148.925858 140.0
149.020645 176.0
149.256363 180.0
149.796677 176.0
150.043732 232.0
150.237915 200.0
150.769791 184.0
150.88266 192.0
150.929123 120.0
151.029648 2748.0
151.222687 120.0
151.327942 72.0
151.997101 44.0
152.036179 700.0
152.062515 1552.0
152.087906 124.0
152.141922 160.0
152.19838 132.0
152.291702 140.0
152.316269 100.0
152.876785 180.0
152.943298 48.0
153.029083 816.0
153.069656 4888.0
153.106567 168.0
153.132217 44.0
153.172302 108.0
153.285629 64.0
153.421188 76.0
153.442291 136.0
153.465576 92.0
154.041519 4948.0
154.074402 404.0
154.19696 72.0
154.240768 104.0
154.319183 204.0
154.59198 44.0
154.634048 184.0
154.730591 108.0
154.838943 100.0
154.889084 76.0
155.044968 516.0
155.084488 1068.0
155.112091 172.0
155.216232 108.0
155.283615 208.0
155.640533 212.0
155.700134 44.0
155.956055 184.0
156.038559 1588.0
156.088989 396.0
156.30423 136.0
156.38884 92.0
156.570587 44.0
156.782349 176.0
156.85463 68.0
157.039841 144.0
157.218781 164.0
158.013397 176.0
158.634491 152.0
159.023285 192.0
159.078323 168.0
159.131226 120.0
159.194 144.0
159.216599 120.0
159.601089 168.0
159.860184 120.0
159.900452 208.0
159.975967 132.0
160.07164 272.0
160.288269 68.0
160.323547 220.0
160.363876 160.0
160.419327 84.0
161.019867 168.0
161.08049 36.0
161.252304 112.0
161.6772 196.0
161.940506 148.0
162.239517 124.0
162.807892 160.0
162.912033 148.0
163.037872 144.0
163.150909 156.0
163.339096 164.0
163.889008 168.0
164.025177 872.0
164.128601 108.0
164.156662 204.0
164.268875 52.0
164.534286 172.0
164.766693 208.0
164.845901 196.0
164.943649 332.0
165.00531 132.0
165.032501 216.0
165.06929 656.0
165.357391 68.0
165.41626 60.0
165.436737 100.0
165.635345 108.0
165.715897 28.0
165.777405 204.0
166.007568 308.0
166.041641 13108.0
166.133804 72.0
166.221039 84.0
166.295456 156.0
166.3237 92.0
166.36705 36.0
166.439224 76.0
166.503418 104.0
166.683258 184.0
166.714081 184.0
166.89917 116.0
166.919739 136.0
167.001373 124.0
167.044693 1608.0
167.08577 632.0
167.107513 40.0
167.37262 76.0
167.467911 52.0
167.619919 144.0
167.707535 32.0
167.831284 88.0
167.874847 192.0
167.960236 256.0
168.005661 196.0
168.039215 3960.0
168.086655 140.0
168.116898 196.0
168.133881 232.0
168.195038 112.0
168.290573 44.0
168.34996 128.0
168.368042 116.0
168.468765 144.0
168.538528 76.0
168.815125 172.0
168.884949 136.0
169.0392 452.0
169.071136 324.0
169.115234 56.0
169.350861 236.0
169.405243 60.0
170.004196 196.0
170.037933 172.0
170.174774 224.0
170.346924 96.0
170.432663 116.0
170.637985 192.0
170.847961 212.0
171.042465 336.0
171.081573 196.0
171.101105 44.0
171.262558 40.0
171.364151 116.0
171.525726 72.0
171.656082 144.0
172.078796 168.0
172.175415 108.0
172.292953 92.0
172.311249 60.0
172.978119 172.0
173.027863 52.0
173.297623 56.0
173.405075 64.0
173.515167 240.0
173.698746 156.0
173.787933 88.0
173.929657 148.0
173.961151 172.0
174.029419 160.0
174.186996 208.0
174.265808 212.0
174.831161 172.0
176.026703 188.0
176.220825 56.0
176.29216 116.0
176.671585 20.0
177.416061 164.0
177.783127 88.0
178.016739 268.0
178.433914 152.0
178.487091 104.0
178.542938 156.0
178.670609 108.0
178.88884 112.0
178.963379 180.0
179.021957 128.0
179.051666 204.0
179.088547 140.0
180.023788 164.0
180.192947 140.0
180.289154 216.0
180.372009 128.0
180.390717 48.0
180.45755 104.0
180.607315 76.0
180.663483 116.0
180.727707 112.0
180.829391 272.0
180.861511 76.0
180.92569 176.0
181.003174 232.0
181.024704 240.0
181.065048 34808.0
181.137314 56.0
181.229935 112.0
181.27887 24.0
181.321167 84.0
181.378052 200.0
181.402603 96.0
181.483704 108.0
181.504486 36.0
181.523254 116.0
181.555435 72.0
181.735168 48.0
181.780777 88.0
181.823715 92.0
181.882767 48.0
181.906937 88.0
181.982101 60.0
182.015472 192.0
182.038498 196.0
182.068405 3004.0
182.212494 252.0
182.231888 48.0
182.301758 176.0
182.3405 48.0
182.489914 60.0
182.538315 72.0
182.957825 48.0
183.023209 256.0
183.078613 1140.0
183.114944 196.0
183.18158 84.0
183.297424 120.0
183.418701 116.0
183.459137 100.0
183.510361 52.0
183.545425 60.0
183.839462 80.0
183.858353 104.0
184.007599 296.0
184.054214 584.0
184.083084 140.0
184.166138 36.0
184.582336 68.0
184.709442 152.0
184.771667 100.0
185.05957 440.0
185.21022 64.0
185.229172 28.0
185.659286 192.0
185.801178 120.0
186.048325 356.0
186.648605 56.0
186.689392 200.0
187.476151 176.0
187.606552 124.0
187.67514 168.0
188.138962 208.0
188.62796 84.0
189.69281 84.0
189.901199 116.0
190.216751 28.0
190.615005 96.0
191.209091 144.0
191.247543 224.0
191.67717 144.0
192.286636 172.0
192.7948 80.0
193.074234 192.0
193.165314 56.0
194.052948 232.0
194.33165 112.0
194.423233 84.0
194.650864 100.0
195.041641 548.0
195.091141 312.0
195.262253 32.0
195.855103 68.0
195.987228 76.0
196.052338 496.0
197.044205 296.0
197.053894 360.0
197.549515 200.0
198.069824 216.0
198.171036 44.0
199.071457 100.0
199.641937 60.0
199.909195 152.0
200.047333 352.0
200.875595 148.0
201.581451 164.0
202.687881 136.0
203.022385 36.0
203.6521 144.0
204.32901 52.0
204.454224 40.0
204.664871 144.0
206.082474 96.0
207.84343 164.0
208.052948 172.0
208.659134 152.0
208.784836 168.0
209.059158 3132.0
209.09642 288.0
209.142426 72.0
210.063904 712.0
210.14241 112.0
210.332886 108.0
210.722748 200.0
210.794983 76.0
210.875916 52.0
211.005997 168.0
211.075607 2140.0
211.525284 48.0
211.613571 164.0
211.824982 84.0
212.001724 100.0
212.048096 352.0
212.083038 376.0
213.052994 340.0
213.092773 96.0
213.200287 52.0
213.307831 148.0
213.429932 56.0
213.482285 60.0
214.047791 308.0
214.504242 108.0
215.484802 136.0
215.967163 116.0
217.523102 100.0
217.810883 180.0
220.140579 228.0
221.042191 136.0
221.157608 116.0
221.39447 64.0
221.758881 208.0
223.038177 140.0
223.070862 160.0
223.839767 148.0
224.017181 136.0
224.040833 176.0
224.362869 76.0
224.974457 64.0
225.025208 96.0
225.054382 1136.0
225.141663 56.0
225.524094 40.0
226.061661 3248.0
226.718277 144.0
226.87114 40.0
227.069016 2248.0
227.243027 72.0
227.270035 144.0
227.291031 88.0
227.372055 60.0
227.42009 164.0
227.621231 96.0
227.664001 132.0
227.87793 56.0
227.963684 60.0
228.074478 352.0
228.15004 60.0
228.210175 80.0
228.315414 92.0
228.541031 64.0
228.829971 104.0
229.07692 104.0
229.230591 48.0
229.655685 140.0
229.688858 92.0
230.253281 196.0
234.449097 140.0
235.813339 116.0
236.042618 88.0
236.067078 128.0
237.06424 256.0
237.328674 84.0
237.650742 132.0
237.994507 72.0
238.069656 68.0
238.40921 156.0
238.692032 140.0
238.833496 116.0
238.876556 156.0
239.00885 152.0
239.07135 19784.0
239.120514 284.0
239.15657 40.0
239.178131 48.0
239.323776 64.0
239.362137 104.0
239.405731 108.0
239.413116 160.0
239.454742 80.0
239.566132 32.0
239.587692 88.0
239.723267 120.0
239.800308 68.0
239.836273 64.0
239.889694 76.0
240.003769 76.0
240.028442 156.0
240.071976 4040.0
240.154892 36.0
240.281357 48.0
240.328079 56.0
240.414047 92.0
240.466507 48.0
240.497375 108.0
240.55603 48.0
240.784515 124.0
240.997665 72.0
241.07901 396.0
241.133636 56.0
241.275833 76.0
241.402603 72.0
241.433533 72.0
241.455185 116.0
241.656555 136.0
241.783127 80.0
241.897644 72.0
241.999802 72.0
242.055542 160.0
242.080322 140.0
243.506912 56.0
249.051025 160.0
250.06427 184.0
250.145294 136.0
251.061615 152.0
251.085403 164.0
253.100418 164.0
253.515396 88.0
253.968765 84.0
254.038559 120.0
254.1147 168.0
255.143723 92.0
264.071381 156.0
267.064148 356.0
267.393738 76.0
268.072754 108.0
271.159485 96.0
272.803986 92.0
285.067719 272.0
290.203491 80.0
290.868439 140.0
292.044128 200.0
294.0849 152.0
300.11264 120.0
301.56601 120.0
301.638611 72.0
305.226959 92.0
306.048126 120.0
308.022095 120.0
312.069885 164.0
322.203125 96.0
322.96814 60.0
328.105957 204.0
328.139374 48.0
329.091888 140.0
330.653534 44.0
333.071167 148.0
333.951569 72.0
338.923798 56.0
340.123047 112.0
345.766022 32.0
355.643158 52.0
361.053558 184.0
363.064545 88.0
364.07782 56.0
365.0867 132.0
367.091827 164.0
371.236176 76.0
373.053314 36.0
373.107117 100.0
374.997162 116.0
375.934326 48.0
377.665192 92.0
384.023499 144.0
385.042175 196.0
386.692078 116.0
387.949432 108.0
389.699829 96.0
390.710266 72.0
391.497498 68.0
392.975677 56.0
393.023041 72.0
397.794067 20.0
402.102844 144.0
402.2146 64.0
403.081238 128.0
407.324066 72.0
411.149109 128.0
412.304138 80.0
420.105774 216.0
420.177673 104.0
421.090149 112.0
421.73761 104.0
422.080078 124.0
422.126007 152.0
423.103882 228.0
423.210358 36.0
424.111633 188.0
428.974457 48.0
434.159393 48.0
448.091827 116.0
455.801056 72.0
459.637665 60.0
469.254272 92.0
471.490295 132.0
473.766266 84.0
478.722168 108.0
498.150421 84.0
501.01535 84.0
513.300964 60.0
520.046326 104.0
525.530029 28.0
527.969299 88.0
533.756592 72.0
546.965393 72.0
563.893616 96.0
570.577393 116.0
593.286438 92.0
599.819946 44.0
684.075073 212.0
696.431335 136.0
841.455078 140.0
858.088989 196.0
885.929077 40.0
902.958923 220.0
907.480042 152.0
929.77533 72.0
945.517395 60.0
947.409424 188.0
949.910522 184.0
949.990295 72.0
964.368347 172.0
968.526306 164.0
979.408691 52.0
982.519348 256.0
992.902771 104.0
1010.066223 176.0
1022.852356 236.0
1043.335938 156.0
1046.063477 100.0
1048.2146 68.0
1054.616699 184.0
1055.062744 152.0
1069.522095 172.0
1077.595337 116.0
1083.509766 152.0
1087.004517 216.0
1093.556641 44.0
1095.841675 68.0
1096.098633 224.0
1105.700562 156.0
1123.141479 196.0
1125.917969 112.0
1129.366699 180.0
1132.726929 32.0
1135.072632 204.0
1141.189575 116.0
1142.62207 156.0
1147.565552 72.0
1157.877441 160.0
1160.113403 136.0
1163.125244 252.0
1167.72522 156.0
1168.541504 172.0
1182.482666 220.0
1182.804321 20.0
1187.120605 236.0
1189.274902 168.0
1192.056274 68.0
1200.868408 64.0
1203.863525 120.0
1204.050049 128.0
1206.461548 108.0
1206.717285 192.0
1235.307617 168.0
1237.008057 276.0
1240.903198 128.0
1241.814819 196.0
1242.874146 180.0
1258.619995 116.0
1259.432129 184.0
1259.884155 52.0
1262.089355 240.0
1262.619629 148.0
1263.822266 172.0
1268.83667 132.0
1269.765625 228.0
1281.138428 152.0
1285.066772 180.0
1289.987305 132.0
1299.734619 200.0
1305.567627 152.0
1307.236572 44.0
1312.444458 144.0
1315.886108 72.0
1316.12439 192.0
1323.347534 144.0
1325.491455 152.0
1331.483521 132.0
1336.142944 112.0
1337.685669 144.0
1348.327393 168.0
1348.37854 72.0
1348.670898 300.0
1351.142578 144.0
1360.846191 124.0
1361.859619 164.0
1363.483276 180.0
1368.61792 184.0
1369.008179 44.0
1369.759399 164.0
1372.773804 192.0
1373.66626 188.0
1374.669678 156.0
1375.747192 160.0
1382.036621 208.0
1382.354858 124.0
1382.821655 256.0
1385.205322 200.0
1388.281128 124.0
1390.313843 164.0
1392.927246 112.0
1394.383545 56.0
1394.948486 236.0
1396.093506 32.0
1396.152954 108.0
1402.354736 104.0
1410.206543 144.0
1412.606689 168.0
1413.265015 180.0
1413.362305 148.0
1416.147217 124.0
1416.199585 52.0
1418.005249 180.0
1424.112549 188.0
1425.772949 160.0
1426.697388 176.0
1427.795288 164.0
1433.154907 140.0
1435.031616 104.0
1436.57019 124.0
1437.468018 160.0
1440.616333 228.0
1440.873169 176.0
1443.352295 172.0
1449.324463 176.0
1449.771484 168.0
1451.287598 224.0
1451.810791 128.0
1456.182129 124.0
1459.15332 184.0
1459.427002 96.0
1461.678467 240.0
1470.510986 136.0
1471.839233 128.0
1473.420288 128.0
1474.52063 176.0
1475.651978 244.0
1481.73645 120.0
1481.797729 192.0
1483.069824 52.0
1485.469849 188.0
1486.973755 164.0
1487.065796 160.0
1487.173218 164.0
1488.040649 164.0
1490.398682 172.0
1491.451538 104.0
1495.250977 216.0
1499.294189 76.0
1501.368042 244.0
1502.926147 136.0
1503.21936 128.0
