>compound MLS001141064-01!N-[(2S)-1-[(2-methoxyphenyl)methylamino]-3-methyl-1-oxobutan-2-yl]-1-[(2S)-pyrrolidine-2-carbonyl]piperidine-4-carboxamide
>formula C24H36N4O4
>ionization [M+H]+
>parentmass 445.281677
#inchi InChI=1S/C24H36N4O4/c1-16(2)21(23(30)26-15-18-7-4-5-9-20(18)32-3)27-22(29)17-10-13-28(14-11-17)24(31)19-8-6-12-25-19/h4-5,7,9,16-17,19,21,25H,6,8,10-15H2,1-3H3,(H,26,30)(H,27,29)/t19-,21-/m0/s1
#inchikey FAIBABZLZCCOIP
#Ion_Source LC-ESI
#Instrument qTof
#Compound_Source NIH Natural Product Library
#PI Dorrestein
#Data_Collector VVP/LMS
#Scan -1
#Precursor_MZ 445.281
#ExactMass 444.274
#Charge 1
#CAS_Number N/A
#Pubmed_ID N/A
#Smiles COc1ccccc1CNC(=O)[C@@H](NC(=O)C2CCN(CC2)C(=O)[C@@H]3CCCN3)C(C)C
#INCHI_AUX N/A
#Library_Class 1
#SpectrumID CCMSLIB00000079985
#IonMode Positive
#UpdateWorkflowName UPDATE-SINGLE-ANNOTATED-GOLD
#LibraryQualityString Gold
#TaskID b1d8e8f6646f4e71acdff9ca3d919d08
##Scan# 1534
#SpectrumFile p2-F02_GF2_01_18038.mzXML
#LibraryName NIH_Natural_Products_Library.mgf
#MQScore -1
#Organism NIH_Natural_Products_Library
#TIC_Query 0
#RT_Query -1
#MZErrorPPM -1
#SharedPeaks 0
#MassDiff 0
#LibMZ -1
#SpecMZ 445.281
#SpecCharge 0
#internalFilename spec-00000.mgf

>collision 10
95.052475 196.0
95.172104 184.0
95.201233 100.0
95.230362 152.0
95.243965 160.0
95.310013 168.0
95.344994 176.0
95.38192 148.0
95.498589 256.0
95.555 168.0
95.621162 192.0
95.648415 236.0
95.667877 132.0
95.769135 124.0
95.806152 208.0
95.891884 180.0
95.936722 120.0
95.969864 172.0
96.082985 160.0
96.112251 156.0
96.129814 172.0
96.172752 108.0
96.215698 124.0
96.248886 224.0
96.262558 128.0
96.291855 168.0
96.33287 228.0
96.757248 248.0
96.859329 156.0
97.302277 144.0
97.459404 148.0
97.479057 132.0
97.538017 156.0
97.55571 200.0
97.701233 204.0
97.805534 196.0
97.848839 152.0
97.957153 192.0
98.062622 168.0
98.14241 172.0
98.258781 200.0
98.490089 116.0
98.503319 152.0
98.853531 112.0
98.914223 192.0
98.962395 120.0
99.299278 176.0
99.499702 144.0
99.533455 188.0
99.679924 76.0
99.706284 188.0
99.730133 136.0
99.877274 88.0
100.096191 144.0
100.151955 120.0
100.273499 180.0
100.325325 28.0
100.450958 156.0
100.466919 216.0
100.646545 156.0
100.776375 164.0
100.826332 172.0
101.334602 112.0
101.48893 120.0
101.535057 180.0
101.663452 148.0
101.723663 180.0
101.920486 36.0
102.141632 152.0
102.369064 156.0
102.405312 156.0
102.518135 172.0
102.719757 136.0
102.83477 184.0
102.905426 44.0
103.054886 156.0
103.131142 176.0
103.30761 128.0
103.437119 164.0
103.710571 364.0
104.003784 136.0
104.18338 28.0
104.21386 132.0
104.411041 128.0
104.524956 148.0
104.714287 156.0
104.828377 200.0
104.960876 140.0
104.995544 132.0
105.181213 116.0
105.407913 236.0
105.434479 100.0
105.481491 204.0
105.882523 204.0
106.042213 184.0
106.274055 176.0
106.308945 136.0
106.380783 188.0
106.526581 176.0
106.569725 236.0
106.882263 72.0
106.913132 72.0
106.931656 112.0
107.277702 152.0
107.386993 104.0
107.787491 152.0
107.83709 120.0
107.870163 216.0
107.934258 200.0
108.07077 112.0
108.306778 144.0
108.418663 156.0
108.489136 124.0
108.723518 136.0
109.016335 204.0
109.047508 192.0
109.083595 256.0
109.186813 220.0
109.640068 168.0
109.707367 160.0
110.082932 132.0
110.191551 144.0
110.354576 108.0
110.509346 148.0
110.534454 160.0
110.595146 164.0
110.898857 108.0
110.913528 180.0
111.087143 196.0
111.163109 108.0
111.583206 136.0
111.654701 152.0
111.679939 88.0
111.740944 128.0
111.786781 224.0
111.829323 112.0
111.866043 224.0
111.917671 388.0
112.010597 176.0
112.076088 46864.0
112.103546 208.0
112.128403 40.0
112.193748 104.0
112.210609 60.0
112.234726 64.0
112.262093 96.0
112.289505 68.0
112.318336 48.0
112.34137 28.0
112.379341 64.0
112.394661 92.0
112.4217 532.0
112.455315 72.0
112.489082 64.0
112.505974 96.0
112.522865 44.0
112.603104 88.0
112.666473 52.0
112.764687 184.0
112.79538 84.0
112.82058 144.0
112.915901 48.0
113.021675 160.0
113.078468 4156.0
113.125381 48.0
113.182549 40.0
113.229134 176.0
113.247276 156.0
113.428993 108.0
113.44738 52.0
113.557648 60.0
113.612801 40.0
113.693428 168.0
113.712708 48.0
113.80806 116.0
113.875023 240.0
113.925087 116.0
113.960983 76.0
114.024734 192.0
114.044319 208.0
114.082817 148.0
114.277794 40.0
114.691643 84.0
114.705482 160.0
114.722908 52.0
114.756569 192.0
115.015152 160.0
115.06852 228.0
115.602898 88.0
115.690269 180.0
115.795578 160.0
115.834129 200.0
115.924118 136.0
116.014137 132.0
116.916275 168.0
117.114349 220.0
117.312592 72.0
117.342499 124.0
117.377274 192.0
117.459229 192.0
117.761421 144.0
118.198112 148.0
118.297676 68.0
118.390778 176.0
118.924118 116.0
119.0457 104.0
119.063072 160.0
119.086967 108.0
119.132584 176.0
119.210213 236.0
119.33905 80.0
119.552223 172.0
119.626228 220.0
119.939903 72.0
120.112167 212.0
120.179794 208.0
120.334763 184.0
120.399208 160.0
120.500755 152.0
120.55101 64.0
120.616302 160.0
120.65374 144.0
120.697472 204.0
120.745583 188.0
120.778702 140.0
120.858963 188.0
120.883408 132.0
120.900909 120.0
120.93309 236.0
120.985802 148.0
121.027611 132.0
121.032257 44.0
121.065315 47896.0
121.128113 52.0
121.135849 40.0
121.173599 60.0
121.191734 168.0
121.228638 80.0
121.245934 104.0
121.261185 152.0
121.282768 80.0
121.357414 40.0
121.425972 240.0
121.481552 52.0
121.589508 208.0
121.648331 60.0
121.668091 76.0
121.690041 60.0
121.740547 48.0
121.766899 128.0
121.804237 44.0
121.834053 112.0
121.920418 32.0
121.951462 196.0
121.991722 224.0
122.04599 52.0
122.068153 3880.0
122.105141 160.0
122.129555 76.0
122.153755 116.0
122.21566 164.0
122.420074 52.0
122.466324 76.0
122.721954 44.0
122.768265 76.0
122.845459 136.0
122.89415 116.0
122.96566 236.0
122.988808 108.0
123.071564 240.0
123.16333 52.0
123.324623 48.0
123.393158 204.0
123.498749 60.0
123.851234 120.0
123.891113 144.0
124.035149 220.0
124.072838 208.0
124.088356 156.0
124.113174 228.0
124.509964 132.0
125.041328 172.0
125.08139 104.0
125.117004 160.0
125.518059 200.0
126.085083 44.0
126.402641 52.0
126.745239 76.0
127.088303 216.0
127.299309 160.0
127.339729 124.0
127.600922 172.0
127.995651 132.0
128.079727 136.0
128.467453 148.0
128.684113 156.0
129.102524 188.0
129.169998 116.0
129.210724 72.0
129.495941 28.0
130.364853 164.0
130.508072 56.0
130.753754 80.0
130.894897 160.0
131.001938 68.0
131.437408 280.0
132.079376 188.0
132.331116 144.0
132.709167 120.0
132.79631 68.0
132.835297 144.0
132.959198 44.0
132.989044 144.0
133.959412 136.0
134.095352 200.0
134.229065 48.0
134.270569 208.0
134.295944 116.0
134.734543 200.0
135.906082 56.0
136.161438 208.0
136.344971 100.0
136.582123 100.0
136.707764 148.0
136.835785 68.0
136.88002 124.0
136.896317 84.0
137.327484 92.0
137.986008 204.0
138.00705 32.0
138.091156 4108.0
138.123978 112.0
138.276062 84.0
138.751587 88.0
139.056534 68.0
139.093857 648.0
139.446411 60.0
139.872147 180.0
140.067551 292.0
140.600449 156.0
140.711395 208.0
141.044479 220.0
142.958481 176.0
143.277542 200.0
143.77829 204.0
145.043549 172.0
147.281342 88.0
147.714035 92.0
148.113434 144.0
148.481842 144.0
148.641968 116.0
148.984299 208.0
149.025604 176.0
149.331909 112.0
150.006393 116.0
150.164886 56.0
150.438171 108.0
151.252182 156.0
151.636734 96.0
152.065948 180.0
152.569519 116.0
153.640808 84.0
154.936249 124.0
155.481766 228.0
156.117752 124.0
157.735901 220.0
159.573502 64.0
159.827545 160.0
160.283295 92.0
160.495041 144.0
161.328201 156.0
161.74559 92.0
162.024155 160.0
162.295349 160.0
163.008621 68.0
163.532516 180.0
163.685272 180.0
164.070007 152.0
164.109253 324.0
164.511353 152.0
165.142746 168.0
165.452133 220.0
166.118439 144.0
167.158234 408.0
167.771988 144.0
167.937027 144.0
168.102142 456.0
168.980667 188.0
169.76033 180.0
171.796921 88.0
171.97435 120.0
172.564743 132.0
173.067108 124.0
173.593796 188.0
173.798401 168.0
174.04776 316.0
174.299927 56.0
176.041153 156.0
176.873978 204.0
177.459442 180.0
178.210587 152.0
178.33548 148.0
178.880768 172.0
179.119095 248.0
180.142105 120.0
180.171494 152.0
180.22226 188.0
180.291733 168.0
181.133881 152.0
181.464172 44.0
182.135086 152.0
182.376907 204.0
182.515472 76.0
182.566833 200.0
182.869125 112.0
182.9095 120.0
183.006409 112.0
183.076431 108.0
183.149826 11460.0
183.198547 140.0
183.239395 68.0
183.313492 72.0
183.461731 172.0
183.580933 96.0
183.618118 120.0
183.650482 48.0
183.815048 176.0
183.939209 100.0
183.974304 40.0
184.109299 184.0
184.151855 1448.0
184.209244 32.0
184.547058 72.0
184.574097 40.0
184.606552 92.0
184.787781 120.0
184.906845 40.0
185.071976 144.0
185.153824 288.0
185.356384 60.0
185.529846 188.0
185.62204 80.0
185.752228 144.0
185.961151 40.0
186.306015 108.0
187.108292 140.0
187.89592 120.0
188.701614 36.0
189.016174 132.0
190.121262 1064.0
190.219345 72.0
190.782486 96.0
190.84848 184.0
191.112534 136.0
191.134537 48.0
191.250122 64.0
191.710068 124.0
191.798264 156.0
192.007812 116.0
192.138016 484.0
192.31958 180.0
192.504562 124.0
193.134689 112.0
193.331131 36.0
193.441833 80.0
193.88501 120.0
194.770081 76.0
195.100769 148.0
195.690582 72.0
195.932892 56.0
196.521179 100.0
197.185791 204.0
197.27803 144.0
197.395462 104.0
197.599655 128.0
198.18483 176.0
199.529221 68.0
200.917664 116.0
201.324127 152.0
201.4823 76.0
201.603806 60.0
201.858215 172.0
203.166763 144.0
203.890839 208.0
205.902206 84.0
206.070755 232.0
206.159332 184.0
207.110748 132.0
207.487457 180.0
207.969391 248.0
208.144699 1320.0
208.621445 124.0
209.128204 408.0
209.372437 40.0
209.551041 204.0
209.597137 64.0
210.162292 140.0
210.422043 160.0
210.811996 32.0
211.075058 172.0
211.144623 11580.0
211.283295 44.0
211.468491 60.0
211.624817 112.0
211.743546 84.0
211.766708 76.0
211.789886 152.0
212.147141 1392.0
212.613297 56.0
212.921036 40.0
213.148544 316.0
213.447021 164.0
213.493561 88.0
213.80484 72.0
213.89798 60.0
213.964935 48.0
214.643814 148.0
214.696304 96.0
214.891739 148.0
215.300415 44.0
215.367584 52.0
215.604233 104.0
215.735779 176.0
216.154022 172.0
217.021042 144.0
217.505096 148.0
217.59317 108.0
219.228607 40.0
219.715134 52.0
220.119492 124.0
221.862198 72.0
223.144745 120.0
224.100159 168.0
224.866547 180.0
225.738892 224.0
226.018127 172.0
226.373291 48.0
227.050568 92.0
227.140671 420.0
227.185547 188.0
227.236557 80.0
227.34758 204.0
228.139038 96.0
228.176605 188.0
228.305908 104.0
228.727127 220.0
229.522491 76.0
229.709473 124.0
229.944824 68.0
231.070374 192.0
231.398834 144.0
232.126938 176.0
232.96373 128.0
234.131729 192.0
235.498077 148.0
236.526276 120.0
236.669342 124.0
237.015472 176.0
237.08902 144.0
237.16069 9104.0
237.242264 44.0
237.299362 116.0
237.401962 96.0
237.493713 48.0
237.577454 108.0
237.78212 80.0
237.806686 68.0
238.161942 1220.0
238.53772 44.0
238.719131 44.0
238.925201 92.0
238.989822 64.0
239.161926 280.0
239.393066 44.0
239.849045 128.0
239.919937 144.0
240.161133 168.0
240.308548 68.0
240.6604 104.0
240.703629 52.0
240.827164 52.0
243.795227 76.0
245.067917 116.0
247.138031 184.0
248.384903 28.0
248.764603 152.0
249.254562 112.0
250.96373 172.0
251.093033 88.0
252.194931 60.0
252.558548 96.0
254.26947 156.0
255.884277 160.0
256.540558 92.0
259.23819 248.0
259.786469 120.0
262.762299 204.0
263.194794 116.0
263.701996 180.0
266.290741 128.0
267.956238 140.0
268.086578 40.0
268.823578 100.0
271.227448 212.0
271.555328 20.0
273.46756 212.0
275.277496 108.0
275.898682 92.0
276.835052 180.0
277.514343 168.0
278.194458 172.0
278.297363 108.0
278.794159 144.0
279.480652 64.0
280.036591 216.0
280.099884 116.0
280.139862 224.0
280.202667 4280.0
280.253143 36.0
280.423096 56.0
280.703125 60.0
280.806519 92.0
281.043365 36.0
281.205933 1088.0
281.397156 108.0
281.624237 72.0
281.988434 220.0
282.018494 32.0
282.098724 44.0
282.178955 132.0
282.209045 140.0
282.821259 88.0
283.105835 68.0
283.149384 44.0
283.172821 48.0
283.849762 80.0
285.572601 108.0
285.703796 88.0
285.942688 68.0
290.341492 172.0
293.11203 152.0
293.848541 136.0
294.012329 68.0
296.67688 64.0
303.205383 136.0
304.504791 240.0
304.59671 40.0
306.092194 40.0
306.196686 248.0
308.196991 2348.0
308.600983 228.0
308.681427 56.0
308.992706 48.0
309.118683 48.0
309.199951 664.0
309.454712 172.0
310.202606 192.0
311.172699 100.0
311.358795 92.0
311.443085 152.0
311.506317 148.0
312.149506 152.0
313.363831 192.0
314.704132 88.0
314.901886 152.0
315.092621 40.0
316.982056 156.0
317.10611 140.0
319.246887 184.0
323.213623 220.0
330.223419 164.0
330.985168 196.0
331.242279 160.0
331.347351 152.0
332.638367 148.0
333.902832 124.0
335.884216 136.0
336.037445 112.0
339.226471 212.0
339.8573 136.0
339.89032 48.0
342.979584 144.0
343.706085 80.0
345.31308 52.0
345.509125 96.0
346.349457 100.0
347.294281 196.0
347.353973 40.0
347.383636 136.0
347.773254 64.0
348.159393 152.0
348.22818 7316.0
348.311676 148.0
348.42038 184.0
348.435486 48.0
348.444519 200.0
348.493713 52.0
348.542023 136.0
348.668365 60.0
348.727814 140.0
348.798431 112.0
348.872803 72.0
348.898804 32.0
349.027618 124.0
349.039734 80.0
349.048676 116.0
349.089874 72.0
349.147949 36.0
349.23288 2248.0
349.657623 56.0
349.746948 96.0
350.178864 128.0
350.227478 160.0
350.42099 40.0
350.998718 132.0
351.237427 168.0
351.270996 108.0
351.659058 40.0
351.972626 116.0
353.830902 88.0
353.905762 56.0
356.542877 152.0
356.749603 176.0
361.032928 112.0
362.388062 64.0
362.505524 40.0
366.544922 192.0
372.916901 120.0
379.39032 156.0
391.30249 180.0
392.910492 152.0
401.298889 136.0
402.643646 76.0
411.247742 80.0
413.078186 136.0
422.062286 84.0
422.847717 88.0
424.310089 80.0
427.279419 136.0
428.271637 144.0
428.621674 176.0
432.20166 124.0
443.881775 188.0
445.027283 124.0
445.107056 128.0
445.281677 4320.0
445.350647 48.0
445.388458 60.0
445.455658 28.0
445.510254 60.0
446.042633 180.0
446.090179 48.0
446.216309 112.0
446.286865 1712.0
446.519073 60.0
447.289001 248.0
447.579529 52.0
448.089172 80.0
448.797272 84.0
448.826782 104.0
449.248535 152.0
450.988281 48.0
452.092102 64.0
454.370667 80.0
459.720276 68.0
466.689606 48.0
476.418335 36.0
486.440552 116.0
512.770142 88.0
549.408142 52.0
570.292969 96.0
573.891907 116.0
576.340454 116.0
589.719604 116.0
611.281067 68.0
628.809998 80.0
635.791565 120.0
636.94635 104.0
639.918457 104.0
654.062988 144.0
717.327332 72.0
735.463318 128.0
735.619873 48.0
774.994385 192.0
787.82959 188.0
789.456055 164.0
830.290588 136.0
853.607239 112.0
854.715149 192.0
867.810547 200.0
872.095886 188.0
876.95166 64.0
888.654541 136.0
891.998047 148.0
892.491455 176.0
897.564575 44.0
902.263428 84.0
906.537048 100.0
926.371765 168.0
927.474609 128.0
931.41864 184.0
931.770996 180.0
933.874268 116.0
934.1297 96.0
937.502747 220.0
939.429443 144.0
943.080994 36.0
945.606934 148.0
953.758301 180.0
959.156555 184.0
964.61322 136.0
965.825195 48.0
967.718811 212.0
968.833618 160.0
969.347839 208.0
969.849854 148.0
972.21283 120.0
979.867188 252.0
983.34668 192.0
985.694824 200.0
992.229187 192.0
993.10083 188.0
995.385193 256.0
995.667786 216.0
996.233093 204.0
1004.870605 172.0
1006.909485 208.0
1010.202576 144.0
1011.037781 128.0
1011.3479 136.0
1018.677979 208.0
1019.421387 180.0
1019.484924 140.0
1019.751831 204.0
1019.961609 64.0
1022.728455 104.0
1023.269592 156.0
1025.033936 128.0
1025.981079 224.0
1026.091919 60.0
1027.711914 108.0
1029.929077 200.0
1032.119141 180.0
1038.850342 252.0
1041.822632 136.0
1047.438354 68.0
1047.925293 124.0
1051.706909 80.0
1055.007812 204.0
1057.46582 196.0
1061.82605 144.0
1065.311646 236.0
1067.410889 184.0
1070.605957 124.0
1075.991821 88.0
1078.212769 92.0
1078.650635 188.0
1079.193237 140.0
1079.598633 164.0
1080.272339 152.0
1082.694092 84.0
1083.840454 156.0
1083.951904 164.0
1084.961182 172.0
1085.216919 96.0
1086.364624 172.0
1089.157837 180.0
1091.697876 140.0
1091.941162 112.0
1096.358643 172.0
1100.976562 184.0
1102.819946 120.0
1103.546997 56.0
1103.718994 188.0
1108.054199 172.0
1109.346436 180.0
1111.588257 88.0
1112.046143 144.0
1114.038208 44.0
1114.250732 132.0
1116.085083 128.0
1116.83667 188.0
1118.97937 220.0
1119.831787 220.0
1120.364624 212.0
1120.984253 136.0
1122.130737 80.0
1122.690796 176.0
1124.545532 124.0
1125.553589 196.0
1126.241455 60.0
1132.676025 180.0
1134.451782 264.0
1135.343628 140.0
1135.424072 180.0
1135.987427 196.0
1136.624878 180.0
1139.585938 160.0
1149.004883 184.0
1149.180298 136.0
1151.914429 172.0
1152.542725 188.0
1153.414551 144.0
1156.607178 236.0
1159.431396 124.0
1159.960083 172.0
1160.095703 148.0
1160.204102 184.0
1161.919922 180.0
1162.008179 132.0
1164.363525 180.0
1164.716675 216.0
1165.334961 44.0
1165.654297 156.0
1165.715454 216.0
1166.170776 176.0
1167.639282 116.0
1167.754883 244.0
1169.238037 52.0
1171.335205 132.0
1171.757568 216.0
1174.354736 152.0
1174.457031 128.0
1175.241577 136.0
1176.797729 164.0
1179.024536 212.0
1180.583252 176.0
1180.802002 192.0
1181.910278 172.0
1183.511963 116.0
1184.15564 164.0
1185.710815 168.0
1186.553955 176.0
1188.989014 176.0
1190.657227 128.0
1190.705322 144.0
1191.790649 196.0
1192.484741 132.0
1193.240967 196.0
1193.357788 160.0
1194.698853 64.0
1197.142334 180.0
1199.581299 216.0
1199.774292 116.0
1200.401733 148.0
1200.808594 80.0
1200.953491 180.0
1201.036255 140.0
1201.325928 64.0
1202.913086 144.0
1203.237549 124.0
1203.720825 44.0
1204.72229 184.0
1204.964111 120.0
1205.164429 168.0
1210.968384 140.0
1213.525513 172.0
1214.773804 220.0
1216.105957 148.0
1216.453125 160.0
1216.939087 172.0
1220.044556 144.0
1220.273926 108.0
1222.924316 224.0
1224.463013 64.0
1226.588135 132.0
1228.00354 52.0
1229.356934 164.0
1229.46167 172.0
1230.473755 208.0
1230.80188 132.0
1231.416382 204.0
1234.16272 244.0
1234.295654 200.0
1236.96814 212.0
1237.626221 204.0
1238.66272 164.0
1239.104004 152.0
1240.968384 168.0
1241.333008 44.0
1241.431152 176.0
1245.403442 100.0
1245.859985 128.0
1246.83667 180.0
1249.614136 72.0
1249.719727 176.0
1249.980103 140.0
1251.577881 128.0
1252.22583 152.0
1252.415894 100.0
1253.465698 64.0
1254.480591 204.0
1255.862549 84.0
1258.494873 228.0
1258.883179 184.0
1261.575073 144.0
1262.579102 152.0
1262.80542 152.0
1265.409546 260.0
1266.648804 168.0
1267.994995 76.0
1270.214355 160.0
1271.008911 140.0
1272.712402 148.0
1274.019165 168.0
1274.125732 228.0
1274.779419 236.0
1275.056641 168.0
1275.235718 192.0
1275.824219 140.0
1276.997559 188.0
1277.708862 204.0
1279.352783 156.0
1279.445312 160.0
1281.952515 212.0
1282.073608 48.0
1282.558228 120.0
1284.105469 76.0
1284.255249 176.0
1286.738525 136.0
1287.374023 220.0
1287.973999 36.0
1288.795532 168.0
1291.233154 208.0
1291.283203 164.0
1295.527832 184.0
1295.821533 220.0
1295.928955 164.0
1296.702881 100.0
1297.491333 176.0
1298.021973 228.0
1298.911255 184.0
1299.10498 184.0
1299.74353 108.0
1299.815186 144.0
1301.868286 260.0
1302.320679 148.0
1302.809204 120.0
1303.541992 176.0
1304.339722 124.0
1305.425415 144.0
1305.641113 252.0
1306.483398 196.0
1306.986328 160.0
1307.59082 92.0
1307.648315 160.0
1308.404175 52.0
1309.324707 124.0
1310.247803 60.0
1310.5 148.0
1311.696289 68.0
1311.797241 200.0
1311.984619 204.0
1313.196045 144.0
1313.311401 116.0
1313.563843 164.0
1313.9823 176.0
1314.140991 112.0
1314.509033 156.0
1315.064697 88.0
1315.829834 176.0
1319.196411 244.0
1320.664185 184.0
1321.076538 100.0
1322.958008 168.0
1323.081177 92.0
1323.47937 184.0
1324.07312 108.0
1324.362793 228.0
1326.725098 164.0
1326.920776 160.0
1330.31604 164.0
1330.599121 168.0
1331.390625 108.0
1332.712646 148.0
1333.192261 196.0
1333.330322 200.0
1333.897217 128.0
1335.19873 196.0
1336.384399 176.0
1337.206665 228.0
1337.388672 136.0
1337.497803 184.0
1337.648071 248.0
1338.983154 180.0
1339.57312 200.0
1340.155884 168.0
1340.352661 156.0
1343.38562 144.0
1344.844971 252.0
1345.166138 192.0
1345.523804 164.0
1346.509521 156.0
1347.101196 128.0
1347.283813 200.0
1347.70752 140.0
1350.20752 264.0
1351.553589 204.0
1351.78772 200.0
1352.117065 156.0
1352.966064 176.0
1353.998535 152.0
1355.295166 180.0
1355.397705 152.0
1355.786133 152.0
1356.005981 200.0
1356.489746 168.0
1357.230103 196.0
1358.26416 128.0
1358.410889 168.0
1359.856445 180.0
1360.72998 176.0
1360.95752 140.0
1364.116577 164.0
1364.263672 152.0
1364.734131 132.0
1364.829712 160.0
1365.15332 116.0
1367.463257 112.0
1367.735596 188.0
1368.5896 168.0
1370.232056 176.0
1372.111328 204.0
1374.449341 72.0
1374.818359 160.0
1374.869995 260.0
1375.379272 72.0
1376.582642 160.0
1378.924561 152.0
1380.73584 168.0
1381.630859 152.0
1382.33374 100.0
1383.036743 52.0
1383.147827 164.0
1383.40686 152.0
1383.562378 80.0
1384.887817 108.0
1385.458252 140.0
1386.717896 116.0
1386.814209 172.0
1387.859497 132.0
1388.793945 192.0
1391.160889 252.0
1392.660889 180.0
1394.860229 176.0
1396.570435 176.0
1396.949829 60.0
1397.820312 112.0
1397.924438 140.0
1399.539673 240.0
1401.200562 180.0
1401.826416 116.0
1401.997925 152.0
1402.236328 156.0
1402.85498 168.0
1403.704956 80.0
1404.309082 140.0
1404.666992 160.0
1406.853516 220.0
1406.920654 168.0
1407.81665 144.0
1407.876343 200.0
1409.116333 188.0
1409.62439 188.0
1411.141724 232.0
1411.43335 108.0
1413.625 136.0
1414.785156 40.0
1415.653687 304.0
1416.095581 124.0
1421.373169 100.0
1421.853394 212.0
1424.646606 192.0
1424.826904 144.0
1427.487671 160.0
1427.571289 168.0
1427.660645 60.0
1427.923828 80.0
1429.759521 144.0
1430.331543 216.0
1430.594971 120.0
1432.997314 140.0
1434.760864 152.0
1435.220825 144.0
1435.37915 160.0
1436.042847 196.0
1437.634644 176.0
1438.162964 48.0
1438.706421 184.0
1439.061279 144.0
1440.533936 216.0
1441.327148 164.0
1443.45874 180.0
1443.662964 168.0
1444.124268 164.0
1444.215088 152.0
1445.145508 264.0
1448.059937 172.0
1448.461304 160.0
1449.938843 180.0
1449.99939 140.0
1451.280518 196.0
1451.409424 244.0
1453.108398 152.0
1453.586426 128.0
1453.730591 188.0
1453.829224 128.0
1453.882324 248.0
1453.943115 48.0
1454.163208 180.0
1455.218262 232.0
1455.339844 176.0
1455.711792 116.0
1456.228271 184.0
1457.390503 288.0
1458.591309 128.0
1459.450317 140.0
1459.762085 160.0
1459.990234 212.0
1463.680908 172.0
1464.038818 200.0
1466.293823 236.0
1466.836182 120.0
1466.934082 224.0
1468.497192 172.0
1468.657349 256.0
1469.694824 208.0
1470.900635 232.0
1471.236572 152.0
1471.351074 152.0
1474.131226 144.0
1475.996338 164.0
1477.357788 232.0
1477.92395 188.0
1481.415039 180.0
1483.047119 172.0
1483.552979 204.0
1484.404053 192.0
1484.718506 116.0
1484.795166 148.0
1485.19397 192.0
1488.217529 152.0
1490.614014 204.0
1490.737061 140.0
1492.343506 140.0
1494.004761 176.0
1494.120117 268.0
1494.804932 184.0
1496.205688 100.0
1496.736938 104.0
1496.883179 192.0
1498.554688 60.0
1499.309814 80.0
1499.571899 152.0
1500.5354 136.0
1501.661255 96.0
1502.208862 196.0
1502.895508 104.0
1503.489624 180.0
1504.153442 132.0
