>compound MLS000863606-01!1-[2,4-dihydroxy-6-methoxy-3-(3-methylbut-2-enyl)phenyl]-3-(4-hydroxyphenyl)propan-1-one
>formula C21H24O5
>ionization [M+H]+
>parentmass 357.17
#inchi InChI=1S/C21H24O5/c1-13(2)4-10-16-18(24)12-19(26-3)20(21(16)25)17(23)11-7-14-5-8-15(22)9-6-14/h4-6,8-9,12,22,24-25H,7,10-11H2,1-3H3
#inchikey SVTCZHIDEDUTBH
#Ion_Source LC-ESI
#Instrument qTof
#Compound_Source NIH Natural Product Library
#PI Dorrestein
#Data_Collector VVP/LMS
#Scan -1
#Precursor_MZ 357.17
#ExactMass 356.162
#Charge 1
#CAS_Number N/A
#Pubmed_ID N/A
#Smiles COc1cc(O)c(CC=C(C)C)c(O)c1C(=O)CCc2ccc(O)cc2
#INCHI_AUX N/A
#Library_Class 1
#SpectrumID CCMSLIB00000080343
#IonMode Positive
#UpdateWorkflowName UPDATE-SINGLE-ANNOTATED-GOLD
#LibraryQualityString Gold
#TaskID b1d8e8f6646f4e71acdff9ca3d919d08
##Scan# 2449
#SpectrumFile p2-E07_GE7_01_18031.mzXML
#LibraryName NIH_Natural_Products_Library.mgf
#MQScore -1
#Organism NIH_Natural_Products_Library
#TIC_Query 0
#RT_Query -1
#MZErrorPPM -1
#SharedPeaks 0
#MassDiff 0
#LibMZ -1
#SpecMZ 357.17
#SpecCharge 0
#internalFilename spec-00000.mgf

>collision 10
95.003502 144.0
95.04493 400.0
95.116058 216.0
95.314148 152.0
95.370506 180.0
95.391266 124.0
95.609734 140.0
95.629196 124.0
95.71875 156.0
95.84536 260.0
95.901878 160.0
95.935013 156.0
96.151527 220.0
96.251083 196.0
96.524651 176.0
96.554222 164.0
97.025887 216.0
97.080788 196.0
97.214188 96.0
97.273064 164.0
97.290733 100.0
97.316254 56.0
97.449814 64.0
97.591331 148.0
97.695564 176.0
97.92981 200.0
98.351753 180.0
98.375443 76.0
98.422829 128.0
98.533432 184.0
98.594688 104.0
98.754829 144.0
98.774612 188.0
98.859688 160.0
98.917084 172.0
99.1409 160.0
99.28363 80.0
99.614326 236.0
99.652847 152.0
99.925232 164.0
100.29364 80.0
100.453163 180.0
100.477036 116.0
100.718651 116.0
101.022491 204.0
101.070503 156.0
101.116531 168.0
101.344818 140.0
101.507179 152.0
102.049324 332.0
102.107635 228.0
102.676735 140.0
102.746178 144.0
102.78653 124.0
102.830925 80.0
102.903595 104.0
103.026794 196.0
103.055405 924.0
103.091454 176.0
103.253769 180.0
103.810097 80.0
103.847145 224.0
104.057648 416.0
104.134079 144.0
104.181534 160.0
104.236389 192.0
104.527168 96.0
104.930466 180.0
105.036507 184.0
105.069145 160.0
105.285515 148.0
105.305939 44.0
105.389694 232.0
105.470688 284.0
105.616615 140.0
105.637505 168.0
105.747566 172.0
105.856064 160.0
106.017899 176.0
106.040268 332.0
106.095787 116.0
106.138847 52.0
106.181908 48.0
106.269089 152.0
106.419952 132.0
106.478279 236.0
106.627426 176.0
106.701424 172.0
106.761055 164.0
106.833046 148.0
106.876251 88.0
106.94622 200.0
107.010529 328.0
107.048935 27916.0
107.083969 208.0
107.145966 96.0
107.220512 68.0
107.261368 176.0
107.275795 84.0
107.296974 88.0
107.385078 180.0
107.512993 72.0
107.566658 160.0
107.634789 216.0
107.676605 48.0
107.911659 64.0
107.936478 48.0
108.023338 192.0
108.051743 1844.0
108.099892 84.0
108.193031 184.0
108.217873 148.0
108.331779 180.0
108.451965 112.0
108.51001 172.0
108.548973 96.0
108.60955 64.0
108.648964 160.0
108.668144 180.0
108.700096 188.0
108.74649 116.0
108.7714 88.0
108.856522 144.0
108.902214 88.0
108.952065 204.0
109.027214 304.0
109.0588 208.0
109.320091 216.0
109.444984 192.0
109.474136 212.0
109.49913 48.0
110.074707 168.0
110.141541 112.0
110.352608 116.0
110.442535 144.0
110.56179 144.0
110.658081 184.0
110.781639 80.0
111.044327 444.0
111.127563 148.0
111.144348 52.0
111.222 140.0
111.497139 204.0
111.52446 60.0
112.052658 72.0
112.594772 160.0
112.829315 172.0
113.000343 148.0
113.022125 224.0
113.322449 160.0
113.339394 204.0
114.031212 164.0
114.218323 96.0
114.377907 244.0
114.558914 124.0
115.051537 224.0
115.175385 184.0
115.222382 136.0
115.386948 112.0
115.406189 80.0
115.453232 124.0
115.555908 68.0
115.632942 44.0
115.669334 40.0
116.014069 280.0
116.280197 172.0
116.514252 168.0
116.774353 156.0
117.013214 160.0
117.033051 356.0
117.060585 148.0
117.120888 188.0
117.248001 84.0
117.301888 164.0
117.58976 180.0
117.735947 188.0
117.759323 152.0
117.84227 188.0
117.858696 160.0
117.927849 168.0
118.040268 120.0
118.131111 212.0
118.577156 40.0
118.609665 172.0
118.780968 172.0
119.052902 312.0
119.130463 200.0
119.41304 204.0
119.82663 112.0
119.854958 44.0
119.896362 64.0
120.051147 176.0
120.092583 144.0
120.23481 212.0
120.489876 188.0
120.679718 88.0
120.80687 84.0
121.028389 688.0
121.063576 2332.0
121.257935 32.0
121.404816 60.0
121.52327 136.0
121.672508 64.0
121.76693 96.0
122.018578 340.0
122.039421 200.0
122.064339 144.0
122.094398 196.0
122.671272 172.0
122.966843 260.0
123.000481 132.0
123.043411 64.0
123.077217 160.0
123.169975 164.0
123.249504 176.0
123.570107 156.0
124.028511 164.0
124.529961 132.0
124.845551 76.0
125.023521 84.0
125.056396 516.0
125.072777 188.0
125.237259 172.0
125.266212 168.0
125.471237 52.0
125.52475 148.0
125.636269 216.0
125.772392 116.0
125.930923 208.0
125.97464 244.0
126.272881 192.0
126.557076 128.0
127.258873 180.0
127.371162 168.0
128.485474 148.0
128.731506 224.0
128.950638 168.0
128.991333 124.0
129.147354 96.0
129.20842 148.0
129.244629 80.0
130.676331 184.0
130.835648 160.0
130.872589 160.0
131.013275 104.0
131.04866 1176.0
131.275391 200.0
131.309601 148.0
131.857544 76.0
132.050812 372.0
132.086182 32.0
132.21431 44.0
132.234909 92.0
132.683884 164.0
132.759552 136.0
132.91095 184.0
133.025696 184.0
133.067139 228.0
133.103958 136.0
133.547195 176.0
134.033768 932.0
134.339691 132.0
134.36969 192.0
134.565857 140.0
134.605118 148.0
134.859238 192.0
134.960953 116.0
135.042221 1248.0
135.102036 184.0
135.152939 60.0
135.243195 200.0
135.929184 228.0
136.008087 172.0
136.04541 320.0
136.903198 140.0
136.928818 76.0
136.966095 36.0
137.010345 136.0
137.060562 408.0
137.343704 176.0
137.455673 196.0
138.039673 164.0
138.180008 152.0
138.212769 184.0
138.444504 180.0
138.6577 184.0
138.913269 172.0
139.038513 1920.0
139.07518 88.0
139.105698 188.0
139.469788 72.0
140.03801 188.0
140.083939 192.0
140.142838 140.0
140.567276 56.0
140.642792 112.0
140.661682 128.0
140.916733 144.0
141.015976 128.0
141.070145 184.0
141.245331 148.0
141.415695 180.0
141.548264 236.0
141.620865 104.0
141.851532 96.0
141.898941 104.0
142.075729 184.0
142.126633 40.0
142.185959 164.0
142.226318 40.0
142.364014 252.0
142.442398 116.0
142.511292 244.0
142.713318 140.0
142.841736 212.0
143.053528 164.0
143.077332 184.0
143.163055 208.0
143.296448 160.0
143.646896 104.0
143.711304 152.0
144.058548 240.0
144.136322 96.0
144.23909 132.0
144.459091 148.0
145.024963 288.0
145.061768 544.0
145.153641 116.0
145.254379 72.0
145.532761 28.0
145.619217 152.0
145.652847 64.0
145.758545 220.0
145.86911 84.0
145.996536 136.0
146.033844 352.0
146.063889 100.0
146.461044 140.0
146.615784 196.0
146.796051 168.0
147.008331 152.0
147.042389 504.0
147.170059 108.0
148.050888 292.0
148.135025 160.0
148.336151 28.0
148.372513 144.0
148.404037 184.0
148.704849 144.0
148.755814 212.0
148.884506 140.0
148.996231 152.0
149.023163 800.0
149.058212 2696.0
149.116562 100.0
149.268463 184.0
149.484955 60.0
149.577438 192.0
149.594482 84.0
149.640732 104.0
149.701614 80.0
149.830704 172.0
150.023071 164.0
150.063156 292.0
150.084183 104.0
150.591766 132.0
150.765228 200.0
150.858109 80.0
151.036484 324.0
151.05864 156.0
151.225311 172.0
151.364563 132.0
151.49437 40.0
151.609543 36.0
151.705124 220.0
151.771317 152.0
151.928284 32.0
152.001892 56.0
152.059967 344.0
152.195816 108.0
152.384933 100.0
152.539764 148.0
152.884094 120.0
153.026871 144.0
153.054932 3968.0
153.09581 168.0
153.157379 136.0
153.263321 48.0
153.317535 48.0
153.374222 152.0
153.566544 76.0
153.643005 100.0
153.887344 216.0
154.056808 420.0
154.107162 192.0
154.280167 160.0
154.396378 60.0
154.453262 176.0
154.750229 156.0
154.836899 52.0
154.866623 72.0
155.044998 176.0
155.064835 168.0
155.183823 132.0
155.238373 76.0
155.536087 132.0
155.754608 80.0
155.799316 148.0
155.943436 192.0
156.105026 112.0
156.142334 140.0
156.881851 228.0
156.941696 120.0
157.06485 188.0
157.103806 180.0
157.560654 124.0
157.798096 120.0
157.820587 216.0
157.870605 140.0
158.038925 236.0
158.073593 136.0
158.661835 164.0
159.042267 356.0
159.076477 140.0
159.354523 104.0
159.382156 196.0
159.875031 84.0
160.043304 160.0
160.522446 216.0
161.024841 200.0
161.057739 584.0
161.153473 136.0
161.87944 148.0
161.97821 152.0
162.027771 1096.0
162.168243 52.0
162.431946 136.0
162.612091 208.0
162.782196 112.0
163.037613 284.0
163.11972 136.0
163.206543 68.0
163.282822 184.0
163.794418 100.0
163.990616 32.0
164.044144 320.0
164.630981 52.0
164.873672 80.0
165.05574 1396.0
165.257248 172.0
165.275146 72.0
165.684799 52.0
165.882126 164.0
166.060745 204.0
166.093506 212.0
166.472244 160.0
166.585251 180.0
166.870514 184.0
167.034515 124.0
167.083755 652.0
167.292435 84.0
167.370499 160.0
167.874725 200.0
168.057877 160.0
168.081085 212.0
168.499374 140.0
168.602722 132.0
168.887131 180.0
168.938858 160.0
169.034592 180.0
169.064667 312.0
169.102631 180.0
169.153641 164.0
169.290863 168.0
169.749542 124.0
170.034912 76.0
170.07399 392.0
170.897644 104.0
170.95488 132.0
171.043304 144.0
171.072006 100.0
171.68692 220.0
171.712997 260.0
171.746902 168.0
172.054825 324.0
172.086166 192.0
172.169724 52.0
172.383926 176.0
172.436203 180.0
173.006424 172.0
173.053558 288.0
173.098068 332.0
173.315475 220.0
173.514679 280.0
173.97641 120.0
174.034164 176.0
174.252167 152.0
174.551804 176.0
174.720139 176.0
174.891174 124.0
175.03299 168.0
175.07547 484.0
175.323105 156.0
175.541916 88.0
175.589386 184.0
175.705444 60.0
175.916565 168.0
176.062408 412.0
176.143661 140.0
176.30748 152.0
176.468719 172.0
176.524246 100.0
176.569199 84.0
176.593002 88.0
176.63533 132.0
176.749084 48.0
176.871368 136.0
176.910538 44.0
176.938675 164.0
176.972794 156.0
176.988007 196.0
177.054581 33764.0
177.147644 104.0
177.185959 52.0
177.236389 128.0
177.274536 56.0
177.299088 104.0
177.304321 72.0
177.337006 144.0
177.366516 60.0
177.390976 44.0
177.409134 184.0
177.464844 252.0
177.490768 84.0
177.514633 92.0
177.538498 64.0
177.557053 116.0
177.602142 88.0
177.683456 172.0
177.707611 180.0
177.752228 168.0
177.771942 220.0
177.795822 40.0
177.825027 56.0
177.848907 32.0
177.878113 120.0
177.904083 56.0
177.952744 144.0
178.057739 3624.0
178.106461 60.0
178.151627 104.0
178.196793 84.0
178.223358 48.0
178.249924 76.0
178.28714 68.0
178.420029 80.0
178.446625 48.0
178.574265 108.0
178.62413 80.0
178.707275 108.0
178.730072 56.0
178.829681 116.0
178.916046 108.0
178.955505 136.0
179.034241 5184.0
179.072876 748.0
179.124298 124.0
179.154541 48.0
179.28006 112.0
179.319748 104.0
179.381912 100.0
179.426376 160.0
179.473129 120.0
179.530365 100.0
179.69841 64.0
179.727768 48.0
179.941284 68.0
180.036545 572.0
180.074799 124.0
180.213715 44.0
180.353561 136.0
180.60936 136.0
180.636108 176.0
181.058182 700.0
181.219727 76.0
181.415375 32.0
181.764038 28.0
181.782822 56.0
181.817719 96.0
182.074753 232.0
182.177505 80.0
183.083893 568.0
183.493515 88.0
184.054428 112.0
184.078949 284.0
184.554596 136.0
184.938751 144.0
185.055862 92.0
185.093414 192.0
185.353088 184.0
185.513 120.0
185.719086 96.0
186.061005 132.0
186.169617 228.0
186.218491 144.0
186.528244 136.0
186.968872 76.0
187.081192 452.0
187.341888 140.0
188.132736 44.0
188.550659 148.0
188.575256 200.0
189.051834 460.0
189.09491 144.0
189.862015 36.0
190.075058 224.0
190.669159 132.0
190.732376 124.0
190.869827 116.0
190.957825 176.0
191.072601 144.0
191.191971 192.0
191.277008 256.0
192.051285 180.0
192.238892 60.0
192.316162 112.0
192.531509 188.0
192.741455 128.0
192.793961 116.0
193.067642 240.0
193.20871 176.0
193.4384 144.0
193.914825 184.0
194.074829 348.0
194.219818 140.0
194.497284 144.0
194.547256 180.0
194.60556 76.0
194.652756 108.0
194.830521 188.0
194.916641 152.0
194.944427 224.0
194.96524 176.0
195.023361 60.0
195.065491 32048.0
195.134979 116.0
195.164032 144.0
195.189819 88.0
195.250229 200.0
195.296204 76.0
195.316315 164.0
195.365143 64.0
195.388153 48.0
195.549774 72.0
195.572968 52.0
195.653702 32.0
195.673187 88.0
195.694077 72.0
195.727783 92.0
195.815201 100.0
195.886475 116.0
195.893036 68.0
195.905426 112.0
195.937775 36.0
196.069199 3072.0
196.138412 48.0
196.160706 56.0
196.252716 64.0
196.333572 76.0
196.364258 80.0
196.565109 116.0
196.636459 184.0
196.678284 92.0
196.729782 132.0
196.76329 64.0
196.796799 148.0
196.830292 64.0
196.868332 136.0
196.943604 84.0
197.011841 40.0
197.060516 1280.0
197.09726 132.0
197.158798 108.0
197.235397 68.0
197.327652 136.0
197.352814 48.0
197.41713 80.0
197.476608 104.0
197.545776 100.0
197.674484 76.0
197.702469 108.0
197.803223 96.0
197.895615 44.0
197.962814 48.0
198.062576 324.0
198.240143 60.0
198.441956 48.0
198.9245 52.0
199.069397 144.0
199.534119 52.0
199.685959 76.0
199.916656 76.0
200.082138 96.0
200.150299 120.0
200.539062 112.0
200.598251 144.0
201.074936 160.0
201.258423 44.0
201.323364 228.0
202.409256 88.0
202.805862 164.0
202.958954 104.0
203.47818 60.0
204.120789 120.0
204.791946 40.0
204.854614 124.0
205.031265 124.0
205.065781 328.0
205.641602 132.0
206.069855 464.0
206.411407 156.0
206.435822 44.0
207.008148 104.0
207.065964 2696.0
207.222977 252.0
207.423569 40.0
207.499954 56.0
208.057495 188.0
208.07576 132.0
208.307388 88.0
208.364838 88.0
208.479782 160.0
208.810394 68.0
208.962845 236.0
208.982986 88.0
209.060822 508.0
209.090958 288.0
209.893188 48.0
210.071365 144.0
210.187408 60.0
210.213379 120.0
211.071915 340.0
211.40686 208.0
211.511047 184.0
211.907791 120.0
212.049789 32.0
212.082687 280.0
212.743027 96.0
213.08876 220.0
213.99025 120.0
214.067535 176.0
214.095078 100.0
214.444672 108.0
214.55545 80.0
214.990051 92.0
215.615021 212.0
215.854736 28.0
216.521957 100.0
216.987869 184.0
217.075836 48.0
217.680328 160.0
218.659271 144.0
218.759354 160.0
219.127472 144.0
220.062439 128.0
220.09491 136.0
221.063538 264.0
221.464142 176.0
221.541168 112.0
222.062943 352.0
222.876266 148.0
222.989182 120.0
223.077133 1440.0
223.500671 60.0
224.042542 148.0
224.081085 664.0
225.049469 348.0
225.091156 188.0
225.525604 136.0
225.6362 104.0
226.0578 196.0
227.063156 456.0
227.127518 188.0
227.739838 104.0
228.115433 192.0
229.082397 844.0
229.759689 148.0
230.091812 744.0
230.188293 108.0
231.431046 196.0
231.479492 216.0
232.798615 60.0
233.05484 136.0
234.14888 168.0
234.517532 220.0
235.080276 312.0
236.043991 192.0
236.07457 164.0
236.417191 68.0
236.980621 188.0
237.044968 264.0
237.092682 404.0
237.59993 136.0
238.094559 168.0
239.0672 132.0
239.154831 44.0
239.176376 76.0
239.49968 44.0
239.986588 152.0
240.078186 796.0
240.205551 32.0
241.081635 236.0
241.725616 212.0
242.087799 92.0
242.918442 80.0
243.837509 164.0
246.811478 216.0
248.070053 108.0
250.069992 472.0
250.483398 60.0
250.691345 196.0
251.068634 2904.0
251.1548 56.0
251.235046 136.0
251.397736 52.0
251.568176 208.0
251.618683 240.0
251.72287 276.0
252.070984 584.0
253.051331 260.0
253.082443 244.0
253.136383 80.0
253.668655 64.0
254.048676 124.0
254.079636 188.0
254.468109 76.0
255.101593 364.0
255.921127 96.0
255.997543 80.0
256.10144 164.0
256.529633 104.0
257.078217 148.0
257.15799 68.0
259.663147 120.0
260.857605 104.0
262.09024 184.0
265.084869 672.0
265.426025 48.0
266.045715 96.0
266.084686 184.0
267.063263 588.0
267.25473 68.0
268.072815 1380.0
268.329529 124.0
268.401276 64.0
268.443665 56.0
268.525208 136.0
268.701355 116.0
268.854706 32.0
268.923248 36.0
268.981995 48.0
269.004852 128.0
269.068024 124.0
269.095428 208.0
269.181152 56.0
269.386902 64.0
269.981781 124.0
270.106049 164.0
273.021851 92.0
277.880859 84.0
280.421448 84.0
280.818207 116.0
281.612549 240.0
281.936615 200.0
282.41806 108.0
282.648895 112.0
282.675659 196.0
282.996277 164.0
283.006317 128.0
283.097626 9520.0
283.183929 204.0
283.222137 52.0
283.28363 68.0
283.29541 40.0
283.317169 180.0
283.388885 48.0
283.439148 48.0
283.566467 40.0
283.630157 72.0
283.884979 44.0
284.012421 120.0
284.05603 144.0
284.099304 1404.0
284.358002 180.0
284.445251 32.0
284.801178 76.0
285.081421 196.0
285.10495 404.0
285.248108 56.0
285.543976 92.0
285.634796 68.0
285.658356 148.0
285.739075 64.0
285.860199 84.0
285.97464 140.0
286.105927 96.0
286.729065 132.0
286.890839 44.0
287.093903 92.0
287.214569 40.0
287.454102 196.0
287.957123 52.0
288.21048 80.0
292.367889 40.0
298.130341 92.0
298.484406 80.0
300.178589 56.0
300.948059 152.0
301.010193 184.0
301.051636 132.0
301.107605 8824.0
301.18634 44.0
301.217438 52.0
301.324036 56.0
301.414368 56.0
301.739258 244.0
301.881012 36.0
301.950195 64.0
302.111053 904.0
302.140442 184.0
302.17157 44.0
302.427643 128.0
303.111237 520.0
303.154938 64.0
303.765137 64.0
304.129486 80.0
304.167664 68.0
304.212708 136.0
304.296112 44.0
306.292236 56.0
311.441071 32.0
312.861694 68.0
316.006256 100.0
316.96225 68.0
317.813232 96.0
322.038879 48.0
324.178284 64.0
333.129944 76.0
335.863678 88.0
339.048187 36.0
339.15448 164.0
339.279114 208.0
347.945282 88.0
351.746124 64.0
356.269775 128.0
363.625397 80.0
387.08252 204.0
388.528778 144.0
403.731506 112.0
405.464966 72.0
408.717712 80.0
417.727661 96.0
444.263947 36.0
445.166351 88.0
447.61792 36.0
473.715942 68.0
474.053894 112.0
493.01651 108.0
495.938812 28.0
522.209961 48.0
525.339294 84.0
541.474487 112.0
561.316284 132.0
606.810364 56.0
616.566528 92.0
641.196655 100.0
704.69989 148.0
706.941833 96.0
728.622192 72.0
759.637756 200.0
764.104004 96.0
789.369385 48.0
803.326233 176.0
816.074402 64.0
864.362793 160.0
864.491516 56.0
877.160034 76.0
905.574402 140.0
908.403564 132.0
913.172729 216.0
919.420227 216.0
925.997925 192.0
955.087952 172.0
963.632019 220.0
977.869629 176.0
979.177002 144.0
980.86554 72.0
991.246338 156.0
997.076172 160.0
999.119751 192.0
1014.858459 192.0
1020.216797 172.0
1021.399536 132.0
1022.996765 140.0
1023.334167 96.0
1024.614258 92.0
1025.799561 208.0
1027.272583 88.0
1027.827637 184.0
1030.93103 72.0
1035.300293 184.0
1037.196777 180.0
1040.0896 60.0
1040.924194 148.0
1047.136353 168.0
1051.081665 160.0
1056.230591 76.0
1058.903687 188.0
1058.962036 128.0
1062.07959 72.0
1071.049438 212.0
1072.163452 216.0
1075.287354 176.0
1077.344238 196.0
1081.849854 216.0
1085.053345 112.0
1091.34314 144.0
1092.447998 108.0
1102.053589 104.0
1103.157227 96.0
1105.47876 184.0
1106.18689 160.0
1110.480469 200.0
1111.913574 76.0
1115.134644 168.0
1118.706543 32.0
1121.890747 188.0
1123.324463 196.0
1127.410645 200.0
1130.841431 208.0
1136.041138 112.0
1137.309326 164.0
1143.068726 108.0
1143.788818 40.0
1144.448608 40.0
1146.233521 168.0
1146.941162 236.0
1147.096191 56.0
1151.002441 152.0
1152.927612 88.0
1153.684692 164.0
1155.165649 144.0
1158.706177 128.0
1163.650269 172.0
1164.465088 220.0
1164.763916 200.0
1166.238403 184.0
1166.666626 164.0
1166.768677 240.0
1167.917847 180.0
1168.244385 56.0
1168.931519 240.0
1173.099609 152.0
1177.596191 164.0
1177.698608 160.0
1180.008423 32.0
1180.692139 128.0
1180.890503 228.0
1181.978149 124.0
1183.128052 124.0
1183.271851 180.0
1193.866089 224.0
1195.441406 104.0
1195.702881 52.0
1196.026367 156.0
1197.189819 164.0
1198.677856 96.0
1202.422363 136.0
1205.032471 180.0
1210.56604 132.0
1210.80835 160.0
1211.494141 44.0
1213.31665 176.0
1218.22998 156.0
1218.855225 168.0
1221.281494 200.0
1222.976929 172.0
1223.898071 236.0
1224.448242 160.0
1228.414185 136.0
1243.338257 168.0
1246.68103 44.0
1246.842651 132.0
1249.943848 200.0
1250.936157 88.0
1251.358521 136.0
1251.414795 208.0
1254.007202 144.0
1254.359619 212.0
1254.994019 168.0
1256.05896 176.0
1258.366577 144.0
1260.626831 200.0
1260.951904 192.0
1261.333618 64.0
1261.439575 160.0
1262.761841 52.0
1264.7854 188.0
1268.383545 152.0
1270.432861 84.0
1277.017456 112.0
1288.886963 80.0
1292.755371 156.0
1293.965088 180.0
1297.712036 140.0
1305.093018 152.0
1305.770142 124.0
1306.049438 176.0
1306.121338 196.0
1307.099731 156.0
1307.265259 80.0
1308.719238 192.0
1313.94458 232.0
1318.775391 136.0
1327.078491 180.0
1329.776978 168.0
1335.611328 136.0
1339.541992 92.0
1341.282715 176.0
1342.223999 192.0
1342.741699 212.0
1343.420044 140.0
1346.843506 204.0
1347.888184 140.0
1349.342651 76.0
1349.547363 72.0
1349.964233 164.0
1356.231079 176.0
1357.120728 220.0
1359.780884 60.0
1360.052368 168.0
1360.830566 132.0
1363.525513 224.0
1364.070312 168.0
1365.349609 108.0
1365.724731 144.0
1366.614868 208.0
1374.233154 200.0
1375.05957 204.0
1375.221924 72.0
1375.428589 104.0
1376.528687 180.0
1378.537842 204.0
1379.232544 200.0
1379.454346 148.0
1381.177246 148.0
1381.348145 196.0
1382.953003 240.0
1388.924927 212.0
1390.172485 240.0
1394.508423 172.0
1398.204712 152.0
1398.852295 156.0
1399.805176 196.0
1400.535034 72.0
1401.801514 92.0
1402.196533 212.0
1404.254272 164.0
1405.26123 196.0
1408.03064 144.0
1408.672974 216.0
1413.697266 108.0
1413.831909 176.0
1417.875977 64.0
1418.513062 204.0
1419.427612 112.0
1420.335083 208.0
1421.122803 140.0
1421.37793 192.0
1421.910767 200.0
1422.323486 108.0
1422.376099 240.0
1423.359497 184.0
1424.598755 220.0
1424.921753 204.0
1425.63562 172.0
1426.883301 168.0
1427.966064 188.0
1428.169189 204.0
1429.508301 216.0
1430.268433 108.0
1435.05957 156.0
1435.715576 36.0
1436.175659 168.0
1436.620728 180.0
1436.726318 132.0
1437.20166 176.0
1440.878418 196.0
1441.868286 176.0
1443.206299 204.0
1444.658325 168.0
1447.307251 220.0
1448.799194 184.0
1449.238647 188.0
1450.319824 60.0
1451.140991 180.0
1451.285034 136.0
1453.757812 56.0
1453.977905 220.0
1455.89856 188.0
1455.959351 128.0
1456.369507 172.0
1457.083496 192.0
1457.622925 112.0
1458.116943 116.0
1458.215698 212.0
1458.687012 100.0
1463.395996 140.0
1464.363159 132.0
1470.057861 124.0
1472.294556 160.0
1472.607666 188.0
1473.348633 124.0
1474.762329 256.0
1475.236206 156.0
1476.06189 224.0
1476.191895 144.0
1476.696167 372.0
1477.140259 268.0
1477.744629 144.0
1481.120605 124.0
1481.725708 148.0
1482.967163 180.0
1485.106201 152.0
1485.666138 152.0
1489.10498 92.0
1490.533813 132.0
1492.270874 80.0
1492.939819 156.0
1493.955078 84.0
1495.578735 208.0
1498.512573 216.0
1498.928711 168.0
1499.745605 184.0
1500.277466 84.0
1501.148682 304.0
1502.297852 196.0
1502.575562 136.0
