>compound Naltrindole
>formula C26H26N2O3
>ionization [M+H]+
>parentmass 415.2016191440905
#inchi InChI=1S/C26H26N2O3/c29-19-8-7-15-11-20-26(30)12-17-16-3-1-2-4-18(16)27-22(17)24-25(26,21(15)23(19)31-24)9-10-28(20)13-14-5-6-14/h1-4,7-8,14,20,24,27,29-30H,5-6,9-13H2/t20?,24-,25-,26+/m0/s1
#inchikey WIYUZYBFCWCCQJ
#Ion_Source LC-ESI
#Instrument qTof
#Compound_Source Commercial
#PI Dorrestein
#Data_Collector Garg_Neha
#Scan -1
#Precursor_MZ 415.202
#ExactMass 414.194
#Charge 1
#CAS_Number N/A
#Pubmed_ID N/A
#Smiles Oc1ccc2CC3N(CC4CC4)CC[C@]5([C@H]6Oc1c25)[C@@]3(O)Cc7c6[nH]c8ccccc78
#INCHI_AUX N/A
#Library_Class 1
#SpectrumID CCMSLIB00000079184
#IonMode Positive
#UpdateWorkflowName UPDATE-SINGLE-ANNOTATED-GOLD
#LibraryQualityString Gold
#TaskID 278b19f5865741e282cec7349aa7e7a1
##Scan# 1070
#SpectrumFile NCP003592_E2_F11_BE2_01_15736.mzXML
#LibraryName NIHcollectionI_05062014.mgf
#MQScore -1
#Organism NIHcollectionI_05062014
#TIC_Query 0
#RT_Query -1
#MZErrorPPM -1
#SharedPeaks 0
#MassDiff 0
#LibMZ -1
#SpecMZ 415.202
#SpecCharge 0
#internalFilename spec-00000.mgf

>collision 10
47.30331 164.0
47.6022 152.0
49.309017 152.0
49.779732 172.0
52.420147 148.0
54.118233 184.0
55.472168 148.0
56.25016 188.0
58.920265 140.0
59.525272 176.0
66.722023 184.0
69.896599 148.0
70.0681 152.0
73.039459 160.0
74.855339 196.0
75.376282 160.0
76.387054 144.0
78.243828 140.0
80.556396 152.0
85.36898 276.0
90.459305 152.0
92.205399 204.0
93.209564 152.0
94.561424 144.0
96.972641 172.0
98.097221 1544.0
98.284325 188.0
98.993965 164.0
99.098457 444.0
100.832176 204.0
102.441383 140.0
104.583748 164.0
109.625748 172.0
110.525734 168.0
112.604828 184.0
112.775963 164.0
113.973312 192.0
120.863136 144.0
121.746544 152.0
122.769852 160.0
124.012344 204.0
126.234177 144.0
129.078781 216.0
129.851013 176.0
130.064041 1092.0
131.068329 156.0
131.854492 148.0
132.080856 184.0
133.102982 156.0
133.187958 204.0
141.879074 184.0
143.086288 164.0
144.080887 344.0
145.832108 148.0
146.942215 180.0
147.043564 256.0
149.094864 140.0
149.204239 140.0
155.068298 288.0
156.079651 552.0
157.38472 276.0
158.059601 160.0
158.21727 144.0
159.044495 172.0
159.072113 216.0
159.107254 168.0
161.055695 156.0
163.08078 144.0
165.169037 164.0
166.132202 168.0
166.483841 156.0
167.071411 140.0
168.081116 192.0
169.06311 156.0
170.09906 184.0
173.055862 172.0
175.062317 160.0
176.072952 96.0
178.405334 200.0
178.998642 148.0
179.528931 148.0
180.083633 196.0
180.950455 172.0
180.977219 172.0
181.092987 140.0
182.09613 192.0
183.069 192.0
184.075089 128.0
184.113403 364.0
185.064468 128.0
185.115479 272.0
187.072021 156.0
187.095261 192.0
187.844666 236.0
189.646591 148.0
190.214371 236.0
191.809784 172.0
192.408401 188.0
192.574081 144.0
192.996887 144.0
193.079849 176.0
193.345428 152.0
194.056915 232.0
194.094604 500.0
194.245911 164.0
195.069656 120.0
195.100616 228.0
196.069855 268.0
196.117233 148.0
197.055939 208.0
197.080032 184.0
197.675583 160.0
198.064743 152.0
198.087143 320.0
198.123291 164.0
199.07222 180.0
199.802383 248.0
200.066849 164.0
201.070374 164.0
201.090729 224.0
202.087509 240.0
204.093887 264.0
204.53389 168.0
205.089401 144.0
206.059555 148.0
206.081711 276.0
206.554123 140.0
207.066452 160.0
207.086502 156.0
208.103775 172.0
209.099121 236.0
210.056274 152.0
210.128448 168.0
211.064728 168.0
211.543884 152.0
212.068832 300.0
212.112442 160.0
213.075394 192.0
213.912628 156.0
214.083862 408.0
215.034805 184.0
215.099014 148.0
216.054504 136.0
216.100922 544.0
217.107162 140.0
217.399475 204.0
218.089645 164.0
218.116089 188.0
218.154312 224.0
218.73381 148.0
219.088989 264.0
220.070206 140.0
220.105942 152.0
221.068359 204.0
221.113358 136.0
223.07016 192.0
223.183319 144.0
224.071716 268.0
224.111969 148.0
224.139816 128.0
224.225204 164.0
224.508423 160.0
225.07518 164.0
226.08667 356.0
226.123123 132.0
226.780594 160.0
227.080215 128.0
227.248398 148.0
229.884262 168.0
230.110489 164.0
230.68161 204.0
231.108994 600.0
232.097076 188.0
232.359329 188.0
233.104904 180.0
233.477127 140.0
234.114685 168.0
234.146667 148.0
234.189301 204.0
236.1091 168.0
237.117996 152.0
238.087311 176.0
238.13945 168.0
239.583633 168.0
240.012039 152.0
241.093704 244.0
242.101059 112.0
242.190765 148.0
243.097275 140.0
244.112579 312.0
247.122971 172.0
248.097198 144.0
248.146011 168.0
248.754623 212.0
249.074905 280.0
249.106323 140.0
250.082413 196.0
250.122955 168.0
250.931595 168.0
251.113586 168.0
251.150146 184.0
252.108871 140.0
252.13739 192.0
253.110779 284.0
253.137054 172.0
254.097595 3116.0
255.103027 1068.0
256.118164 232.0
257.08255 152.0
257.12674 144.0
258.088867 200.0
259.147675 140.0
260.109772 188.0
261.134399 188.0
262.079254 328.0
262.142731 176.0
262.471191 168.0
263.148926 136.0
264.097076 172.0
265.109589 276.0
266.119476 1216.0
267.120544 380.0
268.110382 848.0
269.120972 344.0
270.088501 124.0
270.113007 132.0
271.102051 272.0
272.108002 756.0
272.144043 204.0
272.384735 148.0
273.111115 264.0
273.746338 180.0
274.026306 196.0
274.084503 296.0
274.153656 124.0
275.080078 120.0
275.152435 504.0
276.09903 352.0
276.154663 164.0
277.297729 180.0
277.735382 164.0
278.101135 244.0
278.751282 148.0
278.927429 152.0
279.099213 332.0
279.998779 180.0
280.072052 152.0
280.11264 2848.0
280.895355 232.0
281.115204 676.0
282.047363 200.0
282.091522 12032.0
283.096008 2292.0
283.395996 156.0
284.105042 536.0
284.899017 188.0
285.074768 184.0
285.108154 272.0
286.088837 532.0
287.08847 380.0
287.653625 152.0
287.758301 188.0
288.099976 444.0
289.105957 620.0
290.096008 408.0
291.102203 1012.0
292.106049 736.0
292.821045 184.0
293.11853 172.0
293.891418 176.0
294.089935 140.0
294.130859 172.0
294.495667 204.0
295.097626 132.0
295.350159 148.0
295.661499 140.0
296.105652 1344.0
296.216156 180.0
297.082275 172.0
297.106506 676.0
297.372955 116.0
297.835175 152.0
298.087036 352.0
298.122467 848.0
298.560364 164.0
299.093567 1720.0
299.186584 176.0
299.996521 156.0
300.10257 23612.0
300.503632 108.0
300.537628 172.0
300.867065 184.0
301.105103 3448.0
301.571045 172.0
302.110687 604.0
302.206451 232.0
302.562927 204.0
302.869781 96.0
303.112366 152.0
304.12674 156.0
305.109131 192.0
306.089661 248.0
306.128265 152.0
306.853546 160.0
307.098602 1476.0
308.107666 7280.0
308.173004 176.0
309.110748 1936.0
309.200897 168.0
310.121918 820.0
311.09671 308.0
311.105865 208.0
311.118439 128.0
311.16037 192.0
312.102631 864.0
312.241028 132.0
312.553711 112.0
313.105377 1788.0
314.117859 1624.0
314.176971 224.0
314.525726 144.0
315.117401 1304.0
315.235626 184.0
316.132263 580.0
317.136078 148.0
318.124542 132.0
319.132019 124.0
320.10788 192.0
320.134583 284.0
320.177307 148.0
321.112854 348.0
322.112915 168.0
323.336823 188.0
324.102753 184.0
324.133148 140.0
325.107239 760.0
325.254639 144.0
325.918732 176.0
326.001373 160.0
326.116364 4360.0
327.118713 960.0
328.134949 2004.0
328.262024 168.0
328.774292 156.0
329.134338 364.0
329.865051 144.0
332.160797 152.0
333.124786 156.0
334.155029 444.0
335.137238 204.0
336.145447 124.0
336.184753 192.0
337.133179 308.0
337.986237 152.0
338.077728 160.0
338.118622 424.0
339.118195 464.0
340.126068 240.0
341.128693 1340.0
342.135162 1352.0
342.866577 176.0
343.143097 4268.0
344.147858 964.0
345.141693 224.0
345.192261 168.0
345.739746 164.0
346.152649 128.0
346.243347 128.0
347.131561 124.0
347.243896 208.0
349.160004 112.0
350.142426 136.0
351.055817 140.0
351.130646 120.0
351.185944 148.0
352.129608 220.0
352.48175 148.0
353.139526 324.0
354.149261 712.0
354.341339 164.0
355.146149 480.0
355.312347 144.0
356.152649 1244.0
357.158722 124.0
358.154236 180.0
359.198334 164.0
360.644501 148.0
361.159241 176.0
362.15451 384.0
364.140076 212.0
367.152344 152.0
368.165466 272.0
369.161774 844.0
369.416901 188.0
370.161194 484.0
370.331726 172.0
371.15567 144.0
379.185608 160.0
380.169952 112.0
381.163757 368.0
381.289093 168.0
382.167511 340.0
383.195801 172.0
386.79245 176.0
388.147095 180.0
390.319427 172.0
390.795349 208.0
395.166718 424.0
395.6716 108.0
395.946716 164.0
396.175934 268.0
396.255707 156.0
396.321167 176.0
396.513275 156.0
396.862091 160.0
397.104004 172.0
397.191864 21712.0
397.392456 124.0
397.472168 164.0
398.091034 128.0
398.125854 180.0
398.194641 7776.0
398.390045 152.0
399.196259 984.0
400.205139 148.0
401.015411 96.0
402.923645 140.0
405.192047 156.0
407.71994 160.0
408.761475 152.0
409.755981 220.0
411.175354 144.0
411.954651 144.0
412.370819 140.0
413.118866 168.0
413.186676 484.0
413.267548 144.0
413.485809 176.0
413.549133 96.0
413.651398 100.0
413.885223 136.0
413.954559 192.0
414.119019 136.0
414.194977 124.0
414.222656 192.0
414.363464 152.0
414.434631 156.0
414.515686 168.0
414.565735 192.0
414.592377 164.0
414.652222 156.0
414.680969 184.0
414.868561 236.0
414.915955 124.0
414.950195 148.0
415.032257 308.0
415.127777 236.0
415.203644 134508.0
415.320679 160.0
415.395844 184.0
415.461823 232.0
415.507294 180.0
415.597565 364.0
415.671936 112.0
415.705811 160.0
415.794586 132.0
415.827118 140.0
415.870209 924.0
416.001282 152.0
416.124939 152.0
416.205566 39916.0
416.344482 96.0
416.407837 128.0
416.503021 164.0
416.786407 108.0
416.854401 140.0
417.207153 6000.0
417.297241 136.0
417.406891 108.0
417.615326 124.0
417.668793 152.0
417.987091 124.0
418.105072 108.0
418.211212 812.0
418.393585 160.0
418.442444 184.0
418.555756 120.0
418.674561 136.0
418.716736 172.0
418.800568 140.0
418.950531 128.0
419.001678 132.0
419.064758 168.0
419.180603 148.0
419.407471 96.0
419.80835 252.0
419.842957 108.0
420.0271 140.0
420.461975 176.0
423.988953 132.0
446.628174 220.0
526.278259 144.0
657.372681 160.0
753.002136 152.0
791.796387 168.0
881.094604 144.0
1298.688477 140.0
1329.959839 176.0
1336.798706 208.0
1350.134033 172.0
1548.042847 160.0
1649.713867 224.0
1676.392578 188.0
1785.583862 172.0
1955.768066 144.0
