>compound MLS002222336-01!71125-38-7
>formula C14H13N3O4S2
>ionization [M+H]+
>parentmass 352.044
#inchi InChI=1S/C14H13N3O4S2/c1-8-7-15-14(22-8)16-13(19)11-12(18)9-5-3-4-6-10(9)23(20,21)17(11)2/h3-7,11H,1-2H3,(H,15,16,19)
#inchikey ZAHQBPYQBHTECE
#Ion_Source LC-ESI
#Instrument qTof
#Compound_Source NIH Pharmacologically Active Library
#PI Dorrestein
#Data_Collector VP/LMS
#Scan -1
#Precursor_MZ 352.044
#ExactMass 351.035
#Charge 1
#CAS_Number N/A
#Pubmed_ID N/A
#Smiles CN1C(C(=O)Nc2ncc(C)s2)C(=O)c3ccccc3S1(=O)=O
#INCHI_AUX N/A
#Library_Class 1
#SpectrumID CCMSLIB00000085169
#IonMode Positive
#UpdateWorkflowName UPDATE-SINGLE-ANNOTATED-GOLD
#LibraryQualityString Gold
#TaskID d252d724072548979f1f6f1ced849daf
##Scan# 2080
#SpectrumFile p3-F07_GF7_01_18288.mzXML
#LibraryName Pharm_Active_Library.mgf
#MQScore -1
#Organism Pharm_Active_Library
#TIC_Query 0
#RT_Query -1
#MZErrorPPM -1
#SharedPeaks 0
#MassDiff 0
#LibMZ -1
#SpecMZ 352.044
#SpecCharge 0
#internalFilename spec-00000.mgf

>collision 10
45.166248 212.0
45.226463 108.0
45.347797 272.0
45.38858 144.0
45.414062 104.0
45.440895 204.0
45.593987 88.0
45.632973 80.0
45.678699 176.0
45.961643 148.0
46.160225 204.0
46.303688 172.0
46.376858 164.0
46.60622 60.0
46.623833 188.0
46.995667 180.0
47.033882 192.0
47.331944 188.0
47.399067 120.0
47.444302 204.0
47.50053 248.0
47.710651 160.0
47.906086 188.0
48.093632 188.0
48.256657 160.0
48.328583 56.0
48.342422 180.0
48.365952 152.0
48.530823 144.0
48.595798 180.0
48.659866 192.0
48.737652 196.0
48.929604 68.0
48.990883 160.0
49.141464 168.0
49.197292 144.0
49.443317 148.0
49.593189 148.0
50.05825 96.0
50.240082 120.0
50.251369 160.0
50.542458 224.0
50.648643 132.0
50.693985 208.0
50.879807 200.0
51.219704 156.0
51.519295 120.0
51.660831 52.0
51.755093 196.0
51.864182 120.0
52.262012 180.0
52.299469 152.0
52.338306 168.0
52.509804 200.0
52.542984 160.0
52.592052 196.0
52.684475 192.0
53.020191 160.0
53.134754 236.0
53.354065 236.0
53.705032 164.0
53.745884 116.0
53.862686 188.0
53.967915 212.0
54.07032 196.0
54.093742 116.0
54.112774 84.0
54.392799 144.0
54.720654 180.0
54.792828 136.0
54.810509 124.0
54.91666 124.0
55.002247 172.0
55.300838 52.0
55.385242 152.0
55.445995 120.0
55.717556 112.0
56.022552 184.0
56.47039 116.0
56.597599 204.0
56.676991 48.0
56.778934 144.0
56.795437 124.0
57.172573 240.0
57.454361 200.0
57.6008 136.0
57.764069 48.0
57.774658 80.0
58.076122 192.0
58.200573 208.0
58.278042 216.0
58.487923 152.0
58.676834 232.0
58.951603 172.0
59.086166 128.0
59.403301 144.0
59.452404 188.0
59.756668 44.0
59.867504 172.0
59.992317 176.0
60.08794 156.0
60.128063 188.0
60.179008 156.0
61.23357 144.0
61.375389 188.0
61.476791 220.0
61.645454 172.0
61.734566 120.0
61.825306 176.0
61.905151 152.0
62.05402 248.0
62.079109 136.0
62.654423 212.0
62.769489 176.0
63.922775 100.0
64.058113 164.0
64.306877 60.0
64.530533 184.0
64.632904 196.0
65.264923 180.0
65.470314 236.0
66.511497 228.0
66.591782 208.0
67.00824 56.0
67.021278 160.0
67.30674 140.0
67.391685 140.0
67.753281 176.0
67.827026 120.0
68.267067 176.0
68.779488 120.0
68.805901 144.0
68.858742 136.0
69.383324 60.0
69.414825 136.0
69.825043 132.0
69.883308 172.0
70.053093 188.0
70.081413 172.0
70.153084 176.0
70.608955 256.0
70.737801 188.0
70.783005 176.0
70.896919 188.0
71.022675 108.0
71.140144 128.0
71.1838 100.0
71.237549 192.0
71.292999 176.0
71.323257 48.0
71.584045 56.0
72.06987 192.0
72.323563 120.0
72.609917 228.0
72.808487 188.0
73.051567 208.0
73.165588 156.0
73.381973 172.0
73.402435 144.0
73.475784 168.0
73.552582 148.0
73.643082 100.0
73.655037 124.0
73.713127 152.0
74.038185 104.0
74.118698 212.0
74.549438 152.0
74.609604 112.0
74.625076 160.0
74.738602 168.0
74.762695 208.0
75.255722 128.0
75.44059 152.0
75.611839 172.0
75.998299 96.0
76.064247 68.0
76.429237 140.0
76.450119 152.0
76.476227 248.0
76.505821 156.0
76.566765 140.0
76.679573 176.0
77.259773 144.0
77.328018 192.0
77.878593 128.0
77.894402 144.0
78.304253 152.0
78.529869 220.0
78.833542 124.0
79.547363 236.0
79.575768 156.0
79.860115 168.0
79.905365 184.0
79.96331 164.0
80.089737 188.0
80.260826 196.0
80.487457 212.0
80.780579 124.0
80.827095 128.0
81.04377 168.0
81.217674 204.0
81.291237 164.0
81.508522 172.0
81.663139 160.0
82.118843 152.0
82.178383 196.0
82.346268 160.0
82.467331 144.0
82.678947 104.0
83.001419 156.0
83.084854 212.0
83.173775 156.0
83.511757 220.0
83.542686 108.0
83.788467 184.0
84.590218 152.0
84.626831 144.0
84.700089 148.0
84.716576 36.0
84.734901 208.0
85.121941 128.0
85.20092 148.0
85.401299 148.0
85.635063 160.0
85.961395 104.0
86.160812 104.0
86.182991 152.0
86.199615 184.0
86.286499 136.0
86.351219 152.0
86.41227 88.0
86.451126 80.0
86.782715 68.0
86.86528 136.0
86.947449 260.0
87.449661 112.0
87.472 164.0
87.620987 152.0
87.840973 188.0
87.997749 164.0
88.023888 188.0
88.128494 176.0
88.294876 176.0
88.470772 180.0
88.553169 48.0
88.635597 136.0
88.918785 140.0
89.022049 140.0
89.069 56.0
89.104698 196.0
89.805008 128.0
89.965408 124.0
90.016441 144.0
90.218567 64.0
90.494797 176.0
91.303215 156.0
91.352669 40.0
91.512543 76.0
91.525871 196.0
92.056007 136.0
92.182091 156.0
92.256638 120.0
92.317825 108.0
92.491943 272.0
92.662788 168.0
92.925064 188.0
93.042145 156.0
93.072868 148.0
93.160179 132.0
93.491951 160.0
93.547768 188.0
93.649834 188.0
93.896545 188.0
94.760666 184.0
94.781975 44.0
94.92543 164.0
95.447807 192.0
95.706612 236.0
95.932625 228.0
96.076942 212.0
96.665085 32.0
96.813873 184.0
96.874588 168.0
96.892227 128.0
97.00869 288.0
97.09021 168.0
97.30999 140.0
97.949165 180.0
98.016151 160.0
98.371178 176.0
98.392891 240.0
98.681358 184.0
98.740685 208.0
98.762444 128.0
99.073242 116.0
99.223869 160.0
100.016808 132.0
100.502831 180.0
100.670517 168.0
100.944298 220.0
101.719704 196.0
101.791985 140.0
101.950691 152.0
101.972801 152.0
102.284576 92.0
102.423523 212.0
102.477921 160.0
102.740028 176.0
102.81469 168.0
102.921684 116.0
103.184357 120.0
103.481789 104.0
103.77964 36.0
104.023109 164.0
104.177444 152.0
104.409172 184.0
104.645233 204.0
104.922325 112.0
105.029884 332.0
105.116104 344.0
105.564095 136.0
106.036423 208.0
106.403618 216.0
106.487816 140.0
106.849625 216.0
107.181129 168.0
107.434738 52.0
107.513145 88.0
107.659729 104.0
107.998695 136.0
108.093864 60.0
108.228416 112.0
108.435585 272.0
108.584869 96.0
108.694824 88.0
108.779922 208.0
108.966835 156.0
109.008774 600.0
109.199669 64.0
109.232948 52.0
109.488976 176.0
109.943474 172.0
109.993568 144.0
110.01236 144.0
110.179436 120.0
110.57885 44.0
110.643738 168.0
110.899185 128.0
110.999847 168.0
111.075455 168.0
111.387222 132.0
111.735123 192.0
111.865608 140.0
112.008804 200.0
112.11837 136.0
112.225883 180.0
112.350327 112.0
112.436844 64.0
112.48539 216.0
112.785355 160.0
112.810722 156.0
113.015182 492.0
113.034149 220.0
113.049736 148.0
113.077248 212.0
113.119583 104.0
113.318665 128.0
113.617615 188.0
113.807274 168.0
113.838371 160.0
113.899963 136.0
113.953079 136.0
113.999847 540.0
114.02533 136.0
114.067841 224.0
114.359268 240.0
114.389069 256.0
114.427391 144.0
114.536003 136.0
114.682098 220.0
114.853615 160.0
114.880783 236.0
114.917816 208.0
114.963768 272.0
114.980232 208.0
115.031647 53988.0
115.090012 116.0
115.106087 164.0
115.139633 112.0
115.160103 204.0
115.183937 92.0
115.2117 92.0
115.244118 224.0
115.295593 56.0
115.313713 84.0
115.331932 108.0
115.363525 184.0
115.411034 92.0
115.432419 64.0
115.453499 80.0
115.498718 32.0
115.513695 116.0
115.609985 60.0
115.65493 44.0
115.71833 52.0
115.74485 156.0
115.761978 36.0
115.794106 176.0
115.871941 80.0
115.920509 52.0
115.959084 56.0
116.033714 2452.0
116.070404 52.0
116.121323 96.0
116.213211 56.0
116.362389 204.0
116.418221 88.0
116.495544 100.0
116.562157 172.0
116.591652 88.0
116.599762 64.0
116.656723 108.0
116.676071 140.0
116.714775 160.0
116.734131 60.0
116.759048 116.0
116.793907 96.0
116.833076 52.0
116.895218 68.0
116.957893 44.0
116.994484 244.0
117.025688 2168.0
117.053627 152.0
117.125854 76.0
117.147392 76.0
117.330582 52.0
117.922066 40.0
118.028793 296.0
118.065536 224.0
118.129654 60.0
118.320107 236.0
118.480377 64.0
118.597397 80.0
118.63208 32.0
119.013947 204.0
119.426872 176.0
119.75119 128.0
120.022392 196.0
120.377129 92.0
120.593422 108.0
121.006882 176.0
121.06601 184.0
121.125145 152.0
121.208405 136.0
121.34211 60.0
121.46273 132.0
121.956802 116.0
121.98098 144.0
122.030144 204.0
122.264725 184.0
122.767036 152.0
122.992088 136.0
123.011963 140.0
123.155495 220.0
123.613152 88.0
123.934242 160.0
124.06279 244.0
124.191414 188.0
124.384468 176.0
124.486603 112.0
124.813263 200.0
125.005135 444.0
125.653 148.0
125.695396 40.0
125.938751 132.0
126.008003 328.0
126.099632 156.0
126.473167 64.0
126.596313 80.0
126.661263 120.0
126.780022 192.0
126.858467 164.0
127.031105 472.0
127.089485 152.0
127.304985 248.0
127.747787 164.0
128.035583 168.0
128.128265 56.0
128.177841 88.0
128.867065 208.0
129.35231 152.0
129.417969 56.0
129.533478 172.0
129.553864 40.0
129.599182 260.0
130.802887 68.0
130.960007 136.0
131.162811 112.0
131.552902 188.0
132.327957 152.0
132.543274 132.0
132.939987 164.0
133.022629 184.0
133.144318 236.0
133.436157 116.0
133.505142 176.0
133.594849 104.0
133.997757 144.0
134.740692 144.0
135.97496 196.0
135.998169 292.0
136.425598 180.0
136.469772 164.0
136.567444 92.0
136.658173 152.0
137.005096 644.0
137.343109 140.0
137.819382 124.0
138.001709 112.0
138.020416 200.0
138.284775 104.0
139.396454 164.0
139.680939 236.0
139.817413 28.0
139.90451 212.0
140.008118 176.0
140.363968 120.0
140.451233 120.0
140.524368 152.0
140.608612 172.0
140.772217 192.0
140.824188 228.0
140.871979 204.0
140.89856 168.0
140.923401 164.0
140.977158 176.0
141.010406 33928.0
141.093582 48.0
141.129425 192.0
141.157425 36.0
141.20575 120.0
141.252029 84.0
141.323013 92.0
141.363754 160.0
141.389771 56.0
141.465012 140.0
141.557358 64.0
141.590515 68.0
141.666306 72.0
141.817566 236.0
141.84404 152.0
141.917542 44.0
141.938889 52.0
142.013702 2812.0
142.100174 144.0
142.128647 56.0
142.225952 64.0
142.282928 76.0
142.539459 152.0
142.572739 52.0
142.741531 100.0
142.758163 100.0
142.853317 208.0
142.873657 124.0
142.943726 104.0
143.006546 1916.0
143.096069 80.0
143.13179 100.0
143.179413 60.0
143.203232 96.0
143.25325 92.0
143.296143 80.0
143.405762 48.0
143.572662 76.0
143.875702 140.0
144.114548 88.0
144.34642 72.0
144.537796 76.0
145.052734 112.0
145.093491 68.0
145.604614 56.0
146.057114 348.0
147.791153 120.0
148.013855 128.0
148.338516 132.0
148.573761 48.0
149.006638 136.0
149.081253 80.0
149.176041 32.0
150.716415 36.0
151.643936 48.0
152.014282 196.0
152.775986 140.0
152.999207 2888.0
153.125534 36.0
153.162476 48.0
154.003876 336.0
154.985016 220.0
154.998688 192.0
155.159286 52.0
156.033234 116.0
156.080475 184.0
156.501007 180.0
156.598129 164.0
157.221436 68.0
158.113678 124.0
158.456741 60.0
158.995895 148.0
160.924179 100.0
161.020142 140.0
161.729126 176.0
161.992584 188.0
162.057343 140.0
162.831085 132.0
164.013229 496.0
165.004456 140.0
165.025238 164.0
165.104523 156.0
166.011124 144.0
166.03421 148.0
167.002518 144.0
168.218796 108.0
168.992981 1356.0
169.994446 152.0
170.028122 104.0
170.984558 152.0
171.052231 220.0
172.513123 88.0
173.107071 60.0
173.757141 60.0
174.055817 152.0
175.118866 152.0
176.021744 200.0
176.991318 148.0
181.001648 104.0
182.030762 552.0
182.052887 116.0
182.411469 96.0
183.352325 52.0
184.021332 184.0
184.052261 196.0
184.102356 60.0
184.623947 84.0
185.019012 68.0
187.030609 148.0
187.204865 168.0
189.913406 184.0
193.050476 124.0
194.023315 324.0
199.050537 156.0
200.034607 124.0
203.907028 144.0
204.962845 88.0
205.938553 188.0
209.662766 152.0
210.018433 1436.0
211.025284 144.0
211.595276 156.0
212.014587 196.0
212.040283 168.0
213.874191 36.0
216.953217 92.0
222.004318 216.0
227.852051 164.0
232.824219 60.0
233.030777 164.0
237.031158 164.0
239.954346 164.0
247.458069 184.0
249.020218 144.0
249.076324 36.0
253.278076 84.0
255.672119 220.0
265.009918 424.0
265.905914 136.0
265.992615 152.0
267.004059 280.0
268.534851 80.0
270.070038 140.0
273.890869 108.0
278.040497 172.0
281.132294 120.0
284.150574 136.0
285.131134 108.0
292.886444 120.0
295.2005 108.0
297.183868 176.0
306.034485 160.0
308.013702 140.0
309.199066 148.0
316.022644 96.0
321.177612 116.0
324.213196 136.0
349.272186 120.0
368.944183 108.0
372.592773 44.0
393.5849 108.0
404.014587 96.0
410.251587 56.0
479.03598 92.0
533.165771 52.0
549.81604 140.0
576.195557 48.0
610.892395 96.0
673.494629 80.0
686.736145 128.0
738.544128 104.0
738.609009 80.0
749.402039 148.0
752.784058 68.0
769.449524 104.0
775.274292 148.0
782.668274 144.0
795.381958 160.0
856.410645 236.0
909.221924 116.0
909.365967 228.0
909.456055 168.0
920.534119 164.0
930.070007 144.0
935.303772 148.0
949.779907 144.0
958.276184 136.0
961.513672 160.0
961.828491 68.0
963.236389 156.0
979.501709 192.0
979.881714 184.0
988.580139 168.0
993.981995 140.0
994.164001 220.0
1000.890442 164.0
1004.287415 220.0
1015.077148 52.0
1021.892944 232.0
1022.510254 132.0
1025.905396 52.0
1028.706055 88.0
1029.484985 192.0
1037.502563 156.0
1039.921021 128.0
1047.444336 188.0
1051.693848 172.0
1059.084595 192.0
1059.661255 220.0
1060.393433 196.0
1062.105225 188.0
1062.286865 56.0
1064.182007 44.0
1075.562134 184.0
1079.665405 200.0
1085.900635 156.0
1088.144897 148.0
1088.565186 40.0
1094.931396 208.0
1096.024902 148.0
1096.68396 160.0
1096.934448 204.0
1098.161011 160.0
1101.765259 176.0
1103.146484 148.0
1103.291992 156.0
1110.762085 112.0
1112.08252 148.0
1116.760376 144.0
1122.247925 168.0
1125.757935 80.0
1128.63147 140.0
1129.989258 148.0
1131.434937 136.0
1133.873291 144.0
1136.133057 160.0
1139.086914 164.0
1140.524902 188.0
1142.037842 180.0
1142.273315 156.0
1144.346191 196.0
1149.098022 92.0
1150.157593 216.0
1154.069336 112.0
1160.678101 156.0
1160.990112 144.0
1161.62085 216.0
1164.75708 208.0
1169.619141 180.0
1170.87207 144.0
1177.952271 140.0
1179.770142 220.0
1180.953125 164.0
1181.397827 196.0
1184.16333 132.0
1187.508057 112.0
1189.079346 40.0
1192.657959 124.0
1197.309204 252.0
1198.404419 152.0
1201.155273 52.0
1203.488037 128.0
1204.061279 144.0
1206.251587 112.0
1207.628662 120.0
1207.835205 168.0
1208.506348 220.0
1210.174438 184.0
1211.351807 152.0
1214.859619 232.0
1215.366211 152.0
1217.483521 160.0
1217.796021 204.0
1218.261475 156.0
1218.789429 184.0
1225.901489 212.0
1229.346558 120.0
1230.714722 100.0
1238.099487 116.0
1239.409424 212.0
1239.831665 80.0
1242.00354 192.0
1243.533203 196.0
1243.617432 136.0
1245.450073 136.0
1246.48291 148.0
1247.171631 228.0
1248.254395 116.0
1248.620117 196.0
1249.407959 240.0
1250.695801 184.0
1251.737793 52.0
1252.787231 72.0
1256.149902 128.0
1256.368652 172.0
1259.114502 72.0
1259.178101 212.0
1263.164795 96.0
1265.252441 132.0
1265.86145 188.0
1269.667114 172.0
1273.471436 64.0
1274.807129 56.0
1276.890259 232.0
1277.964478 136.0
1280.441772 112.0
1280.869141 172.0
1280.983154 212.0
1281.80249 160.0
1282.871704 40.0
1283.199585 112.0
1285.910522 36.0
1286.310181 200.0
1288.188354 164.0
1288.309814 212.0
1288.538452 236.0
1290.975952 232.0
1292.05603 100.0
1292.478149 72.0
1293.745117 132.0
1295.084229 228.0
1296.682007 128.0
1296.818237 212.0
1297.979614 208.0
1300.275391 84.0
1302.903564 184.0
1303.722778 140.0
1307.426514 168.0
1307.880005 252.0
1309.312866 256.0
1309.853027 136.0
1311.52478 172.0
1315.615112 96.0
1316.86438 192.0
1317.969727 156.0
1318.829712 220.0
1318.90918 100.0
1320.528931 168.0
1320.796509 168.0
1322.460815 164.0
1322.714233 152.0
1323.010986 156.0
1324.980957 164.0
1325.799805 128.0
1328.518921 132.0
1332.200439 176.0
1332.737305 100.0
1334.794434 208.0
1335.900269 160.0
1338.549438 176.0
1343.418335 108.0
1344.038452 208.0
1346.535278 236.0
1350.635742 192.0
1351.740601 184.0
1353.783081 168.0
1355.717163 176.0
1356.266846 120.0
1357.615967 136.0
1358.393433 248.0
1359.288574 240.0
1361.219238 168.0
1361.490967 68.0
1363.019043 148.0
1368.337036 204.0
1368.454834 164.0
1369.382812 144.0
1369.810059 188.0
1370.642578 168.0
1371.121582 108.0
1371.622803 144.0
1373.525391 128.0
1375.480835 184.0
1376.056641 240.0
1376.242065 184.0
1376.50708 148.0
1379.004272 128.0
1379.484741 208.0
1383.161377 60.0
1384.931152 180.0
1386.479614 200.0
1386.716797 124.0
1388.93396 128.0
1391.145386 168.0
1392.578491 132.0
1392.697388 216.0
1397.507446 140.0
1397.946411 112.0
1399.986328 160.0
1400.068237 148.0
1400.745972 132.0
1401.220703 276.0
1403.063721 220.0
1404.861084 180.0
1405.831055 128.0
1408.048462 216.0
1408.765625 252.0
1409.520264 212.0
1412.151855 36.0
1413.371338 160.0
1413.65564 160.0
1414.187012 124.0
1414.913208 140.0
1415.650146 140.0
1416.021484 168.0
1417.699707 196.0
1417.834595 168.0
1418.606689 188.0
1418.734131 156.0
1419.401489 124.0
1419.588867 120.0
1420.654053 168.0
1423.003174 144.0
1424.437622 128.0
1425.504517 104.0
1425.993042 164.0
1428.128418 152.0
1429.512817 216.0
1431.116211 220.0
1431.598145 144.0
1437.00293 204.0
1437.259521 176.0
1438.234131 140.0
1438.897461 268.0
1439.086182 136.0
1441.41272 148.0
1442.289429 120.0
1443.915161 116.0
1444.641357 96.0
1446.13208 156.0
1446.540771 168.0
1448.290039 180.0
1448.949097 152.0
1449.570435 52.0
1450.085815 116.0
1452.967407 128.0
1454.485229 132.0
1454.864868 52.0
1455.631714 60.0
1456.725464 48.0
1457.21167 104.0
1457.849976 148.0
1458.883789 240.0
1461.462158 192.0
1466.640869 156.0
1467.34375 168.0
1467.715942 180.0
1467.898926 160.0
1469.393921 204.0
1470.004395 160.0
1470.095947 52.0
1470.378418 216.0
1473.578003 112.0
1474.487427 168.0
1479.566772 152.0
1481.642212 200.0
1481.794189 232.0
1484.440063 164.0
1485.053589 140.0
1485.475464 108.0
1488.154053 120.0
1489.436523 200.0
1489.736206 192.0
1490.043457 116.0
1495.027954 180.0
1496.804688 152.0
1498.591797 156.0
1499.092651 124.0
1500.25647 156.0
1500.510986 144.0
1502.45459 104.0
1503.77417 156.0
1503.94397 132.0
