>compound MLS000859983-01!5-Nitro-2-(3-phenylpropylamino)benzoic acid
>formula C16H16N2O4
>ionization [M+H]+
>parentmass 301.11828344409054
#inchi InChI=1S/C16H16N2O4/c19-16(20)14-11-13(18(21)22)8-9-15(14)17-10-4-7-12-5-2-1-3-6-12/h1-3,5-6,8-9,11,17H,4,7,10H2,(H,19,20)
#inchikey WBSMIPAMAXNXFS
#Ion_Source LC-ESI
#Instrument qTof
#Compound_Source NIH Pharmacologically Active Library
#PI Dorrestein
#Data_Collector VP/LMS
#Scan -1
#Precursor_MZ 301.113
#ExactMass 300.111
#Charge 1
#CAS_Number N/A
#Pubmed_ID N/A
#Smiles OC(=O)c1cc(ccc1NCCCc2ccccc2)[N+](=O)[O-]
#INCHI_AUX N/A
#Library_Class 1
#SpectrumID CCMSLIB00000085352
#IonMode Positive
#UpdateWorkflowName UPDATE-SINGLE-ANNOTATED-GOLD
#LibraryQualityString Gold
#TaskID d252d724072548979f1f6f1ced849daf
##Scan# 2411
#SpectrumFile p3-H08_GH8_01_18313.mzXML
#LibraryName Pharm_Active_Library.mgf
#MQScore -1
#Organism Pharm_Active_Library
#TIC_Query 0
#RT_Query -1
#MZErrorPPM -1
#SharedPeaks 0
#MassDiff 0
#LibMZ -1
#SpecMZ 301.113
#SpecCharge 0
#internalFilename spec-00000.mgf

>collision 10
45.151512 196.0
45.387215 176.0
45.524094 48.0
45.759418 208.0
45.96566 192.0
46.098003 200.0
46.271145 52.0
46.356483 176.0
46.849728 212.0
46.861992 220.0
46.982132 172.0
47.603413 52.0
47.643246 184.0
47.718842 224.0
48.379723 172.0
48.729237 104.0
48.983837 212.0
49.514633 176.0
49.572075 188.0
49.828865 84.0
49.847134 168.0
49.910393 164.0
50.053925 180.0
50.415077 104.0
50.774689 200.0
51.739422 60.0
52.47073 76.0
53.102688 208.0
53.522697 184.0
53.758858 60.0
54.624817 108.0
54.828014 124.0
54.853073 140.0
55.339146 144.0
55.955334 156.0
56.311749 160.0
56.432796 68.0
56.83123 152.0
56.907784 124.0
57.496391 208.0
57.685204 176.0
58.223118 152.0
58.56382 216.0
58.791 216.0
58.806263 144.0
59.444473 224.0
59.631844 124.0
59.922699 92.0
60.070702 136.0
60.180283 184.0
60.249786 168.0
60.531338 164.0
60.76226 148.0
61.281574 196.0
61.400955 200.0
61.832836 148.0
62.020794 164.0
62.684052 76.0
62.717148 176.0
62.736065 192.0
62.824383 192.0
63.108677 192.0
63.127655 160.0
63.785656 68.0
64.35762 216.0
64.60376 128.0
64.714195 148.0
64.970642 156.0
65.055695 152.0
65.702675 44.0
66.134148 216.0
66.177856 128.0
66.558914 188.0
66.822243 168.0
66.835258 260.0
66.872688 184.0
67.731583 124.0
67.877449 172.0
68.054672 148.0
68.074379 180.0
69.19236 184.0
69.251976 208.0
69.273514 168.0
69.628487 192.0
69.862862 232.0
70.016006 228.0
70.059311 140.0
70.244362 176.0
70.831116 192.0
71.117859 140.0
71.287491 168.0
71.448914 196.0
72.295998 132.0
72.952431 260.0
73.057869 200.0
73.073181 200.0
73.471863 168.0
73.577682 128.0
73.651115 184.0
73.881897 200.0
74.178169 140.0
74.272484 92.0
74.887848 72.0
74.973999 116.0
75.718643 180.0
75.764893 160.0
75.848595 140.0
76.373001 152.0
76.425194 164.0
76.578392 160.0
77.308189 48.0
77.399223 208.0
77.620018 152.0
78.76403 188.0
79.461555 140.0
79.500595 168.0
79.806137 104.0
79.852371 88.0
79.919975 144.0
80.601143 216.0
80.787086 64.0
80.830032 64.0
81.010872 184.0
81.251106 84.0
81.344429 228.0
81.392906 148.0
82.62941 204.0
82.904648 188.0
84.006538 148.0
84.315132 176.0
84.5895 164.0
84.720222 188.0
85.636703 180.0
85.733818 124.0
86.150833 172.0
86.178543 180.0
86.226593 196.0
86.489243 108.0
86.904381 152.0
87.536392 92.0
88.02124 140.0
88.84668 196.0
89.643936 196.0
90.040115 212.0
90.359589 236.0
90.819931 52.0
90.876846 68.0
90.97364 108.0
91.05407 6148.0
91.150284 128.0
91.197792 28.0
91.298561 60.0
91.435547 168.0
92.057152 448.0
92.2099 168.0
92.697922 224.0
92.830193 128.0
93.05571 204.0
93.071983 212.0
93.383316 164.0
93.416016 72.0
93.74334 180.0
94.063515 128.0
94.225739 180.0
95.345787 204.0
95.579155 120.0
96.046738 196.0
96.808998 208.0
96.975533 160.0
97.032379 164.0
97.097092 140.0
97.399361 156.0
98.028969 212.0
98.111755 128.0
98.257698 188.0
98.490646 184.0
99.949837 156.0
100.053337 104.0
100.134987 156.0
100.631538 64.0
100.905266 140.0
101.632347 96.0
101.997719 244.0
102.340111 176.0
102.517151 228.0
102.61338 184.0
102.823708 56.0
103.042313 216.0
103.053383 204.0
103.118584 236.0
103.266182 112.0
104.048676 204.0
104.318596 176.0
104.574898 180.0
105.019089 240.0
105.070511 220.0
106.062729 224.0
106.866982 184.0
107.018013 216.0
107.035767 212.0
107.091377 104.0
107.122269 120.0
107.179962 48.0
107.993378 140.0
108.019333 156.0
108.044128 448.0
108.710228 136.0
108.868004 168.0
109.047752 364.0
110.100922 28.0
110.990318 200.0
111.416397 120.0
111.87487 136.0
111.980156 184.0
112.245697 208.0
112.620476 208.0
112.703758 168.0
112.92997 72.0
114.100548 160.0
114.728607 240.0
114.754189 160.0
115.055267 752.0
116.0448 232.0
116.122833 100.0
117.069489 2232.0
117.501747 180.0
118.026611 304.0
118.074448 360.0
118.268921 60.0
118.297058 212.0
118.390167 176.0
118.639351 84.0
118.710907 100.0
118.858414 84.0
119.012535 220.0
119.033318 452.0
119.080956 236.0
119.142853 160.0
119.817291 188.0
119.904457 148.0
120.048134 184.0
120.063614 152.0
120.085617 224.0
120.22287 176.0
120.61602 108.0
121.057983 212.0
121.255157 176.0
121.546837 240.0
121.980011 208.0
122.02121 132.0
122.064064 140.0
123.014877 176.0
123.061241 220.0
123.127487 192.0
123.928291 188.0
125.317009 164.0
126.411171 72.0
126.458168 76.0
127.150734 68.0
127.220322 144.0
127.388748 204.0
127.480873 168.0
127.588768 228.0
127.707947 92.0
128.068085 192.0
128.086105 72.0
128.424225 160.0
129.040741 204.0
129.06398 184.0
129.386902 116.0
129.624725 144.0
129.679123 148.0
129.992096 52.0
130.062881 128.0
130.178253 132.0
130.387039 208.0
130.623734 172.0
131.007446 180.0
131.036438 5996.0
131.065613 148.0
131.136063 64.0
131.2341 76.0
131.332153 52.0
131.512421 68.0
131.542099 88.0
131.713364 196.0
131.951035 52.0
132.043381 828.0
132.079102 176.0
132.692841 80.0
133.047775 120.0
133.087494 120.0
133.252869 136.0
133.420654 36.0
134.02713 224.0
134.060638 504.0
134.28418 184.0
134.309555 168.0
134.424911 92.0
135.027893 216.0
135.064896 204.0
136.039261 1256.0
136.421188 152.0
136.542404 220.0
136.64476 156.0
137.024261 112.0
137.045242 360.0
138.05043 184.0
138.60614 144.0
139.364059 128.0
141.094055 128.0
141.446548 164.0
142.07692 180.0
143.328354 196.0
144.043289 160.0
145.050949 396.0
145.465759 184.0
145.703522 180.0
145.972733 244.0
146.054779 424.0
146.078552 216.0
147.035172 208.0
147.99971 180.0
148.026566 3564.0
148.060257 48.0
148.08931 84.0
148.106277 48.0
148.205048 140.0
148.443161 56.0
148.511063 108.0
148.547455 156.0
148.702744 116.0
149.027374 504.0
149.044693 420.0
149.27124 48.0
149.570496 160.0
150.053329 208.0
150.12114 132.0
150.182114 124.0
150.455414 152.0
151.007675 136.0
151.05101 140.0
151.328262 188.0
152.029327 72.0
152.247833 200.0
152.272385 216.0
152.692673 200.0
153.064285 100.0
153.850815 152.0
154.063202 144.0
154.290573 100.0
155.08252 184.0
158.058868 168.0
159.101547 144.0
159.134186 180.0
159.161804 76.0
159.242172 76.0
159.659378 64.0
160.878952 104.0
161.03418 7972.0
161.080597 192.0
161.112488 124.0
161.141602 116.0
161.171921 32.0
161.29071 84.0
161.358963 68.0
161.447464 64.0
162.006866 144.0
162.037277 648.0
162.950653 196.0
163.02652 5952.0
163.062012 136.0
163.108215 60.0
163.217545 108.0
163.337082 44.0
163.418488 64.0
163.479553 84.0
163.553375 48.0
163.723953 60.0
164.029221 800.0
164.055206 36.0
164.185242 68.0
164.24646 216.0
164.335754 56.0
164.606323 104.0
165.028595 1480.0
165.067764 288.0
165.350266 200.0
165.434738 164.0
165.87793 192.0
166.037354 6280.0
166.083069 152.0
166.355072 64.0
166.378174 56.0
166.737808 80.0
166.848328 44.0
167.041962 332.0
167.857666 44.0
168.020172 224.0
168.045975 156.0
168.070099 344.0
168.29892 88.0
168.324738 220.0
168.399643 104.0
169.066681 232.0
169.087387 124.0
169.128799 152.0
169.680588 88.0
170.62825 84.0
172.079468 172.0
173.820129 128.0
174.041885 144.0
175.053955 292.0
176.070999 160.0
177.042511 304.0
177.069717 320.0
177.720215 156.0
178.061829 164.0
178.492584 188.0
178.740585 52.0
178.772522 68.0
179.044479 3956.0
179.083572 200.0
179.385132 136.0
180.014801 136.0
180.047089 536.0
180.082306 156.0
180.814163 68.0
181.035385 348.0
181.077881 160.0
181.477951 112.0
181.524109 104.0
181.580429 76.0
182.036652 64.0
182.095566 168.0
183.033295 148.0
183.101639 76.0
183.727005 44.0
184.113174 136.0
185.119034 180.0
185.563431 140.0
187.477097 184.0
188.055298 144.0
189.855576 180.0
190.075577 184.0
191.080582 96.0
192.051956 396.0
192.094528 164.0
192.406372 236.0
193.071442 208.0
193.085556 132.0
193.146988 144.0
194.058136 144.0
194.09404 208.0
195.04924 176.0
198.119232 120.0
201.065842 156.0
203.077881 132.0
204.077133 348.0
205.06871 232.0
206.092331 136.0
206.709976 48.0
207.064972 152.0
207.110016 160.0
208.110611 308.0
208.25528 168.0
208.991241 160.0
209.05159 148.0
209.083328 172.0
209.56424 96.0
210.06012 188.0
210.132233 192.0
212.233307 188.0
213.056412 120.0
213.248199 120.0
213.891037 96.0
216.597961 96.0
217.086472 392.0
218.095245 272.0
219.088806 152.0
219.110825 332.0
220.081787 312.0
220.109634 176.0
220.467087 176.0
221.08815 160.0
221.976883 108.0
222.356613 52.0
226.079056 188.0
226.133194 176.0
227.938339 148.0
229.959137 68.0
231.622177 208.0
232.067688 88.0
235.867142 184.0
236.08403 184.0
236.105545 144.0
237.079697 176.0
237.116852 164.0
237.618866 56.0
238.076233 116.0
238.110016 104.0
239.056473 220.0
241.073776 120.0
245.528824 108.0
245.681671 112.0
246.031204 148.0
247.078171 164.0
247.936157 180.0
249.071747 332.0
250.024658 80.0
250.088486 188.0
250.330032 80.0
251.087585 180.0
252.060883 152.0
252.097565 300.0
253.929733 160.0
254.055237 284.0
254.073898 188.0
254.112869 256.0
254.863068 44.0
255.120499 36.0
263.084991 156.0
263.902374 152.0
264.183777 132.0
265.102631 184.0
266.101318 120.0
267.086853 440.0
268.09317 128.0
270.104431 168.0
270.958862 80.0
278.108459 144.0
280.510101 184.0
283.102173 128.0
283.120667 144.0
283.230194 88.0
283.491516 144.0
283.816681 256.0
284.115631 2964.0
284.242676 44.0
285.114044 608.0
285.337677 120.0
286.122681 256.0
287.3349 60.0
287.385498 156.0
287.539673 64.0
288.162079 56.0
290.379395 132.0
296.386292 92.0
299.933075 92.0
300.32962 120.0
301.130463 156.0
301.348022 52.0
301.382568 64.0
301.493164 84.0
302.16745 156.0
302.274719 112.0
307.676178 72.0
338.733643 72.0
375.645966 88.0
377.484467 104.0
380.145813 84.0
391.731201 60.0
403.450531 48.0
441.01059 64.0
577.210632 120.0
591.805237 92.0
633.422058 36.0
669.157959 44.0
742.258789 128.0
742.730652 140.0
766.629761 112.0
769.465027 224.0
781.264404 212.0
790.717041 72.0
798.223328 80.0
801.73053 188.0
804.500061 56.0
834.768005 136.0
835.855225 132.0
836.016357 164.0
846.702698 140.0
851.888306 160.0
857.999023 148.0
867.223633 80.0
867.469788 132.0
871.166931 60.0
872.647949 72.0
873.577209 156.0
874.877808 132.0
877.393433 44.0
880.768982 128.0
887.462402 192.0
901.953186 196.0
904.357788 200.0
913.978088 52.0
919.2146 120.0
919.637024 228.0
920.029968 212.0
921.27887 176.0
940.5849 244.0
955.039978 132.0
988.55658 212.0
991.663025 236.0
992.484253 168.0
996.14325 44.0
1006.301819 204.0
1015.458801 188.0
1016.467529 136.0
1020.647278 164.0
1034.486084 140.0
1047.657593 224.0
1068.068848 72.0
1072.548828 164.0
1073.807251 136.0
1074.198608 120.0
1077.920166 112.0
1082.617188 196.0
1087.331055 204.0
1099.968872 176.0
1109.382446 160.0
1116.92627 220.0
1122.007446 112.0
1122.840942 56.0
1123.021118 172.0
1142.286011 144.0
1163.03125 208.0
1172.908081 204.0
1181.074951 108.0
1186.704346 148.0
1187.986816 136.0
1188.432739 192.0
1188.501343 200.0
1188.686646 184.0
1190.746216 152.0
1191.247681 132.0
1194.671265 160.0
1205.593262 116.0
1212.618042 128.0
1219.760498 68.0
1225.181641 176.0
1228.046753 140.0
1242.478271 240.0
1245.173828 200.0
1255.992188 200.0
1259.669922 144.0
1263.466309 128.0
1268.692993 144.0
1272.815308 176.0
1275.230713 152.0
1275.657227 236.0
1277.420898 156.0
1277.918823 164.0
1279.057495 140.0
1285.543457 184.0
1293.126343 220.0
1294.966431 112.0
1295.933594 160.0
1298.951782 176.0
1304.560425 176.0
1305.416016 208.0
1309.554321 208.0
1311.499756 172.0
1312.74707 48.0
1314.240234 104.0
1314.925781 188.0
1315.445557 152.0
1316.824707 140.0
1318.276855 208.0
1320.474731 168.0
1328.203247 104.0
1329.785034 176.0
1330.104492 188.0
1330.59082 208.0
1332.450195 148.0
1338.16687 148.0
1338.290649 164.0
1344.384766 168.0
1359.599854 128.0
1361.809814 216.0
1362.559204 184.0
1371.581543 168.0
1375.638794 88.0
1378.231079 148.0
1381.491699 204.0
1382.75708 176.0
1383.289917 132.0
1390.220215 204.0
1390.628418 160.0
1393.457764 252.0
1394.817749 160.0
1395.501709 128.0
1398.991089 104.0
1399.430298 112.0
1400.614502 180.0
1400.815552 108.0
1400.979492 148.0
1412.243896 136.0
1417.289795 48.0
1418.031738 120.0
1418.578979 184.0
1418.721436 120.0
1420.843872 164.0
1426.822144 240.0
1432.157593 172.0
1436.1073 164.0
1437.487915 120.0
1437.631348 164.0
1438.189819 164.0
1448.094971 64.0
1457.844116 228.0
1458.064453 48.0
1462.734741 196.0
1464.516602 164.0
1468.38855 84.0
1471.051636 188.0
1472.838501 116.0
1474.710571 160.0
1478.48877 160.0
1478.695435 152.0
1484.84021 156.0
1487.456665 204.0
1489.430176 100.0
1495.335327 196.0
1498.161377 156.0
1501.321655 160.0
