>compound MLS001140714-01!(2S)-3-(4-hydroxyphenyl)-2-[[2-[4-(4-methoxyphenyl)-8-methyl-2-oxochromen-7-yl]oxyacetyl]amino]propanoic acid
>formula C28H25NO8
>ionization [M+H]+
>parentmass 504.164825
#inchi InChI=1S/C28H25NO8/c1-16-24(36-15-25(31)29-23(28(33)34)13-17-3-7-19(30)8-4-17)12-11-21-22(14-26(32)37-27(16)21)18-5-9-20(35-2)10-6-18/h3-12,14,23,30H,13,15H2,1-2H3,(H,29,31)(H,33,34)/t23-/m0/s1
#inchikey BNJUELXOBVNCKN
#Ion_Source LC-ESI
#Instrument qTof
#Compound_Source NIH Natural Product Library
#PI Dorrestein
#Data_Collector VVP/LMS
#Scan -1
#Precursor_MZ 504.166
#ExactMass 503.158
#Charge 1
#CAS_Number N/A
#Pubmed_ID N/A
#Smiles COc1ccc(cc1)c2cc(=O)oc3c(C)c(OCC(=O)N[C@@H](Cc4ccc(O)cc4)C(=O)O)ccc23
#INCHI_AUX N/A
#Library_Class 1
#SpectrumID CCMSLIB00000079984
#IonMode Positive
#UpdateWorkflowName UPDATE-SINGLE-ANNOTATED-GOLD
#LibraryQualityString Gold
#TaskID b1d8e8f6646f4e71acdff9ca3d919d08
##Scan# 2064
#SpectrumFile p2-F02_GF2_01_18038.mzXML
#LibraryName NIH_Natural_Products_Library.mgf
#MQScore -1
#Organism NIH_Natural_Products_Library
#TIC_Query 0
#RT_Query -1
#MZErrorPPM -1
#SharedPeaks 0
#MassDiff 0
#LibMZ -1
#SpecMZ 504.166
#SpecCharge 0
#internalFilename spec-00000.mgf

>collision 10
95.0485 232.0
95.220589 144.0
95.313835 128.0
95.63472 168.0
95.776863 112.0
95.908539 176.0
95.975647 228.0
96.162926 112.0
96.252724 136.0
96.575188 148.0
96.626053 224.0
97.5065 124.0
98.339615 172.0
98.531166 184.0
98.756516 224.0
98.792122 28.0
98.837631 104.0
99.271446 180.0
99.624748 204.0
99.777771 108.0
99.940865 136.0
100.317276 196.0
100.33522 96.0
101.192322 140.0
101.254402 176.0
101.384621 140.0
102.354897 80.0
102.645065 224.0
102.850845 216.0
102.919487 136.0
102.992188 160.0
103.053558 344.0
103.135651 76.0
103.155869 204.0
103.232697 160.0
103.382401 48.0
104.061455 208.0
104.596115 116.0
104.824226 160.0
105.075241 236.0
105.103584 44.0
105.148483 64.0
105.238297 40.0
106.062752 220.0
106.087349 208.0
106.185776 124.0
106.438194 160.0
106.706047 176.0
107.049721 1180.0
107.095528 108.0
107.370415 104.0
107.841148 188.0
107.954857 180.0
108.050858 180.0
108.09346 168.0
108.545036 48.0
108.872917 68.0
109.222092 88.0
109.71563 232.0
109.76358 108.0
110.189377 52.0
110.630661 68.0
110.823341 248.0
110.869438 168.0
111.366676 132.0
111.839767 140.0
111.858711 240.0
112.326523 140.0
112.573463 140.0
112.975052 180.0
113.988533 204.0
114.260689 188.0
114.7612 140.0
114.925438 124.0
115.352577 96.0
115.784782 112.0
116.033348 248.0
116.415291 124.0
116.922646 124.0
117.125038 220.0
117.344849 112.0
117.379349 120.0
118.041061 176.0
118.064774 156.0
118.146103 100.0
119.000015 172.0
119.049988 1308.0
119.328094 168.0
119.55867 196.0
119.600021 204.0
119.663155 92.0
119.94854 128.0
120.059158 396.0
120.07888 920.0
120.51815 172.0
120.58371 176.0
120.599007 48.0
120.758621 200.0
121.065453 2060.0
121.089546 200.0
121.150436 116.0
121.174538 188.0
121.332336 48.0
121.531921 260.0
122.065689 204.0
122.8564 128.0
123.044456 888.0
123.348854 188.0
123.846718 200.0
124.04615 212.0
124.176971 172.0
124.425499 40.0
124.634895 188.0
125.419876 160.0
125.761147 192.0
127.317184 200.0
127.393547 156.0
127.766739 72.0
127.883751 156.0
128.18103 84.0
128.57341 132.0
129.018402 56.0
129.66124 76.0
130.064865 360.0
130.824219 224.0
131.049896 1100.0
132.044983 228.0
132.060989 220.0
132.08844 224.0
132.129623 80.0
132.365372 152.0
132.528 140.0
132.578415 204.0
132.594452 180.0
132.748062 164.0
132.828323 76.0
133.063919 3140.0
133.091736 192.0
133.112915 248.0
133.131287 144.0
133.163452 124.0
133.259933 80.0
133.321976 120.0
133.41391 36.0
133.469086 40.0
133.561081 36.0
134.030731 64.0
134.063141 656.0
134.358139 176.0
134.893906 68.0
135.042801 520.0
135.061111 128.0
135.243179 84.0
135.773758 228.0
135.912949 156.0
135.96167 152.0
136.075882 2428.0
137.008026 232.0
137.054626 100.0
137.078232 280.0
137.115219 140.0
137.724182 100.0
137.840988 96.0
137.871368 32.0
137.929794 144.0
140.147583 244.0
140.324356 44.0
140.428116 120.0
140.661713 32.0
140.916779 220.0
142.057831 192.0
142.435318 232.0
143.225037 168.0
144.059937 100.0
144.678238 168.0
145.132141 68.0
145.18251 144.0
146.060959 1292.0
146.102463 136.0
146.119293 136.0
146.229996 84.0
146.285355 108.0
146.388885 268.0
146.714157 36.0
146.870911 100.0
147.044434 152.0
147.066315 192.0
147.648621 152.0
147.849426 80.0
147.86879 104.0
148.075592 10968.0
148.137558 124.0
148.168106 144.0
148.249008 100.0
148.272842 72.0
148.518127 68.0
148.552078 68.0
148.913757 76.0
149.079483 744.0
149.115417 208.0
149.253983 72.0
149.290451 56.0
149.4729 220.0
149.950226 84.0
149.972153 84.0
150.028229 68.0
150.078735 184.0
150.097107 176.0
150.157455 120.0
150.208679 132.0
150.494217 208.0
150.547943 84.0
150.62854 88.0
150.706711 44.0
150.872818 100.0
151.038452 680.0
151.352463 68.0
151.795975 44.0
152.060928 168.0
152.264709 140.0
152.549744 232.0
153.073517 172.0
153.115662 164.0
153.258545 52.0
153.880096 92.0
154.495483 224.0
154.611771 144.0
155.055084 132.0
155.200653 144.0
156.042938 176.0
156.59549 116.0
156.742462 152.0
157.055725 196.0
157.423477 128.0
158.053406 164.0
159.044907 248.0
159.508026 36.0
160.018723 72.0
160.071152 204.0
160.298309 176.0
160.565536 176.0
160.605881 132.0
160.845596 180.0
161.057709 148.0
162.055542 312.0
163.036652 184.0
163.942444 168.0
164.042831 332.0
164.179535 168.0
164.684875 84.0
164.850937 164.0
165.054657 664.0
165.349625 40.0
165.861893 144.0
166.07637 916.0
166.356964 128.0
166.416016 88.0
166.66774 132.0
166.690857 52.0
167.087936 204.0
167.630112 116.0
168.050415 128.0
168.070145 196.0
168.504822 92.0
169.06076 200.0
169.926224 160.0
171.072327 232.0
171.179077 156.0
171.747223 132.0
172.611679 112.0
173.255554 176.0
173.884872 156.0
174.318192 144.0
174.970505 164.0
175.455261 236.0
175.777039 116.0
176.070312 312.0
176.397705 216.0
176.961212 196.0
177.078049 2968.0
177.340027 140.0
177.50174 244.0
177.589264 100.0
178.048416 116.0
178.078506 752.0
178.295486 52.0
178.332703 48.0
178.720963 176.0
178.835403 152.0
179.089783 512.0
179.205551 72.0
179.730835 212.0
179.784195 84.0
180.008438 128.0
180.053833 196.0
180.291611 152.0
180.347733 108.0
181.04335 160.0
181.065155 196.0
181.088882 176.0
181.716156 132.0
182.030212 100.0
182.081238 180.0
183.075714 168.0
183.254074 96.0
183.796036 152.0
183.860809 124.0
185.06102 172.0
185.391479 184.0
186.501526 132.0
187.260651 124.0
189.073227 204.0
190.106674 208.0
190.765869 156.0
191.398651 136.0
191.787109 176.0
192.040771 128.0
192.062836 184.0
192.678436 68.0
192.927155 176.0
192.996277 172.0
193.032227 164.0
193.070419 128.0
193.616135 48.0
193.832214 136.0
193.890411 108.0
194.07254 1436.0
194.553345 164.0
194.625534 116.0
194.88385 124.0
194.978333 160.0
195.077774 588.0
195.888184 48.0
195.907684 96.0
196.087357 260.0
196.32019 72.0
196.509872 88.0
196.814117 64.0
196.869965 32.0
197.062698 160.0
197.095352 152.0
197.649872 180.0
198.075424 200.0
198.616409 124.0
198.829651 208.0
199.075089 144.0
199.548767 128.0
199.613434 60.0
200.24382 192.0
200.469208 132.0
201.168686 192.0
201.323975 176.0
202.540146 132.0
202.908554 216.0
203.984482 132.0
204.055557 44.0
205.063812 396.0
205.257126 152.0
205.759293 176.0
206.071198 1252.0
206.13797 132.0
207.075989 348.0
208.05249 276.0
208.091278 196.0
208.285095 40.0
208.319565 180.0
208.615555 128.0
209.062103 188.0
209.096237 2356.0
209.239838 68.0
209.876587 120.0
210.097 496.0
210.401688 128.0
211.077942 724.0
211.109161 156.0
211.132736 68.0
211.369949 156.0
211.676788 80.0
212.086792 352.0
212.134567 116.0
212.778595 152.0
212.996399 212.0
213.510849 88.0
214.39296 192.0
215.633316 48.0
215.715149 244.0
215.99881 128.0
216.159714 184.0
217.525497 100.0
217.566589 204.0
218.259979 188.0
218.348206 220.0
219.087021 196.0
219.249084 152.0
219.853653 196.0
219.96286 136.0
220.887772 68.0
221.062927 320.0
221.254715 44.0
221.432388 92.0
221.627899 164.0
221.651611 180.0
221.684204 116.0
221.767181 220.0
222.068695 708.0
222.097702 152.0
222.479111 108.0
223.067444 256.0
223.097031 212.0
223.117844 84.0
224.084229 384.0
224.362274 208.0
224.541183 128.0
225.01564 140.0
225.093567 364.0
225.622116 152.0
225.684906 52.0
225.771622 28.0
226.064804 108.0
226.094727 140.0
226.576813 116.0
226.966446 64.0
227.066605 256.0
227.105286 860.0
227.320404 52.0
227.349396 140.0
227.557541 156.0
228.04184 92.0
228.067841 200.0
228.1073 80.0
228.308762 120.0
229.063477 208.0
229.452972 176.0
230.086548 160.0
231.77121 192.0
233.379944 120.0
233.958008 240.0
234.48497 92.0
235.07283 100.0
235.192581 144.0
235.43988 160.0
236.081696 140.0
236.323303 80.0
236.844543 76.0
237.091675 7848.0
237.252289 136.0
237.343277 60.0
237.386215 96.0
237.435272 108.0
237.489059 60.0
237.751266 68.0
237.840271 48.0
237.947723 40.0
238.009125 212.0
238.062805 164.0
238.094284 3388.0
238.174973 196.0
238.26712 48.0
238.297852 180.0
238.383881 164.0
238.6371 104.0
238.755859 68.0
239.073547 340.0
239.105392 560.0
239.192764 64.0
239.275879 132.0
239.833466 104.0
239.947525 160.0
240.07988 332.0
240.108047 300.0
240.209656 44.0
240.311462 68.0
240.392715 60.0
240.437973 52.0
241.078339 180.0
241.5905 76.0
242.845032 76.0
243.107361 160.0
245.419952 132.0
247.042786 192.0
247.061111 188.0
248.079346 360.0
248.202835 204.0
249.615875 84.0
250.062607 152.0
250.100372 164.0
250.238892 176.0
250.998245 124.0
251.039246 168.0
251.073929 176.0
251.111588 144.0
251.427277 152.0
251.654541 160.0
252.080292 276.0
252.938065 244.0
253.085175 392.0
253.343399 176.0
254.093933 992.0
255.097809 324.0
257.082611 148.0
257.593445 44.0
257.660553 68.0
258.09201 156.0
259.10022 228.0
259.61084 184.0
260.049377 192.0
260.842773 64.0
261.695312 116.0
263.07193 80.0
264.075958 208.0
264.105957 100.0
264.151245 140.0
264.325958 188.0
264.364807 32.0
265.028625 64.0
265.089508 1192.0
265.132324 168.0
265.359222 76.0
265.608917 76.0
265.998322 52.0
266.090668 948.0
266.284058 60.0
266.495209 36.0
266.966522 20.0
267.101196 604.0
267.480591 52.0
267.679199 164.0
267.82901 56.0
267.913696 124.0
268.076965 728.0
268.663513 64.0
269.029022 96.0
269.08313 164.0
269.855591 116.0
270.087769 140.0
270.437866 48.0
270.6474 108.0
271.086334 120.0
271.496124 128.0
271.729004 148.0
273.536499 120.0
273.829529 64.0
274.620544 108.0
274.838287 100.0
275.093109 204.0
275.482086 88.0
277.079956 220.0
277.248962 148.0
277.630188 92.0
277.709808 156.0
278.101318 200.0
278.300507 152.0
278.413391 128.0
279.314117 112.0
279.676819 108.0
280.067474 156.0
280.586243 124.0
280.889709 96.0
281.078369 172.0
281.563904 96.0
281.640747 212.0
281.951447 32.0
282.088837 1056.0
282.516541 60.0
282.98175 120.0
283.030182 204.0
283.09729 9320.0
283.179321 48.0
283.30661 44.0
283.350159 56.0
283.383667 76.0
283.529755 76.0
283.588074 36.0
283.611542 40.0
283.769104 64.0
283.946838 52.0
283.973663 96.0
284.021729 156.0
284.100952 1496.0
284.161499 128.0
284.215179 44.0
284.238678 36.0
284.493774 52.0
284.694458 88.0
284.836273 88.0
284.994171 172.0
285.104462 236.0
285.145416 32.0
285.417694 108.0
285.491669 56.0
285.690125 76.0
285.78186 112.0
285.826965 108.0
286.033356 48.0
286.070404 84.0
286.110809 140.0
286.211792 100.0
286.464386 108.0
286.828339 56.0
287.121674 120.0
288.702179 92.0
288.7901 60.0
290.348053 48.0
290.470184 108.0
290.602478 196.0
291.145599 156.0
291.821808 84.0
292.00885 192.0
292.975555 160.0
293.067535 200.0
293.722107 92.0
293.786926 108.0
294.292023 124.0
294.5755 44.0
294.756561 152.0
294.790741 40.0
294.84201 144.0
295.096924 11644.0
295.187286 36.0
295.23172 92.0
295.330902 44.0
295.505371 36.0
295.556702 128.0
295.655762 156.0
295.724396 36.0
295.823639 104.0
295.909241 80.0
295.933197 112.0
296.099884 2560.0
296.224304 68.0
296.255127 96.0
296.570404 76.0
296.638947 32.0
297.005859 124.0
297.104797 368.0
297.273468 64.0
297.55835 40.0
297.636993 80.0
297.894897 80.0
297.932709 152.0
298.083649 248.0
298.12854 124.0
298.156036 148.0
298.400085 88.0
299.267151 104.0
299.442749 36.0
301.074036 148.0
301.105133 152.0
303.239807 64.0
305.058655 156.0
305.632507 44.0
305.827393 120.0
307.100647 568.0
307.695892 120.0
307.730804 72.0
307.880951 120.0
308.095154 164.0
310.085022 176.0
310.113068 140.0
312.881134 56.0
313.05014 152.0
314.082794 152.0
314.562683 104.0
315.085327 92.0
316.37973 32.0
320.310852 60.0
320.717041 156.0
321.105042 112.0
321.5802 92.0
322.051514 52.0
322.112946 340.0
323.094147 1364.0
323.159729 32.0
323.893616 72.0
324.00824 184.0
324.096924 676.0
325.118103 176.0
325.938568 92.0
327.114624 120.0
327.201019 80.0
332.104736 132.0
333.815308 60.0
334.113556 220.0
336.102875 136.0
337.692017 68.0
338.11734 160.0
338.691254 248.0
340.113861 320.0
340.326874 64.0
340.550873 44.0
341.103821 352.0
341.133453 132.0
341.172821 80.0
342.102631 140.0
342.268311 96.0
349.114227 116.0
350.122742 108.0
350.759888 84.0
352.114288 144.0
352.37204 84.0
362.315826 112.0
370.108521 132.0
371.135376 164.0
372.12146 96.0
373.501099 160.0
377.156494 136.0
386.095123 92.0
390.035492 40.0
390.149506 140.0
396.710693 100.0
398.095398 156.0
398.134674 140.0
399.130249 132.0
400.12326 152.0
401.128845 296.0
401.186951 100.0
401.86496 84.0
402.120361 248.0
402.156281 164.0
403.16272 144.0
404.298462 124.0
405.888824 128.0
410.15033 180.0
413.13858 136.0
417.608704 84.0
425.121948 140.0
430.163879 104.0
431.994507 132.0
435.160767 144.0
437.147644 116.0
441.127502 152.0
441.176727 128.0
446.110901 120.0
450.987946 84.0
451.186615 180.0
455.840515 100.0
456.121033 176.0
456.43988 100.0
456.839691 52.0
457.690887 48.0
457.818634 160.0
458.160797 1928.0
458.883911 48.0
459.098938 68.0
459.164429 972.0
460.170258 136.0
460.223633 124.0
460.296234 72.0
460.753235 76.0
462.480835 72.0
462.750519 40.0
467.674408 196.0
473.191345 140.0
477.156799 128.0
478.048492 100.0
479.991302 92.0
481.086395 68.0
486.172455 36.0
492.82608 36.0
496.863922 204.0
498.457886 80.0
501.314758 148.0
501.658691 192.0
502.148438 172.0
503.223877 188.0
503.313171 100.0
504.164825 1524.0
505.165375 264.0
505.344421 276.0
505.499023 48.0
506.367523 116.0
506.613892 76.0
507.187469 92.0
507.348846 108.0
508.178528 148.0
532.14447 188.0
537.146912 188.0
581.488037 76.0
586.634766 84.0
590.120422 72.0
648.075012 80.0
655.870789 80.0
693.088928 48.0
748.65918 96.0
780.30542 92.0
796.584839 236.0
817.948608 68.0
818.102295 36.0
834.326599 140.0
838.044495 192.0
848.337524 48.0
880.549988 80.0
900.971924 132.0
903.48877 60.0
921.404419 156.0
927.007263 152.0
928.055908 40.0
934.18988 132.0
977.089783 140.0
982.322693 152.0
1010.088013 48.0
1010.530884 176.0
1028.706787 208.0
1038.503296 164.0
1064.051025 196.0
1068.821655 68.0
1077.806885 80.0
1084.088745 92.0
1088.772705 168.0
1114.455933 116.0
1121.976562 160.0
1129.703125 104.0
1136.577026 148.0
1139.296143 44.0
1165.796143 156.0
1168.447998 176.0
1171.055054 148.0
1175.377197 168.0
1185.148071 168.0
1189.901123 160.0
1198.422607 184.0
1198.843018 172.0
1208.683105 88.0
1234.001099 100.0
1236.911255 128.0
1240.588867 64.0
1244.026245 88.0
1246.428223 132.0
1248.368286 140.0
1253.979248 220.0
1258.289185 180.0
1258.868164 112.0
1261.715576 172.0
1264.198242 200.0
1272.384888 160.0
1281.153564 92.0
1286.616211 56.0
1290.538574 188.0
1297.870483 48.0
1299.333618 208.0
1300.919556 144.0
1302.613403 172.0
1303.699219 140.0
1308.172852 72.0
1310.513428 156.0
1313.151855 136.0
1314.313232 220.0
1318.169189 152.0
1321.878662 160.0
1322.855835 228.0
1325.042847 228.0
1334.768677 184.0
1337.140259 136.0
1339.390015 152.0
1339.608521 116.0
1341.685425 188.0
1349.767822 172.0
1350.082275 152.0
1358.725464 264.0
1360.956543 52.0
1363.057251 168.0
1373.806519 160.0
1375.215942 120.0
1383.931519 212.0
1386.40564 156.0
1388.970947 180.0
1389.408569 148.0
1392.273682 204.0
1393.454712 160.0
1396.294312 180.0
1397.000854 132.0
1397.231445 80.0
1397.826782 96.0
1398.883545 140.0
1411.50708 68.0
1412.210083 112.0
1415.922241 236.0
1420.254395 144.0
1425.479614 196.0
1425.93042 180.0
1427.501709 204.0
1434.699585 120.0
1443.367065 64.0
1444.335083 100.0
1444.531738 128.0
1464.700317 164.0
1465.53833 196.0
1466.841553 176.0
1468.580078 44.0
1471.059937 196.0
1477.104248 136.0
1481.47522 136.0
1491.074097 164.0
1493.780518 220.0
1494.711426 164.0
1496.535645 136.0
1497.221069 196.0
1497.575317 152.0
