>compound 9-methyl-3-[(2-methylimidazol-1-yl)methyl]-2,3-dihydro-1H-carbazol-4-one
>formula C18H19N3O
>ionization [M+H]+
>parentmass 294.1600886800905
#inchi InChI=1S/C18H19N3O/c1-12-19-9-10-21(12)11-13-7-8-16-17(18(13)22)14-5-3-4-6-15(14)20(16)2/h3-6,9-10,13H,7-8,11H2,1-2H3
#inchikey FELGMEQIXOGIFQ
#Ion_Source LC-ESI
#Instrument qTof
#Compound_Source Commercial
#PI Dorrestein
#Data_Collector Garg_Neha
#Scan -1
#Precursor_MZ 294.16
#ExactMass 293.153
#Charge 1
#CAS_Number N/A
#Pubmed_ID N/A
#Smiles Cc1nccn1CC2CCc3c(C2=O)c4ccccc4n3C
#INCHI_AUX N/A
#Library_Class 1
#SpectrumID CCMSLIB00000079015
#IonMode Positive
#UpdateWorkflowName UPDATE-SINGLE-ANNOTATED-GOLD
#LibraryQualityString Gold
#TaskID 278b19f5865741e282cec7349aa7e7a1
##Scan# 1087
#SpectrumFile NCP003352_E2_F11_BC6_01_15720.mzXML
#LibraryName NIHcollectionI_05062014.mgf
#MQScore -1
#Organism NIHcollectionI_05062014
#TIC_Query 0
#RT_Query -1
#MZErrorPPM -1
#SharedPeaks 0
#MassDiff 0
#LibMZ -1
#SpecMZ 294.16
#SpecCharge 0
#internalFilename spec-00000.mgf

>collision 10
45.167892 220.0
45.786644 180.0
46.270054 188.0
47.691525 152.0
48.78355 180.0
50.221668 148.0
51.299351 212.0
52.293442 184.0
52.786831 160.0
54.652531 184.0
55.730431 144.0
55.763123 168.0
55.773525 144.0
56.802353 248.0
57.059151 236.0
57.123817 148.0
59.212456 164.0
59.67588 192.0
60.329567 192.0
61.170361 144.0
61.305862 184.0
61.452438 168.0
61.932362 144.0
62.056164 172.0
62.458187 188.0
62.645512 168.0
63.410278 140.0
63.664112 248.0
63.792809 144.0
64.276985 156.0
64.618912 184.0
65.740486 140.0
66.172058 240.0
66.332443 236.0
66.540092 220.0
67.391907 188.0
67.455482 184.0
69.189583 168.0
71.259354 164.0
71.466156 164.0
71.614296 180.0
71.737305 164.0
72.469086 196.0
72.504471 164.0
72.525009 212.0
72.874596 208.0
72.903481 160.0
73.243759 148.0
73.723183 144.0
74.619652 216.0
74.820946 160.0
75.500595 184.0
75.559601 164.0
75.614967 152.0
76.18544 216.0
76.881912 156.0
76.916824 140.0
78.689911 180.0
79.628433 180.0
81.421555 140.0
83.122101 172.0
84.30394 148.0
85.220131 156.0
85.608246 232.0
86.437088 152.0
86.648163 164.0
87.532272 156.0
89.732025 152.0
90.779541 196.0
91.113602 172.0
92.073624 140.0
92.106995 172.0
93.392242 180.0
94.929558 200.0
95.584183 188.0
95.640617 204.0
96.839462 184.0
98.36924 152.0
99.4562 188.0
99.608841 184.0
99.791672 148.0
100.381058 160.0
100.458839 236.0
101.420654 156.0
101.765701 180.0
102.246124 240.0
102.590561 216.0
103.058784 144.0
103.412674 164.0
105.187149 140.0
106.976715 144.0
107.14164 136.0
107.432137 156.0
108.515831 164.0
108.588409 168.0
109.500801 248.0
110.402374 164.0
110.579933 188.0
110.860832 140.0
111.673309 140.0
111.946899 212.0
112.492973 228.0
113.095398 144.0
113.110916 132.0
114.381699 140.0
115.0625 220.0
115.484833 180.0
115.882996 152.0
116.363419 160.0
117.568825 152.0
117.620628 256.0
117.966248 192.0
118.197662 156.0
118.836845 160.0
119.173386 148.0
119.723717 144.0
119.743317 164.0
121.671951 140.0
122.069641 156.0
122.232414 204.0
123.77536 164.0
124.342873 140.0
124.551575 144.0
125.666893 156.0
125.849915 148.0
126.171638 196.0
126.49601 176.0
127.170692 152.0
127.377266 164.0
127.575012 160.0
128.059036 332.0
128.081314 184.0
128.191711 224.0
128.859604 208.0
129.067535 172.0
129.243973 160.0
130.06691 160.0
130.461868 144.0
131.001205 192.0
131.131088 184.0
132.07634 204.0
132.22963 164.0
132.451721 156.0
135.100418 208.0
135.569016 360.0
136.165222 348.0
137.02356 148.0
138.687378 140.0
138.879654 192.0
139.057968 168.0
140.052521 176.0
140.153824 148.0
141.853073 188.0
142.073441 172.0
142.99794 168.0
143.016983 144.0
143.084137 972.0
143.41713 192.0
143.491028 160.0
143.958694 204.0
144.082031 756.0
144.173706 192.0
145.080856 148.0
146.064362 164.0
146.542068 172.0
147.512222 204.0
147.795181 176.0
147.86293 156.0
148.56076 144.0
148.934586 184.0
151.089493 164.0
152.025467 184.0
152.063614 148.0
152.246414 140.0
152.986496 140.0
153.071808 296.0
153.427521 176.0
154.06572 692.0
154.536377 236.0
155.073883 600.0
155.329132 168.0
155.540039 224.0
155.783401 148.0
155.900177 188.0
156.07962 496.0
156.625092 184.0
157.047897 176.0
157.073395 160.0
158.067413 168.0
158.094711 144.0
160.135788 160.0
160.793808 176.0
160.814011 140.0
161.362167 184.0
161.420319 216.0
162.126587 344.0
163.363098 168.0
163.604858 176.0
163.82132 208.0
163.991547 188.0
165.054031 176.0
165.077042 144.0
165.529984 224.0
166.260574 152.0
166.443954 148.0
166.817932 180.0
166.954193 160.0
167.073944 1788.0
167.409698 148.0
167.971558 180.0
168.081131 1556.0
168.11087 220.0
168.90921 140.0
169.089279 4828.0
169.429535 140.0
169.460617 164.0
169.62648 188.0
169.745743 196.0
169.763901 172.0
169.932495 164.0
170.020401 196.0
170.047592 216.0
170.097488 61548.0
170.192825 128.0
170.327164 128.0
171.001999 184.0
171.06839 2432.0
171.099716 6796.0
171.530167 216.0
172.071579 768.0
172.105759 384.0
172.13829 228.0
172.510559 108.0
172.645065 108.0
173.108627 180.0
174.324463 152.0
174.734634 140.0
174.778381 148.0
175.996109 168.0
176.245956 168.0
176.448914 148.0
177.559723 208.0
179.329071 140.0
179.536392 252.0
181.084427 280.0
181.279999 192.0
182.060715 144.0
182.096939 4572.0
182.388016 108.0
182.920563 124.0
183.101746 1504.0
183.293442 196.0
183.519073 152.0
183.710556 160.0
183.843796 116.0
183.957001 148.0
184.112991 43976.0
184.222427 140.0
184.346542 188.0
184.697601 188.0
185.115891 5416.0
185.148651 140.0
185.804459 164.0
186.122101 440.0
186.225204 108.0
186.409943 180.0
186.565475 248.0
186.825195 176.0
187.536636 148.0
190.350296 152.0
193.400879 272.0
193.927139 152.0
194.100418 220.0
195.098526 184.0
196.756119 164.0
197.084381 248.0
197.821228 224.0
198.089798 180.0
201.505325 144.0
201.745544 188.0
202.586014 196.0
203.16716 168.0
205.043823 164.0
206.422791 184.0
208.130447 176.0
209.025146 168.0
209.151031 164.0
209.171173 212.0
209.597412 144.0
209.78186 184.0
210.125046 148.0
211.99292 204.0
212.107605 14000.0
213.111496 1780.0
214.112823 240.0
215.224655 148.0
216.051773 160.0
216.728073 148.0
218.395538 140.0
219.485168 176.0
220.045761 144.0
220.341095 152.0
221.788147 172.0
222.477692 184.0
225.04863 148.0
226.453644 128.0
229.459076 156.0
229.658112 148.0
230.530609 180.0
231.065796 140.0
232.313934 156.0
233.288727 176.0
233.927551 144.0
234.149826 140.0
235.638397 184.0
237.122498 160.0
240.373047 216.0
248.246475 236.0
250.084335 140.0
250.402328 176.0
250.455872 144.0
251.083069 192.0
251.190308 144.0
253.070679 180.0
255.056595 164.0
256.077942 164.0
256.351929 160.0
257.573853 184.0
257.950897 176.0
258.184326 168.0
258.984436 172.0
259.801819 148.0
260.498047 140.0
260.765137 156.0
260.941925 176.0
261.262299 124.0
261.324646 144.0
261.987854 196.0
262.342346 184.0
262.542236 148.0
263.010071 148.0
264.821838 116.0
266.017212 152.0
266.173035 152.0
266.826111 240.0
270.541962 192.0
271.970428 144.0
272.82193 160.0
273.137604 140.0
273.542328 176.0
273.799164 144.0
276.157532 212.0
276.357422 168.0
277.074249 120.0
277.158691 296.0
278.266479 140.0
279.423065 212.0
280.948883 156.0
284.217621 164.0
285.907867 152.0
286.214203 188.0
288.616638 140.0
289.039429 212.0
289.347443 208.0
289.806183 188.0
291.083405 168.0
292.208466 272.0
292.295502 164.0
292.437592 120.0
292.48645 132.0
292.540039 100.0
292.615509 108.0
292.857452 204.0
292.91568 140.0
293.012573 188.0
293.093811 120.0
293.125977 256.0
293.176636 156.0
293.206818 164.0
293.246368 144.0
293.323425 112.0
293.536621 200.0
293.685455 184.0
293.720917 200.0
293.774109 112.0
293.804932 300.0
293.863281 152.0
293.909882 176.0
293.93573 448.0
293.992004 140.0
294.047852 260.0
294.078796 220.0
294.117249 244.0
294.162781 158784.0
294.351624 132.0
294.390839 304.0
294.455566 152.0
294.567444 240.0
294.682709 304.0
294.723511 3208.0
294.760986 236.0
294.809296 144.0
294.988586 164.0
295.074615 316.0
295.11911 220.0
295.164642 49684.0
295.297272 148.0
295.384125 108.0
295.417725 124.0
295.473236 112.0
295.583618 104.0
295.63623 228.0
295.727631 156.0
295.874695 100.0
295.949066 116.0
296.165985 3576.0
296.496918 120.0
296.586304 208.0
296.636597 136.0
296.677673 188.0
296.762054 100.0
296.794098 164.0
296.822205 100.0
296.850922 144.0
296.880646 184.0
296.943909 168.0
296.991486 152.0
297.082336 244.0
297.137085 140.0
297.171143 332.0
297.229156 280.0
297.271057 352.0
297.320282 116.0
297.550781 208.0
297.744568 128.0
297.789764 144.0
297.966614 148.0
298.118958 152.0
298.151428 96.0
323.158051 168.0
343.006805 160.0
422.884857 140.0
1358.785278 144.0
1368.825562 176.0
1434.376953 184.0
1475.920532 176.0
1567.28064 160.0
1582.722656 208.0
1588.579468 248.0
1637.78833 212.0
1661.359863 160.0
1662.62561 192.0
1707.436768 168.0
1746.042725 232.0
1747.515015 148.0
1748.188965 292.0
1761.036255 268.0
1768.025513 144.0
1775.338989 168.0
1779.349854 204.0
1796.829956 140.0
1810.320068 164.0
1816.659912 156.0
1827.296143 140.0
1860.96228 144.0
1884.648315 216.0
1887.362427 156.0
1904.573608 164.0
1911.606934 148.0
1915.611938 148.0
1927.319946 156.0
1978.4021 172.0
