>compound MLS001075527-01!
>formula C20H22N2O3
>ionization [M+H]+
>parentmass 339.170624
#inchi InChI=1S/C20H22N2O3/c23-17-7-4-14(5-8-17)6-9-19(24)21-11-15-10-16(13-21)18-2-1-3-20(25)22(18)12-15/h1-5,7-8,15-16,23H,6,9-13H2/t15-,16+/m1/s1
#inchikey YNTQOSHTJPNZOG
#Ion_Source LC-ESI
#Instrument qTof
#Compound_Source NIH Natural Product Library
#PI Dorrestein
#Data_Collector VVP/LMS
#Scan -1
#Precursor_MZ 339.171
#ExactMass 338.163
#Charge 1
#CAS_Number N/A
#Pubmed_ID N/A
#Smiles Oc1ccc(CCC(=O)N2C[C@H]3C[C@@H](C2)c4cccc(=O)n4C3)cc1
#INCHI_AUX N/A
#Library_Class 1
#SpectrumID CCMSLIB00000079559
#IonMode Positive
#UpdateWorkflowName UPDATE-SINGLE-ANNOTATED-GOLD
#LibraryQualityString Gold
#TaskID b1d8e8f6646f4e71acdff9ca3d919d08
##Scan# 1521
#SpectrumFile p1-B08_GB8_01_17892.mzXML
#LibraryName NIH_Natural_Products_Library.mgf
#MQScore -1
#Organism NIH_Natural_Products_Library
#TIC_Query 0
#RT_Query -1
#MZErrorPPM -1
#SharedPeaks 0
#MassDiff 0
#LibMZ -1
#SpecMZ 339.171
#SpecCharge 0
#internalFilename spec-00000.mgf

>collision 10
95.129105 172.0
95.22036 224.0
95.358299 96.0
95.511902 180.0
95.653946 112.0
95.720139 132.0
95.848701 68.0
95.998795 100.0
96.016342 192.0
96.080711 176.0
96.14315 156.0
96.395058 56.0
96.494743 196.0
96.569054 200.0
96.734039 200.0
96.964531 232.0
97.091965 184.0
97.207703 140.0
97.425636 236.0
97.466896 132.0
97.972534 240.0
98.035583 116.0
98.078941 196.0
98.106537 144.0
98.124283 192.0
98.195267 128.0
98.531502 212.0
98.560471 208.0
98.659286 232.0
98.823441 124.0
98.882965 144.0
99.31472 248.0
100.243149 184.0
100.372711 132.0
100.78389 192.0
100.927803 172.0
101.255981 136.0
101.304054 176.0
101.53656 44.0
101.586777 212.0
101.715126 192.0
101.729179 156.0
101.827568 148.0
101.907913 120.0
102.004379 248.0
102.275925 160.0
102.348396 136.0
102.493423 164.0
103.053154 612.0
103.165489 280.0
103.412262 172.0
103.503365 164.0
103.659332 176.0
103.726212 156.0
103.754593 156.0
103.817451 140.0
103.935097 168.0
104.010384 192.0
104.485703 156.0
104.532494 68.0
104.791084 176.0
105.018738 160.0
105.070633 508.0
105.119362 200.0
105.168343 136.0
105.284714 136.0
105.429756 144.0
105.658768 196.0
105.957664 48.0
106.006836 60.0
106.062172 92.0
106.076523 204.0
106.201599 40.0
106.283661 160.0
106.435547 212.0
106.62043 260.0
106.677979 160.0
106.710869 200.0
106.737602 196.0
106.858948 168.0
106.916565 212.0
106.972137 180.0
106.992722 152.0
107.007133 140.0
107.049896 19908.0
107.1017 104.0
107.116493 120.0
107.169846 164.0
107.186325 108.0
107.218307 100.0
107.252274 184.0
107.501823 60.0
107.543098 228.0
107.611221 48.0
107.716537 156.0
107.867386 48.0
108.052803 1684.0
108.072121 160.0
108.090744 160.0
108.322617 56.0
108.419998 272.0
108.638565 116.0
108.716553 76.0
108.747681 136.0
108.809952 80.0
108.841095 196.0
108.940788 164.0
108.959488 128.0
108.981537 32.0
108.998962 120.0
109.052628 184.0
109.075859 152.0
109.20269 44.0
109.238052 52.0
109.516968 76.0
109.727432 112.0
109.913063 76.0
110.061653 344.0
110.598526 176.0
110.755569 124.0
110.820511 220.0
111.061584 88.0
111.145752 164.0
111.294525 48.0
111.652786 220.0
112.182343 188.0
112.496658 124.0
112.593781 184.0
112.944626 112.0
113.834747 116.0
114.115219 104.0
114.474808 88.0
114.491844 176.0
114.90963 120.0
115.054756 256.0
115.473564 28.0
115.546288 152.0
116.73455 152.0
116.796921 192.0
117.029335 100.0
117.058479 344.0
117.635132 100.0
117.73661 84.0
118.049957 204.0
118.065094 156.0
118.240326 196.0
118.402695 172.0
118.500168 152.0
118.916519 192.0
119.109756 52.0
119.548935 52.0
120.082916 268.0
120.309608 220.0
120.569527 52.0
120.624168 256.0
120.65696 84.0
120.781609 164.0
120.829735 100.0
120.904129 40.0
120.982925 228.0
121.002625 144.0
121.03109 160.0
121.064743 1668.0
121.289597 72.0
121.313705 168.0
121.340019 84.0
121.572517 148.0
121.66909 160.0
121.739357 236.0
121.884331 68.0
122.065536 356.0
122.575256 104.0
122.608307 212.0
122.623734 120.0
122.769241 204.0
122.797913 100.0
122.95549 132.0
123.093628 120.0
123.109085 40.0
123.307907 144.0
123.449394 152.0
123.628578 148.0
123.818962 80.0
124.029587 124.0
124.819786 80.0
124.846474 144.0
125.308395 252.0
125.501129 100.0
125.74205 96.0
125.934052 108.0
126.173149 156.0
127.763176 72.0
128.443466 40.0
128.572067 188.0
128.596893 100.0
129.288467 164.0
129.653061 244.0
129.675735 160.0
129.757339 180.0
129.863907 152.0
130.068268 528.0
130.354279 152.0
130.458832 156.0
130.747681 116.0
130.957138 140.0
131.050461 212.0
131.123459 184.0
131.18956 120.0
131.319534 164.0
131.433594 148.0
131.536285 176.0
131.565964 112.0
131.684708 76.0
132.042679 180.0
132.081009 156.0
132.320389 176.0
132.719055 128.0
132.816849 192.0
133.051987 788.0
133.17572 248.0
133.210175 184.0
133.584869 208.0
133.600967 116.0
133.66539 108.0
133.957779 176.0
134.061279 676.0
134.100647 324.0
135.017197 104.0
135.197647 188.0
135.396729 184.0
135.500961 144.0
135.800003 104.0
136.196884 160.0
136.801468 188.0
136.83638 144.0
137.092606 160.0
137.174179 212.0
137.559067 160.0
138.061401 216.0
138.089462 132.0
138.302368 180.0
138.845932 164.0
138.960861 208.0
139.468094 224.0
140.044556 136.0
140.506561 184.0
140.879562 124.0
141.048416 192.0
141.078064 112.0
141.298004 200.0
141.674423 192.0
142.055588 192.0
142.064682 152.0
142.073242 136.0
142.082794 184.0
142.231674 152.0
142.366989 192.0
142.497635 184.0
142.65686 48.0
142.782883 148.0
142.856613 208.0
142.892303 232.0
142.994614 172.0
143.070694 220.0
143.771545 172.0
143.926697 76.0
144.079407 196.0
144.297028 188.0
144.530945 80.0
145.029541 176.0
145.084671 136.0
145.290909 216.0
145.379684 196.0
145.475693 48.0
145.571732 108.0
145.595749 128.0
145.747086 60.0
145.771118 140.0
145.799942 48.0
146.059418 740.0
146.095688 196.0
146.401367 208.0
146.504944 48.0
146.598907 196.0
146.745941 116.0
146.789337 44.0
146.936462 164.0
147.060944 408.0
147.148849 156.0
147.525726 108.0
147.651443 56.0
147.893387 240.0
147.923767 176.0
147.971222 184.0
148.023865 148.0
148.076141 34008.0
148.119293 240.0
148.137253 176.0
148.167023 72.0
148.263947 148.0
148.288177 168.0
148.333923 64.0
148.370392 96.0
148.416656 60.0
148.446808 84.0
148.46785 176.0
148.537292 108.0
148.610687 32.0
148.71904 104.0
148.746597 68.0
148.76358 72.0
148.831558 240.0
148.889847 80.0
148.93721 40.0
149.023438 144.0
149.07869 1948.0
149.137665 148.0
149.210587 112.0
149.302979 144.0
149.337036 108.0
149.412796 116.0
149.689911 188.0
149.792191 64.0
149.836044 76.0
150.077621 328.0
150.126099 84.0
150.179749 76.0
150.212677 112.0
150.262695 40.0
150.42131 72.0
150.440842 56.0
150.511642 128.0
150.900131 48.0
151.0811 64.0
151.37236 88.0
151.754593 104.0
151.869843 116.0
152.968185 112.0
153.469604 136.0
153.520081 200.0
153.56694 196.0
154.901672 124.0
154.973511 92.0
155.062729 136.0
155.095596 152.0
155.181717 116.0
155.283371 76.0
156.074081 304.0
156.976944 120.0
157.201447 100.0
157.486053 188.0
157.580978 184.0
157.953461 80.0
157.982025 200.0
158.318863 180.0
158.857742 180.0
159.06601 336.0
159.701721 160.0
160.075607 2088.0
161.080093 460.0
161.32811 56.0
161.664505 156.0
161.950592 120.0
162.092117 1372.0
162.132996 124.0
162.889084 208.0
163.101318 208.0
163.153366 40.0
163.540009 128.0
164.258545 156.0
164.526489 152.0
164.743561 92.0
165.052795 132.0
165.119293 144.0
165.802841 140.0
166.138733 200.0
167.035248 76.0
167.617081 140.0
168.817413 160.0
169.687408 76.0
170.060944 248.0
170.525848 216.0
170.60643 48.0
171.567032 216.0
172.284698 132.0
172.467606 200.0
173.053589 160.0
173.105957 176.0
173.84256 28.0
173.892426 140.0
174.089584 800.0
174.184235 256.0
174.330994 60.0
174.401947 84.0
174.946457 140.0
175.092499 224.0
175.273026 172.0
175.628922 148.0
176.500412 176.0
177.445633 124.0
178.063904 128.0
180.999969 156.0
182.094101 168.0
182.392334 76.0
182.421906 184.0
184.297638 120.0
184.567932 188.0
185.122635 248.0
185.990204 176.0
186.606857 64.0
186.927811 196.0
188.113373 204.0
188.340012 200.0
188.744476 172.0
188.862061 52.0
189.096115 152.0
189.196472 96.0
189.779465 60.0
190.004349 188.0
190.080826 124.0
190.127136 192.0
190.137512 144.0
190.240356 144.0
190.48555 124.0
190.572662 108.0
190.671585 236.0
190.767792 220.0
190.836517 128.0
190.91626 224.0
190.948959 176.0
191.026276 76.0
191.053787 124.0
191.118317 38556.0
191.213379 36.0
191.24173 80.0
191.262924 168.0
191.3638 68.0
191.397812 56.0
191.425354 76.0
191.444626 32.0
191.477676 100.0
191.507965 64.0
191.538712 76.0
191.560898 116.0
191.600998 104.0
191.626419 88.0
191.667755 132.0
191.692551 72.0
191.731125 32.0
191.750427 156.0
191.813812 60.0
191.835876 68.0
191.871704 64.0
191.93895 164.0
192.009583 60.0
192.085129 132.0
192.120773 3436.0
192.250961 128.0
192.315826 56.0
192.337906 40.0
192.374573 56.0
192.417542 80.0
192.456604 52.0
192.498032 40.0
192.605743 104.0
192.658218 72.0
192.680328 40.0
192.829529 72.0
192.85994 60.0
192.917984 64.0
192.956696 36.0
193.075592 56.0
193.119659 248.0
193.223633 100.0
193.302429 48.0
193.365036 100.0
193.424194 84.0
193.479568 72.0
193.512787 40.0
193.568161 64.0
193.609695 80.0
193.762573 104.0
194.047501 56.0
194.127914 160.0
194.19725 28.0
194.707916 44.0
196.533997 128.0
197.503372 184.0
197.906357 60.0
198.169632 52.0
198.54805 184.0
198.907181 84.0
200.152618 116.0
200.843063 88.0
201.108292 196.0
204.740097 120.0
204.834091 248.0
205.258728 168.0
207.282501 88.0
207.729752 88.0
209.336365 68.0
212.167465 136.0
216.368881 176.0
217.107254 124.0
219.964127 176.0
221.057648 64.0
222.836685 120.0
233.12886 304.0
234.123352 32.0
235.138535 136.0
236.542267 76.0
237.936279 120.0
239.387527 152.0
242.043121 156.0
243.845474 232.0
252.407043 124.0
252.56517 144.0
252.720184 204.0
253.438904 116.0
259.171021 148.0
259.475922 148.0
259.590912 132.0
261.196747 132.0
262.807526 52.0
264.643341 96.0
272.776581 100.0
274.960297 196.0
275.32016 92.0
276.755249 228.0
281.757416 52.0
283.862671 128.0
284.936737 172.0
285.625854 52.0
287.0336 144.0
288.833649 128.0
293.967194 124.0
296.117523 164.0
297.911438 72.0
300.862701 164.0
301.5466 56.0
302.380127 152.0
305.596863 64.0
307.492523 152.0
307.848602 92.0
307.883514 192.0
310.638611 108.0
311.413757 172.0
311.722931 60.0
313.196991 168.0
315.320374 112.0
315.64267 96.0
317.122437 60.0
321.151276 156.0
321.178955 184.0
329.590851 92.0
330.104126 32.0
334.86911 176.0
336.103088 20.0
337.569672 172.0
337.891541 60.0
339.055939 144.0
339.085236 196.0
339.170624 11904.0
339.213837 300.0
339.313354 52.0
339.367493 76.0
339.444519 64.0
339.631531 56.0
339.657227 80.0
339.770935 148.0
340.090179 152.0
340.115875 112.0
340.172028 2028.0
340.240692 68.0
340.865082 80.0
340.998047 108.0
341.17923 552.0
341.320862 36.0
341.570953 56.0
341.633484 32.0
341.908936 148.0
342.187256 100.0
342.866943 76.0
344.069397 44.0
344.992981 56.0
347.029175 72.0
348.417206 40.0
353.484192 96.0
362.585541 96.0
364.134216 60.0
372.429932 56.0
374.988525 88.0
394.933533 72.0
395.598297 28.0
405.023743 68.0
420.134491 20.0
424.949768 68.0
445.446655 56.0
463.139557 48.0
476.399689 104.0
484.781189 64.0
500.858856 40.0
507.19931 92.0
513.146729 60.0
542.569031 108.0
544.359985 60.0
552.17981 80.0
552.830078 44.0
568.950073 176.0
585.903748 96.0
633.911316 40.0
646.075745 96.0
676.536926 108.0
687.874512 68.0
731.042542 88.0
760.197998 88.0
760.406494 92.0
783.99408 64.0
792.420288 220.0
821.63324 124.0
827.725952 196.0
854.519653 260.0
862.012085 152.0
862.748535 44.0
864.813354 76.0
885.147522 188.0
898.854736 100.0
902.815247 124.0
907.965454 164.0
923.135132 144.0
930.861267 224.0
940.193359 32.0
948.08844 132.0
949.320618 68.0
953.765503 80.0
962.09375 148.0
962.723572 196.0
980.86499 140.0
982.367737 148.0
992.511902 44.0
993.565613 112.0
1002.159973 284.0
1005.722961 176.0
1006.985718 172.0
1010.190308 144.0
1012.810852 128.0
1023.237915 152.0
1050.126099 180.0
1051.435791 108.0
1051.971436 156.0
1052.533081 124.0
1054.290161 228.0
1059.906982 172.0
1066.168945 196.0
1068.503296 180.0
1077.598022 48.0
1079.990601 208.0
1089.66626 248.0
1098.072144 216.0
1098.30957 184.0
1100.008667 20.0
1102.521729 124.0
1111.726807 144.0
1116.822388 88.0
1120.01062 68.0
1124.03064 140.0
1128.258423 216.0
1131.683838 128.0
1132.353516 36.0
1133.016602 192.0
1135.610718 48.0
1149.374634 180.0
1151.778076 148.0
1151.994141 208.0
1152.304932 192.0
1155.942627 80.0
1156.152344 88.0
1157.011963 172.0
1157.336914 152.0
1157.641724 128.0
1157.7229 144.0
1158.718628 180.0
1159.572388 48.0
1162.597046 56.0
1163.893555 188.0
1164.239868 48.0
1170.387085 200.0
1171.142944 140.0
1182.216553 224.0
1182.901001 160.0
1186.614014 136.0
1195.625977 68.0
1205.169556 148.0
1209.651001 140.0
1214.203125 68.0
1220.876953 304.0
1221.648926 208.0
1222.803955 176.0
1225.637329 156.0
1226.62085 140.0
1228.210693 172.0
1228.55249 204.0
1229.110596 248.0
1230.42981 184.0
1232.057007 176.0
1234.188599 168.0
1235.818237 180.0
1235.874268 152.0
1236.280029 232.0
1238.828613 132.0
1242.838867 36.0
1244.200439 140.0
1244.930664 144.0
1247.234985 64.0
1250.913818 76.0
1256.184692 164.0
1259.092651 164.0
1259.685913 264.0
1259.982666 120.0
1261.113281 100.0
1264.706299 160.0
1265.676147 68.0
1266.263916 136.0
1266.816406 232.0
1267.064331 156.0
1270.431763 184.0
1274.940308 68.0
1276.141602 136.0
1283.168701 104.0
1283.24707 156.0
1283.503784 168.0
1284.124268 104.0
1286.528809 164.0
1286.935791 176.0
1295.030762 156.0
1296.30603 92.0
1296.886475 224.0
1297.123047 240.0
1298.865479 200.0
1303.208618 248.0
1310.0 192.0
1315.625732 152.0
1318.297241 152.0
1320.986694 124.0
1321.753662 180.0
1322.383179 188.0
1327.969238 116.0
1328.984863 204.0
1330.327393 280.0
1332.658691 148.0
1333.726929 148.0
1336.162964 204.0
1341.479126 72.0
1342.689453 104.0
1342.755127 184.0
1345.797974 128.0
1347.613037 20.0
1349.626587 148.0
1349.780151 188.0
1351.660034 208.0
1352.779785 176.0
1357.740112 128.0
1358.781738 88.0
1359.023804 216.0
1360.902832 188.0
1364.164673 148.0
1367.040405 128.0
1368.902832 232.0
1369.042725 132.0
1372.351196 248.0
1374.468018 172.0
1375.41272 88.0
1378.49231 96.0
1386.143677 196.0
1389.205688 140.0
1389.754639 76.0
1393.897827 248.0
1395.815674 208.0
1396.351074 116.0
1397.162476 232.0
1398.694824 148.0
1399.312622 120.0
1400.541382 176.0
1400.749878 68.0
1401.927124 248.0
1402.925781 188.0
1403.022705 188.0
1404.737915 148.0
1411.422119 180.0
1411.98291 144.0
1412.932861 124.0
1413.172241 144.0
1415.500122 164.0
1419.044189 132.0
1421.151733 140.0
1425.60437 92.0
1426.9198 120.0
1428.702148 64.0
1428.897705 136.0
1431.185791 116.0
1431.720337 40.0
1434.651367 56.0
1438.249512 196.0
1443.67395 156.0
1443.802612 180.0
1443.953857 32.0
1447.041138 140.0
1447.184937 176.0
1448.040649 172.0
1450.958008 176.0
1454.250122 32.0
1455.320435 124.0
1457.720703 208.0
1457.804321 192.0
1458.936768 96.0
1459.392944 60.0
1459.651489 208.0
1460.396729 188.0
1460.624878 164.0
1461.035645 240.0
1461.484497 244.0
1461.537842 244.0
1463.486328 180.0
1463.761841 108.0
1467.211914 152.0
1467.885498 204.0
1469.537964 204.0
1471.606323 124.0
1471.873535 220.0
1474.241577 176.0
1474.295044 104.0
1474.700073 132.0
1479.473145 164.0
1481.594482 172.0
1481.686401 232.0
1481.84729 244.0
1482.797485 176.0
1485.596069 132.0
1487.637329 160.0
1488.274536 52.0
1493.723267 184.0
1495.062012 88.0
1495.931763 52.0
1496.116455 164.0
1497.795166 96.0
1497.926147 96.0
1498.033936 156.0
1500.692749 192.0
1502.852417 168.0
1503.161011 204.0
