>compound MLS001075933-01!2-[[(Z)-2-benzamido-3-(3,4,5-trimethoxyphenyl)prop-2-enoyl]amino]-2-phenylacetic acid
>formula C27H26N2O7
>ionization [M+H]+
>parentmass 491.182
#inchi InChI=1S/C27H26N2O7/c1-34-21-15-17(16-22(35-2)24(21)36-3)14-20(28-25(30)19-12-8-5-9-13-19)26(31)29-23(27(32)33)18-10-6-4-7-11-18/h4-16,23H,1-3H3,(H,28,30)(H,29,31)(H,32,33)/b20-14-
#inchikey ZXZPFGGUUZDXND
#Ion_Source LC-ESI
#Instrument qTof
#Compound_Source NIH Natural Product Library
#PI Dorrestein
#Data_Collector VVP/LMS
#Scan -1
#Precursor_MZ 491.182
#ExactMass 490.174
#Charge 1
#CAS_Number N/A
#Pubmed_ID N/A
#Smiles COc1cc(/C=C(\NC(=O)c2ccccc2)/C(=O)NC(C(=O)O)c3ccccc3)cc(OC)c1OC
#INCHI_AUX N/A
#Library_Class 1
#SpectrumID CCMSLIB00000080229
#IonMode Positive
#UpdateWorkflowName UPDATE-SINGLE-ANNOTATED-GOLD
#LibraryQualityString Gold
#TaskID b1d8e8f6646f4e71acdff9ca3d919d08
##Scan# 1974
#SpectrumFile p2-G05_GG5_01_18053.mzXML
#LibraryName NIH_Natural_Products_Library.mgf
#MQScore -1
#Organism NIH_Natural_Products_Library
#TIC_Query 0
#RT_Query -1
#MZErrorPPM -1
#SharedPeaks 0
#MassDiff 0
#LibMZ -1
#SpecMZ 491.182
#SpecCharge 0
#internalFilename spec-00000.mgf

>collision 10
95.060684 164.0
95.315308 140.0
95.363892 204.0
95.521393 184.0
95.69265 152.0
95.732208 152.0
96.121475 172.0
96.165932 164.0
96.263977 180.0
96.559074 128.0
96.656891 200.0
96.703857 132.0
96.911438 148.0
97.032959 112.0
97.138863 196.0
97.48246 180.0
97.566978 72.0
97.852249 212.0
98.15963 216.0
98.212883 192.0
98.24839 196.0
98.283379 60.0
98.401672 120.0
98.489227 252.0
98.528732 136.0
99.045052 160.0
99.177811 152.0
99.235306 148.0
99.477341 136.0
99.51506 112.0
99.544846 104.0
99.560738 140.0
99.654099 96.0
99.679932 124.0
99.75148 68.0
99.803169 168.0
100.018028 148.0
100.334778 136.0
100.4664 148.0
101.233932 152.0
101.380173 136.0
101.594719 120.0
101.793427 136.0
101.821541 96.0
101.89386 172.0
101.919975 152.0
102.090843 160.0
102.105904 188.0
102.275612 192.0
102.612373 176.0
102.777763 128.0
103.125114 172.0
103.155434 156.0
103.276764 144.0
103.547981 168.0
103.710075 180.0
103.762779 128.0
103.795219 176.0
103.904747 188.0
104.101639 172.0
104.561096 188.0
104.585808 140.0
104.605873 284.0
104.620125 180.0
104.679169 168.0
104.717865 156.0
104.748421 108.0
104.805466 132.0
104.856255 176.0
104.884949 232.0
104.935913 160.0
104.962013 300.0
104.987656 192.0
105.034248 63784.0
105.075623 128.0
105.106621 100.0
105.137856 72.0
105.154182 44.0
105.17498 128.0
105.198654 112.0
105.22261 208.0
105.250969 88.0
105.288933 92.0
105.307312 40.0
105.345879 100.0
105.369377 1164.0
105.466187 208.0
105.554604 48.0
105.650734 52.0
105.676369 68.0
105.724396 144.0
105.740768 68.0
105.820602 116.0
105.892273 164.0
105.939384 60.0
105.95578 164.0
105.973083 224.0
106.014694 188.0
106.03614 7424.0
106.064438 176.0
106.115639 28.0
106.151291 76.0
106.176842 52.0
106.222282 60.0
106.242798 36.0
106.283829 68.0
106.431618 36.0
106.452156 52.0
106.477036 104.0
106.513771 88.0
106.571297 80.0
106.604172 164.0
106.716301 80.0
106.741905 116.0
106.756493 128.0
106.826233 100.0
106.850082 100.0
106.912521 128.0
106.920334 120.0
106.937347 144.0
106.957932 76.0
106.99498 96.0
107.047348 1224.0
107.071175 152.0
107.085587 112.0
107.192719 92.0
107.386513 32.0
107.5103 44.0
107.63829 72.0
107.708504 60.0
107.751892 208.0
107.900696 40.0
107.927574 36.0
107.946182 60.0
108.053108 156.0
108.198616 44.0
108.235886 92.0
108.496948 76.0
108.781166 96.0
108.882904 96.0
109.049118 208.0
109.103165 80.0
109.396492 28.0
109.442299 164.0
109.498528 108.0
109.809074 140.0
109.91964 40.0
110.387566 80.0
110.760101 52.0
111.210922 64.0
111.574333 88.0
111.746796 112.0
111.781334 124.0
112.418983 84.0
112.934486 120.0
113.321892 44.0
113.56356 136.0
113.760902 200.0
113.777885 68.0
113.918053 64.0
114.38163 200.0
114.428459 196.0
114.460403 48.0
114.475304 164.0
114.797089 156.0
114.863213 32.0
115.053139 164.0
115.21331 156.0
115.256042 160.0
115.523293 152.0
115.85083 44.0
116.071594 144.0
116.236763 136.0
116.752342 52.0
118.215004 40.0
118.301582 156.0
118.405518 148.0
118.706749 60.0
118.969284 188.0
119.956932 48.0
120.133568 128.0
120.948654 144.0
121.120544 56.0
121.790657 216.0
122.129158 144.0
122.573875 168.0
122.818596 84.0
123.045891 172.0
123.455246 248.0
125.299248 128.0
127.034088 56.0
127.289955 148.0
127.469666 128.0
128.047836 152.0
128.176239 240.0
128.59346 120.0
130.421326 64.0
130.787537 88.0
132.008148 168.0
132.818909 104.0
133.030029 112.0
133.063339 140.0
133.50795 112.0
134.272552 88.0
134.500977 128.0
134.584091 172.0
134.810471 240.0
134.845139 292.0
134.9561 168.0
135.043381 4936.0
135.785126 64.0
136.04628 544.0
136.24939 144.0
138.067535 192.0
139.067963 212.0
139.178299 224.0
139.511932 148.0
139.987213 176.0
140.189819 144.0
140.286453 124.0
140.397263 92.0
140.531723 248.0
141.612076 72.0
142.145493 164.0
142.380508 184.0
142.466034 48.0
142.542053 164.0
142.879684 184.0
145.050476 200.0
145.163162 116.0
146.032913 132.0
147.21106 156.0
147.247284 68.0
147.389816 100.0
147.752502 160.0
147.769424 136.0
148.03569 168.0
149.056961 84.0
149.09584 120.0
149.913544 136.0
149.945221 132.0
150.054916 180.0
151.070724 124.0
151.345001 116.0
152.069504 768.0
153.058929 192.0
153.892349 232.0
153.941727 56.0
154.062759 240.0
154.876602 172.0
155.059952 152.0
157.710724 92.0
157.905746 48.0
158.060852 144.0
159.035736 196.0
159.457703 112.0
160.044479 196.0
160.242828 60.0
161.044357 164.0
161.606247 88.0
161.684692 84.0
161.710007 56.0
161.760635 52.0
162.050705 684.0
162.32309 60.0
162.810333 144.0
163.031357 104.0
163.056778 140.0
163.196594 132.0
165.075882 216.0
165.349625 56.0
166.058044 172.0
166.888794 272.0
167.068832 104.0
167.09198 84.0
167.784775 56.0
168.077713 188.0
169.068558 148.0
169.656525 176.0
170.193588 212.0
171.541275 76.0
171.79422 64.0
172.039536 176.0
173.054123 176.0
173.701263 204.0
175.060089 196.0
175.914368 80.0
176.032928 216.0
176.040344 196.0
176.069641 1168.0
176.159958 40.0
176.252426 136.0
176.522049 200.0
176.68869 128.0
177.019547 124.0
177.078064 1096.0
177.56813 156.0
178.045746 764.0
178.085022 324.0
178.691803 212.0
179.063492 184.0
179.09111 148.0
179.384216 156.0
180.569763 212.0
180.845352 140.0
180.869446 124.0
181.086319 200.0
181.093018 120.0
181.239014 48.0
181.846436 20.0
182.08136 296.0
182.535522 148.0
183.079117 120.0
183.181473 148.0
183.262299 200.0
183.445557 176.0
183.859589 104.0
183.920319 40.0
184.157928 152.0
184.44165 108.0
184.966415 68.0
184.985352 104.0
187.146439 128.0
187.587799 120.0
187.784119 236.0
187.917786 124.0
188.024216 52.0
188.351868 172.0
189.868195 140.0
190.054657 516.0
190.447311 188.0
190.581924 52.0
191.067719 104.0
191.522781 68.0
191.710129 148.0
192.063599 172.0
192.352783 156.0
192.548813 76.0
193.071503 868.0
193.834427 132.0
193.893402 96.0
194.00705 128.0
194.082031 452.0
194.148468 124.0
195.084183 196.0
195.885635 160.0
196.06395 168.0
196.091827 180.0
196.259094 168.0
196.546387 148.0
196.8367 96.0
196.89534 104.0
197.160751 100.0
197.703293 184.0
198.55217 140.0
200.30043 188.0
201.064529 124.0
201.473969 208.0
202.023743 156.0
202.047867 44.0
202.843643 160.0
202.880493 96.0
203.022263 160.0
203.41098 48.0
204.027069 308.0
204.065994 284.0
204.348816 192.0
204.53949 200.0
205.032227 172.0
205.069809 300.0
205.702515 144.0
206.059555 280.0
206.083466 376.0
206.433945 108.0
206.99675 184.0
207.062927 192.0
207.118256 204.0
207.576538 64.0
207.912186 104.0
208.064316 164.0
208.093063 1176.0
208.259583 44.0
208.549789 52.0
208.883331 144.0
209.080231 172.0
209.104492 144.0
209.178726 160.0
209.306412 104.0
210.104797 172.0
210.93071 144.0
211.07753 128.0
211.10997 188.0
214.303024 40.0
214.854065 112.0
215.128387 68.0
215.397049 136.0
216.025543 200.0
216.236221 212.0
216.335739 208.0
217.052704 248.0
218.037003 144.0
218.790009 108.0
219.048615 208.0
219.302567 144.0
219.836395 180.0
220.077271 200.0
220.929626 140.0
221.059814 172.0
221.080536 216.0
222.024399 192.0
222.056 188.0
222.085953 136.0
222.150162 100.0
223.03804 112.0
223.073441 108.0
223.93663 128.0
224.076645 252.0
225.092438 156.0
225.228149 28.0
225.637558 164.0
226.107315 184.0
227.026932 160.0
227.507004 104.0
227.75325 40.0
231.05722 160.0
231.13588 120.0
231.593018 100.0
232.065186 164.0
234.036407 148.0
234.04541 84.0
234.075562 284.0
235.082367 464.0
235.104645 156.0
235.446579 76.0
236.067749 352.0
236.095001 492.0
236.501389 172.0
237.0793 248.0
237.721176 212.0
238.084778 264.0
238.123352 124.0
238.901031 152.0
239.070786 508.0
239.104126 140.0
239.621445 160.0
240.066299 160.0
241.29425 160.0
242.101852 92.0
245.121384 92.0
245.183716 92.0
245.327103 60.0
246.06337 116.0
246.88829 44.0
247.07637 124.0
247.320053 100.0
247.695816 148.0
248.072647 296.0
248.122009 132.0
248.692932 116.0
249.081985 336.0
249.465668 112.0
249.940582 148.0
250.047577 120.0
250.090149 304.0
250.349808 140.0
251.057709 140.0
251.090256 160.0
251.218567 160.0
251.784744 88.0
252.08873 716.0
252.44841 164.0
252.581238 220.0
253.092209 156.0
254.093018 3420.0
254.139938 188.0
254.241486 44.0
254.546234 56.0
254.736801 104.0
254.917908 60.0
255.064102 116.0
255.097641 364.0
255.439331 52.0
256.105194 368.0
256.90152 56.0
257.029144 196.0
257.118561 976.0
258.120483 324.0
259.088196 224.0
259.129852 88.0
260.766449 104.0
260.904663 100.0
261.068634 160.0
261.519073 64.0
262.072357 348.0
262.221191 72.0
263.090332 248.0
263.689728 48.0
263.744659 212.0
264.067474 120.0
264.101685 308.0
264.171509 36.0
264.268555 124.0
264.860199 80.0
265.072815 168.0
265.108124 300.0
265.146118 116.0
265.337372 124.0
265.694122 232.0
266.07901 788.0
266.151764 160.0
267.093506 140.0
267.794067 136.0
268.048157 104.0
268.10025 204.0
268.185059 72.0
268.214386 52.0
268.485016 44.0
271.093811 180.0
273.10907 200.0
273.43866 112.0
273.975403 176.0
275.024048 140.0
275.314575 184.0
275.671967 108.0
276.064758 152.0
276.392242 116.0
277.066833 156.0
277.554901 116.0
278.079712 316.0
279.086029 356.0
279.934143 212.0
280.097321 1292.0
281.108337 848.0
281.307831 40.0
281.350281 216.0
282.087006 132.0
282.286774 124.0
282.557709 96.0
283.078766 172.0
283.146851 124.0
283.84726 112.0
284.941467 204.0
285.114197 2348.0
285.479279 52.0
285.549896 108.0
286.031067 92.0
286.112976 844.0
287.126099 116.0
287.86853 124.0
287.976624 76.0
289.247986 96.0
290.060516 128.0
292.057556 156.0
292.090698 184.0
292.877869 252.0
293.073364 424.0
293.184509 152.0
293.597015 88.0
293.658417 116.0
293.770996 112.0
293.978699 136.0
294.077515 700.0
294.114105 232.0
294.218048 40.0
294.30957 152.0
294.665436 64.0
295.090607 160.0
296.046326 176.0
296.08725 296.0
296.125183 296.0
296.979553 144.0
297.031006 140.0
297.092499 284.0
297.779297 92.0
297.992279 44.0
298.091705 128.0
298.12973 164.0
298.986053 112.0
299.116821 100.0
299.22699 136.0
299.375061 96.0
300.057312 120.0
300.126282 120.0
300.54364 72.0
301.047607 132.0
301.562378 144.0
302.278259 128.0
302.662506 188.0
303.022705 64.0
304.087311 104.0
307.034149 84.0
307.063873 152.0
307.473724 28.0
307.532074 168.0
308.091522 188.0
309.099121 2772.0
309.427765 72.0
309.490784 64.0
309.574829 60.0
309.727448 108.0
309.75238 40.0
309.86203 80.0
309.939117 60.0
309.98819 184.0
310.012726 140.0
310.10022 628.0
310.450928 48.0
310.857849 68.0
311.015778 164.0
311.075409 180.0
311.911499 56.0
312.124451 1044.0
312.242004 108.0
312.340485 44.0
312.875397 144.0
313.125397 172.0
313.298004 100.0
313.428375 148.0
313.966156 36.0
314.963043 180.0
316.296112 36.0
317.440491 60.0
318.771667 164.0
319.895599 40.0
321.742249 128.0
322.106842 600.0
322.156494 156.0
322.285126 52.0
323.114075 132.0
323.884277 168.0
324.076721 300.0
324.105957 128.0
325.093628 796.0
325.254028 140.0
325.710052 64.0
325.904053 144.0
326.096954 124.0
326.918091 80.0
328.013031 200.0
329.528748 100.0
331.377594 160.0
332.091736 92.0
332.505341 120.0
332.752197 180.0
334.13327 148.0
334.202393 172.0
334.875885 128.0
335.447937 240.0
335.502625 100.0
336.947845 196.0
337.715515 120.0
338.843018 156.0
339.062866 76.0
339.198486 136.0
339.301147 120.0
339.407471 124.0
339.455139 76.0
339.59082 124.0
339.624878 100.0
339.711884 56.0
339.770569 88.0
339.841736 160.0
339.937897 140.0
339.977417 76.0
340.064148 320.0
340.118774 20604.0
340.203613 44.0
340.258698 52.0
340.32251 52.0
340.368835 48.0
340.50473 60.0
340.775848 188.0
340.813293 64.0
340.941925 84.0
341.121399 2896.0
341.427185 52.0
341.486023 148.0
341.526489 60.0
341.688354 76.0
341.853943 40.0
341.949615 80.0
342.11969 524.0
342.320221 48.0
342.375275 72.0
342.844574 84.0
343.143127 120.0
343.213196 88.0
343.360718 120.0
343.477142 112.0
343.629974 132.0
343.722229 92.0
343.947357 64.0
344.150421 124.0
344.224243 48.0
344.368286 144.0
344.715576 76.0
346.010162 100.0
347.518616 64.0
354.502838 80.0
355.233948 80.0
355.440308 68.0
358.399567 60.0
359.719574 72.0
359.919678 36.0
366.920044 104.0
368.664429 120.0
377.846771 132.0
378.109894 120.0
387.741486 124.0
389.212585 108.0
389.821442 64.0
394.179779 52.0
395.089172 76.0
395.136627 112.0
396.1026 156.0
399.087036 128.0
401.193146 76.0
401.807312 56.0
413.857269 88.0
416.7005 84.0
427.701355 56.0
444.139954 192.0
445.453827 52.0
448.272766 124.0
459.448914 112.0
460.013 20.0
460.533936 72.0
465.325867 20.0
470.211639 60.0
478.162262 108.0
480.474121 60.0
490.239044 176.0
491.990112 144.0
499.265778 76.0
509.308685 56.0
513.859985 44.0
517.063782 96.0
533.576965 40.0
547.533081 76.0
547.565674 56.0
550.741943 76.0
581.377014 64.0
584.245544 84.0
610.399719 36.0
616.220886 44.0
620.804504 100.0
636.232605 84.0
636.759888 124.0
657.666138 44.0
659.49469 64.0
669.968018 60.0
695.485779 84.0
721.721069 136.0
730.005737 112.0
800.162537 216.0
801.238281 44.0
802.297791 120.0
817.562866 96.0
825.726807 112.0
826.636414 64.0
835.903931 212.0
838.604919 84.0
849.451355 108.0
868.902466 96.0
887.256104 156.0
892.064636 232.0
894.56311 88.0
900.024231 80.0
904.274658 120.0
906.394592 68.0
927.094299 148.0
927.676208 192.0
935.811035 60.0
937.108337 216.0
938.101685 196.0
938.760193 136.0
941.317078 140.0
941.958313 76.0
945.357727 96.0
946.514709 64.0
948.426086 32.0
949.928406 76.0
950.572632 44.0
952.758423 44.0
956.251099 176.0
961.397156 72.0
963.966125 196.0
968.754944 84.0
969.82074 160.0
977.583984 132.0
979.358337 128.0
981.514648 108.0
984.978333 104.0
992.826965 236.0
993.880798 172.0
996.084412 72.0
996.367126 144.0
999.372375 184.0
1000.146484 196.0
1006.760132 84.0
1007.676025 260.0
1008.175232 176.0
1008.484924 192.0
1009.559692 160.0
1009.882263 196.0
1011.546387 196.0
1013.687073 196.0
1023.940552 172.0
1031.034912 188.0
1033.144897 128.0
1038.044678 232.0
1039.988525 204.0
1040.296753 176.0
1044.184082 156.0
1045.985718 148.0
1046.146606 136.0
1049.296875 188.0
1050.864136 88.0
1053.104126 252.0
1055.314209 188.0
1057.520142 40.0
1058.575439 192.0
1058.976929 52.0
1060.02002 56.0
1062.684937 112.0
1063.00293 228.0
1063.353394 164.0
1064.88562 156.0
1065.203857 208.0
1072.856689 156.0
1073.43042 132.0
1073.678223 164.0
1077.353027 164.0
1082.716553 136.0
1083.011353 196.0
1085.809937 212.0
1086.242798 164.0
1086.751709 128.0
1087.850586 176.0
1089.137573 220.0
1089.604004 224.0
1090.13623 68.0
1090.228271 160.0
1090.366211 192.0
1090.7146 228.0
1092.055908 136.0
1095.518311 156.0
1096.071655 224.0
1097.812012 124.0
1099.223633 152.0
1099.573364 236.0
1099.817627 160.0
1104.178345 100.0
1106.633301 116.0
1106.944458 212.0
1108.216309 164.0
1108.912109 208.0
1112.414307 212.0
1114.087769 156.0
1116.201294 140.0
1117.518311 120.0
1117.651367 180.0
1117.744507 200.0
1117.870972 168.0
1118.004028 72.0
1118.629761 80.0
1119.288818 156.0
1124.982544 180.0
1129.125244 140.0
1130.369629 180.0
1131.246338 124.0
1131.319946 156.0
1131.942627 264.0
1132.907104 184.0
1133.235352 136.0
1133.329224 168.0
1133.704468 112.0
1134.629395 140.0
1137.13147 184.0
1139.051758 168.0
1139.535522 208.0
1139.589233 172.0
1140.341919 208.0
1141.041016 84.0
1145.92041 108.0
1146.654907 40.0
1147.645874 216.0
1148.934082 164.0
1149.622314 96.0
1150.702271 188.0
1152.647461 152.0
1153.620728 176.0
1154.790527 180.0
1155.507568 180.0
1155.960938 132.0
1156.779907 196.0
1157.206421 156.0
1160.936401 356.0
1161.557129 96.0
1162.608765 140.0
1164.394287 100.0
1165.053223 204.0
1165.453979 160.0
1166.711304 244.0
1166.779297 180.0
1168.261841 236.0
1169.200806 172.0
1170.303589 164.0
1171.938354 36.0
1172.552368 144.0
1173.97644 104.0
1174.528809 176.0
1174.842651 148.0
1176.842285 212.0
1177.313477 36.0
1177.436401 128.0
1177.497925 172.0
1178.42688 40.0
1179.998901 160.0
1181.44873 100.0
1183.17334 168.0
1184.143799 180.0
1186.153198 156.0
1187.312012 164.0
1188.093872 168.0
1188.203735 160.0
1190.15979 268.0
1190.400146 60.0
1192.08313 152.0
1193.38916 132.0
1193.485352 108.0
1193.953003 192.0
1196.485107 140.0
1196.602173 184.0
1197.263184 164.0
1198.089722 140.0
1199.543823 164.0
1199.764404 160.0
1200.150513 228.0
1201.440186 220.0
1202.095703 136.0
1204.86438 156.0
1205.486328 204.0
1206.654419 116.0
1207.05542 204.0
1210.716187 200.0
1217.068115 92.0
1218.894897 164.0
1219.096436 144.0
1221.93335 204.0
1223.59668 180.0
1224.160645 140.0
1225.860474 212.0
1227.770508 208.0
1228.049561 160.0
1229.054077 164.0
1234.446655 164.0
1234.733398 228.0
1235.125 216.0
1236.657349 188.0
1238.736938 176.0
1241.091797 184.0
1242.220947 192.0
1242.578735 240.0
1243.364624 52.0
1244.171753 208.0
1244.508789 200.0
1244.740479 144.0
1246.046997 172.0
1246.489624 148.0
1247.881348 164.0
1247.979736 152.0
1249.31604 156.0
1250.089966 76.0
1250.779663 176.0
1251.497803 160.0
1251.934326 196.0
1252.040039 164.0
1252.321655 192.0
1253.34314 172.0
1254.971436 188.0
1255.577759 136.0
1257.263916 172.0
1257.842651 168.0
1259.318359 184.0
1260.667725 188.0
1261.508911 136.0
1262.300781 164.0
1263.517334 124.0
1264.614136 120.0
1266.054688 136.0
1266.454956 48.0
1267.106689 44.0
1267.482178 64.0
1267.794067 36.0
1269.091187 72.0
1269.566284 168.0
1272.553589 124.0
1272.603394 188.0
1274.228394 212.0
1274.315063 212.0
1275.835938 180.0
1277.478638 124.0
1278.553101 104.0
1280.838501 152.0
1280.895508 228.0
1281.102173 128.0
1281.493896 128.0
1282.43457 172.0
1282.712646 160.0
1283.004883 124.0
1286.007935 128.0
1286.429077 92.0
1288.307251 148.0
1288.878784 204.0
1289.057373 168.0
1289.186035 248.0
1289.521973 176.0
1289.800659 188.0
1293.720703 148.0
1294.608643 148.0
1295.238892 176.0
1295.640015 80.0
1296.60022 156.0
1296.779297 156.0
1298.19165 176.0
1298.535889 156.0
1298.657837 280.0
1299.116943 244.0
1299.36084 108.0
1301.908936 164.0
1302.799561 128.0
1303.015137 140.0
1303.130127 232.0
1303.654663 172.0
1304.984375 132.0
1305.430176 156.0
1306.63147 292.0
1307.732422 124.0
1307.890747 48.0
1308.004761 208.0
1310.404053 176.0
1310.519287 192.0
1311.066895 184.0
1312.898071 120.0
1313.561646 112.0
1314.744873 152.0
1315.055176 168.0
1316.896362 212.0
1317.972656 236.0
1318.225586 144.0
1318.630371 224.0
1320.481201 100.0
1320.654785 168.0
1323.230957 192.0
1325.606689 180.0
1325.715454 176.0
1327.817749 144.0
1328.434326 132.0
1329.747681 228.0
1329.82019 132.0
1330.183105 176.0
1330.270264 116.0
1330.618774 128.0
1331.018066 164.0
1331.148804 152.0
1333.315918 248.0
1333.491333 160.0
1334.113159 212.0
1334.323975 156.0
1334.520264 236.0
1336.600586 200.0
1336.949829 60.0
1337.612183 112.0
1338.347412 140.0
1340.153809 208.0
1340.547241 220.0
1343.026001 188.0
1344.419556 156.0
1345.127563 156.0
1346.712036 152.0
1348.823608 156.0
1349.313477 100.0
1349.891113 176.0
1352.685913 156.0
1353.806152 176.0
1353.930542 268.0
1354.472534 172.0
1358.973877 128.0
1361.374146 188.0
1361.675171 160.0
1361.968994 128.0
1362.688965 132.0
1363.012207 172.0
1364.533691 68.0
1365.349854 216.0
1365.6073 168.0
1366.085449 184.0
1366.512085 92.0
1366.629761 116.0
1366.887329 136.0
1367.689575 168.0
1368.116455 132.0
1369.817505 152.0
1370.178589 192.0
1370.532227 116.0
1372.463379 148.0
1373.827759 108.0
1373.997437 208.0
1374.248291 104.0
1374.602417 168.0
1375.805542 232.0
1377.718262 200.0
1378.420166 92.0
1378.501465 244.0
1378.656616 124.0
1380.305054 156.0
1380.630493 168.0
1380.985474 164.0
1381.762207 148.0
1381.828735 216.0
1381.910156 168.0
1382.11084 136.0
1382.531738 136.0
1382.731445 164.0
1384.049194 172.0
1384.278687 176.0
1385.678589 196.0
1386.175049 52.0
1386.575317 156.0
1387.116333 152.0
1387.234985 136.0
1388.384155 120.0
1389.237183 120.0
1389.749023 160.0
1391.938721 176.0
1392.057495 152.0
1392.644287 188.0
1393.260742 216.0
1396.070435 88.0
1397.550659 160.0
1398.235229 68.0
1398.815796 160.0
1401.057373 160.0
1401.578857 216.0
1402.868164 168.0
1403.181274 152.0
1403.375244 64.0
1406.433594 132.0
1406.568115 144.0
1407.561157 112.0
1407.792603 136.0
1408.442383 188.0
1409.660156 164.0
1412.067383 128.0
1412.197388 216.0
1412.964966 168.0
1413.256714 172.0
1414.281982 248.0
1414.716187 112.0
1414.791504 144.0
1415.412476 224.0
1415.764404 204.0
1417.187622 232.0
1417.697144 160.0
1418.98645 108.0
1419.691284 84.0
1419.796265 160.0
1420.088745 140.0
1420.463745 180.0
1422.459839 188.0
1422.579956 60.0
1422.82019 176.0
1423.105469 212.0
1424.254395 160.0
1424.419678 124.0
1425.140869 284.0
1425.704468 184.0
1426.305786 188.0
1426.674072 300.0
1427.31311 120.0
1428.930298 52.0
1429.524658 196.0
1430.578369 200.0
1431.737915 52.0
1432.069336 192.0
1433.349976 188.0
1433.591187 244.0
1434.51062 124.0
1434.58606 172.0
1435.166504 176.0
1436.893677 144.0
1437.572754 108.0
1437.874634 144.0
1440.071655 68.0
1442.535034 136.0
1443.880859 200.0
1444.864136 216.0
1445.749512 188.0
1446.12793 144.0
1446.407959 60.0
1447.452637 248.0
1448.285767 160.0
1448.619019 164.0
1449.36145 212.0
1450.414917 168.0
1450.641479 176.0
1451.976807 172.0
1452.196777 232.0
1452.598755 240.0
1452.871826 132.0
1453.72168 184.0
1453.934082 196.0
1454.01001 144.0
1455.186646 168.0
1457.214478 232.0
1458.894043 200.0
1458.970093 184.0
1459.304565 200.0
1459.601074 152.0
1459.753174 136.0
1460.60498 168.0
1463.062866 196.0
1463.440063 120.0
1463.633911 168.0
1464.296509 112.0
1464.509766 132.0
1465.461914 132.0
1465.89624 212.0
1466.780396 116.0
1466.841309 204.0
1466.932861 256.0
1467.184326 200.0
1468.97644 164.0
1469.045166 176.0
1470.281128 164.0
1471.059692 160.0
1473.4729 140.0
1475.039551 160.0
1477.387207 140.0
1477.777344 212.0
1478.909912 160.0
1479.537598 36.0
1479.843872 148.0
1482.248901 192.0
1482.647461 152.0
1483.344849 152.0
1485.660767 176.0
1486.919189 56.0
1488.262573 148.0
1488.631104 56.0
1488.945923 176.0
1489.329956 172.0
1490.382446 132.0
1491.881104 192.0
1492.734619 168.0
1493.180542 128.0
1493.665161 196.0
1494.419067 152.0
1496.129761 220.0
1496.782104 148.0
1497.48291 192.0
1497.713989 180.0
1498.060547 148.0
1498.491943 196.0
1498.79248 120.0
1500.912231 312.0
1501.377319 152.0
1502.022705 120.0
1502.076782 172.0
1503.048828 116.0
1504.136963 104.0
