>compound MLS000862200-01!SB 222200
>formula C26H24N2O
>ionization [M+H]+
>parentmass 381.194672
#inchi InChI=1S/C26H24N2O/c1-3-22(19-12-6-4-7-13-19)28-26(29)24-18(2)25(20-14-8-5-9-15-20)27-23-17-11-10-16-21(23)24/h4-17,22H,3H2,1-2H3,(H,28,29)/t22-/m0/s1
#inchikey MQNYRKWJSMQECI
#Ion_Source LC-ESI
#Instrument qTof
#Compound_Source NIH Pharmacologically Active Library
#PI Dorrestein
#Data_Collector VP/LMS
#Scan -1
#Precursor_MZ 381.189
#ExactMass 380.189
#Charge 1
#CAS_Number N/A
#Pubmed_ID N/A
#Smiles CC[C@H](NC(=O)c1c(C)c(nc2ccccc12)c3ccccc3)c4ccccc4
#INCHI_AUX N/A
#Library_Class 1
#SpectrumID CCMSLIB00000085323
#IonMode Positive
#UpdateWorkflowName UPDATE-SINGLE-ANNOTATED-GOLD
#LibraryQualityString Gold
#TaskID d252d724072548979f1f6f1ced849daf
##Scan# 2312
#SpectrumFile p3-H05_GH5_01_18310.mzXML
#LibraryName Pharm_Active_Library.mgf
#MQScore -1
#Organism Pharm_Active_Library
#TIC_Query 0
#RT_Query -1
#MZErrorPPM -1
#SharedPeaks 0
#MassDiff 0
#LibMZ -1
#SpecMZ 381.189
#SpecCharge 0
#internalFilename spec-00000.mgf

>collision 10
45.028866 132.0
45.191963 180.0
45.220066 88.0
45.506958 208.0
46.115898 180.0
46.215977 156.0
47.522758 40.0
47.607868 120.0
48.403603 164.0
48.857616 204.0
48.91177 116.0
49.147308 216.0
49.253414 160.0
49.75618 112.0
49.833431 84.0
49.982487 36.0
49.995152 172.0
50.086674 188.0
51.080441 148.0
51.32827 112.0
51.385326 164.0
52.137135 180.0
52.713604 112.0
52.820599 176.0
53.02042 124.0
53.303417 240.0
53.523075 180.0
54.006157 156.0
54.221397 216.0
54.296169 132.0
55.765308 208.0
56.267345 176.0
56.639729 120.0
56.659203 108.0
56.803127 208.0
56.837635 144.0
56.861645 144.0
56.965256 164.0
57.242012 248.0
57.350491 148.0
58.299492 224.0
58.422661 156.0
59.061855 144.0
59.544685 88.0
61.070282 184.0
61.544056 128.0
61.780067 208.0
62.236168 68.0
62.442039 184.0
62.476646 80.0
63.068016 140.0
63.289509 148.0
65.136452 100.0
65.269852 156.0
66.055321 80.0
66.236626 120.0
66.743011 168.0
66.85363 100.0
67.553627 124.0
67.779572 68.0
67.976776 140.0
68.015747 104.0
68.769646 68.0
68.895149 192.0
69.257431 124.0
69.330338 168.0
69.368462 192.0
69.655548 44.0
69.813454 112.0
69.875 168.0
70.058144 112.0
70.376709 136.0
70.690971 180.0
70.767975 168.0
71.197273 144.0
71.252708 100.0
71.938164 124.0
72.232208 184.0
72.628593 132.0
72.738892 96.0
72.895149 156.0
73.375168 152.0
73.791771 168.0
73.988525 152.0
75.593613 244.0
76.098953 68.0
76.441399 104.0
76.481422 132.0
77.34549 176.0
77.415527 148.0
77.471581 40.0
77.797775 144.0
78.253143 172.0
78.286598 128.0
78.761055 196.0
79.162544 164.0
79.424858 212.0
79.833366 164.0
80.025551 168.0
80.562401 176.0
80.916519 120.0
81.413231 112.0
81.483284 180.0
81.727821 172.0
82.718674 136.0
82.946922 260.0
83.139191 184.0
83.180939 100.0
83.215431 216.0
83.615364 180.0
83.666328 204.0
83.711853 124.0
83.914116 256.0
84.204269 156.0
84.518715 176.0
85.140175 172.0
85.314735 160.0
85.45636 152.0
85.712303 184.0
86.391777 80.0
86.536133 140.0
86.710274 108.0
87.036781 148.0
87.049782 172.0
87.080841 160.0
87.638527 20.0
88.742271 184.0
89.4468 160.0
89.569199 176.0
89.865189 176.0
89.976547 140.0
90.144661 128.0
90.494606 88.0
91.052811 424.0
91.295403 80.0
92.600868 184.0
93.355125 188.0
95.010521 160.0
95.134727 156.0
95.210457 164.0
95.25708 48.0
95.507843 140.0
95.677147 168.0
96.109848 132.0
96.494637 192.0
96.56308 112.0
96.717659 84.0
97.415764 192.0
97.535637 156.0
97.779541 68.0
99.037285 112.0
100.215378 152.0
100.686165 148.0
101.372375 168.0
101.44854 180.0
101.566856 144.0
102.64286 216.0
102.804245 76.0
103.487495 76.0
103.548248 184.0
103.83606 168.0
103.878654 160.0
104.043037 184.0
104.534935 44.0
104.830223 84.0
104.993317 136.0
105.244324 128.0
105.518112 116.0
105.601959 68.0
105.884415 156.0
106.28212 172.0
106.625069 116.0
108.424797 136.0
108.953934 180.0
109.50103 160.0
109.59269 120.0
110.655846 108.0
110.848557 200.0
111.083382 160.0
111.21978 152.0
111.509644 172.0
112.200104 176.0
112.225403 200.0
112.601044 96.0
112.833488 132.0
113.260971 156.0
114.00145 232.0
114.084343 44.0
114.373657 88.0
115.053192 1344.0
115.789291 84.0
116.05011 512.0
116.421974 152.0
116.482117 144.0
116.505753 124.0
116.628242 68.0
117.052078 140.0
117.17701 60.0
117.569466 196.0
118.848404 156.0
119.086121 176.0
119.404541 204.0
120.822739 116.0
121.052269 152.0
121.266975 116.0
121.949593 172.0
122.006744 276.0
122.253105 216.0
122.526146 160.0
122.645149 196.0
123.110687 116.0
123.174744 188.0
123.210091 204.0
123.867134 96.0
124.053284 140.0
124.135323 124.0
124.350517 220.0
124.428215 248.0
124.639229 112.0
124.697006 160.0
124.86821 124.0
125.482826 100.0
125.59433 108.0
125.944778 196.0
126.06543 56.0
126.882446 176.0
127.801086 140.0
127.846092 172.0
128.048721 224.0
128.445435 208.0
128.578552 136.0
129.179596 136.0
129.571259 192.0
130.02478 176.0
130.07019 192.0
130.267746 136.0
131.064072 152.0
131.084579 112.0
131.193985 36.0
131.917664 212.0
132.048004 132.0
132.082672 152.0
132.173828 220.0
132.311157 160.0
132.583755 176.0
132.707535 124.0
133.047104 172.0
133.679214 148.0
133.74826 160.0
134.215942 172.0
134.746826 60.0
135.112122 144.0
135.714325 152.0
136.067001 208.0
136.115753 152.0
136.771393 152.0
137.062515 176.0
137.860611 184.0
137.914368 48.0
138.344788 192.0
138.705551 188.0
139.332138 44.0
139.477844 172.0
140.051651 504.0
140.440918 160.0
140.731201 144.0
141.052505 188.0
141.175446 104.0
141.51384 128.0
142.016251 56.0
142.065048 3488.0
142.11351 68.0
142.184708 128.0
142.260666 52.0
142.372253 56.0
142.816711 112.0
143.06842 472.0
143.330963 152.0
144.094498 88.0
144.118393 88.0
145.661301 160.0
145.752609 196.0
146.067566 164.0
146.712952 180.0
147.060318 156.0
147.084457 188.0
147.41777 180.0
147.603912 192.0
147.715164 212.0
148.441772 32.0
148.514542 44.0
148.623703 156.0
148.859177 168.0
148.905319 160.0
148.970566 148.0
148.995193 116.0
149.075378 52.0
149.21637 112.0
149.566681 140.0
150.168533 108.0
150.33931 108.0
150.60788 152.0
150.796021 192.0
151.652695 180.0
152.861038 168.0
152.952103 92.0
153.299377 200.0
153.738358 156.0
153.856842 60.0
154.237274 152.0
154.308975 140.0
154.355957 100.0
154.566208 204.0
154.677582 128.0
155.002045 184.0
155.329315 144.0
155.942627 124.0
156.631882 200.0
156.881088 232.0
157.008255 212.0
157.076828 560.0
157.161499 148.0
157.332642 180.0
157.942398 112.0
158.054977 120.0
158.671143 216.0
159.080078 136.0
159.190552 64.0
159.363876 56.0
159.612732 172.0
159.655472 180.0
159.909592 176.0
160.072113 360.0
160.090866 212.0
160.128632 104.0
160.168945 96.0
160.774063 164.0
160.849792 128.0
162.020676 128.0
163.310242 168.0
163.956955 120.0
164.023224 152.0
164.781174 76.0
165.597229 240.0
165.932938 188.0
166.569977 88.0
167.406479 192.0
167.621689 40.0
167.745407 160.0
167.866592 172.0
168.036835 168.0
168.54808 132.0
169.078232 68.0
169.282745 232.0
169.572906 188.0
171.113373 164.0
171.209717 200.0
171.884918 152.0
172.23999 160.0
172.386307 196.0
172.634659 112.0
172.694809 200.0
172.964325 124.0
173.192139 112.0
173.779373 188.0
174.330811 160.0
174.357086 124.0
174.677872 140.0
175.027924 148.0
175.236008 180.0
175.4785 84.0
175.919083 148.0
176.059036 100.0
176.077515 188.0
176.130341 152.0
177.034897 272.0
178.077209 108.0
178.175491 180.0
178.202057 256.0
178.239258 120.0
178.534348 72.0
178.643402 272.0
178.866928 208.0
179.079819 164.0
179.239807 128.0
179.346405 188.0
180.275696 216.0
182.954834 140.0
183.040985 240.0
183.42897 172.0
183.604218 84.0
183.641983 176.0
183.887512 240.0
184.003601 160.0
184.644028 84.0
185.039108 20.0
185.072113 772.0
185.426483 180.0
185.505096 64.0
185.765427 140.0
185.99881 92.0
186.078232 156.0
187.031738 144.0
187.407578 148.0
187.958374 72.0
188.340607 128.0
188.988525 76.0
189.095261 152.0
189.443024 120.0
189.500549 148.0
190.079117 188.0
190.350891 156.0
190.414047 176.0
190.818008 208.0
191.07103 96.0
191.093048 164.0
191.905579 40.0
192.087601 228.0
192.587234 116.0
192.694962 40.0
193.079208 100.0
193.27562 160.0
193.527512 188.0
194.099533 156.0
194.55336 172.0
194.683853 152.0
194.819962 124.0
194.987762 144.0
195.562424 160.0
195.595825 188.0
195.871506 196.0
196.075119 320.0
196.107513 132.0
196.68576 152.0
196.822556 124.0
196.909134 40.0
196.959412 108.0
197.507278 136.0
197.672348 112.0
198.002701 68.0
198.095139 76.0
198.366959 136.0
198.546417 168.0
200.742828 148.0
200.9431 132.0
201.067261 204.0
201.649078 116.0
202.469559 192.0
202.939972 296.0
203.053406 148.0
203.077789 168.0
203.490417 300.0
203.61821 52.0
204.082214 868.0
205.055008 192.0
205.086685 200.0
206.062347 176.0
206.105423 160.0
206.28241 116.0
206.828781 128.0
207.335754 176.0
207.456146 136.0
207.642517 156.0
207.811783 108.0
208.676315 100.0
209.079041 188.0
209.197067 144.0
209.401505 136.0
210.116409 116.0
210.610046 56.0
211.014633 100.0
211.147659 152.0
211.451447 108.0
211.480392 156.0
211.601974 112.0
212.386429 128.0
213.119217 188.0
213.383438 128.0
213.557922 168.0
214.02356 212.0
214.76088 156.0
215.122726 152.0
215.262863 124.0
215.581299 112.0
216.074799 160.0
216.769424 132.0
216.883728 136.0
216.942352 188.0
217.088379 4656.0
217.159348 68.0
217.810974 180.0
218.094894 10232.0
218.171585 180.0
218.275345 100.0
218.342987 52.0
218.375336 208.0
218.602631 156.0
218.878586 68.0
219.101181 1280.0
219.191971 52.0
219.235031 56.0
219.270401 84.0
219.379471 68.0
219.450226 60.0
219.506256 124.0
219.553436 64.0
219.662567 92.0
219.815994 56.0
219.86026 52.0
219.892731 140.0
220.001938 116.0
220.111557 4260.0
220.156708 116.0
220.205688 56.0
220.225876 176.0
220.270676 36.0
220.356354 128.0
220.48407 164.0
220.539581 96.0
220.601654 60.0
220.653732 52.0
220.743576 76.0
220.885544 132.0
221.048264 84.0
221.077866 136.0
221.115662 1344.0
221.169617 176.0
221.285065 40.0
221.495346 84.0
221.613846 64.0
222.090652 168.0
222.125107 196.0
222.168274 108.0
222.189041 80.0
222.512543 192.0
222.669937 128.0
222.943253 76.0
223.576721 64.0
223.969742 112.0
224.50325 200.0
225.091141 128.0
225.252426 128.0
225.82933 152.0
226.251266 208.0
226.553741 200.0
226.751511 160.0
226.964355 104.0
227.10231 140.0
227.582489 204.0
227.834778 152.0
228.081192 228.0
228.144318 160.0
229.846069 104.0
230.691757 184.0
230.842941 128.0
232.075546 1024.0
232.129959 152.0
233.04364 260.0
233.081238 496.0
233.484421 196.0
233.694321 128.0
234.089722 712.0
234.632416 140.0
234.943497 264.0
234.99231 112.0
235.120041 1880.0
235.254776 40.0
235.279205 68.0
235.376434 108.0
235.401337 196.0
236.1082 516.0
236.284714 160.0
236.621384 44.0
237.025696 100.0
237.075623 344.0
237.112793 256.0
237.277039 76.0
237.74942 172.0
237.777039 180.0
238.277573 40.0
238.704834 40.0
240.254135 136.0
240.593613 160.0
241.06929 176.0
243.091507 108.0
243.231171 52.0
244.094894 328.0
244.826218 108.0
245.107101 288.0
246.004837 96.0
246.091522 2316.0
246.134552 88.0
246.227875 32.0
246.332733 64.0
246.354614 60.0
246.582047 56.0
246.72963 36.0
247.093979 916.0
247.77182 100.0
248.072678 188.0
248.108231 184.0
248.436462 192.0
248.819351 60.0
248.907272 208.0
249.07959 2776.0
249.174255 172.0
249.224533 92.0
249.246521 56.0
249.652039 140.0
249.869095 64.0
249.985504 92.0
250.082382 984.0
250.136581 48.0
250.653107 80.0
250.791779 32.0
251.081177 336.0
251.956238 140.0
252.057343 120.0
252.082626 56.0
258.106659 108.0
258.170227 196.0
258.420105 128.0
259.086761 92.0
260.237488 124.0
260.85434 176.0
260.88327 252.0
260.953979 56.0
261.100281 936.0
261.188751 88.0
261.224152 164.0
261.352844 176.0
261.684357 36.0
261.835724 180.0
261.929138 192.0
262.067657 136.0
262.112457 580.0
262.634094 68.0
262.664093 112.0
262.728149 56.0
262.814392 108.0
262.854431 120.0
262.889954 36.0
262.918976 68.0
262.967133 488.0
262.992004 200.0
263.048218 116.0
263.117401 29024.0
263.222443 120.0
263.257965 80.0
263.292419 144.0
263.325562 56.0
263.354004 204.0
263.429138 44.0
263.451752 76.0
263.50058 76.0
263.530548 72.0
263.552887 56.0
263.673096 152.0
263.707031 284.0
263.742615 120.0
263.836334 56.0
263.881622 76.0
263.917175 60.0
263.998901 116.0
264.049774 180.0
264.121582 4884.0
264.188873 64.0
264.213562 168.0
264.324768 120.0
264.353882 204.0
264.441254 108.0
264.512482 56.0
264.641968 64.0
264.781219 52.0
264.803894 44.0
264.862183 148.0
265.0177 64.0
265.05011 28.0
265.123688 512.0
265.419647 136.0
265.516937 88.0
265.688049 112.0
265.766724 132.0
265.83374 92.0
265.903473 140.0
265.964691 148.0
266.021484 120.0
266.034576 60.0
266.046967 92.0
266.097778 124.0
266.130371 124.0
266.263397 52.0
266.692291 72.0
267.010925 108.0
267.043457 124.0
267.36554 48.0
267.512024 68.0
269.181396 108.0
269.223846 52.0
270.269897 104.0
272.197357 68.0
276.612122 44.0
277.181793 144.0
277.907959 112.0
281.88385 48.0
283.376221 92.0
284.348724 32.0
285.259003 136.0
286.554718 132.0
288.167511 152.0
289.981354 180.0
291.138275 56.0
291.909698 80.0
294.155029 60.0
294.394043 208.0
298.760895 128.0
301.256866 152.0
303.171204 168.0
303.347076 148.0
304.162262 116.0
304.54422 76.0
305.83075 76.0
307.797058 44.0
307.901825 148.0
308.069489 152.0
308.142853 68.0
312.638306 100.0
314.594574 224.0
315.322235 108.0
315.89505 96.0
319.047791 64.0
324.252289 148.0
327.183502 52.0
334.106964 120.0
335.647675 84.0
336.056183 76.0
339.487396 84.0
341.158081 52.0
342.239777 52.0
345.620911 48.0
347.1026 84.0
349.126495 180.0
349.427826 64.0
349.904205 108.0
352.193939 188.0
363.804016 140.0
364.445862 156.0
365.03125 164.0
367.591187 60.0
368.836273 164.0
369.214813 104.0
372.599548 40.0
376.748871 52.0
379.206055 144.0
379.407623 160.0
380.032074 148.0
380.637604 100.0
381.033783 160.0
381.080414 172.0
381.111511 144.0
381.194672 8760.0
381.326111 60.0
381.461304 48.0
381.566254 68.0
381.609039 56.0
381.683289 80.0
381.760681 108.0
381.935699 116.0
382.197479 3940.0
382.262512 176.0
382.340363 40.0
382.550537 104.0
382.69458 56.0
382.721832 44.0
382.764679 96.0
382.815308 120.0
382.869812 112.0
383.196594 840.0
383.504913 56.0
383.614044 56.0
383.773895 76.0
383.918182 60.0
384.054688 56.0
384.113922 108.0
384.183411 104.0
384.234131 48.0
384.792267 144.0
384.81958 140.0
385.042175 144.0
390.584503 72.0
394.848297 108.0
395.44574 120.0
395.782257 64.0
403.265472 56.0
403.393402 76.0
404.109283 124.0
417.156616 148.0
417.205383 80.0
443.143799 116.0
463.590759 116.0
470.494507 44.0
475.173065 76.0
478.698273 32.0
480.15387 88.0
503.717133 60.0
546.2854 100.0
573.819763 64.0
574.139221 76.0
692.443481 84.0
737.481628 488.0
738.507019 232.0
739.501038 112.0
743.685425 80.0
765.858337 76.0
785.302917 92.0
789.933655 64.0
834.523743 20.0
848.580444 68.0
899.24176 116.0
973.259766 84.0
975.900574 204.0
1012.582092 120.0
1061.8927 72.0
1079.208984 172.0
1157.344604 140.0
1167.231323 112.0
1170.599854 60.0
1172.091675 156.0
1179.291748 132.0
1214.075562 72.0
1215.130005 84.0
1274.180908 120.0
1283.897339 264.0
1291.125 100.0
1294.646118 44.0
1352.426636 184.0
1372.062988 128.0
1382.914795 44.0
1389.146729 68.0
1391.647827 136.0
1408.374512 152.0
1417.442139 204.0
1427.358521 92.0
1431.166016 164.0
1451.826538 208.0
1468.56665 168.0
1488.288574 76.0
1492.783936 152.0
