>compound MLS001140979-01!4-[[[2-(4-methyl-2-oxochromen-7-yl)oxyacetyl]amino]methyl]cyclohexane-1-carboxylic acid
>formula C20H23NO6
>ionization [M+H]+
>parentmass 374.16
#inchi InChI=1S/C20H23NO6/c1-12-8-19(23)27-17-9-15(6-7-16(12)17)26-11-18(22)21-10-13-2-4-14(5-3-13)20(24)25/h6-9,13-14H,2-5,10-11H2,1H3,(H,21,22)(H,24,25)/t13-,14-
#inchikey YLCKQNHDIIGLSU
#Ion_Source LC-ESI
#Instrument qTof
#Compound_Source NIH Natural Product Library
#PI Dorrestein
#Data_Collector VVP/LMS
#Scan -1
#Precursor_MZ 374.16
#ExactMass 373.153
#Charge 1
#CAS_Number N/A
#Pubmed_ID N/A
#Smiles Cc1cc(=O)oc2cc(OCC(=O)NC[C@H]3CC[C@@H](CC3)C(=O)O)ccc12
#INCHI_AUX N/A
#Library_Class 1
#SpectrumID CCMSLIB00000079882
#IonMode Positive
#UpdateWorkflowName UPDATE-SINGLE-ANNOTATED-GOLD
#LibraryQualityString Gold
#TaskID b1d8e8f6646f4e71acdff9ca3d919d08
##Scan# 1786
#SpectrumFile p1-D12_GD12_01_17920.mzXML
#LibraryName NIH_Natural_Products_Library.mgf
#MQScore -1
#Organism NIH_Natural_Products_Library
#TIC_Query 0
#RT_Query -1
#MZErrorPPM -1
#SharedPeaks 0
#MassDiff 0
#LibMZ -1
#SpecMZ 374.16
#SpecCharge 0
#internalFilename spec-00000.mgf

>collision 10
95.031662 160.0
95.066582 156.0
95.086212 2340.0
95.132576 108.0
95.371498 52.0
95.867775 196.0
95.939888 192.0
95.96328 128.0
96.056892 28.0
96.08783 520.0
96.265724 132.0
96.341896 80.0
96.504105 124.0
96.56472 116.0
96.781937 196.0
96.851135 72.0
96.907288 184.0
96.944519 168.0
97.462845 132.0
98.061775 184.0
98.125832 180.0
98.295456 216.0
98.864563 180.0
98.945717 160.0
99.066521 184.0
99.955971 32.0
100.007713 188.0
100.274597 36.0
100.354332 176.0
100.659615 48.0
100.873909 184.0
101.091393 264.0
101.189468 136.0
101.461929 108.0
101.835159 184.0
101.901451 104.0
101.952545 140.0
102.046158 168.0
102.364067 36.0
102.525223 116.0
103.053734 1688.0
103.158981 84.0
103.47052 80.0
104.056427 204.0
104.20266 176.0
104.399826 152.0
104.519836 48.0
104.544258 112.0
104.794708 60.0
104.825272 120.0
105.06916 632.0
105.15564 172.0
105.190338 116.0
105.278137 164.0
105.478668 212.0
105.805656 196.0
106.078117 120.0
106.751534 144.0
106.975792 204.0
107.048988 116.0
107.493103 244.0
107.567406 48.0
107.780121 192.0
108.081383 148.0
108.217995 176.0
108.74929 152.0
108.996414 152.0
109.069962 204.0
109.43528 80.0
109.587326 228.0
109.624832 212.0
109.772835 152.0
110.095299 400.0
110.115082 124.0
110.388847 156.0
111.006577 152.0
111.050621 272.0
111.103638 204.0
111.432663 228.0
112.039467 180.0
112.08783 212.0
112.111168 260.0
112.202942 172.0
112.55529 184.0
112.616531 204.0
112.806702 192.0
113.043579 192.0
113.083786 152.0
113.239151 208.0
113.348495 152.0
113.547768 196.0
113.67717 76.0
113.853363 160.0
113.876724 100.0
113.931953 108.0
114.08284 56.0
114.125359 164.0
114.20829 60.0
114.357231 192.0
114.736282 160.0
115.054329 620.0
115.248611 172.0
115.550072 128.0
115.991211 188.0
116.061958 144.0
116.456818 224.0
116.624405 132.0
116.746948 32.0
116.947083 152.0
116.970703 168.0
117.072861 232.0
117.155899 164.0
117.438271 236.0
117.662689 140.0
118.064583 164.0
118.155426 200.0
118.253929 188.0
118.296089 92.0
118.456337 240.0
118.809677 160.0
119.048431 336.0
119.063637 172.0
119.09404 188.0
119.215698 184.0
119.38961 144.0
119.41571 68.0
119.502724 152.0
119.929543 188.0
120.479424 140.0
121.065041 1072.0
121.247429 56.0
121.297844 184.0
121.414047 156.0
121.435974 56.0
121.493004 36.0
121.991501 56.0
122.042061 108.0
122.071556 384.0
122.099434 196.0
122.284035 164.0
122.466782 192.0
122.65847 124.0
123.068802 132.0
123.69223 160.0
123.780785 164.0
123.913681 56.0
123.929192 64.0
124.111839 532.0
124.539238 224.0
124.581436 216.0
124.603653 180.0
124.739212 136.0
124.814804 220.0
124.905983 200.0
125.120026 216.0
125.222038 220.0
126.150253 132.0
126.360466 200.0
126.400742 168.0
126.458923 64.0
126.638039 184.0
126.873322 92.0
126.989922 152.0
127.611938 40.0
127.654663 140.0
127.710884 104.0
127.84362 172.0
128.12056 264.0
128.404572 144.0
128.50383 192.0
128.533157 200.0
128.650513 144.0
128.93512 192.0
129.079788 216.0
129.412399 232.0
129.521103 140.0
129.548279 156.0
129.718231 168.0
129.874695 132.0
129.988129 128.0
130.253754 200.0
130.371887 44.0
130.55603 184.0
131.049744 820.0
131.202667 180.0
131.289322 152.0
131.499207 120.0
132.033798 72.0
132.057251 144.0
132.244278 124.0
132.411423 168.0
132.879028 160.0
133.06601 464.0
133.450912 220.0
133.519897 116.0
133.785446 116.0
134.06871 316.0
135.040924 200.0
135.076752 144.0
135.095261 112.0
135.116074 220.0
135.692749 156.0
135.945572 180.0
136.043045 108.0
136.063934 204.0
136.300842 172.0
136.331055 244.0
136.572845 180.0
137.024445 160.0
137.250519 100.0
138.095825 160.0
138.655426 100.0
138.8125 100.0
138.828918 68.0
139.206726 228.0
139.519211 180.0
139.587387 140.0
140.107361 416.0
140.520111 140.0
140.758499 144.0
141.11055 68.0
141.22406 104.0
141.406235 60.0
141.550644 144.0
142.520782 180.0
142.687149 196.0
143.816269 164.0
144.600204 112.0
144.674408 132.0
144.892334 188.0
145.067261 208.0
145.096039 136.0
146.034927 160.0
146.699493 116.0
146.726013 184.0
146.827286 124.0
146.873108 156.0
147.044952 184.0
147.297943 144.0
147.854034 124.0
147.892746 272.0
148.051117 920.0
148.270569 168.0
148.777512 200.0
148.947495 196.0
148.966919 176.0
149.059265 484.0
149.13945 216.0
149.333954 44.0
149.53833 156.0
149.596741 156.0
149.655167 160.0
149.701431 200.0
149.96698 104.0
150.071808 164.0
150.745483 248.0
151.038864 232.0
152.106842 156.0
152.53952 160.0
152.775589 152.0
153.019226 168.0
153.116241 872.0
153.583542 40.0
153.647675 92.0
154.119247 284.0
154.326859 164.0
154.4505 140.0
155.384415 112.0
155.734421 136.0
156.191757 96.0
156.433121 156.0
157.028625 192.0
157.333054 156.0
157.47728 188.0
157.625275 144.0
158.087875 236.0
158.370773 176.0
158.465973 196.0
158.658951 188.0
158.756729 152.0
158.774277 164.0
158.83197 192.0
159.010101 204.0
159.044617 4216.0
159.091141 168.0
159.163239 88.0
159.266205 52.0
159.336533 52.0
159.390244 148.0
159.655762 96.0
159.86203 96.0
160.049454 292.0
160.204041 140.0
160.320358 52.0
160.443863 76.0
160.461502 36.0
160.600891 132.0
160.862625 152.0
161.060394 3224.0
161.208633 72.0
161.289505 164.0
161.314789 96.0
161.929626 152.0
162.064362 176.0
162.515198 56.0
163.282349 124.0
163.35611 212.0
164.07933 124.0
164.245087 76.0
164.426239 124.0
164.589615 132.0
165.054642 216.0
165.200424 156.0
165.64328 208.0
165.937973 68.0
166.089691 168.0
166.43573 224.0
166.458832 144.0
166.559006 152.0
166.857086 204.0
166.913651 108.0
167.644714 136.0
167.776154 196.0
169.256577 160.0
169.38089 200.0
169.704819 52.0
170.113266 196.0
170.725296 228.0
170.746109 180.0
170.813721 40.0
171.477676 36.0
171.503616 164.0
171.592361 56.0
171.670593 208.0
171.754044 52.0
171.910583 188.0
171.944504 56.0
172.516525 84.0
172.685211 204.0
172.979538 224.0
173.060699 200.0
173.254501 96.0
173.348816 152.0
173.453659 176.0
174.406464 152.0
174.574722 116.0
174.729904 96.0
175.039032 320.0
175.367142 148.0
175.388229 112.0
175.509491 44.0
175.644699 196.0
175.889389 172.0
176.046448 932.0
176.082123 56.0
176.171936 80.0
176.380692 140.0
176.549896 64.0
176.597504 52.0
176.645111 140.0
176.682144 128.0
176.703308 224.0
176.77739 196.0
176.806503 136.0
176.827682 172.0
176.891205 152.0
176.909729 112.0
177.02034 116.0
177.055359 39360.0
177.145767 120.0
177.192245 124.0
177.215271 216.0
177.295441 92.0
177.357391 64.0
177.389206 68.0
177.43277 68.0
177.455811 112.0
177.494629 68.0
177.550934 52.0
177.691956 72.0
177.733963 228.0
177.764145 96.0
177.800308 68.0
177.954269 152.0
178.058212 4408.0
178.100769 72.0
178.182663 76.0
178.217209 116.0
178.25441 216.0
178.315536 72.0
178.350082 184.0
178.368683 104.0
178.453751 76.0
178.515488 92.0
178.594696 260.0
178.705414 148.0
178.710815 92.0
178.778275 48.0
178.866104 176.0
178.922379 56.0
178.951279 68.0
178.979141 104.0
179.0271 144.0
179.055588 424.0
179.129715 124.0
179.212296 92.0
179.260254 116.0
179.324219 148.0
179.361221 104.0
179.414978 84.0
179.478836 52.0
179.572174 80.0
179.680252 100.0
179.710876 36.0
179.742905 56.0
180.100357 760.0
180.17276 68.0
180.563004 72.0
180.886749 68.0
181.034012 52.0
181.100311 184.0
181.14917 104.0
181.259018 64.0
181.301895 100.0
181.400314 72.0
182.171204 76.0
182.396927 156.0
182.759979 136.0
182.854156 236.0
185.921555 100.0
186.519058 164.0
187.0504 584.0
187.490707 104.0
187.58609 176.0
187.757874 156.0
187.886063 32.0
188.044327 144.0
188.087997 160.0
188.369247 160.0
188.404755 196.0
188.456665 80.0
188.492188 212.0
188.970673 168.0
189.00351 108.0
189.054626 14200.0
189.096542 52.0
189.118439 40.0
189.181396 100.0
189.23616 116.0
189.384033 68.0
189.44429 48.0
189.477158 60.0
189.531967 72.0
189.6241 64.0
189.882843 40.0
189.921234 48.0
189.967865 76.0
190.05838 1628.0
190.124268 84.0
190.208466 136.0
190.256012 180.0
190.393295 164.0
190.618561 208.0
190.681763 96.0
190.827454 200.0
191.053345 308.0
191.124496 64.0
191.317154 216.0
191.345718 116.0
191.391479 104.0
191.430038 36.0
191.501633 112.0
191.548798 164.0
191.592545 124.0
191.917755 68.0
191.950836 28.0
192.042511 148.0
192.146667 64.0
192.563477 216.0
192.903336 84.0
193.20752 112.0
193.456589 44.0
193.667023 192.0
193.977356 148.0
194.818176 196.0
195.065491 172.0
195.630173 168.0
195.666367 112.0
196.789932 248.0
196.946304 124.0
197.580856 92.0
198.110672 140.0
198.673416 72.0
202.008789 52.0
202.388016 144.0
203.723801 220.0
204.989899 108.0
205.095352 88.0
207.058502 172.0
207.278748 144.0
208.604675 176.0
208.722549 176.0
208.88649 244.0
209.364258 60.0
211.784485 216.0
213.049194 116.0
215.315308 56.0
215.584061 76.0
216.06636 156.0
216.183548 212.0
216.687164 144.0
216.754562 152.0
216.950928 180.0
216.98024 180.0
217.049667 7208.0
217.112183 44.0
217.619827 32.0
217.681488 96.0
218.053238 840.0
218.276657 44.0
218.52211 68.0
218.648636 120.0
218.934204 44.0
219.053711 196.0
219.084412 52.0
219.110931 84.0
219.47934 100.0
219.573715 48.0
220.14032 216.0
220.246643 96.0
220.613052 156.0
221.068527 144.0
221.101074 148.0
221.551147 224.0
221.657806 216.0
222.633743 208.0
224.401215 36.0
224.953125 100.0
225.009842 164.0
225.117325 200.0
225.239777 48.0
226.073914 164.0
226.753723 120.0
227.203506 44.0
229.02211 156.0
230.343246 80.0
231.105087 84.0
231.126266 204.0
231.50766 176.0
231.889389 80.0
233.06073 144.0
233.267395 56.0
233.848343 260.0
233.900085 164.0
233.921387 208.0
233.994461 144.0
234.02446 56.0
234.033447 208.0
234.075592 20296.0
234.189346 296.0
234.241119 56.0
234.265488 92.0
234.305099 72.0
234.335556 92.0
234.420883 96.0
234.536682 76.0
234.567169 36.0
234.594604 92.0
234.670822 68.0
234.753143 92.0
234.820236 56.0
235.006317 76.0
235.036819 40.0
235.07872 2708.0
235.119217 48.0
235.48909 180.0
235.632202 60.0
235.678024 76.0
235.769699 76.0
235.87056 72.0
236.002014 84.0
236.085327 592.0
236.430252 136.0
236.551926 64.0
236.773132 48.0
236.846634 116.0
237.084045 168.0
237.760284 68.0
237.843155 72.0
237.987442 48.0
242.082321 188.0
244.475739 48.0
245.251221 84.0
245.388382 68.0
246.074371 1708.0
246.184036 32.0
246.524536 72.0
247.075211 168.0
247.381516 68.0
247.506744 52.0
247.960968 64.0
248.089661 144.0
249.184738 148.0
257.104187 104.0
258.337524 96.0
259.310913 168.0
260.091705 164.0
261.005859 128.0
263.242126 132.0
263.962738 48.0
274.896423 176.0
276.929565 32.0
280.064972 104.0
282.187317 124.0
285.110229 88.0
286.570587 164.0
288.237396 64.0
291.983276 100.0
298.900299 172.0
299.117126 88.0
300.164459 272.0
310.720917 144.0
311.113953 112.0
314.722626 108.0
317.727448 68.0
322.87085 56.0
324.518036 196.0
326.104675 68.0
326.759125 44.0
327.46106 116.0
327.832123 152.0
327.91861 220.0
328.152802 6420.0
328.228638 48.0
328.488312 72.0
328.633331 60.0
328.971832 112.0
329.087372 44.0
329.160065 884.0
329.278748 72.0
329.322083 92.0
329.488251 76.0
329.585815 172.0
330.159637 108.0
330.290771 52.0
330.826324 44.0
331.159424 68.0
331.9422 92.0
332.435547 100.0
333.20166 124.0
335.436066 68.0
339.798828 80.0
343.720276 124.0
351.18515 84.0
368.028229 144.0
373.208435 160.0
376.147888 144.0
404.717621 60.0
417.733307 116.0
431.083069 132.0
481.375824 100.0
510.834259 40.0
518.206421 132.0
540.126282 96.0
587.849121 112.0
598.82489 88.0
646.806702 64.0
655.8479 228.0
685.733032 52.0
708.337524 88.0
725.518005 72.0
760.3703 96.0
780.422668 48.0
786.734863 76.0
844.665649 184.0
874.835266 180.0
875.182617 72.0
876.960999 168.0
926.060242 124.0
938.158264 216.0
948.452087 172.0
970.088257 192.0
975.812073 160.0
984.916565 112.0
990.082581 168.0
991.241455 128.0
994.722229 168.0
1002.88031 216.0
1004.147583 240.0
1039.80188 176.0
1089.083496 48.0
1091.488647 148.0
1092.692383 148.0
1105.089233 140.0
1107.174316 140.0
1108.194336 116.0
1117.662476 60.0
1117.955322 140.0
1131.297363 116.0
1133.072021 108.0
1142.605225 144.0
1145.089111 176.0
1155.234009 112.0
1156.580566 192.0
1158.490112 148.0
1161.608276 156.0
1165.539062 216.0
1168.68042 76.0
1169.34729 136.0
1181.472534 36.0
1185.546509 168.0
1188.014771 212.0
1192.787231 252.0
1197.844727 164.0
1205.026245 132.0
1208.220215 236.0
1211.383789 196.0
1217.209595 148.0
1219.189331 160.0
1220.35022 124.0
1232.59729 220.0
1232.918091 200.0
1233.30249 152.0
1239.173584 184.0
1248.685059 188.0
1250.479126 224.0
1250.823975 188.0
1251.211182 176.0
1253.0 172.0
1253.873657 164.0
1254.212036 116.0
1259.913574 152.0
1271.980225 88.0
1275.738037 184.0
1277.594116 84.0
1283.804932 152.0
1284.482422 116.0
1296.393555 252.0
1299.326172 216.0
1303.812988 160.0
1309.835938 132.0
1311.889526 180.0
1317.74231 192.0
1317.922974 176.0
1320.894287 140.0
1322.015625 180.0
1322.927612 132.0
1323.716797 184.0
1325.919067 208.0
1333.772095 148.0
1334.288208 212.0
1341.969116 224.0
1348.071167 196.0
1348.568115 192.0
1351.581055 120.0
1354.575317 144.0
1355.300659 188.0
1356.106689 140.0
1359.480225 112.0
1363.298828 172.0
1368.160645 232.0
1372.278931 136.0
1377.252686 108.0
1379.513794 160.0
1380.548828 84.0
1382.272461 204.0
1382.694214 96.0
1383.049438 156.0
1385.233887 208.0
1386.485962 112.0
1397.43103 136.0
1397.550171 48.0
1401.734741 160.0
1407.866577 128.0
1408.740479 208.0
1410.877686 152.0
1417.808716 156.0
1418.250854 108.0
1418.543213 136.0
1418.865601 152.0
1424.366089 212.0
1427.582764 160.0
1429.516113 168.0
1429.854736 168.0
1435.602661 148.0
1436.643555 172.0
1436.711426 200.0
1438.107422 184.0
1440.856079 144.0
1441.860962 220.0
1442.435425 188.0
1445.82373 188.0
1453.750488 136.0
1454.972534 208.0
1458.64917 188.0
1459.348633 112.0
1462.490356 140.0
1464.881226 128.0
1465.528809 152.0
1472.371216 144.0
1472.646118 92.0
1474.128174 156.0
1474.411011 152.0
1475.091187 120.0
1479.267822 224.0
1479.688843 208.0
1480.722534 124.0
1480.791504 108.0
1481.373535 212.0
1482.13208 204.0
1485.075806 176.0
1485.589722 164.0
1486.280151 192.0
1487.762817 108.0
1490.265137 212.0
1492.555542 108.0
1494.370728 144.0
1496.048462 180.0
1496.541138 148.0
1497.927368 136.0
1499.329712 48.0
1499.576294 160.0
1503.200806 188.0
