>compound MLS002172459-01!L-165,04179558-09-1
>formula C22H26O7
>ionization [M+H]+
>parentmass 403.1751296240905
#inchi InChI=1S/C22H26O7/c1-3-5-19-20(11-10-18(15(2)23)22(19)26)28-13-4-12-27-16-6-8-17(9-7-16)29-14-21(24)25/h6-11,26H,3-5,12-14H2,1-2H3,(H,24,25)
#inchikey HBBVCKCCQCQCTJ
#Ion_Source LC-ESI
#Instrument qTof
#Compound_Source NIH Pharmacologically Active Library
#PI Dorrestein
#Data_Collector VP/LMS
#Scan -1
#Precursor_MZ 403.183
#ExactMass 402.168
#Charge 1
#CAS_Number N/A
#Pubmed_ID N/A
#Smiles CCCc1c(O)c(ccc1OCCCOc2ccc(OCC(=O)O)cc2)C(=O)C
#INCHI_AUX N/A
#Library_Class 1
#SpectrumID CCMSLIB00000085479
#IonMode Positive
#UpdateWorkflowName UPDATE-SINGLE-ANNOTATED-GOLD
#LibraryQualityString Gold
#TaskID d252d724072548979f1f6f1ced849daf
##Scan# 2466
#SpectrumFile p4-B06_GB6_01_18342.mzXML
#LibraryName Pharm_Active_Library.mgf
#MQScore -1
#Organism Pharm_Active_Library
#TIC_Query 0
#RT_Query -1
#MZErrorPPM -1
#SharedPeaks 0
#MassDiff 0
#LibMZ -1
#SpecMZ 403.183
#SpecCharge 0
#internalFilename spec-00000.mgf

>collision 10
44.982834 116.0
45.018147 144.0
45.043522 160.0
45.052872 160.0
45.091621 232.0
45.119694 188.0
45.138412 124.0
45.236076 96.0
45.262852 176.0
45.274906 124.0
45.412945 180.0
45.421696 136.0
45.500168 204.0
45.514938 152.0
45.544483 120.0
45.5821 172.0
45.627796 204.0
45.643932 176.0
45.70446 332.0
45.780308 196.0
45.794655 188.0
45.807804 168.0
45.852589 148.0
45.978008 164.0
46.145508 56.0
46.157677 180.0
46.176609 236.0
46.245609 188.0
46.264561 168.0
46.310596 176.0
46.333092 220.0
46.351238 100.0
46.413589 144.0
46.450207 156.0
46.480057 156.0
46.592747 184.0
46.637589 152.0
46.663418 124.0
46.693367 160.0
46.719177 148.0
46.734142 152.0
46.743111 216.0
46.772247 128.0
46.823982 184.0
46.853554 192.0
46.874386 112.0
46.897556 196.0
46.935726 68.0
46.988918 152.0
47.144577 132.0
47.204727 172.0
47.245758 172.0
47.27187 192.0
47.284069 168.0
47.356632 204.0
47.447071 180.0
47.540936 212.0
47.571938 200.0
47.665302 164.0
47.884033 184.0
47.933655 184.0
47.950161 192.0
47.989483 168.0
48.072899 140.0
48.108784 140.0
48.119827 180.0
48.143044 192.0
48.198555 176.0
48.209862 176.0
48.288273 160.0
48.318844 100.0
48.364029 184.0
48.387703 244.0
48.400505 228.0
48.439281 96.0
48.451748 184.0
48.53352 252.0
48.565414 172.0
48.591774 124.0
48.607777 188.0
48.744503 132.0
48.82513 164.0
48.869228 188.0
48.893299 100.0
48.98798 64.0
49.064625 148.0
49.131565 48.0
49.145031 184.0
49.155994 212.0
49.176216 188.0
49.219494 140.0
49.229267 204.0
49.30191 156.0
49.391388 140.0
49.409576 216.0
49.448753 248.0
49.465549 48.0
49.475349 32.0
49.538368 148.0
49.64769 56.0
49.704948 152.0
49.72345 124.0
49.744267 132.0
49.75069 108.0
49.768368 136.0
49.796455 192.0
49.938408 260.0
50.025646 124.0
50.098873 180.0
50.174973 152.0
50.252541 124.0
50.294209 192.0
50.368301 160.0
50.381016 76.0
50.45026 156.0
50.469715 100.0
50.487022 136.0
50.547848 176.0
50.563389 212.0
50.611546 204.0
50.621456 128.0
50.639008 132.0
50.675282 240.0
50.722046 160.0
50.748981 108.0
50.819588 164.0
50.912163 124.0
50.946255 64.0
51.037212 128.0
51.119713 172.0
51.158142 108.0
51.168106 192.0
51.195835 208.0
51.217007 188.0
51.242165 40.0
51.264961 132.0
51.276363 216.0
51.292042 148.0
51.31485 148.0
51.381882 140.0
51.401855 200.0
51.42897 128.0
51.454666 176.0
51.483406 220.0
51.527634 176.0
51.581806 136.0
51.628986 160.0
51.690498 176.0
51.728539 148.0
51.750618 144.0
51.779255 216.0
51.852322 144.0
51.899628 168.0
51.916801 180.0
52.087627 76.0
52.104866 176.0
52.153217 136.0
52.158951 88.0
52.16169 192.0
52.173847 112.0
52.389709 152.0
52.457439 124.0
52.471855 160.0
52.509346 184.0
52.628136 100.0
52.676777 148.0
52.68689 160.0
52.720123 196.0
52.753365 144.0
52.775394 168.0
52.793182 128.0
52.942902 116.0
53.048672 168.0
53.155998 172.0
53.248905 128.0
53.272144 196.0
53.327362 152.0
53.34267 168.0
53.360794 84.0
53.4146 96.0
53.469891 96.0
53.487354 48.0
53.509193 44.0
53.702999 48.0
53.749683 172.0
53.784706 120.0
53.810986 176.0
53.837269 160.0
53.851871 76.0
53.986324 148.0
54.008263 120.0
54.043373 136.0
54.094593 168.0
54.14291 260.0
54.164879 196.0
54.202972 28.0
54.217625 136.0
54.284744 168.0
54.313747 192.0
54.363506 144.0
54.386288 80.0
54.433266 56.0
54.495354 192.0
54.541981 204.0
54.619247 224.0
54.662579 156.0
54.743538 40.0
54.841755 180.0
54.884998 204.0
54.942516 188.0
54.970551 188.0
54.982357 380.0
55.01778 148.0
55.045834 180.0
55.130035 168.0
55.189163 100.0
55.313431 184.0
55.388302 212.0
55.408207 176.0
55.442284 96.0
55.477859 116.0
55.513443 84.0
55.562389 136.0
55.638672 184.0
55.679649 180.0
55.707081 240.0
55.735668 152.0
55.77771 164.0
55.878834 208.0
55.938362 128.0
55.951759 144.0
56.094769 120.0
56.121605 148.0
56.185734 224.0
56.218815 164.0
56.273788 136.0
56.307339 180.0
56.375359 252.0
56.418705 176.0
56.433655 156.0
56.471039 84.0
56.583267 76.0
56.607224 124.0
56.652157 60.0
56.671631 184.0
56.689129 244.0
56.739075 180.0
56.78706 180.0
56.826969 192.0
56.860615 152.0
57.01075 220.0
57.036301 184.0
57.05434 84.0
57.097946 164.0
57.216816 120.0
57.378014 168.0
57.393093 152.0
57.42627 68.0
57.450401 180.0
57.541058 112.0
57.562088 184.0
57.605888 172.0
57.667091 184.0
57.695045 124.0
57.710167 224.0
57.730579 72.0
57.77066 152.0
57.78223 204.0
57.813026 188.0
57.855404 152.0
57.885685 136.0
57.914459 204.0
57.96294 124.0
57.991734 156.0
58.005375 192.0
58.061474 168.0
58.074451 136.0
58.157055 172.0
58.191967 180.0
58.248158 36.0
58.409283 108.0
58.471661 176.0
58.518852 188.0
58.531033 176.0
58.573673 188.0
58.666626 216.0
58.680347 100.0
58.727619 224.0
58.777962 132.0
58.792625 336.0
58.84063 140.0
58.912315 156.0
58.978024 140.0
59.014713 164.0
59.085064 244.0
59.184391 196.0
59.377628 172.0
59.391434 168.0
59.440525 92.0
59.475822 64.0
59.560272 152.0
59.571026 108.0
59.587925 376.0
59.632484 172.0
59.698593 220.0
59.782776 160.0
59.875568 144.0
59.934105 192.0
59.961842 128.0
60.086742 252.0
60.105255 128.0
60.120686 120.0
60.211773 204.0
60.227215 148.0
60.30447 176.0
60.355484 204.0
60.374039 172.0
60.434368 136.0
60.501793 212.0
60.527237 176.0
60.587639 160.0
60.612427 164.0
60.629475 184.0
60.640324 292.0
60.793858 212.0
60.829552 176.0
60.879238 184.0
60.91185 128.0
60.938263 204.0
60.955353 28.0
61.013897 252.0
61.029961 256.0
61.06884 264.0
61.121731 152.0
61.157524 140.0
61.177761 232.0
61.218243 268.0
61.232258 124.0
61.267303 68.0
61.280548 192.0
61.399014 164.0
61.423969 196.0
61.473892 52.0
61.611294 188.0
61.673798 84.0
61.695683 76.0
61.728516 104.0
61.750408 216.0
61.767612 132.0
61.805161 68.0
61.873459 276.0
61.889683 84.0
62.046356 160.0
62.063602 148.0
62.116924 108.0
62.185963 72.0
62.240906 168.0
62.255039 212.0
62.270741 128.0
62.294304 136.0
62.357151 172.0
62.456207 136.0
62.486095 68.0
62.504036 272.0
62.548985 112.0
62.692364 160.0
62.771179 188.0
62.831116 112.0
62.868984 52.0
62.881611 152.0
62.911598 156.0
62.944756 200.0
62.971603 128.0
63.006351 204.0
63.01741 44.0
63.049015 136.0
63.10434 64.0
63.124893 176.0
63.166084 184.0
63.284706 132.0
63.327461 76.0
63.344883 64.0
63.379738 60.0
63.441547 112.0
63.463745 208.0
63.528767 212.0
63.573193 160.0
63.609695 244.0
63.64621 148.0
63.800323 64.0
63.84166 228.0
63.879833 148.0
63.914833 84.0
63.932339 184.0
64.106049 196.0
64.121849 60.0
64.18721 208.0
64.217514 160.0
64.233459 124.0
64.252602 48.0
64.270157 52.0
64.284515 144.0
64.495323 72.0
64.525696 124.0
64.581665 228.0
64.618462 84.0
64.65686 48.0
64.687271 140.0
64.757721 136.0
64.922798 308.0
64.940437 172.0
64.974121 144.0
64.991768 160.0
65.041519 200.0
65.079544 280.0
65.21981 180.0
65.258392 188.0
65.271255 68.0
65.304848 144.0
65.410416 140.0
65.441811 148.0
65.498177 124.0
65.567451 180.0
65.580345 116.0
65.699669 188.0
65.719032 188.0
65.74646 180.0
65.760986 156.0
65.832664 224.0
65.865936 152.0
65.933792 164.0
65.945107 140.0
65.962891 168.0
66.123016 148.0
66.179672 200.0
66.218536 128.0
66.231491 180.0
66.385452 136.0
66.396805 200.0
66.478462 168.0
66.500641 160.0
66.523369 144.0
66.59156 208.0
66.617393 168.0
66.680916 168.0
66.705299 244.0
66.739441 216.0
66.752449 128.0
67.073174 156.0
67.090759 188.0
67.13472 192.0
67.241165 52.0
67.383232 248.0
67.404472 148.0
67.437157 168.0
67.468208 140.0
67.507454 224.0
67.574516 148.0
67.697273 60.0
67.767708 56.0
67.893929 132.0
67.966103 164.0
67.980873 176.0
68.031746 128.0
68.089218 204.0
68.119995 280.0
68.332497 196.0
68.35553 172.0
68.375275 176.0
68.462189 192.0
68.523476 148.0
68.58609 172.0
68.600929 172.0
68.70459 172.0
68.841812 152.0
68.896317 180.0
68.911346 168.0
68.965721 204.0
69.025238 140.0
69.040115 44.0
69.128448 200.0
69.145996 164.0
69.290054 192.0
69.318222 196.0
69.333679 220.0
69.39447 92.0
69.417679 244.0
69.498962 220.0
69.517212 48.0
69.558083 160.0
69.628441 120.0
69.643845 136.0
69.66996 148.0
69.694885 28.0
69.706512 260.0
69.728119 116.0
69.753052 164.0
69.822884 72.0
69.849495 64.0
69.86779 228.0
69.897736 40.0
69.979294 228.0
70.014267 108.0
70.109222 256.0
70.227592 216.0
70.249275 140.0
70.270966 160.0
70.39782 156.0
70.42955 96.0
70.503059 148.0
70.549866 156.0
70.616745 160.0
70.661911 36.0
70.75898 188.0
70.776016 204.0
70.792465 148.0
70.904709 128.0
70.975113 60.0
71.064011 132.0
71.083778 128.0
71.141205 176.0
71.169952 268.0
71.243645 236.0
71.36869 416.0
71.416779 188.0
71.468933 208.0
71.48912 176.0
71.542984 144.0
71.571602 156.0
71.6036 60.0
71.62381 160.0
71.831406 176.0
71.876686 120.0
72.021873 136.0
72.069176 56.0
72.128616 188.0
72.148613 216.0
72.288994 244.0
72.399025 284.0
72.487114 192.0
72.543045 136.0
72.55587 52.0
72.583733 180.0
72.661751 140.0
72.719009 264.0
72.748299 132.0
72.760185 132.0
72.795845 184.0
72.850189 140.0
72.887566 148.0
72.955551 160.0
72.970848 68.0
73.02697 168.0
73.042274 148.0
73.054184 132.0
73.072899 144.0
73.093315 180.0
73.118843 136.0
73.198853 272.0
73.241791 188.0
73.2789 140.0
73.307869 228.0
73.34877 96.0
73.364113 116.0
73.391396 64.0
73.425499 128.0
73.44426 156.0
73.693497 220.0
73.722542 48.0
73.744759 228.0
73.796043 212.0
73.845634 160.0
73.939728 132.0
73.997925 132.0
74.021896 156.0
74.056152 152.0
74.118034 160.0
74.133247 120.0
74.148666 160.0
74.16581 232.0
74.270401 140.0
74.285835 116.0
74.301277 200.0
74.340736 184.0
74.41111 80.0
74.469498 136.0
74.494049 184.0
74.577736 100.0
74.649948 148.0
74.696381 216.0
74.744553 172.0
74.859886 192.0
74.920685 132.0
74.987366 156.0
75.056732 228.0
75.142555 276.0
75.177071 152.0
75.194328 104.0
75.206406 200.0
75.254745 144.0
75.306549 168.0
75.354919 140.0
75.368736 180.0
75.553734 44.0
75.62915 220.0
75.848114 160.0
75.872383 148.0
75.936539 148.0
76.007668 76.0
76.087502 56.0
76.155228 152.0
76.170647 196.0
76.198654 152.0
76.242088 204.0
76.333076 200.0
76.353355 156.0
76.405533 192.0
76.440331 148.0
76.561272 184.0
76.581345 52.0
76.602249 148.0
76.618576 160.0
76.689369 128.0
76.780029 200.0
77.012154 140.0
77.036606 160.0
77.118729 124.0
77.224876 208.0
77.316353 188.0
77.377617 120.0
77.389877 152.0
77.409134 104.0
77.424896 156.0
77.457008 172.0
77.484451 180.0
77.65448 204.0
77.694786 184.0
77.710617 80.0
77.756241 188.0
77.806847 188.0
77.856308 128.0
77.87146 204.0
78.017952 160.0
78.098846 124.0
78.165695 144.0
78.209694 208.0
78.230812 60.0
78.269547 180.0
78.304764 172.0
78.317093 128.0
78.375229 212.0
78.399902 212.0
78.4422 220.0
78.465118 172.0
78.542709 164.0
78.657402 56.0
78.742149 44.0
78.855217 140.0
78.90728 184.0
78.977219 124.0
79.051521 212.0
79.099304 200.0
79.202003 68.0
79.275154 236.0
79.372139 184.0
79.398735 180.0
79.416473 148.0
79.460815 124.0
79.538902 164.0
79.581505 128.0
79.606361 196.0
79.754654 128.0
79.793159 124.0
79.821373 208.0
79.9459 172.0
80.020653 40.0
80.287933 136.0
80.321823 188.0
80.376068 336.0
80.391403 204.0
80.46331 180.0
80.53244 156.0
80.57888 164.0
80.634277 136.0
80.658195 324.0
80.678963 164.0
80.789841 192.0
80.957443 180.0
81.058395 196.0
81.252083 144.0
81.273567 176.0
81.379463 200.0
81.392029 148.0
81.414223 200.0
81.431702 196.0
81.479416 232.0
81.508781 128.0
81.524956 68.0
81.584267 180.0
81.634613 168.0
81.809135 144.0
81.864952 160.0
81.985649 184.0
81.99826 132.0
82.02169 144.0
82.061356 164.0
82.09922 308.0
82.187607 236.0
82.252579 172.0
82.276039 188.0
82.307472 176.0
82.321594 188.0
82.382591 156.0
82.453056 148.0
82.541634 52.0
82.671875 200.0
82.688164 176.0
82.971207 216.0
83.005188 168.0
83.130348 180.0
83.163803 240.0
83.221107 124.0
83.306458 152.0
83.390045 216.0
83.404587 236.0
83.453667 144.0
83.473083 136.0
83.502762 132.0
83.542778 152.0
83.588005 168.0
83.766685 152.0
83.852318 96.0
83.883308 156.0
83.900307 172.0
84.104019 232.0
84.118622 168.0
84.153305 164.0
84.211739 76.0
84.411095 136.0
84.443855 152.0
84.496902 156.0
84.526176 224.0
84.548134 172.0
84.700096 220.0
84.777046 144.0
84.896202 92.0
84.934715 196.0
84.986084 152.0
85.011772 172.0
85.035629 88.0
85.154968 176.0
85.20089 124.0
85.3424 228.0
85.445396 252.0
85.611053 172.0
85.679199 148.0
85.777321 180.0
85.798988 184.0
85.85643 160.0
85.907791 108.0
86.024048 200.0
86.06282 200.0
86.181763 176.0
86.245705 144.0
86.269737 272.0
86.284523 184.0
86.399185 144.0
86.465797 32.0
86.478752 108.0
86.515778 208.0
86.532433 164.0
86.57132 80.0
86.599098 152.0
86.686172 224.0
86.717674 100.0
86.825203 196.0
86.875282 172.0
86.915894 160.0
86.9328 132.0
87.037392 180.0
87.077606 212.0
87.090607 148.0
87.118469 128.0
87.194649 200.0
87.209518 144.0
87.239258 120.0
87.33223 176.0
87.3992 144.0
87.432693 228.0
87.486633 184.0
87.568604 140.0
87.631935 188.0
87.682251 180.0
87.730713 180.0
87.907768 116.0
87.959274 208.0
88.072189 116.0
88.103943 160.0
88.245979 160.0
88.294594 120.0
88.526649 124.0
88.6203 124.0
88.637161 44.0
88.730881 244.0
88.774231 220.0
88.847153 140.0
88.864037 124.0
88.895935 180.0
88.919998 156.0
89.010437 156.0
89.083687 160.0
89.098717 228.0
89.164482 168.0
89.25515 196.0
89.303604 176.0
89.316772 144.0
89.495552 200.0
89.563255 172.0
89.610443 132.0
89.705231 148.0
89.744255 144.0
89.82724 120.0
89.845985 192.0
89.891304 200.0
89.942337 68.0
89.993309 180.0
90.019745 140.0
90.074516 156.0
90.178436 124.0
90.210571 192.0
90.299438 176.0
90.507553 172.0
90.672401 176.0
90.796509 152.0
90.833565 60.0
90.886681 144.0
90.920837 220.0
90.938087 180.0
90.972084 88.0
91.055405 1560.0
91.120209 144.0
91.238037 140.0
91.281769 268.0
91.376869 164.0
91.443474 152.0
91.496773 52.0
91.530762 136.0
91.546272 176.0
91.633896 168.0
91.691055 132.0
91.712021 200.0
91.755867 88.0
91.851212 48.0
91.913399 172.0
91.944702 128.0
91.984787 124.0
92.025627 272.0
92.056641 216.0
92.139465 252.0
92.170914 148.0
92.349731 160.0
92.39373 104.0
92.435822 140.0
92.544922 216.0
92.583221 168.0
92.795914 56.0
92.832344 144.0
92.955109 160.0
93.033852 296.0
93.066246 204.0
93.072952 376.0
93.247009 208.0
93.31044 184.0
93.404671 140.0
93.425827 136.0
93.514343 128.0
93.532166 204.0
93.653763 116.0
93.792854 240.0
93.80085 144.0
93.805756 204.0
93.899666 176.0
93.922813 136.0
94.019279 56.0
94.041069 368.0
94.062584 292.0
94.085243 180.0
94.171799 212.0
94.630096 160.0
94.655266 124.0
94.711426 212.0
94.771484 112.0
94.800545 196.0
94.88195 144.0
94.96727 176.0
94.988609 168.0
95.004128 208.0
95.017708 128.0
95.050148 5032.0
95.073181 372.0
95.086723 180.0
95.207932 180.0
95.233177 176.0
95.258423 96.0
95.277855 260.0
95.305054 60.0
95.536407 36.0
95.618126 144.0
95.657059 188.0
95.842072 80.0
95.866508 184.0
95.914177 156.0
95.992157 152.0
96.021408 224.0
96.053909 756.0
96.154785 252.0
96.191162 184.0
96.239967 192.0
96.257538 168.0
96.284882 60.0
96.320038 188.0
96.365875 232.0
96.419678 172.0
96.439224 128.0
96.634941 188.0
96.669991 80.0
96.705215 124.0
96.746323 176.0
96.761986 56.0
96.928467 152.0
97.029778 336.0
97.059799 160.0
97.100975 164.0
97.15786 152.0
97.191216 112.0
97.296692 172.0
97.424843 56.0
97.438599 364.0
97.477898 72.0
97.497543 168.0
97.60173 180.0
97.621391 96.0
97.67646 172.0
97.696129 144.0
97.751221 220.0
97.780739 172.0
97.800423 176.0
97.821419 184.0
97.843727 144.0
97.877197 156.0
98.02887 136.0
98.103767 188.0
98.201653 56.0
98.26548 188.0
98.364151 196.0
98.411728 140.0
98.46682 188.0
98.493065 168.0
98.520157 108.0
98.644646 144.0
98.660461 136.0
98.674301 152.0
98.915649 152.0
98.98494 276.0
99.024544 180.0
99.177032 132.0
99.383347 128.0
99.434944 216.0
99.494492 120.0
99.536186 164.0
99.675224 84.0
99.719307 132.0
99.750748 172.0
99.784546 88.0
99.87204 160.0
99.89193 76.0
99.923759 152.0
99.999374 160.0
100.124802 144.0
100.246323 144.0
100.349968 60.0
100.363922 224.0
100.453667 128.0
100.467636 96.0
100.489578 184.0
100.555428 164.0
100.573395 148.0
100.633278 188.0
100.653244 220.0
100.689194 236.0
100.725143 156.0
100.747116 160.0
100.775085 216.0
100.801064 404.0
100.825043 124.0
100.843025 184.0
100.887001 104.0
100.914993 112.0
100.976982 128.0
100.99498 160.0
101.235138 224.0
101.25116 100.0
101.313255 208.0
101.445511 176.0
101.505661 164.0
101.521706 192.0
101.555794 136.0
101.591904 132.0
101.615974 32.0
101.668144 120.0
101.706276 112.0
101.748436 148.0
101.778549 244.0
101.858879 168.0
101.880981 188.0
101.897934 356.0
101.993507 176.0
102.05201 156.0
102.075935 220.0
102.100067 160.0
102.168449 140.0
102.21875 128.0
102.359657 188.0
102.454315 96.0
102.468422 116.0
102.534912 172.0
102.647804 164.0
102.760841 192.0
102.803131 212.0
102.873772 212.0
103.055893 2412.0
103.13118 176.0
103.168282 164.0
103.209137 168.0
103.338585 120.0
103.407387 108.0
103.466087 68.0
103.531914 200.0
103.592194 192.0
103.650398 140.0
103.664581 176.0
103.842979 164.0
103.869347 236.0
103.997177 56.0
104.014809 216.0
104.060959 152.0
104.100662 144.0
104.127113 64.0
104.200241 44.0
104.334373 188.0
104.364273 156.0
104.482826 52.0
104.511314 152.0
104.615105 40.0
104.783295 136.0
104.847832 184.0
104.93087 156.0
104.957382 160.0
105.033859 2988.0
105.070801 10272.0
105.096611 140.0
105.124687 196.0
105.15934 48.0
105.194038 140.0
105.253242 80.0
105.321968 300.0
105.349312 104.0
105.365578 36.0
105.475487 188.0
105.53112 48.0
105.612915 308.0
105.635422 200.0
105.676331 144.0
105.760239 144.0
105.786842 160.0
105.833931 200.0
105.848267 88.0
106.010094 76.0
106.039398 476.0
106.074806 728.0
106.122826 152.0
106.216583 200.0
106.254082 92.0
106.37516 188.0
106.519737 76.0
106.548111 220.0
106.62574 52.0
106.654518 156.0
106.670959 128.0
106.767769 140.0
106.861465 176.0
106.911598 152.0
106.975403 68.0
107.013977 396.0
107.050102 20040.0
107.085098 896.0
107.104095 144.0
107.123665 28.0
107.156624 168.0
107.179291 120.0
107.239052 136.0
107.265144 152.0
107.315323 184.0
107.33091 56.0
107.366081 96.0
107.394409 112.0
107.44474 156.0
107.461761 184.0
107.476204 100.0
107.51297 152.0
107.614494 72.0
107.715683 144.0
107.756538 180.0
107.781792 152.0
107.813499 140.0
107.83139 232.0
107.878929 84.0
107.91407 52.0
107.928543 128.0
108.016014 164.0
108.052338 1292.0
108.086563 304.0
108.125961 232.0
108.186043 136.0
108.205254 232.0
108.390129 180.0
108.537292 124.0
108.576691 208.0
108.59536 180.0
108.63327 116.0
108.667961 80.0
108.697952 160.0
108.738518 208.0
108.777382 176.0
108.796631 192.0
108.846466 176.0
108.862167 164.0
108.892151 136.0
108.925385 136.0
108.942001 232.0
109.029053 14188.0
109.065414 1828.0
109.100739 124.0
109.154114 140.0
109.234062 224.0
109.288353 248.0
109.330811 144.0
109.368759 92.0
109.398026 164.0
109.524429 60.0
109.545265 188.0
109.580681 120.0
109.6036 116.0
109.630196 136.0
109.65361 168.0
109.699463 172.0
109.718224 180.0
109.903847 124.0
109.968536 108.0
110.004021 48.0
110.032532 872.0
110.07032 212.0
110.095886 36.0
110.114685 40.0
110.213593 160.0
110.274734 224.0
110.325722 64.0
110.448174 172.0
110.467316 124.0
110.534874 180.0
110.562073 160.0
110.595558 56.0
110.658363 208.0
110.714897 216.0
110.739311 224.0
110.771446 200.0
110.78611 264.0
110.811249 156.0
110.830109 200.0
110.886688 80.0
110.911835 160.0
110.971519 128.0
111.018761 124.0
111.044594 1572.0
111.134132 40.0
111.166046 152.0
111.225723 136.0
111.32399 204.0
111.356644 40.0
111.44487 116.0
111.475258 168.0
111.552048 132.0
111.594093 148.0
111.649368 56.0
111.667694 220.0
111.705559 120.0
111.737114 188.0
111.781296 152.0
111.857063 200.0
111.966545 176.0
112.048248 284.0
112.111908 104.0
112.137192 208.0
112.162102 196.0
112.200432 140.0
112.279381 172.0
112.316414 144.0
112.407127 52.0
112.434563 96.0
112.449333 188.0
112.487328 116.0
112.540047 136.0
112.719643 160.0
112.753456 68.0
112.821091 172.0
112.920471 140.0
112.96489 108.0
113.046944 148.0
113.095688 152.0
113.456184 84.0
113.473145 168.0
113.534637 204.0
113.653427 148.0
113.844467 172.0
113.89756 76.0
113.991043 156.0
114.050545 120.0
114.084557 160.0
114.103691 144.0
114.214272 68.0
114.295692 160.0
114.30883 80.0
114.360039 188.0
114.393005 148.0
114.431328 216.0
114.514374 164.0
114.66777 144.0
114.906593 120.0
114.930061 196.0
115.055145 1308.0
115.094414 160.0
115.186249 196.0
115.318718 48.0
115.359329 144.0
115.419197 144.0
115.464104 196.0
115.650238 72.0
115.671638 148.0
115.748711 176.0
115.767982 100.0
115.85685 188.0
115.971512 128.0
115.986511 168.0
116.062141 500.0
116.085335 208.0
116.113014 208.0
116.133026 144.0
116.222412 84.0
116.357628 92.0
116.383392 260.0
116.660538 144.0
116.69278 120.0
116.735786 164.0
116.849785 176.0
116.907875 56.0
117.07103 1720.0
117.093018 156.0
117.123169 200.0
117.174873 172.0
117.409821 156.0
117.446487 196.0
117.623421 48.0
117.735687 144.0
117.794411 188.0
117.863136 200.0
117.919319 184.0
118.040222 716.0
118.072624 452.0
118.13987 252.0
118.23291 128.0
118.26754 164.0
118.317322 144.0
118.416931 176.0
118.59893 168.0
118.638832 176.0
118.702988 248.0
118.722504 140.0
118.783234 96.0
118.804924 164.0
118.850487 124.0
118.883034 176.0
119.013275 68.0
119.050392 756.0
119.087196 332.0
119.16748 120.0
119.193558 64.0
119.278313 28.0
119.300049 132.0
119.357788 172.0
119.387024 144.0
119.426529 192.0
119.45472 208.0
119.497955 80.0
119.583702 188.0
119.787491 188.0
119.929459 232.0
119.961815 156.0
120.022865 160.0
120.056145 156.0
120.097008 192.0
120.210449 144.0
120.245369 68.0
120.267197 192.0
120.297752 140.0
120.367615 88.0
120.562035 104.0
120.883492 172.0
120.920692 152.0
121.029678 2024.0
121.065758 1960.0
121.100166 168.0
121.117744 32.0
121.152794 80.0
121.183464 128.0
121.227287 56.0
121.350037 120.0
121.529884 184.0
121.549629 144.0
121.764763 136.0
121.846031 120.0
121.92733 156.0
122.036797 1568.0
122.074089 476.0
122.213196 56.0
122.266006 168.0
122.281418 40.0
122.376068 72.0
122.398087 208.0
122.481773 88.0
122.530235 184.0
122.591934 64.0
122.704346 96.0
122.891808 224.0
122.916084 172.0
122.951691 232.0
122.969048 176.0
122.984497 160.0
123.008774 164.0
123.04541 21380.0
123.083076 424.0
123.107498 56.0
123.122482 80.0
123.141251 72.0
123.181007 168.0
123.222984 132.0
123.267174 76.0
123.333473 148.0
123.419693 224.0
123.441803 84.0
123.634254 144.0
123.66967 80.0
123.720581 208.0
123.857872 208.0
123.946487 52.0
124.013763 156.0
124.049301 1104.0
124.076546 164.0
124.121597 180.0
124.17038 216.0
124.221397 172.0
124.262093 128.0
124.449982 224.0
124.474403 160.0
124.56102 60.0
124.612114 156.0
124.68544 200.0
124.9189 56.0
124.936699 164.0
124.963394 168.0
125.003441 104.0
125.025696 140.0
125.060173 456.0
125.228294 176.0
125.269951 176.0
125.3731 180.0
125.415443 196.0
125.489014 208.0
125.542526 348.0
125.633972 156.0
125.654053 132.0
125.714294 184.0
125.734062 140.0
125.765625 124.0
125.906281 168.0
125.939781 196.0
125.967728 164.0
126.060158 152.0
126.095604 156.0
126.18335 124.0
126.291763 164.0
126.418213 132.0
126.536842 204.0
126.671204 196.0
126.742897 204.0
126.832535 180.0
127.036591 160.0
127.220596 172.0
127.269989 188.0
127.34185 76.0
127.357574 104.0
127.593521 232.0
127.780182 212.0
127.831932 152.0
127.881447 200.0
127.930962 196.0
128.016525 128.0
128.062164 384.0
128.094803 188.0
128.113373 208.0
128.160675 152.0
128.201248 188.0
128.232788 216.0
128.381592 104.0
128.431198 156.0
128.692978 152.0
128.821701 164.0
128.842026 152.0
128.875916 108.0
128.925629 104.0
129.003067 200.0
129.029602 192.0
129.074081 196.0
129.187912 224.0
129.416489 196.0
129.509338 140.0
129.604477 84.0
129.978607 32.0
130.078461 136.0
130.123871 136.0
130.257858 156.0
130.326004 96.0
130.360092 112.0
130.385086 144.0
130.526031 232.0
130.685242 148.0
130.739853 116.0
130.837723 212.0
130.909927 156.0
130.942551 224.0
130.985748 120.0
131.049881 1040.0
131.08696 568.0
131.195389 88.0
131.400635 52.0
131.6129 136.0
131.649429 120.0
131.800201 140.0
131.962479 52.0
132.001343 124.0
132.019638 120.0
132.060394 532.0
132.091949 160.0
132.122559 216.0
132.147736 116.0
132.417847 92.0
132.438461 140.0
132.479691 176.0
132.54483 172.0
132.573624 120.0
132.942825 172.0
132.963486 192.0
132.980881 200.0
133.029144 592.0
133.065704 7700.0
133.160919 88.0
133.234421 204.0
133.259262 104.0
133.28038 32.0
133.30336 100.0
133.333221 92.0
133.448807 156.0
133.470673 152.0
133.613754 80.0
133.650558 128.0
133.680481 192.0
133.890793 100.0
134.033356 508.0
134.067871 620.0
134.106522 48.0
134.316345 112.0
134.480164 148.0
134.540176 132.0
134.577118 88.0
134.602524 104.0
134.618683 124.0
134.634842 160.0
134.694901 152.0
134.750626 96.0
134.794235 160.0
134.842773 144.0
134.872818 180.0
134.907486 84.0
134.930069 68.0
134.972504 396.0
135.013016 336.0
135.044449 12480.0
135.08107 18856.0
135.141068 36.0
135.160812 188.0
135.238968 208.0
135.279922 132.0
135.326233 116.0
135.372437 96.0
135.398239 84.0
135.446655 96.0
135.550903 128.0
135.570404 116.0
135.587982 196.0
135.655807 60.0
135.678375 56.0
135.750259 164.0
135.85463 24.0
135.891739 64.0
135.90799 64.0
136.003128 232.0
136.022568 88.0
136.046982 596.0
136.084183 1396.0
136.144104 156.0
136.230682 160.0
136.263214 60.0
136.281799 64.0
136.305695 80.0
136.33989 44.0
136.370102 60.0
136.391022 120.0
136.430542 40.0
136.484009 116.0
136.514236 144.0
136.532852 100.0
136.56076 176.0
136.594238 132.0
136.631348 184.0
136.798752 196.0
136.833008 164.0
136.874924 184.0
136.909851 140.0
136.952393 136.0
137.007675 80.0
137.026306 192.0
137.059967 8164.0
137.091446 248.0
137.140045 104.0
137.200912 48.0
137.292038 204.0
137.317688 80.0
137.338684 160.0
137.406326 68.0
137.49733 144.0
137.536301 172.0
137.555145 52.0
137.642059 100.0
137.740143 136.0
137.795654 180.0
137.824249 208.0
137.977859 160.0
138.063461 772.0
138.174957 152.0
138.210052 128.0
138.298981 140.0
138.40062 172.0
138.488632 236.0
138.523758 28.0
138.544846 96.0
138.68309 220.0
138.790833 92.0
138.88356 72.0
138.906952 144.0
138.93399 84.0
139.000504 92.0
139.066116 184.0
139.239136 148.0
139.31665 212.0
139.355194 156.0
139.395813 308.0
139.424728 116.0
139.591629 204.0
139.622208 56.0
139.751572 140.0
139.855118 120.0
140.109436 316.0
140.191895 192.0
140.217819 112.0
140.274399 152.0
140.312103 172.0
140.396988 108.0
140.748596 128.0
141.013168 144.0
141.067734 392.0
141.228317 144.0
141.330048 192.0
141.603424 148.0
141.633072 192.0
141.708878 148.0
142.077286 192.0
142.190231 160.0
142.244827 160.0
142.498932 164.0
142.515564 84.0
142.629623 192.0
142.655777 188.0
142.898346 176.0
143.048279 168.0
143.076935 200.0
143.162552 60.0
143.203644 172.0
143.226852 200.0
143.267349 196.0
143.5755 284.0
143.664505 160.0
143.752243 140.0
143.999634 196.0
144.054565 264.0
144.073685 172.0
144.097565 188.0
144.162079 44.0
144.208893 252.0
144.229004 136.0
144.338974 196.0
144.358109 176.0
144.445236 212.0
144.499222 116.0
144.887054 68.0
145.043335 204.0
145.065765 936.0
145.138718 172.0
145.177078 148.0
145.223953 176.0
145.25383 200.0
145.288757 180.0
145.347397 136.0
145.431381 120.0
145.498596 136.0
145.537018 156.0
145.748383 152.0
145.794037 52.0
145.868546 92.0
145.97673 152.0
146.040741 156.0
146.076019 364.0
146.335236 156.0
146.409882 128.0
146.429153 156.0
146.597794 124.0
146.626709 144.0
146.662857 204.0
146.808563 332.0
146.824921 184.0
146.872635 188.0
146.929993 128.0
146.972427 108.0
146.980469 40.0
146.990128 136.0
147.019424 228.0
147.044846 7204.0
147.082901 1048.0
147.111343 160.0
147.138992 164.0
147.189377 156.0
147.217758 68.0
147.241898 112.0
147.270889 112.0
147.314362 84.0
147.425507 96.0
147.461746 52.0
147.522186 136.0
147.544998 136.0
147.662415 100.0
147.679352 156.0
147.718048 212.0
147.75676 112.0
147.807571 52.0
147.877747 176.0
147.947937 152.0
147.991516 184.0
148.048065 908.0
148.085953 180.0
148.127136 188.0
148.199814 224.0
148.316132 44.0
148.536789 44.0
148.565903 156.0
148.704208 56.0
148.735764 152.0
148.9673 180.0
148.990128 308.0
149.023682 348.0
149.060394 7992.0
149.094498 760.0
149.190002 264.0
149.245926 104.0
149.315628 80.0
149.382111 64.0
149.421036 92.0
149.476395 108.0
149.51593 132.0
149.5354 48.0
149.747223 48.0
149.786179 152.0
149.854401 180.0
150.067566 13528.0
150.118515 180.0
150.179123 172.0
150.200562 172.0
150.254166 184.0
150.4104 44.0
150.454346 88.0
150.504578 60.0
150.52887 160.0
150.622833 124.0
150.688797 192.0
150.736069 208.0
150.764542 36.0
150.820755 172.0
150.857422 204.0
150.887848 144.0
150.90976 148.0
150.938095 52.0
151.039856 916.0
151.076126 14504.0
151.146622 64.0
151.168915 56.0
151.198624 128.0
151.224319 56.0
151.252441 180.0
151.332031 140.0
151.366318 56.0
151.503464 84.0
151.576965 60.0
151.613724 68.0
151.692154 68.0
151.748535 52.0
151.829453 168.0
151.92511 104.0
152.032654 184.0
152.047775 328.0
152.078629 1528.0
152.104248 188.0
152.19017 64.0
152.251556 116.0
152.298218 104.0
152.347351 76.0
152.43335 68.0
152.465286 124.0
152.519363 68.0
152.720047 232.0
152.770172 76.0
152.814453 72.0
153.006424 180.0
153.055786 6380.0
153.090515 2108.0
153.143524 112.0
153.193588 188.0
153.225601 148.0
153.26503 80.0
153.324173 104.0
153.343887 120.0
153.36113 184.0
153.425674 252.0
153.55098 140.0
153.626663 88.0
153.819916 172.0
153.861877 64.0
153.886566 160.0
154.027328 56.0
154.058502 1264.0
154.090973 288.0
154.128616 48.0
154.175934 136.0
154.205231 148.0
154.259613 176.0
154.28186 64.0
154.395599 136.0
154.417847 88.0
154.482162 76.0
154.571228 76.0
154.623199 152.0
154.685074 204.0
154.742004 104.0
155.007034 200.0
155.06366 400.0
155.103683 120.0
155.163177 96.0
155.207809 112.0
155.510452 204.0
155.587402 40.0
155.634583 44.0
155.711563 136.0
155.86557 64.0
155.897888 180.0
155.950073 216.0
156.08432 160.0
156.283295 160.0
156.355453 204.0
156.631821 132.0
156.736465 148.0
157.097961 184.0
157.140366 204.0
157.394958 152.0
157.639755 36.0
157.742981 172.0
157.852219 48.0
157.877228 132.0
157.922256 212.0
157.989792 432.0
158.07486 120.0
158.14679 172.0
158.194992 60.0
158.297638 108.0
158.350235 168.0
158.412842 292.0
158.530609 84.0
158.907608 124.0
159.036026 136.0
159.046539 200.0
159.081894 564.0
159.175278 184.0
159.23555 112.0
159.521988 152.0
159.56723 176.0
159.76088 136.0
159.904297 220.0
159.989883 108.0
160.049393 364.0
160.094116 152.0
160.151047 88.0
160.440826 180.0
160.609772 120.0
160.640045 156.0
160.78891 64.0
160.809097 120.0
160.829285 96.0
160.896042 232.0
160.988342 188.0
161.014709 180.0
161.069366 6612.0
161.094772 744.0
161.130356 160.0
161.166809 116.0
161.190414 44.0
161.209412 168.0
161.235901 188.0
161.354706 100.0
161.374939 132.0
161.422974 148.0
161.471024 40.0
161.524139 164.0
161.741013 184.0
161.769592 72.0
161.819489 152.0
161.898712 208.0
161.924042 60.0
161.974701 160.0
162.035492 188.0
162.074005 916.0
162.144455 60.0
162.357407 132.0
162.390381 248.0
162.541901 120.0
162.56543 32.0
162.608566 68.0
162.637924 120.0
162.678055 32.0
162.686401 192.0
162.735489 36.0
162.801498 92.0
162.821823 128.0
162.859924 180.0
162.956726 376.0
163.041199 416.0
163.076294 49648.0
163.115265 564.0
163.148392 60.0
163.213974 156.0
163.238586 132.0
163.262482 100.0
163.294525 84.0
163.314636 84.0
163.411118 136.0
163.462433 40.0
163.554306 80.0
163.573486 44.0
163.715256 152.0
163.74501 60.0
163.780655 72.0
163.801041 32.0
163.823959 68.0
163.846893 36.0
163.877518 172.0
163.915405 72.0
163.969818 196.0
164.028275 232.0
164.050339 144.0
164.079193 5468.0
164.141251 136.0
164.184189 108.0
164.249664 100.0
164.282822 88.0
164.411301 56.0
164.561707 100.0
164.578873 168.0
164.666916 108.0
164.765305 76.0
164.785751 52.0
164.873672 136.0
164.898178 100.0
165.020874 124.0
165.055008 7008.0
165.091034 11140.0
165.128204 304.0
165.169205 52.0
165.217804 152.0
165.235718 72.0
165.256775 136.0
165.282837 124.0
165.298096 84.0
165.330383 144.0
165.350861 80.0
165.376907 136.0
165.424576 84.0
165.494202 80.0
165.566925 40.0
165.60582 48.0
165.632492 64.0
165.673874 52.0
165.696121 204.0
165.719589 104.0
165.745224 72.0
165.763153 56.0
166.027191 84.0
166.058426 1048.0
166.092926 1736.0
166.129791 60.0
166.19136 92.0
166.250381 52.0
166.324799 92.0
166.528931 80.0
166.608551 152.0
166.692062 60.0
166.757919 172.0
166.794861 168.0
166.846268 84.0
166.924866 116.0
166.971954 168.0
167.034119 5196.0
167.092758 204.0
167.198349 208.0
167.311905 64.0
167.364685 96.0
167.439621 240.0
167.517929 36.0
167.68541 48.0
167.819443 180.0
167.84523 52.0
167.999969 208.0
168.035873 712.0
168.159958 72.0
168.694626 104.0
168.751495 168.0
168.917007 120.0
169.052307 324.0
169.292282 80.0
169.334503 188.0
169.704285 152.0
169.722427 116.0
169.911758 156.0
169.987 136.0
170.189468 192.0
170.971893 180.0
171.079727 332.0
171.107239 168.0
171.336426 172.0
171.464096 196.0
171.636139 116.0
171.737854 200.0
172.009216 128.0
172.223328 28.0
172.508133 112.0
173.063217 160.0
173.090134 184.0
173.248703 116.0
173.319443 96.0
173.369232 184.0
174.068054 300.0
174.195694 216.0
174.329681 104.0
174.426926 240.0
174.492645 100.0
174.713562 64.0
174.82933 216.0
175.076141 2860.0
175.11467 348.0
175.305969 32.0
175.329697 112.0
175.42984 92.0
175.495758 104.0
175.770065 80.0
175.983871 84.0
176.079086 376.0
176.163452 184.0
176.234787 64.0
176.26059 264.0
176.279694 52.0
176.385101 168.0
176.443573 100.0
176.657776 160.0
176.795685 132.0
176.856232 44.0
176.880051 156.0
176.938293 156.0
176.956818 152.0
177.025665 168.0
177.052063 544.0
177.090698 14220.0
177.184586 52.0
177.203125 64.0
177.229187 120.0
177.314423 104.0
177.351532 72.0
177.423096 52.0
177.470825 136.0
177.518555 52.0
177.542419 40.0
177.654755 112.0
177.687698 212.0
177.706879 76.0
177.754639 128.0
177.844864 120.0
178.059998 204.0
178.095627 2388.0
178.192734 76.0
178.229919 44.0
178.330902 68.0
178.360153 160.0
178.485092 76.0
178.519669 116.0
178.551575 72.0
178.612747 168.0
178.705856 168.0
178.812302 48.0
178.865524 152.0
178.944275 172.0
179.045212 5516.0
179.069733 4828.0
179.100952 320.0
179.187744 80.0
179.241043 68.0
179.270355 120.0
179.291672 68.0
179.3228 100.0
179.380356 132.0
179.416504 48.0
179.454269 64.0
179.539597 96.0
179.603607 56.0
179.835739 44.0
179.928314 216.0
179.979889 36.0
180.04776 1028.0
180.071564 648.0
180.158829 44.0
180.182877 52.0
180.311127 36.0
180.377945 104.0
180.653366 60.0
180.687881 80.0
180.787155 92.0
180.878143 112.0
180.971725 88.0
181.050018 19356.0
181.08876 256.0
181.124496 36.0
181.14592 124.0
181.167343 56.0
181.215576 28.0
181.263138 64.0
181.362167 68.0
181.443375 52.0
181.505035 96.0
181.577454 84.0
181.690109 144.0
181.711319 44.0
181.893539 152.0
181.931625 68.0
181.961166 36.0
181.996063 56.0
182.052765 1268.0
182.103485 40.0
182.210922 76.0
182.369461 52.0
182.425919 60.0
182.47699 64.0
182.745941 152.0
182.880493 48.0
182.910095 44.0
182.942398 180.0
183.052246 176.0
183.527023 88.0
183.564774 68.0
183.788651 72.0
184.037415 100.0
184.104477 84.0
184.436783 60.0
184.458405 104.0
185.099594 188.0
185.11792 172.0
185.703918 128.0
186.165283 160.0
186.244034 132.0
186.3853 164.0
186.428787 100.0
186.823029 168.0
187.074921 492.0
187.107025 280.0
187.419266 56.0
187.798187 92.0
187.972778 52.0
188.352264 192.0
188.434219 80.0
188.521652 108.0
188.554443 220.0
188.652847 112.0
188.909897 60.0
189.030273 104.0
189.090912 2608.0
189.158905 56.0
189.356049 28.0
189.81369 60.0
189.901443 44.0
189.950821 184.0
190.059586 124.0
190.09729 552.0
190.198029 84.0
190.217636 152.0
190.57399 72.0
190.683914 80.0
190.912094 56.0
191.033112 128.0
191.072784 460.0
191.106842 2336.0
191.173431 72.0
191.378906 160.0
191.467987 108.0
191.583664 56.0
191.889572 156.0
191.925415 104.0
192.010895 88.0
192.077179 132.0
192.107635 960.0
192.289551 88.0
192.422043 164.0
192.518677 84.0
192.546295 80.0
192.582199 196.0
192.640213 92.0
192.66684 128.0
192.745193 64.0
192.811508 152.0
192.833618 128.0
192.855362 88.0
192.87413 220.0
192.91655 84.0
193.02713 120.0
193.052536 216.0
193.086578 4648.0
193.122803 6724.0
193.190323 176.0
193.21521 72.0
193.245651 40.0
193.278854 80.0
193.298218 68.0
193.32312 40.0
193.373917 68.0
193.411682 44.0
193.443665 36.0
193.530716 72.0
193.566711 208.0
193.602722 48.0
193.738434 132.0
193.852036 160.0
193.993378 124.0
194.086334 820.0
194.125824 832.0
194.159744 48.0
194.212662 48.0
194.274704 80.0
194.427917 132.0
194.484344 120.0
194.71756 144.0
194.820343 208.0
194.924377 116.0
194.987045 104.0
195.05127 76.0
195.102325 31680.0
195.155151 108.0
195.226624 68.0
195.253204 60.0
195.278976 172.0
195.349396 100.0
195.420837 44.0
195.448669 180.0
195.512299 120.0
195.523178 160.0
195.5336 84.0
195.65184 68.0
195.685242 68.0
195.720322 124.0
195.756134 192.0
195.855118 60.0
195.908035 60.0
195.974899 40.0
195.9944 40.0
196.027847 92.0
196.104599 3628.0
196.161621 52.0
196.202393 92.0
196.2341 100.0
196.301025 64.0
196.398636 56.0
196.521378 56.0
196.729126 316.0
196.776794 56.0
196.84581 68.0
196.916306 100.0
196.942902 64.0
197.109314 512.0
197.180374 52.0
197.255844 52.0
197.300568 92.0
197.324768 136.0
197.348099 88.0
197.392838 104.0
197.44783 144.0
197.493515 64.0
197.538269 136.0
197.585831 136.0
197.658569 80.0
197.736923 132.0
197.770508 72.0
197.879684 64.0
197.904892 52.0
198.109329 132.0
198.193375 32.0
198.361526 84.0
198.512924 56.0
199.121902 44.0
199.501221 64.0
200.013168 80.0
200.094818 60.0
200.114517 100.0
200.418701 72.0
201.699936 76.0
201.731033 100.0
202.073212 116.0
202.132629 108.0
203.109192 192.0
203.113342 376.0
203.152588 56.0
204.113937 228.0
204.25473 144.0
204.283173 60.0
205.020599 44.0
205.08493 1400.0
205.121521 420.0
205.15741 68.0
205.22757 92.0
205.476822 36.0
205.585251 104.0
205.719391 96.0
206.092773 168.0
206.128815 436.0
206.399353 44.0
206.620331 152.0
206.673935 152.0
206.76265 72.0
207.017426 148.0
207.067566 292.0
207.101135 11984.0
207.137848 148.0
207.194138 64.0
207.246902 72.0
207.315353 32.0
207.369797 64.0
207.48732 76.0
207.636429 48.0
207.90036 40.0
208.104858 2072.0
208.230499 72.0
208.428726 88.0
208.81105 52.0
209.080902 660.0
209.106201 332.0
209.166153 76.0
209.464417 76.0
209.510147 164.0
209.547958 120.0
209.622864 132.0
209.703552 120.0
209.795792 104.0
210.202469 96.0
213.362396 56.0
214.098541 196.0
215.059113 92.0
215.104416 180.0
216.068756 100.0
216.11557 192.0
217.120926 304.0
217.33905 148.0
217.757156 112.0
219.104355 132.0
220.107147 132.0
222.89743 76.0
224.567505 32.0
224.662964 76.0
225.041977 132.0
226.234848 136.0
227.079819 180.0
228.109695 184.0
228.563812 52.0
229.045502 120.0
229.111771 132.0
230.227768 40.0
231.13765 128.0
232.173645 72.0
232.704651 52.0
232.965836 160.0
233.120041 1428.0
233.157257 36.0
233.309235 40.0
233.467331 40.0
233.488632 40.0
233.595078 40.0
233.622452 152.0
233.92981 52.0
233.966339 32.0
234.121689 556.0
234.179489 204.0
234.22821 48.0
235.132751 1908.0
235.326065 60.0
235.420715 48.0
235.506226 140.0
235.900406 112.0
236.025742 40.0
236.137772 456.0
236.882675 72.0
237.136505 120.0
238.143326 128.0
238.199661 100.0
238.278473 92.0
239.087158 168.0
241.115784 200.0
243.107666 128.0
244.070602 136.0
245.079071 136.0
245.141388 88.0
247.119736 116.0
247.706421 84.0
248.204727 108.0
251.539551 80.0
251.621628 52.0
253.240646 96.0
254.091003 152.0
254.147278 116.0
255.096848 112.0
255.128632 192.0
255.72345 112.0
256.108337 212.0
257.115204 168.0
258.125641 128.0
259.101837 244.0
264.104218 100.0
265.094879 128.0
266.607117 80.0
269.144653 224.0
270.030243 100.0
271.018829 160.0
274.618469 88.0
275.08371 92.0
276.144348 88.0
276.223724 92.0
277.415833 124.0
277.482117 100.0
278.769958 64.0
280.443939 88.0
280.990814 116.0
281.835541 164.0
283.266632 156.0
284.273193 152.0
286.158844 136.0
286.226196 88.0
288.154938 108.0
289.416992 96.0
291.306 80.0
295.523163 80.0
295.981812 156.0
296.142761 132.0
296.177002 92.0
296.526489 84.0
297.113007 152.0
301.107422 148.0
302.149536 176.0
306.221222 84.0
311.285065 136.0
313.987732 180.0
315.127625 304.0
315.155182 480.0
315.276276 56.0
317.137878 144.0
317.46048 56.0
318.109772 64.0
319.111572 136.0
323.088104 120.0
324.033234 72.0
324.64975 64.0
324.69635 108.0
326.340973 32.0
327.14325 124.0
329.075562 148.0
329.141937 212.0
330.116211 152.0
330.43811 44.0
330.586456 100.0
335.693939 48.0
337.424622 56.0
343.144623 184.0
345.17334 120.0
346.170746 128.0
347.171265 44.0
348.444397 92.0
352.031281 60.0
356.477783 144.0
357.169281 1164.0
358.076599 88.0
358.171814 828.0
358.351593 76.0
358.766144 68.0
359.160919 144.0
360.332306 120.0
361.133667 96.0
361.16626 296.0
362.132874 156.0
362.171722 172.0
362.32605 72.0
365.89212 116.0
372.865265 116.0
375.151581 100.0
380.020599 128.0
384.503326 104.0
384.659454 120.0
388.384491 52.0
388.639496 64.0
392.28125 48.0
395.635071 60.0
395.745941 76.0
399.862366 100.0
399.981781 148.0
401.39209 44.0
403.092529 96.0
403.173004 548.0
404.165405 128.0
404.196167 108.0
404.484314 44.0
404.806458 60.0
405.185089 176.0
405.30127 148.0
406.247437 152.0
406.307617 84.0
406.391876 84.0
406.500214 128.0
406.712921 76.0
409.781189 60.0
411.915253 84.0
413.957672 52.0
417.959991 48.0
426.766235 64.0
431.995605 84.0
472.35199 52.0
474.317841 40.0
476.387695 28.0
481.147522 80.0
496.025452 44.0
502.201477 112.0
512.246399 140.0
521.472351 56.0
535.721252 84.0
540.791199 60.0
544.890442 48.0
559.26062 60.0
572.236145 36.0
579.294556 108.0
581.437744 192.0
585.095642 44.0
588.557312 64.0
593.536255 40.0
598.570251 148.0
619.939209 68.0
624.526489 108.0
626.044434 104.0
632.21228 196.0
633.756897 100.0
635.762634 108.0
640.533936 64.0
655.433716 188.0
666.778809 52.0
680.768616 96.0
719.845215 204.0
720.144287 44.0
722.169922 168.0
742.409363 84.0
743.320679 56.0
743.988281 124.0
744.4552 64.0
749.971802 108.0
755.815125 92.0
764.853821 156.0
770.688416 32.0
781.761841 216.0
781.834167 60.0
784.167664 136.0
788.213501 56.0
789.946655 28.0
791.944946 136.0
793.665344 216.0
794.747864 92.0
798.837769 184.0
801.557068 104.0
810.224182 164.0
811.068481 228.0
811.901917 256.0
816.206238 148.0
823.043823 56.0
827.577942 96.0
833.330566 80.0
834.991821 172.0
839.91626 168.0
842.652527 152.0
844.606445 160.0
851.974121 104.0
853.595642 52.0
857.933228 208.0
860.167419 100.0
861.323547 156.0
862.20575 140.0
864.88446 116.0
867.983521 172.0
869.702454 144.0
872.175232 196.0
886.36261 204.0
889.719604 148.0
895.022888 156.0
896.857727 184.0
897.060425 196.0
902.403503 176.0
902.947632 208.0
906.473633 80.0
906.521545 60.0
915.261475 220.0
916.213074 100.0
919.306152 156.0
920.036499 168.0
922.797424 172.0
924.890503 88.0
925.507996 120.0
925.58667 184.0
927.610168 228.0
928.610657 268.0
928.841125 64.0
933.931152 104.0
934.460388 140.0
934.545593 140.0
934.758545 160.0
938.091736 156.0
940.871765 36.0
951.49353 144.0
953.477539 204.0
954.110657 168.0
955.143738 168.0
959.201538 204.0
960.928223 172.0
961.999512 216.0
963.836304 128.0
964.12677 76.0
974.188965 116.0
974.61145 180.0
974.760559 176.0
975.536438 196.0
978.255859 176.0
978.610718 128.0
982.730469 128.0
984.278442 208.0
985.046631 184.0
985.190308 196.0
987.528015 204.0
988.591553 168.0
989.549255 140.0
990.037659 148.0
995.93927 252.0
996.360168 128.0
996.561218 148.0
997.239868 128.0
998.289795 148.0
999.868774 240.0
1000.441528 220.0
1002.614563 156.0
1003.244873 200.0
1006.2099 52.0
1010.241821 160.0
1012.260803 204.0
1012.843445 180.0
1013.508667 144.0
1014.174072 124.0
1018.012329 132.0
1018.075806 128.0
1018.412415 204.0
1018.50769 228.0
1019.009521 208.0
1019.187439 232.0
1022.882385 244.0
1025.245361 240.0
1026.022949 168.0
1027.661987 244.0
1028.408569 220.0
1030.036865 96.0
1030.912109 240.0
1031.014282 116.0
1033.770508 72.0
1036.51123 128.0
1039.897217 228.0
1042.041992 204.0
1042.266846 96.0
1043.623047 140.0
1044.021729 120.0
1044.459106 136.0
1046.376709 120.0
1047.239624 204.0
1047.690552 256.0
1048.667358 160.0
1049.462769 120.0
1052.508301 168.0
1052.805298 132.0
1053.64502 120.0
1054.123169 124.0
1055.933228 120.0
1056.017334 136.0
1056.638306 196.0
1057.932617 168.0
1058.586548 68.0
1059.467407 200.0
1060.225464 28.0
1060.45874 168.0
1061.586792 156.0
1061.943481 148.0
1063.612061 124.0
1064.578369 112.0
1065.357788 236.0
1069.955566 128.0
1071.824707 112.0
1072.566772 168.0
1073.343506 196.0
1073.812988 172.0
1074.093506 176.0
1075.617676 188.0
1077.795044 100.0
1077.880005 156.0
1078.023804 188.0
1078.494385 180.0
1079.592651 152.0
1079.821533 132.0
1080.305664 64.0
1080.514893 220.0
1081.260864 68.0
1081.764893 136.0
1082.943481 172.0
1084.601196 276.0
1086.050171 176.0
1089.069458 132.0
1089.246826 140.0
1090.133789 176.0
1090.679199 132.0
1090.974976 260.0
1093.356079 92.0
1094.968994 128.0
1095.667236 56.0
1095.930786 232.0
1096.154785 60.0
1097.222534 108.0
1099.828125 180.0
1100.204468 168.0
1101.327026 156.0
1101.485474 164.0
1104.406982 80.0
1106.067871 236.0
1107.047607 196.0
1107.703369 48.0
1108.524902 148.0
1108.869507 128.0
1109.260498 240.0
1110.513672 160.0
1110.74585 56.0
1111.973389 128.0
1112.90271 144.0
1113.267944 60.0
1114.277466 192.0
1115.639893 196.0
1117.362305 28.0
1118.440308 244.0
1120.384766 180.0
1120.68457 132.0
1121.844116 196.0
1123.524658 140.0
1124.652344 84.0
1127.016357 76.0
1127.276978 160.0
1127.771606 128.0
1127.911865 132.0
1128.202515 156.0
1128.440063 176.0
1130.674194 68.0
1132.622559 72.0
1132.669434 152.0
1133.935669 172.0
1135.424072 156.0
1135.538086 136.0
1135.819824 168.0
1136.725464 132.0
1137.155029 152.0
1137.967163 164.0
1138.020874 192.0
1138.558105 100.0
1139.417847 88.0
1141.044312 184.0
1143.499512 188.0
1144.280273 180.0
1144.859375 208.0
1146.301025 180.0
1146.772705 104.0
1147.285034 200.0
1147.507446 196.0
1147.864868 116.0
1149.60791 180.0
1151.238892 88.0
1151.583862 84.0
1153.677979 156.0
1154.191772 136.0
1156.667847 92.0
1159.19397 100.0
1159.641357 96.0
1160.515747 196.0
1160.814087 192.0
1162.306396 192.0
1162.476074 220.0
1163.127563 164.0
1163.331177 196.0
1163.602783 160.0
1163.894775 160.0
1164.641724 192.0
1165.470581 168.0
1165.708374 48.0
1166.313232 160.0
1167.965454 180.0
1168.047119 116.0
1168.50293 72.0
1168.747803 184.0
1169.707397 184.0
1170.769531 156.0
1171.396118 192.0
1171.798096 120.0
1173.072388 176.0
1173.590576 144.0
1174.033813 168.0
1174.408936 164.0
1174.90686 204.0
1175.582275 96.0
1176.544678 96.0
1177.616699 52.0
1179.345337 176.0
1179.523071 88.0
1179.87854 44.0
1180.787964 84.0
1181.266724 172.0
1181.355713 56.0
1182.162964 228.0
1182.628418 128.0
1183.367676 168.0
1184.497681 172.0
1185.333496 156.0
1186.169556 144.0
1187.77417 136.0
1188.151367 164.0
1188.26123 108.0
1190.114258 180.0
1190.320312 196.0
1190.677368 96.0
1190.849121 132.0
1191.274902 216.0
1191.796997 92.0
1193.199097 212.0
1193.474121 168.0
1193.74231 176.0
1194.216797 160.0
1194.546997 132.0
1194.643311 196.0
1196.19165 108.0
1196.370605 176.0
1196.632202 36.0
1197.052246 236.0
1200.097778 196.0
1200.56665 124.0
1201.208008 176.0
1201.863403 176.0
1202.070435 184.0
1202.318848 136.0
1202.519043 96.0
1202.71228 208.0
1202.781372 264.0
1203.47168 140.0
1204.079346 108.0
1204.583496 136.0
1206.414795 176.0
1208.503418 148.0
1209.133057 132.0
1210.32373 216.0
1211.487183 164.0
1211.792114 156.0
1212.401855 232.0
1212.644409 172.0
1213.78125 136.0
1214.329102 184.0
1214.481689 184.0
1215.973389 188.0
1216.448853 120.0
1218.16748 152.0
1218.500977 252.0
1218.563477 120.0
1218.903931 116.0
1219.001221 172.0
1219.084595 204.0
1219.459961 96.0
1219.904785 64.0
1220.613892 192.0
1221.12854 128.0
1221.552856 176.0
1223.11145 272.0
1224.754761 184.0
1226.057617 120.0
1227.14502 152.0
1227.270508 168.0
1227.347168 84.0
1227.702759 152.0
1228.049194 144.0
1228.386353 136.0
1228.463013 36.0
1228.686279 208.0
1229.083984 128.0
1229.481689 60.0
1230.947632 124.0
1231.897583 64.0
1232.058228 140.0
1232.14209 120.0
1232.358643 192.0
1232.826782 184.0
1233.001465 216.0
1233.79834 144.0
1233.917114 128.0
1234.700317 84.0
1235.469727 120.0
1235.742554 36.0
1236.064453 140.0
1236.701294 112.0
1236.897217 152.0
1237.240234 112.0
1237.786377 164.0
1238.521729 148.0
1238.82251 148.0
1241.780884 156.0
1242.313965 192.0
1243.548828 200.0
1243.927856 48.0
1244.110352 168.0
1245.894165 176.0
1246.575684 80.0
1247.735352 72.0
1247.854858 184.0
1250.147949 120.0
1252.238892 132.0
1252.555786 144.0
1252.647339 160.0
1253.640747 152.0
1254.141113 204.0
1254.423096 192.0
1256.404663 136.0
1256.792725 100.0
1257.089111 152.0
1257.173828 216.0
1257.399658 172.0
1257.985474 240.0
1258.133667 64.0
1261.842651 256.0
1261.969971 152.0
1264.643921 156.0
1264.771362 220.0
1264.912842 144.0
1265.465088 184.0
1265.64917 192.0
1267.625366 156.0
1268.291626 164.0
1268.42627 156.0
1269.432983 152.0
1270.511108 244.0
1271.852173 84.0
1271.97998 176.0
1272.867432 224.0
1273.378784 148.0
1273.976929 228.0
1274.110352 44.0
1274.92749 96.0
1275.8302 176.0
1277.209717 184.0
1277.821411 140.0
1277.949585 112.0
1279.422729 204.0
1280.309326 396.0
1280.505005 96.0
1281.23877 176.0
1281.438232 100.0
1282.65686 92.0
1282.920532 212.0
1284.011475 180.0
1284.282471 180.0
1284.360962 232.0
1284.974487 64.0
1285.109985 172.0
1285.167114 32.0
1286.437378 128.0
1286.487427 196.0
1286.537354 56.0
1286.837158 128.0
1287.108521 132.0
1288.472656 208.0
1288.679932 156.0
1289.601685 100.0
1289.787598 180.0
1289.909058 136.0
1290.252197 148.0
1291.017212 80.0
1291.067261 172.0
1291.153198 172.0
1292.125977 192.0
1292.254761 56.0
1292.920166 256.0
1292.998901 80.0
1293.70752 160.0
1294.129883 188.0
1294.344727 48.0
1294.674072 164.0
1294.90332 128.0
1295.060791 176.0
1295.461914 100.0
1296.128296 216.0
1296.493774 172.0
1297.776855 212.0
1298.852539 212.0
1299.720581 88.0
1300.129639 168.0
1300.352051 192.0
1300.459717 196.0
1301.055542 220.0
1301.364258 196.0
1302.41272 184.0
1302.506104 168.0
1302.829346 108.0
1303.339355 132.0
1304.510864 104.0
1304.769653 196.0
1304.927856 116.0
1305.20105 156.0
1305.589355 100.0
1305.805054 128.0
1306.135986 36.0
1306.992065 176.0
1307.236694 160.0
1307.287109 184.0
1308.035645 196.0
1308.579102 196.0
1309.526001 56.0
1309.698853 164.0
1310.188721 120.0
1310.620972 168.0
1311.089355 216.0
1311.255127 164.0
1312.797852 160.0
1312.891602 200.0
1313.216187 60.0
1314.483398 128.0
1316.12439 164.0
1316.348267 176.0
1316.658813 108.0
1317.597778 180.0
1318.009644 136.0
1318.125244 144.0
1319.296021 200.0
1319.621338 204.0
1319.78772 160.0
1320.373413 68.0
1320.800171 140.0
1320.901367 80.0
1320.959229 132.0
1321.893066 184.0
1322.037354 156.0
1322.145874 140.0
1322.840698 68.0
1323.253296 180.0
1323.789185 140.0
1324.020874 252.0
1325.824707 132.0
1326.382812 112.0
1328.819458 140.0
1329.581299 136.0
1330.481323 168.0
1331.345459 184.0
1331.962769 60.0
1332.144409 184.0
1332.478516 156.0
1333.335938 136.0
1334.011963 176.0
1334.760742 132.0
1334.986206 180.0
1335.298828 208.0
1335.800781 124.0
1338.304199 124.0
1338.580933 180.0
1339.644287 132.0
1340.154297 40.0
1341.057861 164.0
1341.794067 32.0
1342.180542 192.0
1342.304443 164.0
1343.026489 156.0
1343.157715 212.0
1343.318237 228.0
1343.391235 128.0
1343.464111 136.0
1343.974854 116.0
1344.179077 76.0
1344.572266 220.0
1344.792114 164.0
1344.872437 128.0
1345.029419 192.0
1345.748413 132.0
1346.244995 104.0
1346.595459 160.0
1346.734253 156.0
1346.926025 192.0
1347.837402 144.0
1348.012695 48.0
1348.495117 60.0
1348.626587 184.0
1349.028687 208.0
1349.964478 304.0
1350.308228 120.0
1351.463989 160.0
1351.866455 212.0
1352.451904 108.0
1352.620361 196.0
1354.480225 156.0
1354.863037 228.0
1355.894287 208.0
1355.952881 200.0
1356.495239 92.0
1357.286987 152.0
1357.602417 104.0
1358.40918 180.0
1358.621826 216.0
1359.054688 76.0
1359.286987 204.0
1359.417725 212.0
1359.693115 172.0
1359.920654 164.0
1361.220093 172.0
1362.116089 156.0
1364.229492 132.0
1364.445557 196.0
1364.916138 152.0
1366.504883 152.0
1366.637329 108.0
1367.564453 156.0
1368.241699 124.0
1368.331299 192.0
1368.51416 216.0
1368.867554 216.0
1370.370117 192.0
1370.974365 136.0
1371.571289 96.0
1372.485474 188.0
1372.677246 144.0
1373.385132 140.0
1373.702393 196.0
1373.93103 192.0
1374.093384 136.0
1374.167114 124.0
1374.646729 156.0
1375.244507 156.0
1375.554565 72.0
1375.908813 152.0
1375.997437 156.0
1376.078613 64.0
1376.27063 224.0
1376.477417 148.0
1378.139282 180.0
1378.449585 224.0
1378.978516 200.0
1379.085205 164.0
1379.181274 140.0
1379.321777 164.0
1381.303467 180.0
1381.887817 140.0
1382.146851 128.0
1382.80542 68.0
1382.886841 164.0
1383.4198 88.0
1383.567871 188.0
1383.723267 240.0
1384.078735 132.0
1384.167603 108.0
1384.9552 200.0
1385.285889 140.0
1385.345093 176.0
1385.841553 180.0
1386.352783 116.0
1386.767822 164.0
1386.864136 88.0
1386.975342 96.0
1387.301514 48.0
1387.850098 188.0
1388.280151 208.0
1388.784546 76.0
1389.244385 304.0
1389.474365 216.0
1389.689575 152.0
1389.845337 212.0
1390.327637 168.0
1391.923706 40.0
1392.213257 192.0
1392.517822 152.0
1393.979248 160.0
1394.620361 68.0
1394.858276 228.0
1394.910278 68.0
1397.081665 32.0
1397.2677 176.0
1397.870361 152.0
1398.115967 164.0
1398.458252 52.0
1398.711304 80.0
1399.269653 60.0
1399.902588 196.0
1399.984497 132.0
1400.31958 140.0
1400.394043 124.0
1401.287964 248.0
1401.350342 236.0
1401.742432 112.0
1401.831909 176.0
1401.973511 120.0
1402.525024 64.0
1403.330078 132.0
1403.673096 152.0
1403.829712 220.0
1404.381592 88.0
1404.806763 120.0
1404.911133 176.0
1405.082764 188.0
1406.634888 96.0
1406.866333 184.0
1407.29187 132.0
1407.672729 144.0
1407.986328 220.0
1409.712036 72.0
1411.296631 152.0
1411.386353 204.0
1411.482178 172.0
1413.016846 188.0
1413.458374 148.0
1414.086914 168.0
1414.214111 52.0
1414.693237 144.0
1414.835449 196.0
1415.292114 184.0
1415.441895 76.0
1415.883667 124.0
1416.250732 168.0
1416.790039 160.0
1416.894897 104.0
1417.307007 164.0
1418.536133 204.0
1418.910889 112.0
1419.060913 120.0
1419.375732 116.0
1420.133179 144.0
1422.031372 128.0
1422.59436 76.0
1422.784302 120.0
1422.924683 164.0
1423.074829 116.0
1423.247559 136.0
1423.55542 192.0
1423.840698 192.0
1424.854736 128.0
1425.115601 188.0
1426.207397 192.0
1427.553101 228.0
1428.019409 64.0
1428.162354 168.0
1428.327759 144.0
1428.538452 48.0
1430.226318 184.0
1430.660522 244.0
1430.773438 164.0
1430.946533 128.0
1431.458618 184.0
1431.518799 184.0
1431.963135 76.0
1432.083618 184.0
1432.204224 192.0
1433.861694 100.0
1434.509888 124.0
1435.385498 200.0
1435.78418 156.0
1435.934937 212.0
1436.161255 156.0
1436.327148 88.0
1437.23999 176.0
1437.368286 192.0
1437.428589 112.0
1437.866333 220.0
1437.994629 160.0
1438.190918 132.0
1438.273926 164.0
1438.613525 132.0
1438.960815 200.0
1439.334229 204.0
1439.897217 272.0
1440.206787 180.0
1440.705444 52.0
1441.408081 184.0
1441.69043 228.0
1441.831177 168.0
1442.609741 204.0
1442.74585 144.0
1442.889404 212.0
1443.380859 168.0
1443.439941 152.0
1443.743896 144.0
1444.651489 160.0
1444.984375 148.0
1445.05249 180.0
1446.013428 132.0
1446.354004 220.0
1446.830933 224.0
1447.678955 196.0
1448.050049 192.0
1448.496948 204.0
1449.027222 72.0
1449.178711 140.0
1449.54248 120.0
1450.179077 196.0
1450.671753 56.0
1451.05835 76.0
1451.414673 192.0
1451.816528 208.0
1452.559814 96.0
1452.893677 156.0
1453.386841 172.0
1453.971069 164.0
1455.147583 108.0
1455.899414 188.0
1456.560181 152.0
1456.689209 144.0
1457.038696 160.0
1457.433838 64.0
1457.973267 196.0
1458.467285 140.0
1458.703003 64.0
1461.72229 32.0
1461.973389 184.0
1462.658325 180.0
1463.304321 140.0
1464.470581 148.0
1464.615234 188.0
1465.011353 180.0
1465.262695 152.0
1465.536987 164.0
1465.963745 156.0
1466.969727 84.0
1467.427246 204.0
1467.541504 144.0
1467.82373 124.0
1468.593872 144.0
1468.845581 128.0
1469.043945 108.0
1469.349121 164.0
1469.417725 188.0
1469.845093 152.0
1470.051025 160.0
1470.226562 140.0
1470.669189 128.0
1471.699829 176.0
1472.264893 248.0
1472.387085 32.0
1472.715454 152.0
1472.837646 192.0
1473.13562 224.0
1473.441162 188.0
1473.639771 140.0
1474.793701 112.0
1475.734619 176.0
1476.30957 220.0
1476.582764 240.0
1476.837524 168.0
1478.21228 132.0
1478.386108 156.0
1478.518311 180.0
1478.717285 136.0
1479.773682 144.0
1480.585327 116.0
1480.815063 104.0
1481.244019 144.0
1481.711304 216.0
1482.13269 144.0
1483.075317 116.0
1483.351196 132.0
1484.133179 204.0
1484.884766 96.0
1485.076416 52.0
1485.183838 160.0
1485.342651 152.0
1485.590332 168.0
1486.273193 112.0
1486.57251 68.0
1487.424316 148.0
1487.646973 88.0
1489.297852 192.0
1489.489868 40.0
1490.358032 148.0
1490.665405 116.0
1491.25708 200.0
1491.418457 192.0
1491.633667 224.0
1491.718262 232.0
1491.918091 44.0
1492.210327 100.0
1493.563721 156.0
1494.086792 164.0
1494.594604 208.0
1495.44104 168.0
1495.679688 224.0
1496.033813 188.0
1496.295532 180.0
1496.480347 180.0
1498.374878 192.0
1498.428833 252.0
1499.237915 176.0
1499.415161 204.0
1499.761963 136.0
1499.869873 172.0
1500.032959 200.0
1500.602295 36.0
1500.933838 176.0
1501.06897 160.0
1501.73584 156.0
1501.928589 232.0
1501.982666 68.0
1502.136841 96.0
1502.40686 200.0
1502.460938 168.0
1502.715454 144.0
1502.923828 192.0
1503.726318 156.0
1503.880737 160.0
1504.081421 192.0
1504.675781 192.0
1505.000122 316.0
1505.146729 280.0
