>compound MLS001142946-01!7-[2-[(4aS,8aS)-4a-hydroxy-1,3,4,5,6,7,8,8a-octahydroisoquinolin-2-yl]-2-oxoethoxy]-3,4,8-trimethylchromen-2-one
>formula C23H29NO5
>ionization [M+H]+
>parentmass 400.21347
#inchi InChI=1S/C23H29NO5/c1-14-15(2)22(26)29-21-16(3)19(8-7-18(14)21)28-13-20(25)24-11-10-23(27)9-5-4-6-17(23)12-24/h7-8,17,27H,4-6,9-13H2,1-3H3/t17-,23-/m0/s1
#inchikey UVEAGUHTRHTRJO
#Ion_Source LC-ESI
#Instrument qTof
#Compound_Source NIH Natural Product Library
#PI Dorrestein
#Data_Collector VVP/LMS
#Scan -1
#Precursor_MZ 400.212
#ExactMass 399.205
#Charge 1
#CAS_Number N/A
#Pubmed_ID N/A
#Smiles Cc1c(C)c2ccc(OCC(=O)N3CC[C@@]4(O)CCCC[C@H]4C3)c(C)c2oc1=O
#INCHI_AUX N/A
#Library_Class 1
#SpectrumID CCMSLIB00000080573
#IonMode Positive
#UpdateWorkflowName UPDATE-SINGLE-ANNOTATED-GOLD
#LibraryQualityString Gold
#TaskID b1d8e8f6646f4e71acdff9ca3d919d08
##Scan# 2017
#SpectrumFile p2-G10_GG10_01_18058.mzXML
#LibraryName NIH_Natural_Products_Library.mgf
#MQScore -1
#Organism NIH_Natural_Products_Library
#TIC_Query 0
#RT_Query -1
#MZErrorPPM -1
#SharedPeaks 0
#MassDiff 0
#LibMZ -1
#SpecMZ 400.212
#SpecCharge 0
#internalFilename spec-00000.mgf

>collision 10
95.052246 224.0
95.07299 908.0
95.123466 188.0
95.168121 56.0
95.1856 68.0
95.205017 68.0
95.224442 112.0
95.268883 164.0
95.33712 212.0
95.395432 72.0
95.514053 160.0
95.749565 200.0
95.815796 140.0
95.940529 220.0
96.034126 360.0
96.082001 672.0
96.19413 72.0
96.262466 132.0
96.285904 108.0
96.526276 168.0
96.553658 288.0
96.616249 72.0
96.637772 168.0
96.657341 40.0
96.712082 136.0
96.727798 180.0
96.907974 148.0
96.931488 152.0
97.047134 240.0
97.087227 452.0
97.123619 96.0
97.156967 128.0
97.2649 132.0
97.317909 164.0
97.345398 232.0
97.440041 176.0
97.718864 216.0
97.758224 164.0
97.795235 248.0
97.868454 200.0
97.945267 148.0
97.995384 272.0
98.039833 200.0
98.059593 164.0
98.093056 120.0
98.164032 188.0
98.268578 144.0
98.404762 188.0
98.420563 88.0
98.479805 212.0
98.507462 264.0
98.649742 60.0
98.705101 156.0
98.82972 208.0
98.994019 116.0
99.025703 44.0
99.04155 140.0
99.063339 152.0
99.148544 56.0
99.223869 100.0
99.380554 180.0
99.450012 140.0
99.495667 92.0
99.630714 184.0
99.713524 256.0
99.932922 172.0
100.012527 64.0
100.149918 216.0
100.21167 76.0
100.301353 196.0
100.315308 200.0
100.36116 236.0
100.448914 140.0
100.466866 176.0
100.528725 48.0
100.546684 72.0
100.75235 200.0
101.223358 232.0
101.248352 228.0
101.49691 48.0
101.57502 220.0
101.639336 148.0
101.691513 128.0
101.880264 240.0
101.912415 192.0
101.962654 152.0
102.014915 148.0
102.061157 176.0
102.083275 192.0
102.141602 176.0
102.167755 140.0
102.316681 144.0
102.497955 64.0
102.760078 188.0
102.841225 76.0
102.869057 176.0
103.056885 148.0
103.141121 164.0
103.188263 168.0
103.202415 104.0
103.226677 112.0
103.359673 204.0
103.566689 168.0
103.619362 188.0
103.777267 176.0
103.832207 60.0
103.925522 64.0
103.97625 176.0
104.057503 160.0
104.114304 144.0
104.13665 80.0
104.441536 180.0
104.626717 156.0
104.643005 156.0
104.69075 152.0
104.72039 176.0
104.759094 168.0
104.956787 136.0
104.987381 144.0
105.069183 3460.0
105.109779 156.0
105.166916 76.0
105.393608 48.0
105.514198 80.0
105.544868 152.0
105.688049 124.0
105.810852 132.0
106.069534 392.0
106.204315 156.0
106.362312 216.0
106.477295 116.0
106.520424 208.0
106.571793 164.0
106.592339 136.0
106.613403 120.0
106.641663 200.0
106.666328 212.0
106.705383 100.0
106.793816 144.0
106.816437 172.0
106.847298 128.0
106.870163 176.0
107.050217 188.0
107.08532 492.0
107.108742 152.0
107.403511 192.0
107.527306 192.0
107.570656 152.0
107.742058 240.0
108.010803 192.0
108.080612 12136.0
108.170135 36.0
108.244675 36.0
108.298515 40.0
108.429047 180.0
108.478798 80.0
108.520264 224.0
108.553436 164.0
108.567955 144.0
108.648849 196.0
108.916641 64.0
109.028839 160.0
109.051086 176.0
109.088837 5060.0
109.128418 164.0
109.205566 72.0
109.278374 220.0
109.326233 76.0
109.390755 176.0
109.443039 176.0
109.561523 80.0
109.6157 168.0
109.659462 88.0
109.69281 132.0
109.782471 200.0
109.828354 60.0
109.842957 116.0
109.968147 32.0
109.997307 176.0
110.097832 156.0
110.121895 88.0
110.138878 240.0
110.237198 324.0
110.314896 56.0
110.358803 76.0
110.440361 68.0
110.53241 148.0
110.578453 88.0
110.856995 100.0
110.903107 196.0
111.007927 188.0
111.072502 168.0
111.10022 156.0
111.167366 64.0
111.236626 80.0
111.445351 188.0
111.466393 180.0
111.594215 172.0
111.640289 164.0
111.943069 180.0
112.081284 124.0
112.117928 156.0
112.14743 84.0
112.20224 172.0
112.242302 200.0
112.299248 72.0
112.34565 116.0
112.400513 128.0
112.518707 192.0
112.546158 168.0
112.622185 128.0
112.717255 56.0
112.755295 160.0
113.061958 140.0
113.083885 176.0
113.127571 172.0
113.248268 64.0
113.322418 200.0
113.362679 160.0
113.496223 124.0
113.636215 252.0
113.704117 140.0
113.748695 76.0
113.776291 164.0
113.846794 184.0
113.92495 180.0
113.941948 180.0
114.097092 136.0
114.122604 80.0
114.211929 124.0
114.271492 200.0
114.298531 164.0
114.616432 148.0
114.671837 72.0
114.754974 208.0
114.850945 212.0
115.032326 144.0
115.053131 148.0
115.130539 148.0
115.213844 116.0
115.29718 204.0
115.382683 64.0
115.600853 180.0
115.707878 156.0
115.765694 40.0
115.892075 148.0
116.005669 148.0
116.05986 1292.0
116.213699 360.0
116.35965 76.0
116.409035 60.0
116.458435 168.0
116.475616 172.0
116.535767 168.0
116.572296 136.0
116.651825 120.0
116.752884 160.0
116.890564 176.0
116.920692 40.0
116.996025 168.0
117.06662 592.0
117.25882 132.0
117.278709 176.0
117.386017 64.0
117.506256 172.0
117.698914 156.0
117.78746 92.0
117.830666 52.0
117.854431 144.0
118.193909 108.0
118.462379 176.0
118.494881 140.0
118.789719 204.0
118.898209 140.0
118.939445 172.0
119.019775 72.0
119.048286 496.0
119.085732 624.0
119.189201 108.0
119.415298 160.0
119.511017 148.0
119.649185 188.0
119.860771 64.0
120.001091 148.0
120.046883 136.0
120.091522 1168.0
120.127579 192.0
120.145035 60.0
120.219223 148.0
120.258507 140.0
120.411339 156.0
120.446289 180.0
120.691063 164.0
120.823677 240.0
120.887932 48.0
120.975487 52.0
120.995186 164.0
121.066788 288.0
121.100754 2844.0
121.138962 52.0
121.172592 188.0
121.200089 128.0
121.222984 36.0
121.269012 192.0
121.297508 148.0
121.420296 88.0
121.523392 224.0
121.619247 112.0
121.769257 208.0
121.824173 64.0
121.973602 60.0
122.015373 72.0
122.058411 420.0
122.096977 6292.0
122.16597 92.0
122.396019 128.0
122.426849 104.0
122.479706 152.0
122.495125 76.0
122.644966 48.0
122.686852 196.0
122.757408 160.0
122.788284 220.0
122.98024 136.0
123.017761 124.0
123.035423 40.0
123.067528 332.0
123.09993 996.0
123.262924 128.0
123.287231 164.0
123.415443 48.0
123.565849 144.0
123.665428 200.0
123.849205 52.0
123.864708 132.0
123.904587 76.0
123.966629 128.0
124.078957 172.0
124.110527 152.0
124.21273 72.0
124.314796 80.0
124.361404 148.0
124.576797 156.0
124.687897 172.0
124.74791 44.0
125.090637 328.0
125.180321 208.0
125.217407 128.0
125.355537 136.0
125.533875 144.0
125.676636 216.0
125.7659 132.0
125.924431 212.0
126.000381 196.0
126.154587 148.0
126.369286 196.0
126.454323 176.0
126.523087 260.0
126.613281 144.0
126.758896 92.0
126.938232 208.0
126.965141 164.0
127.272583 164.0
127.30851 172.0
127.598373 48.0
127.692818 116.0
127.924583 164.0
127.947098 136.0
128.062683 492.0
128.113754 140.0
128.129517 180.0
128.161057 116.0
128.185852 128.0
128.314331 152.0
128.451889 152.0
128.519577 148.0
128.664032 164.0
128.70015 200.0
128.855118 216.0
128.901184 144.0
129.002899 220.0
129.069473 1508.0
129.120483 188.0
129.195129 76.0
129.444092 108.0
129.546021 144.0
129.57547 156.0
129.609451 120.0
129.681976 40.0
129.740921 96.0
129.847488 200.0
130.040344 164.0
130.077225 540.0
130.420944 160.0
130.62204 160.0
130.708496 220.0
130.751724 188.0
130.890594 228.0
130.990799 132.0
131.034088 152.0
131.051773 152.0
131.086044 5988.0
131.122955 68.0
131.179947 68.0
131.214142 52.0
131.312195 200.0
131.478745 128.0
131.526672 84.0
131.679657 80.0
131.711639 64.0
131.791595 176.0
131.855576 180.0
131.89444 188.0
132.049927 176.0
132.088974 732.0
132.141418 76.0
132.30162 164.0
132.45047 204.0
132.649841 124.0
132.835587 48.0
132.866165 180.0
132.924805 176.0
133.026489 352.0
133.063293 320.0
133.099258 572.0
133.179901 96.0
133.214355 180.0
133.24881 188.0
133.291809 152.0
133.302917 196.0
133.398193 212.0
133.524658 240.0
133.727127 128.0
133.745544 40.0
133.815002 140.0
133.833023 256.0
133.892899 144.0
133.920532 44.0
134.096176 104.0
134.397751 68.0
134.580093 168.0
134.621658 172.0
134.806473 156.0
134.903549 204.0
135.014526 196.0
135.042282 196.0
135.079926 828.0
135.10379 68.0
135.280624 208.0
135.50296 152.0
135.556244 112.0
135.62114 72.0
135.815918 180.0
135.979538 176.0
136.008163 132.0
136.07515 1464.0
136.112015 16852.0
136.187286 44.0
136.214264 124.0
136.256989 64.0
136.341721 120.0
136.391769 128.0
136.41037 112.0
136.508621 92.0
136.561508 212.0
136.580109 84.0
136.712738 208.0
136.731354 164.0
136.873352 176.0
136.898972 60.0
136.959534 200.0
136.987488 152.0
137.088486 184.0
137.119507 22680.0
137.215866 40.0
137.24852 48.0
137.283493 52.0
137.309143 220.0
137.35347 40.0
137.469086 80.0
137.612503 152.0
137.684891 68.0
137.745621 52.0
137.766647 184.0
137.811035 108.0
137.916199 132.0
138.00972 56.0
138.058731 108.0
138.094467 228.0
138.12709 10912.0
138.192154 72.0
138.22023 92.0
138.283417 80.0
138.326141 48.0
138.365356 60.0
138.440277 36.0
138.526947 40.0
138.54335 56.0
138.618317 68.0
138.653473 208.0
138.67926 120.0
138.822266 208.0
138.850418 136.0
138.871521 132.0
138.986481 96.0
139.066269 80.0
139.129852 744.0
139.185989 168.0
139.207123 84.0
139.265839 56.0
139.380112 220.0
139.411514 48.0
139.586441 68.0
139.707779 40.0
139.747772 148.0
139.79953 228.0
139.912521 160.0
139.999634 28.0
140.016129 128.0
140.051453 132.0
140.109695 232.0
140.129196 144.0
140.188721 136.0
140.235245 84.0
140.445099 104.0
140.586655 156.0
140.647873 136.0
140.707031 116.0
140.913483 88.0
141.067368 856.0
141.300262 108.0
141.572464 308.0
142.385925 40.0
142.73526 144.0
143.061646 156.0
143.082642 288.0
143.289856 160.0
143.368484 64.0
143.530594 124.0
144.054474 384.0
144.086533 160.0
144.179916 196.0
144.493164 120.0
144.746872 248.0
144.885788 72.0
145.065247 164.0
145.096695 468.0
145.115875 216.0
145.338943 152.0
145.360535 88.0
145.480545 196.0
145.521545 52.0
145.667267 176.0
145.711105 144.0
145.773575 168.0
146.070709 136.0
146.105392 144.0
146.158325 188.0
146.225708 156.0
146.278656 136.0
146.488159 156.0
146.608643 116.0
146.637558 152.0
146.690582 104.0
146.726746 168.0
146.799088 132.0
147.075577 312.0
147.623688 140.0
147.864487 144.0
147.912903 72.0
147.980682 96.0
148.087234 180.0
148.105743 188.0
148.293182 128.0
148.508972 28.0
148.909454 56.0
148.987198 64.0
149.062515 148.0
149.098114 344.0
149.145142 68.0
149.274002 200.0
149.488068 108.0
149.558655 140.0
149.923981 76.0
149.992233 140.0
150.091339 2480.0
150.127762 12532.0
150.158966 176.0
150.185776 140.0
150.316605 64.0
150.360535 84.0
150.433762 260.0
150.482452 72.0
150.548523 52.0
150.624237 140.0
150.675537 60.0
150.797714 36.0
150.834381 44.0
150.915054 44.0
150.946854 68.0
151.095856 368.0
151.134628 7416.0
151.237991 72.0
151.272247 192.0
151.492645 64.0
151.546555 44.0
151.644577 40.0
151.691147 48.0
151.720566 120.0
151.747528 204.0
151.790588 144.0
151.813736 132.0
151.845627 200.0
151.951111 52.0
152.012451 144.0
152.13826 604.0
152.189178 68.0
152.23584 32.0
152.265305 116.0
152.348831 36.0
152.405334 112.0
153.071945 152.0
153.101501 32.0
153.261612 48.0
153.390915 252.0
153.493317 104.0
153.532776 180.0
153.564835 132.0
153.747421 44.0
154.051117 128.0
154.085892 156.0
154.123154 1844.0
154.206787 56.0
154.600021 152.0
154.882278 132.0
154.904572 124.0
155.008636 64.0
155.063156 136.0
155.125275 192.0
155.14743 152.0
155.60144 172.0
155.832428 156.0
156.103363 180.0
156.245148 180.0
156.367081 84.0
156.603607 160.0
156.885193 172.0
156.937546 56.0
157.065186 340.0
157.276825 164.0
157.556519 128.0
157.62648 76.0
157.783951 52.0
157.966507 188.0
158.066162 144.0
158.072174 120.0
158.082352 172.0
158.106628 188.0
158.134155 160.0
158.387054 96.0
158.469727 196.0
158.921478 260.0
158.963699 200.0
159.017334 204.0
159.038986 284.0
159.08075 18024.0
159.1492 80.0
159.232315 60.0
159.352905 68.0
159.448395 68.0
159.507202 140.0
159.790924 184.0
159.880966 152.0
159.911163 68.0
160.083389 2144.0
160.127777 188.0
160.155396 96.0
160.188141 108.0
160.241058 240.0
160.359497 80.0
160.397293 52.0
160.444733 88.0
160.561188 92.0
160.601547 160.0
160.679749 196.0
160.706863 176.0
160.79834 44.0
160.853882 60.0
160.939713 60.0
160.967484 84.0
161.040726 128.0
161.060944 136.0
161.097382 2192.0
161.202423 192.0
161.241302 116.0
161.275711 52.0
161.361664 96.0
161.412231 32.0
161.725937 196.0
161.75885 44.0
161.781631 48.0
161.870255 48.0
161.951294 44.0
162.067825 232.0
162.099945 264.0
162.12738 160.0
162.23764 136.0
162.976212 196.0
163.069458 152.0
163.108871 220.0
163.235489 108.0
164.042587 176.0
164.105591 1592.0
164.389465 172.0
164.409027 120.0
164.514542 120.0
165.074097 92.0
165.114227 328.0
165.624344 124.0
166.273041 204.0
166.401382 76.0
166.473282 204.0
166.576019 208.0
166.761032 144.0
166.946136 156.0
167.072174 136.0
167.399063 188.0
167.999603 100.0
168.107971 216.0
168.138153 1236.0
168.44104 164.0
168.474625 120.0
168.766678 188.0
169.077423 188.0
169.114487 152.0
169.141388 224.0
169.351547 40.0
169.608063 60.0
170.085342 152.0
170.241119 252.0
170.430756 172.0
170.547699 132.0
170.93782 128.0
171.078094 204.0
171.325775 40.0
171.456055 168.0
171.60463 176.0
172.395554 152.0
172.62561 120.0
172.871506 132.0
172.96312 148.0
173.059982 172.0
173.097748 324.0
173.382187 188.0
174.068512 696.0
174.111526 200.0
174.355865 260.0
174.521469 136.0
175.076385 412.0
175.337524 40.0
175.675034 172.0
175.983826 56.0
176.084747 1152.0
176.139633 60.0
177.004486 68.0
177.08374 336.0
177.192535 132.0
177.378052 148.0
177.51326 52.0
177.87941 240.0
178.089966 148.0
178.122833 3548.0
178.280472 116.0
178.356689 404.0
178.442612 44.0
178.538345 124.0
178.618134 88.0
178.667847 128.0
178.795242 120.0
178.84964 224.0
178.922989 216.0
179.021698 192.0
179.078613 112.0
179.130295 24116.0
179.170044 204.0
179.206497 76.0
179.307755 52.0
179.329071 88.0
179.401047 84.0
179.475693 44.0
179.510513 72.0
179.590378 48.0
179.670395 52.0
179.927811 152.0
180.004044 48.0
180.133102 3424.0
180.16272 216.0
180.268509 44.0
180.488876 164.0
180.570602 56.0
180.6241 52.0
180.715057 92.0
180.736465 44.0
181.038956 148.0
181.137314 336.0
181.270233 156.0
181.347061 56.0
181.556183 104.0
181.663467 96.0
182.090256 172.0
182.117859 144.0
182.420761 108.0
182.444962 184.0
182.560577 92.0
182.711197 48.0
182.929184 100.0
183.124527 308.0
183.400589 32.0
184.004852 128.0
184.127075 380.0
184.620941 60.0
185.132431 216.0
185.720551 148.0
185.804657 80.0
186.179245 156.0
186.842484 212.0
187.075943 892.0
187.643188 44.0
187.956863 188.0
188.074219 96.0
188.500275 172.0
188.554932 160.0
188.656067 176.0
188.779099 168.0
189.046448 244.0
189.091064 5652.0
189.186783 32.0
189.345596 156.0
189.663437 68.0
189.693588 52.0
189.921173 84.0
190.092773 1048.0
190.12146 52.0
190.168121 88.0
190.190079 204.0
190.838425 68.0
191.095245 128.0
191.112534 140.0
191.229065 60.0
191.463074 112.0
191.51265 72.0
191.686218 188.0
192.685059 56.0
193.462204 104.0
193.955276 120.0
194.521164 44.0
195.19075 56.0
195.9534 180.0
196.017487 60.0
196.130768 380.0
196.597534 180.0
196.963287 120.0
197.038712 96.0
197.14769 136.0
197.382507 96.0
200.078888 88.0
201.087204 160.0
201.52858 220.0
201.737717 112.0
201.845169 52.0
202.083206 128.0
202.198776 192.0
203.072052 272.0
204.079483 1032.0
204.233124 32.0
204.460739 48.0
204.625839 140.0
204.813797 76.0
205.04744 140.0
205.083984 1932.0
205.150055 108.0
206.095337 484.0
206.231918 128.0
206.283371 152.0
207.104614 168.0
207.540222 84.0
207.959061 112.0
211.032867 160.0
211.985199 216.0
212.246094 52.0
212.49263 160.0
213.532593 184.0
213.701309 124.0
214.132141 136.0
215.080948 328.0
215.18457 124.0
215.195175 112.0
215.687332 48.0
216.032394 116.0
216.10553 64.0
216.664749 232.0
216.787811 96.0
216.861084 236.0
216.95488 164.0
217.086288 22352.0
217.180679 44.0
217.251083 48.0
217.289215 76.0
217.314911 148.0
217.337921 120.0
217.376541 64.0
217.459412 32.0
217.479965 64.0
217.521057 80.0
217.653809 56.0
217.717239 88.0
217.747147 44.0
217.961594 88.0
217.999115 68.0
218.024506 132.0
218.089615 2920.0
218.182175 92.0
218.22908 60.0
218.311417 44.0
218.36142 76.0
218.453445 124.0
218.490845 52.0
218.555573 52.0
218.84108 76.0
218.973602 52.0
219.089478 656.0
219.12973 44.0
219.19455 60.0
219.383179 108.0
219.409714 100.0
219.456879 32.0
219.486374 144.0
219.515854 116.0
219.678085 60.0
219.722336 60.0
219.796188 88.0
219.834457 40.0
219.893478 72.0
220.085373 192.0
220.626053 76.0
221.152588 72.0
221.438019 60.0
221.69162 48.0
222.050339 108.0
222.260971 52.0
223.964478 36.0
224.220718 208.0
224.360809 56.0
224.512878 176.0
224.653061 96.0
225.247116 52.0
225.617676 76.0
226.248932 124.0
227.068787 192.0
227.547089 76.0
228.111893 176.0
229.083878 116.0
229.89798 112.0
230.039841 104.0
230.115311 112.0
230.647003 56.0
230.743744 32.0
231.062531 208.0
231.594101 100.0
232.094147 140.0
232.946976 56.0
234.206314 28.0
236.046631 64.0
236.230148 32.0
237.161346 192.0
237.682388 80.0
240.165115 160.0
240.618744 60.0
241.193344 88.0
242.307419 196.0
242.629745 112.0
244.085938 184.0
244.670898 64.0
244.994781 112.0
245.041519 28.0
245.080627 2708.0
245.309525 40.0
245.624481 36.0
246.083023 220.0
246.108215 276.0
246.311218 60.0
246.511169 104.0
246.967636 108.0
247.014557 128.0
247.079529 140.0
247.120926 144.0
247.897476 96.0
247.92569 36.0
248.210953 92.0
249.85994 132.0
250.987518 192.0
251.123123 128.0
251.937531 88.0
253.095108 72.0
253.126785 80.0
254.16333 152.0
257.094147 164.0
257.751984 88.0
257.851044 96.0
258.114777 152.0
258.250702 80.0
259.124634 176.0
260.639099 80.0
261.993652 172.0
262.070953 116.0
262.105835 2024.0
262.525482 60.0
262.65448 64.0
262.780304 116.0
263.113495 468.0
263.859039 28.0
264.311859 68.0
265.07605 120.0
269.181335 120.0
270.129181 84.0
274.107361 432.0
275.111145 120.0
275.970123 84.0
276.032959 84.0
276.115631 228.0
281.312469 64.0
283.560242 180.0
286.103058 152.0
286.618378 140.0
288.111023 376.0
288.16037 144.0
290.119934 104.0
290.78476 32.0
291.661072 92.0
293.161896 116.0
297.128448 44.0
298.141418 188.0
299.1492 132.0
302.127441 124.0
305.530792 40.0
305.576019 104.0
307.004181 92.0
308.135132 148.0
311.173035 136.0
312.169617 188.0
312.194214 176.0
313.74704 108.0
315.759766 156.0
317.353302 52.0
318.819336 60.0
319.075287 76.0
319.327759 132.0
321.201294 108.0
325.391968 92.0
325.424255 84.0
327.99292 164.0
330.365417 140.0
330.629547 124.0
331.476959 88.0
338.599152 76.0
341.873932 92.0
344.480713 64.0
346.541382 52.0
348.771759 96.0
352.077332 96.0
352.315613 160.0
353.167908 100.0
353.205292 116.0
354.137329 164.0
354.205383 2928.0
354.335846 28.0
354.523224 60.0
354.583435 56.0
354.62439 52.0
355.210663 960.0
355.258118 96.0
356.12146 40.0
356.212769 328.0
356.839233 32.0
357.211548 108.0
357.298065 60.0
359.162781 100.0
361.630127 160.0
361.940552 132.0
364.052734 88.0
364.238831 172.0
366.780701 92.0
367.100952 156.0
368.177124 148.0
370.656036 56.0
372.105896 72.0
374.262909 116.0
378.324554 64.0
378.746643 152.0
381.093719 88.0
381.144226 48.0
381.941223 40.0
382.131836 148.0
382.200684 3252.0
382.447052 56.0
382.633911 52.0
382.680634 44.0
382.992188 92.0
383.204132 708.0
383.765442 76.0
384.205658 516.0
384.883636 72.0
386.063782 60.0
386.916779 128.0
392.578888 64.0
395.367981 88.0
398.115326 88.0
400.21347 132.0
405.740601 80.0
409.344727 68.0
427.538696 32.0
430.189026 64.0
443.450195 92.0
445.166077 132.0
446.817963 144.0
448.316986 20.0
458.974121 76.0
485.655731 72.0
493.459198 100.0
493.751038 84.0
560.196533 72.0
561.988098 20.0
563.036072 108.0
569.040344 104.0
592.024231 72.0
596.366455 40.0
597.65033 144.0
616.520264 160.0
651.065735 236.0
654.325134 72.0
715.865356 156.0
762.67511 156.0
776.905518 100.0
785.210205 32.0
809.05249 176.0
809.244995 36.0
813.497009 196.0
816.406067 108.0
823.912903 92.0
838.868164 136.0
842.671326 148.0
860.940002 48.0
861.623413 84.0
872.142151 148.0
873.99469 172.0
875.890381 172.0
880.886658 184.0
884.843018 172.0
886.572632 124.0
889.134583 76.0
893.043945 180.0
898.953979 200.0
901.061707 180.0
911.451172 184.0
912.03418 164.0
912.370789 232.0
915.478149 196.0
916.144104 220.0
917.059998 48.0
923.94397 180.0
929.918762 92.0
941.071045 172.0
941.663391 160.0
942.769226 124.0
946.476196 76.0
947.437805 164.0
947.529663 164.0
953.65387 164.0
955.85553 212.0
957.493042 156.0
959.421692 208.0
964.959534 156.0
965.39856 156.0
971.31958 200.0
972.479919 168.0
979.630737 208.0
982.641907 72.0
984.907959 120.0
984.957947 108.0
985.2453 36.0
985.670166 220.0
985.888855 56.0
989.1521 184.0
994.111328 224.0
995.850342 168.0
1002.840637 132.0
1002.928833 136.0
1004.416931 176.0
1005.104614 60.0
1006.044983 176.0
1008.666565 208.0
1009.267151 88.0
1010.557495 168.0
1010.829529 64.0
1014.655212 224.0
1016.818298 108.0
1017.249878 120.0
1020.089417 148.0
1024.588623 168.0
1027.802002 228.0
1027.974365 128.0
1031.001343 236.0
1032.785034 236.0
1034.756104 204.0
1036.158691 152.0
1044.677734 160.0
1050.985107 144.0
1061.40564 200.0
1063.858032 168.0
1064.364502 152.0
1069.005737 200.0
1070.197021 180.0
1070.906738 68.0
1071.349731 56.0
1071.532104 136.0
1072.033813 156.0
1074.328979 144.0
1076.169434 128.0
1076.293457 156.0
1077.828491 236.0
1080.234375 192.0
1080.973755 156.0
1082.695435 216.0
1083.225952 220.0
1087.730835 176.0
1087.986938 136.0
1092.804321 88.0
1097.823608 144.0
1098.964844 96.0
1099.334351 128.0
1099.67749 188.0
1100.139526 176.0
1100.423462 244.0
1103.244507 132.0
1104.342163 216.0
1104.911011 176.0
1109.911621 164.0
1114.923462 64.0
1118.461792 200.0
1120.306396 124.0
1123.286133 252.0
1123.773193 172.0
1126.203125 152.0
1129.605469 196.0
1134.038086 136.0
1134.467041 228.0
1137.660278 188.0
1138.163818 180.0
1138.795166 188.0
1139.648315 180.0
1142.095337 176.0
1143.030396 152.0
1145.009644 172.0
1145.151001 156.0
1146.424316 152.0
1147.664673 176.0
1149.769287 172.0
1150.012329 176.0
1150.403809 124.0
1151.241089 52.0
1152.119141 72.0
1155.851196 180.0
1156.149048 164.0
1156.426514 164.0
1157.276978 120.0
1158.42395 184.0
1158.471436 208.0
1159.96228 172.0
1161.820312 216.0
1164.528687 68.0
1166.703125 84.0
1167.845581 152.0
1169.165405 164.0
1170.710815 112.0
1171.712036 116.0
1173.238647 168.0
1173.647705 248.0
1178.452881 108.0
1179.614624 148.0
1179.860718 160.0
1180.023438 96.0
1180.7771 152.0
1181.625244 188.0
1182.747559 244.0
1185.953125 224.0
1186.158691 164.0
1186.220459 52.0
1188.003418 180.0
1188.689453 128.0
1189.012085 204.0
1190.275146 116.0
1192.356689 216.0
1194.412476 176.0
1194.550049 200.0
1195.010986 192.0
1195.595825 164.0
1195.960693 172.0
1196.490723 128.0
1199.508057 192.0
1199.790649 184.0
1199.976807 168.0
1202.177124 160.0
1204.075684 200.0
1204.766357 188.0
1205.12561 212.0
1205.84436 180.0
1205.947998 128.0
1208.27832 248.0
1209.932373 132.0
1211.421387 136.0
1214.06897 272.0
1216.643188 136.0
1219.630249 200.0
1219.727539 184.0
1224.403198 148.0
1225.078735 188.0
1226.932495 164.0
1227.037109 208.0
1229.080688 120.0
1230.518555 160.0
1232.683838 128.0
1232.746704 204.0
1234.011841 192.0
1234.256592 160.0
1234.662109 188.0
1235.543457 144.0
1236.180176 116.0
1239.98999 156.0
1240.859131 228.0
1242.654663 152.0
1244.683105 200.0
1245.03418 144.0
1246.200317 208.0
1247.690186 248.0
1249.828369 48.0
1252.609253 48.0
1253.215088 224.0
1253.842285 156.0
1254.948975 160.0
1255.391968 160.0
1256.93103 228.0
1257.763794 128.0
1258.215576 132.0
1260.46167 172.0
1261.125977 132.0
1262.2854 160.0
1264.308594 132.0
1267.962891 148.0
1268.345581 96.0
1268.678833 184.0
1270.558105 176.0
1271.807007 192.0
1272.55957 204.0
1274.711792 204.0
1275.429565 128.0
1276.94397 140.0
1278.302856 76.0
1278.786743 160.0
1279.54126 184.0
1279.982788 160.0
1281.022583 216.0
1282.618774 172.0
1284.173096 136.0
1284.472656 132.0
1284.793701 172.0
1285.542847 224.0
1285.921143 184.0
1286.399414 104.0
1287.920288 228.0
1288.656128 132.0
1289.520752 68.0
1289.749512 212.0
1290.056885 216.0
1290.528687 140.0
1291.150879 152.0
1292.40271 176.0
1292.567261 180.0
1293.791138 132.0
1294.005981 164.0
1294.449829 224.0
1294.829468 164.0
1295.144531 188.0
1295.52417 176.0
1296.541626 104.0
1297.215454 200.0
1298.326782 180.0
1298.384155 148.0
1298.549072 244.0
1298.671021 132.0
1298.850342 44.0
1299.82605 140.0
1300.558105 168.0
1301.067749 204.0
1302.848755 112.0
1303.560059 216.0
1304.595093 132.0
1304.738892 224.0
1306.385742 184.0
1307.227539 140.0
1307.758667 216.0
1308.27832 152.0
1309.459229 56.0
1310.410034 168.0
1311.130615 176.0
1311.462158 160.0
1311.728882 288.0
1313.062744 156.0
1313.596558 88.0
1314.303589 168.0
1314.700439 180.0
1316.230835 172.0
1316.851929 64.0
1317.119141 184.0
1318.390747 64.0
1318.614746 204.0
1318.802612 176.0
1319.062866 160.0
1321.543457 268.0
1322.614502 88.0
1322.781006 216.0
1323.497681 156.0
1324.453613 176.0
1326.294067 212.0
1327.127808 176.0
1329.434448 248.0
1329.586914 80.0
1329.732056 152.0
1330.051392 180.0
1330.995239 156.0
1331.750488 48.0
1332.404175 196.0
1332.505981 164.0
1332.665771 160.0
1333.479614 136.0
1334.206543 176.0
1334.351929 156.0
1335.290039 172.0
1335.675537 204.0
1336.344727 212.0
1336.41748 132.0
1336.679443 44.0
1336.897827 60.0
1337.429077 152.0
1338.979858 100.0
1339.060059 148.0
1339.263916 140.0
1339.795654 160.0
1341.706299 248.0
1343.367798 120.0
1343.564819 128.0
1343.798218 80.0
1344.272583 192.0
1345.403809 68.0
1347.361084 120.0
1347.536377 48.0
1347.660645 64.0
1347.719116 112.0
1348.464478 116.0
1349.166138 104.0
1350.255615 116.0
1351.396851 172.0
1351.865112 196.0
1352.260254 200.0
1353.797729 56.0
1354.010132 148.0
1355.050293 204.0
1355.233398 220.0
1355.848999 200.0
1356.435303 100.0
1358.136475 172.0
1358.253784 64.0
1359.978149 196.0
1360.213013 152.0
1360.330444 152.0
1360.704834 176.0
1361.027954 144.0
1361.748901 240.0
1362.092896 176.0
1362.445435 152.0
1362.709961 52.0
1363.69458 124.0
1366.614014 128.0
1368.100708 180.0
1371.002808 48.0
1371.268066 192.0
1373.723511 140.0
1373.841553 148.0
1376.321289 168.0
1377.776367 168.0
1379.106445 156.0
1379.350342 160.0
1379.597778 192.0
1379.97876 140.0
1380.762573 128.0
1381.442993 144.0
1382.989502 156.0
1383.255981 164.0
1383.463257 184.0
1383.566895 204.0
1385.996216 120.0
1387.485962 236.0
1390.341675 132.0
1390.675659 180.0
1391.417969 52.0
1392.012085 56.0
1393.557007 152.0
1393.943359 180.0
1394.44873 164.0
1395.712524 140.0
1395.987671 152.0
1397.095825 172.0
1398.978638 188.0
1400.080566 156.0
1400.311523 84.0
1400.758423 56.0
1401.063843 164.0
1401.630127 140.0
1401.935547 208.0
1402.032471 48.0
1402.740601 112.0
1403.254883 132.0
1404.709229 184.0
1405.007568 184.0
1405.447754 180.0
1405.656738 104.0
1406.462769 44.0
1407.433228 196.0
1408.695435 120.0
1410.062744 196.0
1412.762085 256.0
1413.330688 128.0
1413.592529 60.0
1414.565552 212.0
1415.898315 156.0
1415.980713 128.0
1416.61731 124.0
1417.891113 128.0
1418.520752 160.0
1418.70813 148.0
1419.892822 152.0
1420.497559 224.0
1420.5979 120.0
1423.720337 88.0
1423.893066 144.0
1424.11084 120.0
1424.666626 152.0
1425.016846 196.0
1425.925171 216.0
1426.868652 140.0
1427.019043 80.0
1427.342285 180.0
1427.567871 228.0
1427.81604 104.0
1428.192139 156.0
1430.856079 160.0
1431.345459 140.0
1431.593994 156.0
1433.288818 200.0
1433.650513 132.0
1434.788696 248.0
1435.097778 128.0
1435.504395 256.0
1437.188232 176.0
1437.526611 60.0
1438.379517 104.0
1438.681396 116.0
1439.157104 192.0
1439.519531 44.0
1440.055664 192.0
1440.531616 140.0
1441.264404 184.0
1441.445801 40.0
1441.506226 104.0
1441.884033 192.0
1442.48877 172.0
1443.146484 204.0
1443.743896 180.0
1444.530396 200.0
1445.703247 180.0
1445.778809 220.0
1446.369263 248.0
1447.042969 84.0
1447.141357 124.0
1447.489746 128.0
1447.739624 236.0
1448.156128 156.0
1448.24707 136.0
1448.421265 188.0
1448.868164 192.0
1449.140869 188.0
1449.23938 184.0
1450.141235 40.0
1450.849121 260.0
1451.126709 136.0
1454.335571 176.0
1454.699829 44.0
1454.980713 128.0
1455.610962 164.0
1455.899536 64.0
1455.998291 208.0
1457.190796 168.0
1458.269897 172.0
1459.334106 132.0
1459.455811 200.0
1459.858765 212.0
1460.223877 184.0
1463.412231 180.0
1464.530884 176.0
1464.630737 144.0
1465.057373 200.0
1467.679077 212.0
1469.959106 204.0
1471.852905 124.0
1472.043823 44.0
1472.540161 192.0
1473.05957 188.0
1475.90564 240.0
1476.843262 160.0
1477.118652 160.0
1477.524048 112.0
1478.296875 100.0
1479.085205 180.0
1479.429688 228.0
1480.057495 176.0
1481.635254 148.0
1482.08728 220.0
1482.861206 216.0
1483.014526 132.0
1483.328735 236.0
1483.811768 188.0
1485.544922 220.0
1486.13562 132.0
1487.670532 116.0
1488.138916 148.0
1489.797729 224.0
1490.138184 216.0
1490.512329 80.0
1491.173218 176.0
1491.334595 196.0
1493.588867 200.0
1493.856689 120.0
1493.987427 164.0
1494.064453 160.0
1494.17981 188.0
1494.372192 176.0
1495.626465 180.0
1497.381958 44.0
1497.451294 144.0
1498.11377 196.0
1499.092285 128.0
1500.43335 184.0
1500.780396 164.0
1501.096436 128.0
1501.350952 128.0
1501.89856 156.0
1502.409912 240.0
1502.592896 40.0
1503.063477 144.0
1503.202393 152.0
1503.450195 152.0
1503.866089 124.0
1504.004028 148.0
