>compound MLS001159066-01!3-(5-hydroxy-1H-indol-3-yl)-2-[2-(6-oxobenzo[c]chromen-3-yl)oxypropanoylamino]propanoic acid
>formula C27H22N2O7
>ionization [M+H]+
>parentmass 487.151
#inchi InChI=1S/C27H22N2O7/c1-14(35-17-7-8-19-18-4-2-3-5-20(18)27(34)36-24(19)12-17)25(31)29-23(26(32)33)10-15-13-28-22-9-6-16(30)11-21(15)22/h2-9,11-14,23,28,30H,10H2,1H3,(H,29,31)(H,32,33)
#inchikey MDKAWFIEKHSDSV
#Ion_Source LC-ESI
#Instrument qTof
#Compound_Source NIH Natural Product Library
#PI Dorrestein
#Data_Collector VVP/LMS
#Scan -1
#Precursor_MZ 487.151
#ExactMass 486.143
#Charge 1
#CAS_Number N/A
#Pubmed_ID N/A
#Smiles CC(Oc1ccc2c(c1)oc(=O)c3ccccc32)C(=O)NC(Cc4c[nH]c5ccc(O)cc45)C(=O)O
#INCHI_AUX N/A
#Library_Class 1
#SpectrumID CCMSLIB00000079688
#IonMode Positive
#UpdateWorkflowName UPDATE-SINGLE-ANNOTATED-GOLD
#LibraryQualityString Gold
#TaskID b1d8e8f6646f4e71acdff9ca3d919d08
##Scan# 1957
#SpectrumFile p1-G09-2_GG9_01_17969.mzXML
#LibraryName NIH_Natural_Products_Library.mgf
#MQScore -1
#Organism NIH_Natural_Products_Library
#TIC_Query 0
#RT_Query -1
#MZErrorPPM -1
#SharedPeaks 0
#MassDiff 0
#LibMZ -1
#SpecMZ 487.151
#SpecCharge 0
#internalFilename spec-00000.mgf

>collision 10
95.010208 136.0
95.103577 72.0
95.121048 160.0
95.134636 192.0
95.282234 168.0
95.40078 176.0
95.589111 212.0
95.616692 188.0
95.858177 184.0
96.04924 200.0
96.238541 156.0
96.347916 164.0
96.52578 140.0
97.189812 116.0
97.26046 148.0
97.505981 172.0
97.749832 112.0
97.799034 136.0
97.891563 228.0
97.993996 192.0
98.220703 200.0
98.700615 220.0
98.975662 128.0
98.997444 180.0
99.120262 136.0
99.243156 144.0
99.389938 164.0
99.489174 72.0
100.330696 160.0
100.448357 172.0
100.570076 148.0
100.971672 100.0
101.081696 188.0
101.231834 52.0
101.460251 48.0
102.120903 48.0
102.199364 204.0
102.32415 172.0
102.446999 144.0
102.469162 140.0
102.642502 140.0
102.670738 188.0
102.803886 200.0
102.836174 232.0
103.052986 344.0
103.321152 32.0
103.381851 116.0
103.483063 116.0
103.614708 140.0
103.935059 108.0
103.995941 64.0
104.058876 136.0
104.171501 156.0
104.357544 184.0
104.37381 88.0
104.666824 124.0
104.723846 156.0
104.754402 172.0
104.821632 172.0
105.315346 160.0
105.364372 288.0
105.425674 56.0
105.589226 168.0
105.607635 84.0
105.648544 188.0
105.76519 160.0
106.064247 160.0
106.717079 124.0
106.834305 52.0
106.875458 164.0
106.961891 188.0
107.052483 180.0
107.079254 60.0
107.41317 168.0
107.636063 80.0
107.691826 132.0
108.272995 192.0
108.828743 188.0
108.891045 172.0
108.978287 164.0
109.001144 76.0
109.053101 352.0
109.215286 148.0
109.265205 160.0
109.458778 180.0
109.767181 164.0
110.107346 192.0
110.174187 164.0
110.203438 108.0
110.982063 200.0
111.054123 156.0
111.290504 96.0
111.3283 164.0
111.448036 48.0
111.660355 208.0
112.201996 88.0
112.245796 116.0
112.460983 184.0
112.67849 100.0
113.17765 172.0
113.631226 164.0
113.809517 128.0
113.905083 144.0
114.089966 144.0
114.226067 152.0
114.443146 32.0
114.641243 188.0
114.935516 132.0
115.05291 200.0
115.249397 156.0
115.349846 96.0
115.630051 152.0
115.674995 80.0
116.050201 208.0
116.681137 136.0
117.058403 320.0
117.18261 140.0
117.2257 176.0
117.396004 132.0
117.542694 112.0
117.74778 188.0
117.931427 168.0
117.946556 152.0
118.065712 748.0
118.182289 200.0
118.446404 172.0
118.483231 152.0
118.515732 164.0
118.749863 140.0
118.890884 44.0
119.021126 152.0
119.042839 152.0
119.068901 176.0
119.192726 232.0
119.271317 200.0
119.379677 80.0
119.514542 152.0
119.995895 168.0
120.054771 148.0
120.078758 224.0
120.609329 80.0
120.714272 176.0
121.020615 140.0
121.051598 160.0
121.208984 60.0
121.270348 156.0
121.562035 132.0
121.603737 84.0
121.796951 132.0
121.963951 148.0
122.05867 352.0
122.078278 156.0
122.164055 188.0
122.219055 172.0
122.247665 168.0
122.738892 120.0
123.047791 156.0
123.074287 188.0
123.589302 96.0
123.985687 240.0
124.054398 204.0
124.218498 204.0
124.507042 140.0
124.538132 268.0
124.631439 156.0
125.125206 148.0
125.339027 144.0
125.53965 200.0
125.648949 208.0
125.782845 172.0
125.961288 184.0
126.208443 20.0
126.594444 160.0
126.726601 180.0
126.903671 72.0
126.991127 188.0
127.051689 200.0
127.707619 120.0
127.982178 188.0
128.057938 256.0
128.119568 96.0
128.663071 136.0
129.028839 200.0
129.065811 132.0
129.524658 96.0
129.624344 196.0
129.778763 164.0
129.898682 176.0
129.93045 144.0
130.018936 164.0
130.065369 992.0
130.350494 116.0
130.464142 156.0
130.725708 100.0
130.941986 160.0
131.003479 80.0
131.048645 1616.0
131.078674 168.0
131.096909 168.0
131.263321 240.0
131.302078 164.0
131.73584 136.0
131.950592 116.0
132.026047 164.0
132.052307 332.0
132.079285 272.0
132.19075 72.0
132.273148 172.0
132.369308 136.0
132.39679 64.0
132.417404 192.0
132.653412 160.0
132.777222 168.0
132.807037 156.0
132.839157 252.0
133.053192 616.0
133.204147 200.0
133.496521 172.0
133.638657 192.0
133.977097 104.0
134.0578 3112.0
134.113052 152.0
134.355179 112.0
134.424408 140.0
134.440552 192.0
134.662186 188.0
134.93718 136.0
135.062057 120.0
135.101379 168.0
135.555191 124.0
135.933182 100.0
136.702362 152.0
136.830383 56.0
136.946808 64.0
136.970108 196.0
137.343063 176.0
137.506378 116.0
138.191071 164.0
138.371292 144.0
138.60083 312.0
138.668793 44.0
138.750824 120.0
138.809448 168.0
138.832901 172.0
138.968948 120.0
139.008835 232.0
139.053146 1504.0
139.076904 180.0
139.370453 132.0
139.69725 172.0
139.71608 124.0
139.993362 164.0
140.051453 180.0
140.109238 216.0
140.34256 168.0
140.712997 196.0
140.951553 92.0
141.031906 160.0
141.067352 376.0
141.12883 152.0
141.611603 144.0
141.758484 60.0
141.796402 220.0
142.049576 180.0
142.071976 180.0
142.351532 144.0
142.403778 80.0
142.429901 140.0
142.505936 52.0
142.820938 268.0
143.085663 192.0
143.193405 116.0
143.777527 184.0
144.056885 168.0
144.078384 124.0
144.393906 112.0
144.506332 196.0
144.67865 208.0
144.913788 180.0
145.002029 252.0
145.026001 156.0
145.051743 184.0
145.136276 140.0
145.229797 204.0
145.291061 224.0
145.522568 112.0
145.577805 88.0
145.658081 180.0
145.909393 144.0
145.947861 188.0
146.015335 204.0
146.058792 18492.0
146.101791 128.0
146.125839 172.0
146.164337 188.0
146.205261 56.0
146.250977 88.0
146.284683 92.0
146.315979 116.0
146.352097 92.0
146.388214 28.0
146.508636 80.0
146.602615 68.0
146.621887 36.0
146.667694 32.0
146.737595 40.0
146.976379 180.0
147.061478 1548.0
147.094635 188.0
147.12915 164.0
147.253998 104.0
147.297485 100.0
147.519791 204.0
147.565735 104.0
147.860352 176.0
147.950409 124.0
148.02063 44.0
148.0728 1984.0
148.124863 96.0
148.140152 80.0
148.170792 88.0
148.22168 160.0
148.267715 88.0
148.289536 36.0
148.321045 56.0
148.345291 104.0
148.490768 148.0
148.625671 204.0
148.745544 84.0
149.046692 208.0
149.076263 516.0
149.394363 176.0
149.647476 68.0
149.803345 140.0
150.073868 32.0
150.158295 148.0
150.552139 100.0
150.649841 136.0
150.934479 156.0
150.979813 212.0
151.001831 80.0
151.049469 136.0
151.307709 184.0
151.327301 68.0
151.552628 176.0
151.672714 104.0
151.974365 208.0
152.06015 1572.0
152.217361 96.0
152.531845 136.0
152.920471 108.0
153.011566 128.0
153.070114 648.0
153.479385 160.0
154.065231 560.0
154.096756 100.0
154.400803 160.0
154.472534 124.0
154.571808 160.0
154.925552 132.0
154.989975 176.0
155.082703 1016.0
155.200653 44.0
155.471039 256.0
155.518204 32.0
155.64978 56.0
156.042358 108.0
156.078278 696.0
156.184113 124.0
156.256256 204.0
156.447876 68.0
156.764206 172.0
156.80159 188.0
156.986069 88.0
157.020981 164.0
157.04776 396.0
157.052124 140.0
157.077438 228.0
157.120758 172.0
157.754135 52.0
157.807587 52.0
157.987869 232.0
158.058075 4828.0
158.088638 156.0
158.130295 44.0
158.165329 44.0
158.197876 44.0
158.385681 92.0
158.434143 196.0
158.540314 156.0
158.673874 148.0
158.882034 160.0
158.959808 144.0
159.063019 848.0
159.158112 56.0
159.218384 64.0
159.333939 60.0
159.494766 140.0
159.552582 184.0
159.675797 224.0
159.837631 144.0
159.924881 168.0
159.990326 188.0
160.038345 216.0
160.073853 1696.0
160.759094 168.0
160.887817 80.0
161.044373 124.0
161.078537 840.0
161.127747 48.0
161.418411 32.0
161.639877 116.0
161.754913 196.0
161.891632 128.0
162.05336 4128.0
162.084152 204.0
162.555801 56.0
162.614182 84.0
162.86554 68.0
162.954453 48.0
163.05571 508.0
163.09169 224.0
163.122192 68.0
163.279831 84.0
163.417191 196.0
163.582611 176.0
163.791428 92.0
163.819443 156.0
163.893326 124.0
163.946838 60.0
164.064056 348.0
164.268112 144.0
164.29361 112.0
164.518188 52.0
164.947357 180.0
165.067596 1104.0
165.466675 172.0
165.968857 124.0
166.066345 224.0
166.906082 220.0
167.047791 2004.0
167.084229 1708.0
167.173615 148.0
167.416351 96.0
167.526352 72.0
167.758286 56.0
167.887207 132.0
168.050537 828.0
168.084534 708.0
168.248444 100.0
168.436951 80.0
168.571304 128.0
168.891891 60.0
169.036774 100.0
169.059433 300.0
169.089523 212.0
169.557297 96.0
169.746552 172.0
170.059723 600.0
170.136963 144.0
170.229218 156.0
170.418839 176.0
170.447418 156.0
170.587769 232.0
170.677979 120.0
170.735962 152.0
170.980515 128.0
171.04393 636.0
171.07608 2460.0
171.918716 104.0
172.075287 796.0
172.106659 176.0
172.153671 184.0
172.644974 52.0
172.849014 164.0
173.047943 152.0
173.074661 1088.0
173.136978 156.0
173.970795 184.0
174.077438 4768.0
174.172989 52.0
174.201889 124.0
174.270187 56.0
174.296463 228.0
174.425247 108.0
174.477814 128.0
174.822388 64.0
174.99086 132.0
175.027725 140.0
175.084335 7016.0
175.156769 32.0
175.22789 60.0
175.262024 88.0
175.270981 136.0
175.31749 72.0
175.335938 72.0
175.362289 108.0
175.380737 32.0
175.425552 88.0
175.459824 52.0
175.502014 152.0
175.520462 100.0
175.623322 128.0
175.842316 64.0
176.084641 648.0
176.164459 52.0
176.278061 104.0
176.307129 80.0
176.455154 104.0
176.484238 156.0
177.068451 608.0
177.137939 64.0
177.535507 184.0
177.808762 188.0
177.917603 140.0
178.074265 180.0
178.217712 144.0
178.438324 208.0
178.488846 172.0
180.448608 56.0
180.911438 164.0
180.954269 164.0
181.057693 176.0
181.080139 148.0
181.11496 120.0
182.07515 236.0
182.623428 128.0
183.040573 332.0
183.077744 1856.0
183.164459 148.0
183.188705 208.0
183.264145 44.0
183.67392 108.0
183.768341 140.0
183.854691 144.0
184.039917 220.0
184.074036 3008.0
184.132538 236.0
184.243515 68.0
184.389435 100.0
184.494843 32.0
184.887054 88.0
184.941193 144.0
184.989914 176.0
185.043991 156.0
185.075836 848.0
185.222794 72.0
185.301361 36.0
185.735107 104.0
185.914169 92.0
186.017303 184.0
186.052948 5724.0
186.088181 2888.0
186.144913 76.0
186.234543 84.0
186.261703 84.0
186.321472 48.0
186.354065 52.0
186.531433 96.0
186.827133 48.0
186.866684 56.0
186.900589 36.0
186.939545 152.0
187.054871 1156.0
187.090622 848.0
187.121063 152.0
187.270828 64.0
187.415222 40.0
187.567825 72.0
187.780502 104.0
187.878708 36.0
187.987854 128.0
188.070816 140.0
188.178925 144.0
188.342773 136.0
188.462982 64.0
188.50943 108.0
188.69165 48.0
188.927765 48.0
188.987961 56.0
189.045425 108.0
189.349304 176.0
189.793243 72.0
190.180054 184.0
190.292618 252.0
190.586502 208.0
190.93837 136.0
191.279556 108.0
192.040054 36.0
192.086945 92.0
192.18074 216.0
193.064026 364.0
193.659744 156.0
194.070053 196.0
194.114243 136.0
194.991516 148.0
195.042679 548.0
195.077576 400.0
195.202789 48.0
195.901398 120.0
196.047241 512.0
196.0737 292.0
196.230255 68.0
196.297165 72.0
196.810608 148.0
197.017288 108.0
197.060425 720.0
198.053772 160.0
198.859818 228.0
199.063492 124.0
199.331619 136.0
199.455276 120.0
200.065613 936.0
200.107941 88.0
200.654526 88.0
200.75885 172.0
200.815262 132.0
201.06221 1028.0
201.100357 2132.0
201.17926 76.0
201.201843 184.0
201.701859 124.0
201.769714 136.0
202.077408 152.0
202.103714 412.0
202.25061 100.0
202.634094 144.0
202.879486 176.0
203.018417 80.0
203.056427 160.0
203.089661 496.0
203.117676 380.0
203.293594 40.0
203.412796 184.0
203.963882 112.0
204.003677 192.0
204.061981 4820.0
204.128769 68.0
204.222626 56.0
204.589706 68.0
205.002716 168.0
205.065536 488.0
205.433243 40.0
205.570206 64.0
205.918488 152.0
206.066803 300.0
206.375717 84.0
206.421478 104.0
206.641724 172.0
206.750458 44.0
206.836319 32.0
207.168503 40.0
207.675873 184.0
208.307358 32.0
208.744232 156.0
208.945572 92.0
209.054367 168.0
210.069107 152.0
210.187393 132.0
210.935425 160.0
211.00769 160.0
211.036606 256.0
211.071533 2180.0
211.485001 120.0
211.991837 96.0
212.080124 436.0
212.142548 36.0
212.336823 188.0
212.377426 136.0
212.949219 60.0
213.062225 876.0
213.152588 56.0
213.633881 96.0
213.678864 76.0
214.083817 1700.0
214.444717 172.0
214.56424 144.0
214.788788 112.0
215.080154 2220.0
215.124359 60.0
215.173996 120.0
215.258667 80.0
215.390091 32.0
215.422226 92.0
215.542023 120.0
215.600464 148.0
215.968857 32.0
216.01857 148.0
216.076904 328.0
217.087631 304.0
217.388885 72.0
217.410324 56.0
218.088776 56.0
219.847046 128.0
220.544067 108.0
221.057999 972.0
221.097549 176.0
221.307312 116.0
221.422806 120.0
221.831696 76.0
221.920639 36.0
222.061234 196.0
222.157898 164.0
222.380447 92.0
222.974457 76.0
223.047531 608.0
224.056229 156.0
225.932449 192.0
229.056488 124.0
229.096146 1356.0
229.250336 28.0
230.010391 72.0
230.103149 2648.0
230.375778 64.0
230.786804 60.0
230.856354 60.0
230.901718 88.0
231.079056 180.0
231.110565 204.0
232.110031 136.0
232.179779 92.0
233.111755 68.0
234.972183 68.0
235.680527 96.0
236.252258 152.0
236.852249 180.0
237.055283 292.0
237.364075 72.0
237.627853 164.0
238.048828 160.0
238.493851 228.0
238.635269 136.0
238.73674 52.0
238.924362 92.0
238.955139 168.0
239.019455 192.0
239.067963 10324.0
239.109528 236.0
239.152084 144.0
239.235199 64.0
239.275375 80.0
239.322464 92.0
239.476639 80.0
239.498291 76.0
239.573944 88.0
239.68486 132.0
239.706436 76.0
239.795807 44.0
239.847107 192.0
240.00235 92.0
240.070862 2052.0
240.292282 52.0
240.727493 48.0
240.795441 92.0
241.070206 336.0
241.138382 52.0
241.32077 68.0
241.469208 44.0
241.506317 80.0
242.001465 128.0
242.072678 140.0
247.052734 148.0
247.100296 176.0
248.108124 136.0
248.603714 228.0
249.063187 208.0
249.656113 56.0
250.48703 136.0
253.073563 152.0
253.105225 84.0
255.151718 80.0
258.096375 180.0
259.07959 212.0
259.157257 28.0
260.154694 84.0
261.10257 68.0
262.10376 232.0
263.068085 156.0
264.059448 220.0
264.377136 104.0
266.072113 372.0
267.080719 176.0
268.08252 212.0
272.486816 48.0
273.058807 68.0
276.073151 164.0
278.937805 60.0
280.089142 188.0
281.019257 112.0
284.097717 292.0
285.094452 96.0
285.225525 120.0
286.851379 76.0
288.921509 80.0
298.798553 60.0
299.535278 80.0
308.111023 152.0
309.076019 184.0
309.611603 60.0
312.011719 120.0
314.103516 100.0
314.551666 168.0
322.919647 68.0
327.29425 44.0
327.398682 132.0
334.509888 44.0
334.699219 72.0
335.183685 184.0
337.073883 32.0
342.113373 200.0
343.108063 132.0
349.01358 108.0
353.093262 144.0
353.370056 36.0
354.485901 136.0
355.254517 84.0
356.350769 96.0
357.098846 116.0
359.30249 160.0
361.98233 120.0
369.10968 120.0
369.98587 56.0
370.10556 1012.0
371.102325 400.0
371.376862 96.0
371.591705 124.0
372.105988 128.0
384.130463 80.0
388.292206 112.0
389.925446 60.0
391.18808 68.0
397.123138 220.0
403.090881 72.0
408.427094 96.0
412.418945 68.0
413.523163 124.0
414.823395 136.0
416.105347 144.0
417.914001 88.0
419.078491 96.0
421.73111 96.0
422.090851 88.0
423.121948 68.0
424.137878 112.0
425.134521 144.0
425.347961 148.0
433.696716 112.0
437.647491 124.0
438.568176 72.0
439.431396 180.0
439.71933 52.0
440.132629 152.0
440.67981 148.0
441.140503 2200.0
442.140198 648.0
442.197784 124.0
442.327545 52.0
443.145416 172.0
443.232178 68.0
444.720947 108.0
452.109222 56.0
456.546722 120.0
460.339478 68.0
469.359528 64.0
474.55249 88.0
479.407898 88.0
482.030579 132.0
484.296783 176.0
488.339233 124.0
490.086914 144.0
496.106476 96.0
505.91629 112.0
511.536713 56.0
532.122803 160.0
547.17218 100.0
555.335938 76.0
585.181702 100.0
595.379944 156.0
637.119324 96.0
641.351318 152.0
695.263306 88.0
696.034973 108.0
729.810242 40.0
738.752319 136.0
795.219788 224.0
803.486145 60.0
819.070129 96.0
859.364563 200.0
899.342712 112.0
901.316467 20.0
937.138123 76.0
938.930298 176.0
942.330383 56.0
953.286316 40.0
973.853394 184.0
982.368774 136.0
994.740479 64.0
1004.336487 152.0
1044.698975 168.0
1061.212158 132.0
1063.912109 140.0
1080.105835 188.0
1083.116821 140.0
1084.866455 52.0
1121.06189 44.0
1135.033081 116.0
1139.483154 196.0
1139.980347 184.0
1140.32312 20.0
1173.221313 172.0
1173.419067 104.0
1173.998657 84.0
1182.969849 208.0
1205.675049 200.0
1210.219849 40.0
1217.355103 224.0
1217.757935 228.0
1221.198364 80.0
1222.367065 128.0
1226.253174 192.0
1236.911987 204.0
1239.461182 88.0
1243.514648 176.0
1249.037354 192.0
1254.325562 164.0
1254.875488 212.0
1258.897583 96.0
1265.367432 52.0
1265.629395 160.0
1266.578369 92.0
1273.366211 112.0
1274.50293 152.0
1284.755371 120.0
1288.846436 168.0
1289.132202 128.0
1291.827759 144.0
1301.790405 148.0
1305.513428 48.0
1317.723511 180.0
1318.055908 176.0
1324.422363 212.0
1325.262695 124.0
1325.922119 164.0
1326.799194 104.0
1328.017456 92.0
1331.334229 148.0
1337.259521 172.0
1338.489868 92.0
1339.167114 156.0
1345.087891 120.0
1346.533569 56.0
1348.849731 132.0
1349.237183 212.0
1349.734375 140.0
1354.857788 152.0
1358.289551 156.0
1367.797119 156.0
1368.73938 100.0
1371.000977 156.0
1371.17041 200.0
1374.55542 204.0
1378.018433 168.0
1378.33606 176.0
1379.237793 120.0
1382.107178 92.0
1388.047852 128.0
1391.431274 260.0
1395.473022 172.0
1404.76001 96.0
1407.401978 116.0
1407.969482 204.0
1414.48938 132.0
1414.728882 140.0
1416.368896 140.0
1416.608521 196.0
1417.605103 200.0
1420.304077 168.0
1424.304932 168.0
1425.905273 216.0
1430.486084 188.0
1435.88855 120.0
1437.487915 128.0
1441.067017 96.0
1441.21814 176.0
1442.389526 208.0
1446.48938 200.0
1448.405151 164.0
1448.791504 216.0
1453.651611 120.0
1453.924805 128.0
1455.359497 172.0
1458.436279 160.0
1458.976074 104.0
1460.481689 144.0
1462.513306 240.0
1463.723755 112.0
1464.424438 224.0
1466.352051 84.0
1466.588257 228.0
1470.310303 60.0
1470.775879 96.0
1472.589478 188.0
1477.906128 132.0
1481.535156 164.0
1481.634644 196.0
1486.058472 160.0
1487.117554 200.0
1487.386108 108.0
1487.915894 172.0
1488.253662 44.0
1490.496582 184.0
1495.734009 252.0
1496.095825 204.0
1496.496094 148.0
1498.144287 160.0
1499.677734 228.0
