>compound MLS002153350-01!1-[2-(Trifluoromethyl)phenyl]imidazole25371-96-4
>formula C10H7F3N2
>ionization [M+H]+
>parentmass 213.063782
#inchi InChI=1S/C10H7F3N2/c11-10(12,13)8-3-1-2-4-9(8)15-6-5-14-7-15/h1-7H
#inchikey WZBWBNCQUTXYEL
#Ion_Source LC-ESI
#Instrument qTof
#Compound_Source NIH Pharmacologically Active Library
#PI Dorrestein
#Data_Collector VP/LMS
#Scan -1
#Precursor_MZ 213.066
#ExactMass 212.056
#Charge 1
#CAS_Number N/A
#Pubmed_ID N/A
#Smiles FC(F)(F)c1ccccc1n2ccnc2
#INCHI_AUX N/A
#Library_Class 1
#SpectrumID CCMSLIB00000084920
#IonMode Positive
#UpdateWorkflowName UPDATE-SINGLE-ANNOTATED-GOLD
#LibraryQualityString Gold
#TaskID d252d724072548979f1f6f1ced849daf
##Scan# 1223
#SpectrumFile p3-C07_GC7_01_18252.mzXML
#LibraryName Pharm_Active_Library.mgf
#MQScore -1
#Organism Pharm_Active_Library
#TIC_Query 0
#RT_Query -1
#MZErrorPPM -1
#SharedPeaks 0
#MassDiff 0
#LibMZ -1
#SpecMZ 213.066
#SpecCharge 0
#internalFilename spec-00000.mgf

>collision 10
45.152824 156.0
45.344387 144.0
45.400696 72.0
45.528194 188.0
45.580585 240.0
45.643764 112.0
45.729866 160.0
46.007557 176.0
46.022408 184.0
46.060223 204.0
46.083191 76.0
46.123734 92.0
46.150772 64.0
46.191349 172.0
46.226524 144.0
46.275257 136.0
46.317341 160.0
46.36573 208.0
46.406685 144.0
46.476425 164.0
46.492146 212.0
46.565895 212.0
46.615726 124.0
46.687778 36.0
46.710903 116.0
46.819794 136.0
46.848396 100.0
46.935627 176.0
46.986095 120.0
47.021572 48.0
47.189598 112.0
47.259357 328.0
47.293571 200.0
47.330536 176.0
47.34697 216.0
47.382549 168.0
47.468937 116.0
47.478539 152.0
47.512829 144.0
47.580082 136.0
47.600677 172.0
47.672112 200.0
47.694103 144.0
47.802048 164.0
47.93771 192.0
47.976307 140.0
47.988712 80.0
48.00526 196.0
48.044411 244.0
48.081524 156.0
48.140503 260.0
48.183323 128.0
48.21096 144.0
48.375557 216.0
48.430946 132.0
48.487598 212.0
48.51548 48.0
48.623676 104.0
48.645885 164.0
48.757004 192.0
48.770905 176.0
48.780636 148.0
48.872429 128.0
48.890518 164.0
48.960129 136.0
49.07579 144.0
49.222305 144.0
49.261414 116.0
49.325695 168.0
49.397011 112.0
49.455784 160.0
49.46978 68.0
49.527195 184.0
49.566425 176.0
49.604267 168.0
49.743145 96.0
49.759991 56.0
49.771225 164.0
49.824596 216.0
49.837242 196.0
49.983482 144.0
50.02993 172.0
50.10598 156.0
50.159531 120.0
50.206062 180.0
50.217346 140.0
50.617298 176.0
50.631462 64.0
50.654125 204.0
50.713638 196.0
50.732067 168.0
50.797298 148.0
50.854057 172.0
50.885288 116.0
50.977619 152.0
50.997517 136.0
51.085678 212.0
51.153988 224.0
51.373451 200.0
51.433384 172.0
51.449062 212.0
51.730721 200.0
51.948544 64.0
51.982979 168.0
52.018864 92.0
52.105518 188.0
52.12431 268.0
52.238731 132.0
52.392773 176.0
52.461948 152.0
52.539825 140.0
52.750671 132.0
52.79694 212.0
52.935871 216.0
52.959496 128.0
53.016998 180.0
53.070633 176.0
53.085705 184.0
53.170727 164.0
53.252033 180.0
53.32468 60.0
53.340672 156.0
53.353756 236.0
53.416286 220.0
53.461506 152.0
53.480312 176.0
53.494869 148.0
53.579338 136.0
53.703247 200.0
53.850666 196.0
53.887356 172.0
54.015839 192.0
54.027542 152.0
54.056805 144.0
54.069675 156.0
54.105106 148.0
54.180531 224.0
54.244282 132.0
54.254543 136.0
54.490833 104.0
54.529041 192.0
54.642899 188.0
54.659927 88.0
54.721752 200.0
54.905949 92.0
54.945778 156.0
54.967911 212.0
55.199833 52.0
55.355213 176.0
55.37891 172.0
55.467815 204.0
55.503399 156.0
55.524158 196.0
55.577564 180.0
55.718616 180.0
55.737934 136.0
55.778904 188.0
55.840511 140.0
55.8549 172.0
55.958355 224.0
55.975941 164.0
56.029564 136.0
56.121971 216.0
56.141357 96.0
56.159256 204.0
56.186104 212.0
56.405632 148.0
56.432545 144.0
56.457966 80.0
56.498352 188.0
56.565693 188.0
56.591145 184.0
56.758965 136.0
56.823463 308.0
56.961578 152.0
57.14048 80.0
57.20068 136.0
57.322674 116.0
57.360355 176.0
57.417652 152.0
57.506668 184.0
57.517235 56.0
57.615395 236.0
57.818214 184.0
57.925522 144.0
58.16663 176.0
58.225845 160.0
58.237999 88.0
58.408241 140.0
58.542179 180.0
58.557407 76.0
58.601585 152.0
58.644257 80.0
58.868526 240.0
58.935741 56.0
59.039688 164.0
59.154297 164.0
59.540844 132.0
59.654549 116.0
59.667656 152.0
59.680683 88.0
59.69606 144.0
59.893063 160.0
59.914631 172.0
60.166016 220.0
60.303497 144.0
60.407101 164.0
60.444233 144.0
60.506145 236.0
60.561634 168.0
60.649952 176.0
60.675018 128.0
60.723087 260.0
60.800663 160.0
60.900028 160.0
60.932652 228.0
60.954407 128.0
61.03368 140.0
61.115414 44.0
61.159698 52.0
61.17215 128.0
61.218861 80.0
61.232876 92.0
61.260914 168.0
61.366894 96.0
61.432125 228.0
61.457787 176.0
61.599434 172.0
61.615055 116.0
61.654057 100.0
61.772953 176.0
61.841801 164.0
61.938885 168.0
61.979618 128.0
62.025066 160.0
62.098763 172.0
62.202324 164.0
62.214882 144.0
62.32954 188.0
62.363522 180.0
62.411278 40.0
62.529263 196.0
62.554447 132.0
62.598534 160.0
62.801842 116.0
62.860214 184.0
62.875996 188.0
62.921776 136.0
62.996002 300.0
63.065872 220.0
63.139839 172.0
63.168312 116.0
63.281498 208.0
63.389973 172.0
63.629482 108.0
63.705715 160.0
63.770863 220.0
63.882172 184.0
63.926723 104.0
63.985619 184.0
64.063652 128.0
64.074806 204.0
64.128052 116.0
64.192757 176.0
64.232635 184.0
64.381065 204.0
64.443367 108.0
64.473732 84.0
64.488113 156.0
64.532875 196.0
64.617645 144.0
64.64325 180.0
64.681656 128.0
64.787354 68.0
64.809784 168.0
64.830612 120.0
64.870682 224.0
65.013435 68.0
65.157951 200.0
65.286545 180.0
65.313889 200.0
65.365372 152.0
65.408829 144.0
65.476448 44.0
65.524551 172.0
65.618256 148.0
65.637604 76.0
65.87809 168.0
65.939491 160.0
66.187004 176.0
66.35714 116.0
66.38633 168.0
66.45121 160.0
66.548592 132.0
66.580704 228.0
66.634674 204.0
66.698059 212.0
66.82328 172.0
66.955132 68.0
67.00563 200.0
67.150711 148.0
67.176811 108.0
67.279625 208.0
67.343307 84.0
67.366173 172.0
67.379242 168.0
67.403755 152.0
67.424995 152.0
67.52964 208.0
67.580353 132.0
67.748985 152.0
67.821091 124.0
67.848953 140.0
67.991661 192.0
68.111519 104.0
68.310425 144.0
68.501381 116.0
68.524445 176.0
68.557404 368.0
68.588715 152.0
68.639824 184.0
68.672813 196.0
68.785011 140.0
68.844452 240.0
69.305977 180.0
69.325867 188.0
69.353241 324.0
69.368958 192.0
69.586288 184.0
69.619499 160.0
69.735703 136.0
70.006439 208.0
70.138603 196.0
70.17028 168.0
70.218636 132.0
70.255333 112.0
70.348793 148.0
70.472382 132.0
70.48909 28.0
70.532547 176.0
70.545914 100.0
70.666336 184.0
70.735214 152.0
70.816994 156.0
70.830399 228.0
70.917526 120.0
70.940994 68.0
70.961113 104.0
71.11377 196.0
71.172531 140.0
71.243065 224.0
71.263229 132.0
71.434807 144.0
71.542419 84.0
71.55925 84.0
71.577774 160.0
71.661995 72.0
71.788414 192.0
71.9217 164.0
71.972351 180.0
72.090599 116.0
72.23262 136.0
72.296913 188.0
72.354469 248.0
72.542511 52.0
72.55777 128.0
72.571335 136.0
72.703651 124.0
72.751175 196.0
72.841179 220.0
72.892151 148.0
72.977135 132.0
72.992439 188.0
73.012848 160.0
73.053673 148.0
73.242622 120.0
73.274994 196.0
73.309067 140.0
73.324127 144.0
73.380661 184.0
73.520996 164.0
73.699837 320.0
73.937538 104.0
73.956367 472.0
73.978615 180.0
74.006012 128.0
74.124199 72.0
74.170479 88.0
74.184189 252.0
74.31282 172.0
74.549232 176.0
74.713127 184.0
74.768196 132.0
74.858925 204.0
74.930054 160.0
74.965988 164.0
75.145569 172.0
75.26812 120.0
75.35276 192.0
75.389969 240.0
75.499687 132.0
75.605217 136.0
75.627716 184.0
75.693504 188.0
75.826904 88.0
75.965614 32.0
76.116615 156.0
76.166985 168.0
76.226051 108.0
76.659363 108.0
76.781395 204.0
76.813324 180.0
76.976852 132.0
76.99955 104.0
77.211029 160.0
77.253006 40.0
77.274002 96.0
77.489349 156.0
77.569969 228.0
77.664658 148.0
77.766426 208.0
77.859482 104.0
77.894508 144.0
77.919205 164.0
78.024651 132.0
78.147766 196.0
78.211121 136.0
78.295631 108.0
78.350243 104.0
78.556503 108.0
78.577675 156.0
78.616493 104.0
78.662384 140.0
78.678268 168.0
78.747528 216.0
78.83371 176.0
79.061836 124.0
79.146812 56.0
79.16275 164.0
79.189316 88.0
79.231827 180.0
79.292603 160.0
79.373619 68.0
79.426826 252.0
79.460533 116.0
79.549271 108.0
79.568794 196.0
79.62207 160.0
79.636276 96.0
79.707336 152.0
79.748215 124.0
79.764214 208.0
79.965202 232.0
80.004364 116.0
80.246666 156.0
80.273682 184.0
80.348328 120.0
80.417923 100.0
80.47551 232.0
80.575066 148.0
80.594719 168.0
80.662636 200.0
80.76992 160.0
80.859383 144.0
80.888023 192.0
80.904587 176.0
81.068924 396.0
81.08326 444.0
81.101181 160.0
81.233879 144.0
81.413361 44.0
81.578667 144.0
81.680046 204.0
81.78553 116.0
81.821533 180.0
82.118866 124.0
82.223511 164.0
82.290298 160.0
82.333641 144.0
82.346283 160.0
82.384216 88.0
82.472763 204.0
82.546883 164.0
82.704285 144.0
82.760406 180.0
82.803864 184.0
82.889015 188.0
83.09935 224.0
83.119308 104.0
83.164673 196.0
83.177383 156.0
83.329933 228.0
83.559013 140.0
83.579033 72.0
83.62999 148.0
83.75016 208.0
83.817566 220.0
83.854019 88.0
84.094772 248.0
84.123978 224.0
84.164139 176.0
84.31942 104.0
84.43277 116.0
84.479645 172.0
84.66703 256.0
84.743965 160.0
84.797112 152.0
84.923622 184.0
85.039558 168.0
85.066742 156.0
85.455139 156.0
85.566795 64.0
85.727043 116.0
85.948326 140.0
86.206848 200.0
86.293732 172.0
86.351051 160.0
86.443558 148.0
86.65094 196.0
86.68985 176.0
86.77697 164.0
86.804779 164.0
86.890106 148.0
87.025597 100.0
87.040451 136.0
87.282013 76.0
87.348969 356.0
87.384315 244.0
87.581642 164.0
87.648712 156.0
87.725128 140.0
87.738174 208.0
87.790382 76.0
87.967636 144.0
88.075943 148.0
88.201134 116.0
88.384415 220.0
88.41436 192.0
88.442429 196.0
88.477997 256.0
88.49807 100.0
88.522766 176.0
88.590363 120.0
88.755295 72.0
88.845322 128.0
89.040672 228.0
89.06308 180.0
89.079987 76.0
89.108162 156.0
89.132591 124.0
89.176704 232.0
89.435379 156.0
89.489975 212.0
89.625587 104.0
89.657623 132.0
89.672699 148.0
89.685898 152.0
89.790741 280.0
89.819771 52.0
89.880142 208.0
90.014343 284.0
90.047607 164.0
90.052689 436.0
90.123726 92.0
90.265495 192.0
90.295517 196.0
90.341148 40.0
90.496338 168.0
90.526634 136.0
90.649773 108.0
90.835579 180.0
90.926651 208.0
90.953224 84.0
90.977905 164.0
90.994987 220.0
91.055756 152.0
91.171646 144.0
91.202057 164.0
91.247681 140.0
91.350372 132.0
91.379578 224.0
91.493103 112.0
91.540703 120.0
91.708359 184.0
91.761734 172.0
91.879982 116.0
91.9086 208.0
92.025032 112.0
92.040306 208.0
92.097603 148.0
92.141541 180.0
92.281059 140.0
92.380508 108.0
92.451302 208.0
92.721336 188.0
92.82486 148.0
92.851707 100.0
92.928436 112.0
92.97641 148.0
93.002129 180.0
93.087982 236.0
93.106956 84.0
93.354874 164.0
93.397186 104.0
93.422188 100.0
93.616592 216.0
93.658966 164.0
93.6763 176.0
93.857468 236.0
93.886391 160.0
93.899895 156.0
93.913391 228.0
94.017578 176.0
94.5355 88.0
94.950081 192.0
94.99469 52.0
95.0299 828.0
95.082008 44.0
95.171303 176.0
95.214027 188.0
95.243156 148.0
95.449165 128.0
95.550308 140.0
95.721718 124.0
95.902779 132.0
96.037544 172.0
96.183655 184.0
96.308624 64.0
96.361366 160.0
96.437584 56.0
96.459084 160.0
96.619041 220.0
96.642921 156.0
96.981712 168.0
97.005119 192.0
97.222954 76.0
97.58342 148.0
97.700424 216.0
97.855904 128.0
98.014214 568.0
98.202911 400.0
98.340851 88.0
98.360588 180.0
98.388222 172.0
98.457336 84.0
98.599579 204.0
98.652946 168.0
98.73204 128.0
98.807205 96.0
98.898232 140.0
98.916046 176.0
98.981384 184.0
99.021973 2360.0
99.082397 136.0
99.131935 44.0
99.177513 188.0
99.205269 76.0
99.227074 120.0
99.484985 128.0
99.722282 164.0
99.775032 180.0
99.804855 116.0
99.84156 184.0
99.886398 168.0
99.908279 48.0
99.977921 232.0
100.018761 952.0
100.175041 144.0
100.19297 160.0
100.218872 136.0
100.251274 168.0
100.300583 144.0
100.400269 44.0
100.591812 140.0
100.659698 92.0
100.701637 224.0
100.864655 184.0
100.925461 96.0
101.021835 180.0
101.042816 184.0
101.201584 204.0
101.387878 80.0
101.427963 184.0
101.546265 136.0
101.654594 156.0
101.67868 48.0
101.919113 236.0
101.951805 156.0
101.989998 124.0
102.035172 2068.0
102.080467 164.0
102.523354 212.0
102.551567 76.0
102.593895 228.0
102.612045 252.0
102.638252 148.0
102.688667 184.0
102.773399 148.0
102.797615 196.0
103.016968 156.0
103.041222 376.0
103.096489 76.0
103.170822 196.0
103.302727 184.0
103.460571 40.0
103.515244 192.0
103.55513 92.0
103.616516 196.0
103.679337 164.0
103.728523 180.0
103.811104 120.0
103.867897 192.0
103.888176 168.0
103.923866 136.0
103.942963 164.0
103.983551 184.0
104.024147 164.0
104.049316 608.0
104.083023 40.0
104.210983 188.0
104.31057 340.0
104.351227 148.0
104.420364 252.0
104.595352 224.0
104.658463 148.0
104.79493 80.0
104.964111 272.0
105.013054 116.0
105.053848 152.0
105.245697 124.0
105.351898 104.0
105.414062 188.0
105.47451 220.0
105.492905 224.0
105.537888 104.0
105.703575 188.0
105.762077 228.0
106.016884 180.0
106.031235 92.0
106.410721 168.0
106.572983 200.0
106.640663 140.0
106.663406 232.0
106.743591 188.0
106.992554 88.0
107.031059 340.0
107.046089 160.0
107.111992 164.0
107.175858 60.0
107.233559 44.0
107.264481 264.0
107.297462 180.0
107.342827 204.0
107.39209 144.0
107.503731 180.0
107.763908 180.0
107.794899 56.0
107.937531 160.0
108.028534 160.0
108.065773 144.0
108.154762 52.0
108.219849 164.0
108.320419 124.0
108.343208 132.0
108.397072 192.0
108.598175 108.0
108.618912 156.0
108.647957 168.0
108.674927 228.0
108.716431 52.0
108.88459 224.0
108.940674 88.0
109.044235 1900.0
109.198425 148.0
109.256958 144.0
109.350304 108.0
109.435654 148.0
109.487717 216.0
109.658554 256.0
109.706558 140.0
109.725258 96.0
109.858734 212.0
109.896286 156.0
109.924332 152.0
110.044479 252.0
110.201126 196.0
110.224106 168.0
110.257545 196.0
110.391342 60.0
110.709427 124.0
110.910561 108.0
110.960876 124.0
111.078308 136.0
111.128662 184.0
111.210503 88.0
111.283981 36.0
111.351181 168.0
111.424698 204.0
111.578117 80.0
111.790565 160.0
111.868439 64.0
112.114876 92.0
112.160057 128.0
112.205513 148.0
112.299538 184.0
112.507202 120.0
112.572655 120.0
112.849464 44.0
112.97213 104.0
113.001747 84.0
113.135078 228.0
113.285439 180.0
113.308739 176.0
113.395622 168.0
113.575844 184.0
113.966469 200.0
114.039856 180.0
114.179047 72.0
114.210945 136.0
114.31945 136.0
114.485504 32.0
114.64035 128.0
114.781708 124.0
114.815826 136.0
114.847824 196.0
114.969437 220.0
115.039322 156.0
115.400925 172.0
115.435135 112.0
115.499298 140.0
115.601997 168.0
115.642654 152.0
115.696175 156.0
115.745415 164.0
115.79467 176.0
115.925354 68.0
115.957504 224.0
115.991798 164.0
116.0261 176.0
116.048721 4436.0
116.114014 60.0
116.150475 124.0
116.186943 120.0
116.244873 168.0
116.285652 164.0
116.307114 80.0
116.418762 148.0
116.504677 48.0
116.532608 192.0
116.584175 48.0
116.665855 212.0
116.687355 188.0
116.741112 196.0
116.885239 56.0
116.934731 136.0
117.007919 128.0
117.056847 10516.0
117.099739 144.0
117.198227 108.0
117.331085 108.0
117.348335 152.0
117.434593 68.0
117.454002 40.0
117.553246 156.0
117.637421 92.0
117.678444 84.0
117.736748 64.0
117.764824 124.0
117.818825 188.0
117.879326 184.0
117.926872 48.0
117.942001 152.0
117.963615 184.0
118.028473 116.0
118.057549 800.0
118.238312 60.0
118.335724 124.0
118.574005 128.0
118.699745 136.0
118.840736 164.0
118.871109 76.0
118.898331 140.0
118.955757 196.0
119.02906 1848.0
119.049843 264.0
119.149033 220.0
119.196838 32.0
119.212044 116.0
119.279427 68.0
119.410622 248.0
119.427284 164.0
119.470787 156.0
119.64489 136.0
119.705856 184.0
119.799515 164.0
119.936798 192.0
120.024292 148.0
120.038063 204.0
120.104691 280.0
120.170135 188.0
120.366585 192.0
120.418999 188.0
120.628761 92.0
120.738083 184.0
120.814644 168.0
120.8759 152.0
120.90873 168.0
121.035698 212.0
121.101395 188.0
121.189026 128.0
121.320526 180.0
121.430161 96.0
121.452095 160.0
121.471832 196.0
121.48719 108.0
121.566177 128.0
121.801102 180.0
121.816475 176.0
121.902168 228.0
121.95491 180.0
122.001076 164.0
122.035103 340.0
122.082428 208.0
122.111015 196.0
122.256218 212.0
122.271622 204.0
122.511635 328.0
122.608582 132.0
122.626213 68.0
122.712189 112.0
122.729828 188.0
122.782753 240.0
122.901871 168.0
122.970284 168.0
123.017517 180.0
123.035355 308.0
123.091705 112.0
123.11158 228.0
123.28389 164.0
123.447479 128.0
123.482864 96.0
123.500557 48.0
123.522682 140.0
123.659866 44.0
123.788269 56.0
123.876862 164.0
124.016762 128.0
124.065231 240.0
124.270103 148.0
124.406868 44.0
124.531219 260.0
124.584526 72.0
124.768982 52.0
124.79789 200.0
125.020027 1628.0
125.082649 280.0
125.111588 120.0
125.136078 40.0
125.205109 40.0
125.227379 164.0
125.263023 204.0
125.363281 104.0
125.401169 104.0
125.445747 100.0
125.508934 176.0
125.666534 244.0
125.905388 172.0
125.974625 148.0
125.994736 88.0
126.032974 4676.0
126.16011 180.0
126.213768 188.0
126.24955 60.0
126.347969 76.0
126.408379 204.0
126.473282 44.0
126.49987 196.0
126.524765 92.0
126.633896 196.0
126.743286 64.0
126.780121 96.0
127.036163 1516.0
127.30191 256.0
127.417374 140.0
127.464554 196.0
127.545464 88.0
127.68486 200.0
127.939133 192.0
127.959534 128.0
128.020187 92.0
128.047562 372.0
128.076492 156.0
128.394287 88.0
128.606369 124.0
128.662796 112.0
128.852509 124.0
129.022018 156.0
129.042252 172.0
129.150909 144.0
129.180313 88.0
129.379456 44.0
129.610489 64.0
129.710205 148.0
129.808823 168.0
130.032318 412.0
130.161682 188.0
130.345673 204.0
130.463013 180.0
130.543442 152.0
130.741364 172.0
130.777771 112.0
130.937149 120.0
130.986481 176.0
131.030548 280.0
131.149048 72.0
131.198257 176.0
131.7332 64.0
131.865723 92.0
132.042343 160.0
132.199631 152.0
132.341553 180.0
132.446899 152.0
132.469803 192.0
132.492706 180.0
132.522491 124.0
132.692093 192.0
132.809052 212.0
132.827408 236.0
132.84346 148.0
132.935089 196.0
133.031631 128.0
133.176849 132.0
133.296738 160.0
133.619965 208.0
133.96759 156.0
134.011368 80.0
134.038742 132.0
134.058914 436.0
134.098938 136.0
134.232651 192.0
134.258011 308.0
134.292603 68.0
134.384888 180.0
134.401031 52.0
134.421799 204.0
134.488724 152.0
134.627258 132.0
134.673447 56.0
134.738129 140.0
135.026306 316.0
135.05127 252.0
135.094147 160.0
135.189011 108.0
135.265396 212.0
135.311691 176.0
135.355682 184.0
135.430679 168.0
135.617462 164.0
135.758896 132.0
136.048935 124.0
136.081436 160.0
136.148773 200.0
136.190582 180.0
136.248657 208.0
136.662491 164.0
136.885956 180.0
137.002411 64.0
137.041183 380.0
137.067642 76.0
137.139893 168.0
137.219147 196.0
137.840027 180.0
137.919479 192.0
138.026306 348.0
138.235214 108.0
138.279678 120.0
138.422485 112.0
138.51149 192.0
138.537247 168.0
138.574738 124.0
138.638 208.0
138.708313 168.0
138.80603 224.0
138.929321 196.0
139.03537 3012.0
139.114136 80.0
139.198669 36.0
139.293243 176.0
139.541718 232.0
139.701645 108.0
139.728516 216.0
139.781586 204.0
139.845169 40.0
140.034866 472.0
140.101837 108.0
140.20787 172.0
140.361099 156.0
140.449509 256.0
140.670181 92.0
140.762253 188.0
140.783508 104.0
140.84964 212.0
140.901611 148.0
141.02803 224.0
141.033951 112.0
141.042221 224.0
141.121414 116.0
141.362686 156.0
141.871918 88.0
141.907486 120.0
141.934937 152.0
142.027008 40.0
142.064011 148.0
142.15654 124.0
142.302933 160.0
142.327454 160.0
142.472336 184.0
142.619659 184.0
142.73378 144.0
142.931213 156.0
143.05838 192.0
143.162109 236.0
143.338394 176.0
143.450409 176.0
143.581543 128.0
143.676956 140.0
143.741379 204.0
143.77002 168.0
144.020462 292.0
144.042664 1188.0
144.086105 148.0
144.326599 96.0
144.362473 108.0
144.589737 156.0
144.678314 148.0
144.718521 176.0
144.805222 128.0
144.915512 180.0
144.993576 136.0
145.02597 18520.0
145.08078 180.0
145.107147 32.0
145.126328 48.0
145.198273 48.0
145.235443 88.0
145.255844 84.0
145.283905 160.0
145.330215 200.0
145.361404 96.0
145.404602 76.0
145.426193 96.0
145.459808 188.0
145.485199 76.0
145.57634 56.0
145.635086 168.0
145.702347 164.0
145.728775 48.0
145.748001 40.0
145.77684 184.0
145.824905 104.0
145.853745 196.0
145.933075 224.0
145.963333 144.0
146.039566 12956.0
146.076111 144.0
146.103836 112.0
146.188049 132.0
146.331314 92.0
146.354141 220.0
146.397491 76.0
146.431686 80.0
146.566116 160.0
146.607071 64.0
146.628769 68.0
146.675278 120.0
146.80957 64.0
146.918121 100.0
146.947067 36.0
146.963959 128.0
147.008255 124.0
147.038513 1100.0
147.074005 160.0
147.125656 144.0
147.16188 184.0
147.19809 104.0
147.253571 144.0
147.29953 88.0
147.338013 108.0
147.425171 260.0
147.454178 88.0
147.703217 120.0
147.881866 48.0
147.92099 140.0
147.971832 180.0
147.993622 104.0
148.013 144.0
148.048187 352.0
148.128433 72.0
148.250397 108.0
148.364304 152.0
148.386124 96.0
148.60199 180.0
148.735458 144.0
148.881134 124.0
149.073059 176.0
149.111938 148.0
149.340485 144.0
149.398865 36.0
149.50592 156.0
149.690933 200.0
149.725021 152.0
149.846817 116.0
150.034454 1400.0
150.139328 52.0
150.239334 128.0
150.280807 48.0
150.45166 180.0
150.695877 172.0
150.769196 152.0
150.852295 68.0
150.913406 148.0
150.943909 196.0
151.031998 412.0
151.048752 200.0
151.165359 56.0
151.226547 108.0
151.307327 100.0
151.473846 176.0
151.498337 200.0
151.657623 128.0
151.86113 188.0
151.893021 148.0
151.912643 128.0
151.988693 156.0
152.030594 13036.0
152.08107 72.0
152.113861 32.0
152.251358 116.0
152.293106 44.0
152.322586 156.0
152.369553 168.0
152.398743 48.0
152.415939 64.0
152.543747 248.0
152.570786 156.0
152.703568 108.0
152.829636 184.0
152.888092 100.0
152.919327 168.0
152.996384 104.0
153.040634 2756.0
153.171234 108.0
153.299347 68.0
153.370819 236.0
153.474365 76.0
153.523682 168.0
153.77533 56.0
153.795074 204.0
153.819748 140.0
153.995071 164.0
154.040253 3648.0
154.096344 152.0
154.12352 128.0
154.221451 96.0
154.261551 156.0
154.289124 84.0
154.328674 116.0
154.373184 124.0
154.390503 76.0
154.452332 64.0
154.746826 56.0
154.887985 268.0
154.982132 124.0
155.044144 776.0
155.222565 36.0
155.460709 52.0
155.97731 256.0
156.054367 92.0
156.153839 40.0
156.490585 184.0
156.542084 140.0
156.60434 44.0
156.83606 208.0
156.935776 80.0
156.980667 128.0
157.025558 180.0
157.090408 124.0
157.120346 156.0
157.897186 176.0
157.987228 172.0
158.020645 408.0
158.038361 224.0
158.505508 188.0
158.605759 180.0
158.675949 84.0
158.706039 252.0
158.776245 120.0
159.041245 2300.0
159.23465 172.0
159.330978 152.0
159.401337 224.0
159.921921 136.0
159.977295 216.0
160.044556 632.0
160.24173 56.0
160.937866 96.0
161.089401 100.0
161.165192 200.0
161.268799 144.0
161.294205 152.0
161.359802 52.0
161.401245 132.0
161.638031 96.0
161.954483 184.0
161.979813 148.0
162.002625 92.0
162.050751 136.0
162.172394 276.0
162.209152 128.0
162.332108 132.0
162.374313 164.0
162.674637 136.0
162.738098 196.0
162.773651 44.0
162.885773 160.0
162.964157 136.0
163.409088 132.0
163.505783 168.0
163.566879 104.0
163.607605 256.0
163.857193 96.0
163.877563 192.0
163.948914 104.0
164.050034 2764.0
164.346725 68.0
164.487076 180.0
164.530487 120.0
164.862534 140.0
164.89064 272.0
164.918762 212.0
165.039246 1200.0
165.130981 160.0
165.235855 196.0
165.330673 212.0
165.353561 60.0
165.504593 120.0
165.566055 212.0
165.610382 196.0
165.653198 168.0
165.683884 156.0
165.701813 48.0
165.742813 208.0
165.842758 172.0
165.859802 160.0
165.933258 184.0
166.001144 144.0
166.046646 66880.0
166.108521 120.0
166.138458 76.0
166.166473 152.0
166.214615 128.0
166.234314 164.0
166.27095 172.0
166.326004 52.0
166.350647 144.0
166.381454 56.0
166.419052 56.0
166.463715 120.0
166.486008 100.0
166.494568 72.0
166.500351 104.0
166.55864 88.0
166.592728 148.0
166.624786 80.0
166.659882 276.0
166.699387 80.0
166.743637 48.0
166.771912 64.0
166.806152 100.0
166.879883 72.0
166.931305 72.0
166.948059 68.0
167.018463 148.0
167.049545 5040.0
167.155106 100.0
167.178268 112.0
167.211716 48.0
167.252899 144.0
167.36618 208.0
167.402222 76.0
167.464035 52.0
167.493011 64.0
167.695923 224.0
167.755203 44.0
167.87381 80.0
167.956726 132.0
167.981094 168.0
168.018738 128.0
168.047028 472.0
168.144684 60.0
168.193726 132.0
168.2155 140.0
168.235031 80.0
168.25827 84.0
168.278915 216.0
168.304352 256.0
168.318832 148.0
168.377472 384.0
168.415176 220.0
168.457123 132.0
168.559433 100.0
168.6716 40.0
168.743973 40.0
168.821548 44.0
168.857758 88.0
168.927597 76.0
169.050385 244.0
169.132019 80.0
169.300949 80.0
169.359879 120.0
169.45314 92.0
169.481644 164.0
169.712326 124.0
169.764191 128.0
170.041718 1156.0
170.220901 56.0
170.362152 156.0
170.426102 76.0
171.041122 172.0
171.222549 140.0
171.321091 88.0
171.482651 172.0
171.532181 112.0
171.573883 36.0
171.608505 176.0
171.787735 88.0
171.863388 152.0
171.98082 120.0
172.001709 104.0
172.037796 1640.0
172.093079 156.0
172.607819 104.0
172.817078 64.0
172.887848 172.0
172.937454 64.0
173.000015 184.0
173.050888 13452.0
173.095505 152.0
173.114853 100.0
173.207153 76.0
173.241211 52.0
173.2883 152.0
173.3284 172.0
173.380081 52.0
173.431137 124.0
173.537521 60.0
173.597656 64.0
173.7052 216.0
173.728806 112.0
173.794403 56.0
173.983368 236.0
174.023941 132.0
174.053864 1800.0
174.109406 76.0
174.190826 188.0
174.309052 64.0
174.37738 104.0
174.424698 52.0
174.450974 72.0
174.472015 32.0
174.493042 108.0
174.564041 32.0
174.603485 48.0
174.702911 60.0
174.884995 212.0
175.020126 184.0
175.048874 316.0
175.066666 152.0
175.140411 88.0
175.185181 64.0
175.223785 112.0
175.245773 88.0
175.372269 112.0
175.393356 140.0
175.413864 136.0
175.620117 84.0
175.63858 236.0
175.894531 212.0
175.963745 144.0
176.021271 48.0
176.502182 184.0
176.62912 148.0
176.830215 188.0
176.987671 108.0
177.026123 228.0
177.049957 44.0
177.337158 120.0
177.622452 216.0
177.924988 80.0
178.134781 96.0
178.17334 120.0
178.225098 204.0
178.424438 44.0
179.034943 160.0
180.017807 132.0
180.04985 156.0
180.445328 176.0
180.576355 136.0
180.798416 136.0
181.401062 136.0
181.781921 148.0
181.800705 164.0
181.951019 36.0
182.037735 176.0
182.684677 144.0
182.792297 160.0
182.851501 132.0
183.04715 252.0
183.104584 116.0
183.158447 88.0
183.441391 108.0
183.600464 28.0
183.773102 84.0
183.813583 168.0
183.991714 56.0
184.057968 348.0
184.156433 92.0
184.375275 192.0
184.775482 156.0
185.045074 608.0
185.398254 160.0
185.870102 144.0
186.050293 956.0
186.812866 112.0
186.872726 124.0
187.796204 104.0
187.978989 156.0
188.053284 236.0
188.110001 52.0
188.434982 40.0
189.214447 84.0
189.682892 132.0
189.970825 192.0
190.219635 168.0
190.243622 188.0
191.033951 148.0
191.299545 140.0
191.366959 80.0
191.595551 84.0
191.749847 36.0
191.970398 144.0
192.045822 400.0
192.715683 52.0
192.954391 132.0
192.989059 212.0
193.057281 21820.0
193.118454 132.0
193.146957 156.0
193.188446 84.0
193.312958 68.0
193.40152 48.0
193.4375 140.0
193.714417 36.0
193.778137 44.0
193.822464 64.0
193.877899 256.0
194.058701 1696.0
194.323242 92.0
194.740723 152.0
194.762955 180.0
194.807388 156.0
194.901855 128.0
194.965775 152.0
195.062759 264.0
195.277145 140.0
195.332779 40.0
195.385635 88.0
195.541702 140.0
195.56929 92.0
195.764175 44.0
195.87001 64.0
195.948013 100.0
196.781937 100.0
197.231705 120.0
198.029129 148.0
199.687881 160.0
200.039597 48.0
200.487427 208.0
202.099823 96.0
202.309265 164.0
202.337219 160.0
202.711456 100.0
203.502838 164.0
204.537643 120.0
204.698074 156.0
204.722702 64.0
205.266983 100.0
205.421005 100.0
205.472351 152.0
205.843399 80.0
206.801132 76.0
207.371094 288.0
207.634857 180.0
209.707794 136.0
209.73085 200.0
210.149017 164.0
210.50116 120.0
210.899841 224.0
210.920074 48.0
211.432022 156.0
211.857651 212.0
212.141647 176.0
212.515778 120.0
212.60408 164.0
212.657394 140.0
212.681976 176.0
212.735397 304.0
212.788605 40.0
212.840866 200.0
212.875717 148.0
212.958832 224.0
213.000595 208.0
213.063782 40760.0
213.141876 140.0
213.172012 52.0
213.196091 28.0
213.217056 152.0
213.296982 52.0
213.323151 64.0
213.372574 88.0
213.407455 44.0
213.45108 132.0
213.515045 48.0
213.538315 40.0
213.616852 116.0
213.637222 76.0
213.721588 64.0
213.80307 132.0
213.867096 80.0
213.907852 72.0
213.961823 52.0
214.001007 208.0
214.066635 4172.0
214.123306 128.0
214.193222 104.0
214.213608 40.0
214.237762 68.0
214.277695 124.0
214.314117 44.0
214.353455 92.0
214.391342 44.0
214.612869 96.0
214.662445 68.0
214.729523 32.0
214.843277 92.0
214.945404 44.0
215.073135 452.0
215.212036 104.0
215.269424 128.0
215.324905 44.0
215.393478 176.0
215.465958 112.0
215.506027 108.0
215.561539 100.0
215.608292 80.0
215.700333 88.0
215.769058 64.0
215.906494 104.0
216.278061 72.0
216.354172 52.0
216.424438 36.0
216.676331 96.0
216.816971 112.0
217.32135 104.0
217.564941 60.0
217.641281 68.0
217.770493 44.0
218.320068 92.0
220.194443 128.0
220.321457 80.0
220.856506 52.0
221.812912 92.0
221.955231 28.0
222.044189 88.0
223.422455 132.0
225.112442 88.0
226.640991 48.0
227.15065 68.0
227.582809 116.0
227.844101 48.0
229.07753 68.0
229.86142 84.0
230.991364 208.0
236.300064 52.0
239.99498 104.0
241.353577 100.0
241.916656 112.0
246.338715 84.0
248.041 116.0
250.763 80.0
253.195709 104.0
253.731216 88.0
254.867477 64.0
267.787811 68.0
268.628754 68.0
270.841248 104.0
272.669281 80.0
280.027496 76.0
290.997253 132.0
293.334442 56.0
295.266968 124.0
299.378357 164.0
301.527649 100.0
301.60025 56.0
307.306 76.0
312.646301 88.0
315.634186 28.0
317.078522 76.0
328.405548 56.0
328.430786 88.0
340.100189 72.0
340.790588 56.0
347.328674 88.0
352.499969 124.0
354.262207 48.0
362.566772 76.0
362.676697 48.0
363.241669 48.0
364.422363 100.0
395.515228 100.0
396.969238 40.0
425.705658 72.0
430.705566 180.0
431.428741 56.0
450.447845 84.0
453.803864 100.0
466.58255 68.0
473.057922 40.0
485.374847 44.0
485.918732 128.0
499.338898 168.0
503.135376 56.0
515.758484 48.0
518.587402 60.0
526.467285 60.0
528.647888 48.0
533.312073 36.0
534.765503 64.0
542.711304 88.0
555.705872 48.0
562.506226 140.0
563.686951 76.0
577.220459 96.0
613.645935 108.0
618.462463 60.0
622.507996 72.0
626.541809 72.0
660.723206 44.0
667.447327 104.0
675.451538 68.0
676.926514 88.0
677.382324 152.0
705.627747 72.0
716.630249 80.0
730.06604 44.0
749.783203 68.0
767.081726 36.0
775.494568 44.0
791.410522 88.0
796.339783 88.0
817.006287 112.0
819.545532 72.0
820.862305 248.0
827.106812 204.0
827.146851 128.0
845.872375 148.0
856.01532 164.0
865.644714 192.0
872.309753 140.0
875.575317 160.0
876.900879 132.0
886.498596 100.0
887.470703 216.0
901.949158 164.0
905.958496 188.0
909.076294 216.0
919.312622 92.0
922.973267 60.0
936.202026 216.0
938.99939 208.0
939.54834 136.0
971.527466 204.0
973.991882 164.0
983.518738 204.0
985.560852 180.0
989.945801 72.0
992.696838 244.0
995.005859 80.0
996.015564 72.0
1000.720947 152.0
1012.282471 176.0
1012.770142 136.0
1015.520935 176.0
1019.66687 144.0
1019.889343 160.0
1021.052856 108.0
1023.40094 196.0
1036.450439 216.0
1041.659912 224.0
1042.668701 132.0
1046.380249 212.0
1049.459961 236.0
1056.292725 68.0
1062.849121 176.0
1068.033447 184.0
1071.242554 164.0
1077.81897 188.0
1077.871216 52.0
1079.171997 52.0
1081.906738 188.0
1084.93335 156.0
1088.988647 144.0
1089.744141 140.0
1091.676636 136.0
1099.800049 48.0
1101.483765 100.0
1107.251465 144.0
1107.357422 228.0
1115.213135 160.0
1118.385742 40.0
1121.569702 208.0
1121.816284 136.0
1124.471069 132.0
1125.55249 172.0
1127.823975 188.0
1129.221313 220.0
1131.59021 168.0
1132.145996 176.0
1134.021973 136.0
1134.853149 148.0
1136.644043 200.0
1138.550537 132.0
1141.359497 148.0
1148.012573 168.0
1148.086792 260.0
1150.185059 92.0
1150.455078 164.0
1150.549561 148.0
1151.008667 144.0
1155.307251 220.0
1159.105591 184.0
1159.464722 36.0
1160.006958 180.0
1160.868042 160.0
1164.030273 176.0
1164.390259 108.0
1168.271484 140.0
1170.034058 180.0
1170.946533 140.0
1172.118286 164.0
1173.802002 152.0
1175.193481 156.0
1176.374146 184.0
1176.804199 240.0
1178.16333 136.0
1180.247925 124.0
1181.260132 52.0
1181.431152 196.0
1182.327515 144.0
1182.389038 144.0
1183.340576 192.0
1183.689697 184.0
1187.074951 56.0
1189.098755 192.0
1189.359497 200.0
1190.169678 160.0
1191.103638 176.0
1191.206665 224.0
1194.444336 160.0
1194.726318 204.0
1195.290527 188.0
1195.641479 144.0
1195.875488 76.0
1198.265015 196.0
1198.671631 172.0
1198.80249 124.0
1201.17395 160.0
1206.328369 184.0
1206.470825 64.0
1207.459717 116.0
1209.182373 128.0
1209.770752 108.0
1210.573853 108.0
1213.983398 64.0
1215.072388 200.0
1215.141724 136.0
1215.613647 180.0
1217.140747 156.0
1220.281372 132.0
1221.039307 56.0
1222.173218 120.0
1222.917847 176.0
1223.203247 184.0
1225.215698 152.0
1228.952759 132.0
1229.203979 144.0
1229.832031 148.0
1234.184326 140.0
1234.289185 192.0
1235.191406 56.0
1235.898071 176.0
1237.346802 164.0
1237.759888 192.0
1237.843994 168.0
1238.754517 140.0
1245.586792 192.0
1246.493164 188.0
1247.782104 184.0
1248.285645 204.0
1250.114624 220.0
1251.585815 140.0
1251.832275 148.0
1251.994263 36.0
1252.466187 244.0
1252.747925 124.0
1252.860718 200.0
1254.051514 148.0
1254.368774 84.0
1254.622559 144.0
1257.641602 176.0
1257.747559 140.0
1259.484497 216.0
1259.533936 136.0
1260.282837 244.0
1261.724609 140.0
1264.759399 116.0
1264.908081 104.0
1267.025513 196.0
1267.259277 240.0
1273.999146 176.0
1279.019653 96.0
1281.46228 140.0
1282.816284 220.0
1285.505249 148.0
1286.133301 176.0
1286.397339 216.0
1287.447021 160.0
1289.997803 204.0
1290.727051 192.0
1293.331055 108.0
1293.588867 224.0
1295.23584 152.0
1296.625732 160.0
1299.903076 212.0
1301.941895 108.0
1302.301025 152.0
1303.048096 156.0
1303.242065 44.0
1304.887939 168.0
1305.168335 164.0
1305.873169 116.0
1306.678833 228.0
1306.85144 180.0
1307.240112 168.0
1309.96167 156.0
1311.950562 112.0
1312.246216 40.0
1313.082642 124.0
1316.676758 160.0
1318.793701 120.0
1319.009399 120.0
1320.073364 100.0
1320.731445 144.0
1321.100464 88.0
1325.19812 140.0
1325.27063 116.0
1325.386597 160.0
1325.850342 232.0
1326.09668 144.0
1326.357666 180.0
1326.807129 148.0
1328.57666 68.0
1328.946655 188.0
1329.47644 204.0
1330.543457 156.0
1332.816772 164.0
1333.049316 148.0
1334.721191 156.0
1335.019287 180.0
1337.944336 84.0
1338.745239 152.0
1339.939819 56.0
1340.275024 208.0
1340.32605 132.0
1340.398926 112.0
1341.754639 168.0
1342.520264 160.0
1344.825684 176.0
1345.803833 192.0
1346.242065 156.0
1347.081909 156.0
1347.527588 164.0
1347.783325 236.0
1348.828369 84.0
1348.916138 76.0
1351.739624 164.0
1351.95874 196.0
1352.149048 204.0
1353.430176 120.0
1355.070801 148.0
1356.199341 224.0
1356.646484 60.0
1361.25415 204.0
1361.768311 120.0
1362.715942 176.0
1363.715332 224.0
1364.788696 120.0
1366.480347 172.0
1367.002686 200.0
1370.065674 128.0
1371.09729 236.0
1371.532104 224.0
1371.679565 100.0
1373.250122 132.0
1374.496948 160.0
1375.995239 156.0
1378.757812 136.0
1379.800049 168.0
1381.449219 168.0
1381.930176 148.0
1386.282349 180.0
1388.322754 160.0
1388.500732 164.0
1389.665405 176.0
1391.543213 212.0
1391.981201 204.0
1392.100098 144.0
1392.293091 40.0
1393.890259 192.0
1394.626099 208.0
1395.205933 124.0
1396.946045 176.0
1398.977661 224.0
1399.044678 212.0
1401.584351 148.0
1402.993042 168.0
1403.097412 192.0
1403.5 124.0
1404.30542 196.0
1404.596313 252.0
1405.066284 140.0
1405.223022 192.0
1405.409546 164.0
1405.760254 100.0
1406.625977 168.0
1406.782715 188.0
1407.693604 152.0
1408.179077 76.0
1408.253784 128.0
1409.613403 160.0
1412.529297 160.0
1413.808716 104.0
1414.714355 188.0
1414.968872 172.0
1415.245972 220.0
1418.025146 32.0
1418.752319 140.0
1419.262085 224.0
1420.424561 180.0
1421.219849 184.0
1421.527466 128.0
1421.9552 144.0
1422.270508 188.0
1422.540649 184.0
1422.600708 220.0
1423.636963 136.0
1423.764526 88.0
1425.484863 96.0
1426.747559 172.0
1427.04834 168.0
1427.131104 244.0
1427.567139 128.0
1427.852905 196.0
1428.018433 260.0
1428.823364 196.0
1429.094116 208.0
1430.48645 120.0
1431.148926 148.0
1432.082764 236.0
1437.367554 132.0
1437.744873 28.0
1437.843018 140.0
1439.103638 160.0
1439.768066 208.0
1440.379883 124.0
1440.463013 236.0
1440.540039 176.0
1440.886108 152.0
1441.067383 128.0
1441.535889 244.0
1442.185791 108.0
1442.835938 212.0
1444.824951 92.0
1446.292969 176.0
1447.186279 136.0
1448.829834 140.0
1448.988892 208.0
1450.216553 108.0
1451.088257 204.0
1451.998169 160.0
1452.203003 148.0
1452.27124 148.0
1452.415405 192.0
1452.50647 180.0
1452.900879 216.0
1453.803833 112.0
1454.001099 204.0
1455.08667 136.0
1455.57251 132.0
1456.613037 212.0
1457.463989 116.0
1458.892822 76.0
1459.143677 216.0
1459.820435 132.0
1459.934448 148.0
1460.900391 108.0
1460.953735 148.0
1461.39502 136.0
1461.767822 160.0
1462.414673 124.0
1462.726807 180.0
1463.602295 176.0
1464.340942 204.0
1464.65332 260.0
1467.15271 172.0
1468.037231 52.0
1468.487183 104.0
1468.929565 188.0
1470.447998 216.0
1470.760986 164.0
1472.371948 172.0
1473.089966 208.0
1476.445312 188.0
1477.921753 180.0
1478.901245 128.0
1479.314697 176.0
1480.049683 188.0
1480.17981 188.0
1481.160156 152.0
1483.052734 172.0
1483.366943 172.0
1483.650635 148.0
1484.463379 112.0
1484.56311 160.0
1484.715942 168.0
1485.379028 228.0
1485.667603 40.0
1485.813354 100.0
1488.115845 188.0
1490.612183 164.0
1490.796631 144.0
1491.772705 160.0
1493.041382 308.0
1493.36438 212.0
1493.810547 180.0
1494.564575 136.0
1495.488037 128.0
1496.996948 196.0
1497.898071 104.0
1498.160034 168.0
1501.381958 248.0
1501.790649 164.0
1502.407837 104.0
1502.97876 156.0
1503.866211 192.0
1503.927979 152.0
1504.584106 144.0
