>compound Tolfenamic acid
>formula C14H12ClNO2
>ionization [M+H]+
>parentmass 262.062744
#inchi InChI=1S/C14H12ClNO2/c1-9-11(15)6-4-8-12(9)16-13-7-3-2-5-10(13)14(17)18/h2-8,16H,1H3,(H,17,18)
#inchikey YEZNLOUZAIOMLT
#Ion_Source LC-ESI
#Instrument qTof
#Compound_Source Commercial
#PI Dorrestein
#Data_Collector Garg_Neha
#Scan -1
#Precursor_MZ 262.063
#ExactMass 261.056
#Charge 1
#CAS_Number 13710-19-5
#Pubmed_ID N/A
#Smiles C1(NC2=CC=CC(=C2C)Cl)=C(C=CC=C1)C(O)=O
#INCHI_AUX N/A
#Library_Class 1
#SpectrumID CCMSLIB00000078358
#IonMode Positive
#UpdateWorkflowName UPDATE-SINGLE-ANNOTATED-GOLD
#LibraryQualityString Gold
#TaskID 77f51c88eb8b467eb4a01dd2d0cb90d2
##Scan# 2377
#SpectrumFile Plate5_61_88_GH9_01_16511.mzXML
#LibraryName FDALibrary_2_04302014.mgf
#MQScore -1
#Organism FDALibrary_2_04302014
#TIC_Query 0
#RT_Query -1
#MZErrorPPM -1
#SharedPeaks 0
#MassDiff 0
#LibMZ -1
#SpecMZ 262.063
#SpecCharge 0
#internalFilename spec-00000.mgf

>collision 10
45.321503 164.0
45.844219 184.0
45.86174 172.0
46.027676 168.0
46.346893 156.0
46.991371 176.0
47.040501 164.0
47.316647 172.0
47.636177 220.0
48.079525 156.0
48.119556 176.0
48.681725 228.0
49.229 144.0
50.941589 156.0
51.631596 140.0
51.962482 168.0
52.497562 164.0
53.597797 220.0
54.788967 144.0
56.384106 140.0
57.096226 220.0
57.123299 164.0
58.01123 180.0
58.928921 224.0
59.382034 156.0
60.972263 168.0
61.550201 188.0
61.662678 152.0
61.731464 196.0
62.525261 152.0
63.768372 184.0
64.010185 152.0
64.078674 172.0
64.584717 176.0
66.292923 160.0
67.171951 152.0
67.803635 196.0
68.355415 164.0
69.116104 204.0
69.260132 160.0
69.30983 224.0
69.493874 144.0
70.074135 164.0
71.179733 220.0
72.901093 160.0
73.444191 144.0
73.927689 160.0
74.157181 164.0
75.56926 164.0
76.285507 148.0
76.651001 208.0
76.898636 164.0
77.328583 168.0
77.949394 180.0
78.101479 164.0
78.260735 240.0
78.518005 192.0
79.840942 168.0
80.963478 180.0
82.536247 208.0
82.686394 156.0
84.160667 180.0
84.261116 184.0
84.964134 188.0
85.268944 176.0
85.550369 152.0
86.840134 144.0
87.230057 144.0
87.37883 172.0
88.474327 156.0
89.537102 220.0
92.755814 144.0
93.045486 160.0
93.610771 148.0
93.653145 164.0
94.30143 160.0
94.626411 164.0
95.076111 148.0
95.355774 188.0
95.437317 152.0
97.629486 148.0
98.437439 152.0
98.779358 168.0
99.667534 196.0
100.627556 140.0
103.745964 144.0
103.86763 152.0
105.922333 196.0
106.268791 196.0
106.28315 148.0
107.468315 172.0
107.711914 192.0
107.842087 208.0
107.885498 172.0
109.327034 164.0
109.674843 200.0
111.815384 200.0
112.575012 220.0
112.999176 196.0
113.412117 152.0
113.91713 176.0
114.885727 176.0
115.560837 168.0
116.190712 156.0
117.097824 176.0
117.477188 148.0
117.79451 168.0
118.371971 144.0
118.738205 176.0
120.19136 176.0
121.699448 216.0
122.077393 176.0
123.608299 184.0
125.413841 204.0
126.242119 172.0
126.396469 220.0
126.57106 200.0
126.922852 152.0
127.012558 168.0
127.100052 144.0
127.135956 144.0
127.198799 140.0
127.407639 172.0
127.42337 164.0
127.708855 156.0
128.493637 220.0
128.964722 156.0
129.150131 152.0
130.0383 156.0
130.485794 188.0
130.574478 144.0
130.906738 156.0
131.782639 220.0
132.127853 256.0
132.968811 212.0
133.950592 144.0
134.098068 156.0
136.284912 176.0
136.926941 172.0
137.535477 144.0
138.662827 164.0
139.052139 152.0
139.080307 140.0
139.122559 148.0
139.686539 160.0
139.808899 168.0
142.599609 188.0
142.992035 160.0
143.351639 144.0
143.394531 188.0
143.759415 208.0
143.990982 168.0
144.103317 168.0
144.34227 156.0
144.502533 168.0
144.768219 152.0
145.237961 196.0
146.146042 172.0
146.191757 152.0
146.589096 176.0
147.211472 200.0
148.984421 184.0
150.926895 152.0
152.174026 148.0
152.985321 380.0
153.071487 164.0
153.487915 188.0
154.001236 156.0
154.537659 252.0
154.712494 264.0
155.072556 152.0
156.092865 240.0
156.652863 196.0
157.004303 216.0
157.029236 200.0
157.728348 156.0
158.348862 236.0
158.940475 148.0
159.623703 200.0
160.686615 172.0
161.156235 176.0
161.854324 192.0
164.156525 192.0
164.843201 168.0
166.063965 132.0
167.697006 176.0
167.733078 148.0
168.117371 240.0
169.200394 208.0
169.788574 180.0
171.009674 148.0
171.733994 164.0
173.653748 224.0
174.211395 116.0
174.930756 152.0
175.824463 264.0
176.196579 144.0
176.232529 216.0
177.106552 144.0
177.660568 180.0
177.862244 164.0
178.058716 140.0
178.226074 140.0
179.071243 496.0
179.418427 140.0
180.079514 3576.0
180.943893 144.0
181.085526 1768.0
181.63797 144.0
182.011017 196.0
182.059143 180.0
183.062759 476.0
184.074936 224.0
185.811295 208.0
186.001251 148.0
186.085419 160.0
188.135437 192.0
188.40033 144.0
188.826736 180.0
188.990875 176.0
191.45314 148.0
191.962952 140.0
192.178101 220.0
193.953522 192.0
194.058395 488.0
194.847076 152.0
195.094421 140.0
197.285583 180.0
199.340027 196.0
199.798325 172.0
201.033371 444.0
201.600037 156.0
202.638489 176.0
202.777344 176.0
203.024994 228.0
203.441086 152.0
203.895538 208.0
203.980804 212.0
204.751877 220.0
204.814529 160.0
207.067108 96.0
207.254257 176.0
207.712952 140.0
207.936752 140.0
208.025742 140.0
208.074463 3680.0
208.143448 244.0
208.50827 192.0
208.956848 192.0
209.028778 200.0
209.082886 16348.0
209.246231 196.0
209.413986 148.0
209.647903 184.0
209.921768 164.0
210.051392 144.0
210.087219 2596.0
211.063095 176.0
211.093369 500.0
211.675797 204.0
212.020523 156.0
212.240829 152.0
213.007004 156.0
213.169708 160.0
214.039841 560.0
214.931381 184.0
216.025986 164.0
218.53241 148.0
219.351105 172.0
219.92923 144.0
220.112274 180.0
221.688934 192.0
222.023926 180.0
222.647141 184.0
222.68576 156.0
223.936523 188.0
224.548874 152.0
226.596497 248.0
226.70137 176.0
228.148071 156.0
229.02919 4820.0
230.032303 624.0
230.127441 196.0
231.025253 756.0
232.029022 384.0
233.688736 144.0
234.687759 212.0
236.343231 164.0
237.580994 148.0
238.090515 168.0
238.665146 164.0
239.406738 164.0
241.548691 204.0
242.037048 532.0
242.3815 276.0
243.042648 336.0
243.52002 244.0
243.920105 148.0
243.951004 276.0
244.052551 47084.0
244.137177 172.0
244.190414 176.0
244.245895 172.0
244.403427 116.0
244.575943 156.0
244.94458 156.0
245.054886 6700.0
245.770737 188.0
246.049332 9528.0
246.189026 144.0
246.490372 180.0
246.732788 128.0
246.840042 104.0
246.962219 140.0
246.993881 144.0
247.051697 808.0
247.616974 100.0
247.733688 144.0
248.132126 168.0
248.533585 164.0
261.056885 108.0
261.128723 176.0
261.728699 156.0
262.062744 3744.0
262.102356 156.0
262.179688 212.0
263.064819 540.0
263.157074 144.0
263.205505 220.0
264.019836 176.0
264.058411 860.0
264.139496 184.0
265.066284 168.0
265.178833 160.0
443.263702 172.0
879.921997 144.0
944.765259 144.0
1342.437744 172.0
1362.294434 192.0
1709.210693 140.0
1717.564453 188.0
1776.073486 152.0
1789.923218 240.0
1811.154541 156.0
1811.781372 168.0
1839.375977 212.0
1874.048218 184.0
1880.084229 156.0
1888.715332 204.0
1897.678223 148.0
1906.01062 244.0
1914.988281 196.0
1923.463379 204.0
1941.346313 168.0
1941.93396 144.0
1952.956665 164.0
1993.003174 184.0
