>compound MLS001140937-01!4-[[[2-(4-ethyl-8-methyl-2-oxochromen-7-yl)oxyacetyl]amino]methyl]cyclohexane-1-carboxylic acid
>formula C22H27NO6
>ionization [M+H]+
>parentmass 402.192
#inchi InChI=1S/C22H27NO6/c1-3-15-10-20(25)29-21-13(2)18(9-8-17(15)21)28-12-19(24)23-11-14-4-6-16(7-5-14)22(26)27/h8-10,14,16H,3-7,11-12H2,1-2H3,(H,23,24)(H,26,27)/t14-,16-
#inchikey UVQROKPDAKXSPK
#Ion_Source LC-ESI
#Instrument qTof
#Compound_Source NIH Natural Product Library
#PI Dorrestein
#Data_Collector VVP/LMS
#Scan -1
#Precursor_MZ 402.192
#ExactMass 401.184
#Charge 1
#CAS_Number N/A
#Pubmed_ID N/A
#Smiles CCc1cc(=O)oc2c(C)c(OCC(=O)NC[C@H]3CC[C@@H](CC3)C(=O)O)ccc12
#INCHI_AUX N/A
#Library_Class 1
#SpectrumID CCMSLIB00000079773
#IonMode Positive
#UpdateWorkflowName UPDATE-SINGLE-ANNOTATED-GOLD
#LibraryQualityString Gold
#TaskID b1d8e8f6646f4e71acdff9ca3d919d08
##Scan# 1942
#SpectrumFile p1-H10_GH10_01_17966.mzXML
#LibraryName NIH_Natural_Products_Library.mgf
#MQScore -1
#Organism NIH_Natural_Products_Library
#TIC_Query 0
#RT_Query -1
#MZErrorPPM -1
#SharedPeaks 0
#MassDiff 0
#LibMZ -1
#SpecMZ 402.192
#SpecCharge 0
#internalFilename spec-00000.mgf

>collision 10
95.06073 144.0
95.084877 1800.0
95.2005 100.0
95.538704 72.0
95.617699 152.0
96.078163 208.0
96.090805 244.0
96.617554 188.0
96.764336 128.0
96.887718 116.0
97.020988 128.0
97.048431 176.0
97.097458 116.0
97.293678 100.0
97.486168 140.0
97.93277 140.0
98.043098 128.0
98.439621 196.0
99.145866 72.0
99.211273 124.0
99.356049 124.0
99.745277 148.0
100.039688 52.0
100.454185 40.0
100.481178 248.0
100.995514 144.0
101.227669 160.0
101.436035 48.0
101.554054 168.0
101.672714 196.0
102.668556 56.0
103.051857 168.0
103.100586 44.0
103.661148 132.0
103.705734 120.0
103.772629 156.0
103.786827 236.0
103.915009 100.0
104.168373 104.0
104.359261 164.0
104.469238 132.0
104.792946 244.0
105.002907 96.0
105.044609 188.0
105.068466 616.0
105.24575 220.0
105.539978 172.0
106.070503 180.0
106.937027 32.0
107.048195 204.0
107.08712 160.0
107.466637 36.0
107.499649 152.0
107.590469 168.0
107.6297 80.0
108.076172 304.0
108.138252 112.0
108.266617 148.0
108.911636 40.0
109.030067 76.0
109.069557 128.0
109.558578 180.0
109.575249 156.0
109.589836 172.0
109.710716 160.0
110.002769 104.0
110.038261 96.0
110.060211 256.0
110.094429 332.0
110.270134 80.0
110.470863 148.0
110.772728 160.0
110.805832 216.0
110.990273 172.0
111.06485 204.0
111.101753 344.0
111.185364 188.0
111.214752 128.0
111.90638 120.0
112.011681 232.0
112.110207 504.0
112.157074 48.0
112.241402 112.0
112.515694 128.0
113.270653 56.0
113.51651 240.0
113.662872 212.0
113.715927 112.0
113.78598 136.0
113.932518 76.0
114.519623 148.0
114.822273 204.0
114.926804 132.0
115.003632 112.0
115.052727 144.0
116.059319 212.0
116.081894 164.0
116.22776 188.0
117.059647 56.0
117.898819 80.0
118.125847 156.0
118.359589 148.0
118.478714 140.0
118.528549 220.0
118.55455 160.0
118.569725 212.0
119.047012 404.0
119.088264 204.0
119.5644 48.0
119.65583 228.0
120.054581 228.0
120.329514 92.0
120.353531 180.0
120.620071 156.0
120.731575 168.0
120.764381 192.0
121.063568 800.0
121.099258 180.0
121.131523 192.0
121.182503 140.0
121.355652 184.0
121.616707 184.0
121.671593 148.0
121.741852 184.0
122.064888 164.0
122.17926 220.0
122.326706 140.0
122.483047 116.0
122.628471 184.0
122.738701 128.0
123.093971 164.0
123.131508 132.0
123.770607 104.0
123.832619 184.0
124.071243 180.0
124.110901 1004.0
124.179474 196.0
124.209427 48.0
124.313705 72.0
124.500183 76.0
124.533493 152.0
124.551262 156.0
124.829079 192.0
125.104973 184.0
125.162857 140.0
125.708992 172.0
125.943413 112.0
126.292107 92.0
126.307762 228.0
126.688316 156.0
126.912437 116.0
126.93486 224.0
127.011116 192.0
127.363518 180.0
127.44664 156.0
128.059082 428.0
128.083313 144.0
128.110352 164.0
128.543243 108.0
128.866135 220.0
129.067001 552.0
129.092911 148.0
129.114792 32.0
130.072495 176.0
130.463928 168.0
131.048599 316.0
131.083694 760.0
131.162796 136.0
131.472977 176.0
132.089783 188.0
132.89859 120.0
133.017929 184.0
133.063141 116.0
133.101288 496.0
133.190155 100.0
133.325714 132.0
133.815674 232.0
134.07135 172.0
134.101318 160.0
134.288071 176.0
134.431107 64.0
134.447266 144.0
134.502655 172.0
134.694321 188.0
134.869934 208.0
134.973969 108.0
135.077896 172.0
135.219177 168.0
135.705643 184.0
136.03508 136.0
136.085007 168.0
136.137253 216.0
136.198059 108.0
136.553253 136.0
137.057037 460.0
137.464157 128.0
137.919571 144.0
138.061951 188.0
138.091171 276.0
138.148743 116.0
138.539688 116.0
138.56781 148.0
138.605286 140.0
138.774063 188.0
138.870209 140.0
139.10321 120.0
139.14946 116.0
139.377289 148.0
139.621765 100.0
139.87587 60.0
140.04776 192.0
140.105667 524.0
140.196198 196.0
140.403656 160.0
140.441391 72.0
140.545197 180.0
140.859192 332.0
140.948975 200.0
141.063629 492.0
141.117813 176.0
141.87677 140.0
142.080719 184.0
142.225479 128.0
142.249207 132.0
142.291946 184.0
142.576996 48.0
142.662552 204.0
143.045563 152.0
143.083298 196.0
143.207474 200.0
143.352798 188.0
143.493439 248.0
143.765366 228.0
144.05777 200.0
144.087708 164.0
144.137878 156.0
144.211975 160.0
144.455872 112.0
144.989822 76.0
145.063477 340.0
145.100082 120.0
145.217575 108.0
145.673645 160.0
145.767349 136.0
145.793777 152.0
145.8255 120.0
145.959656 64.0
146.070679 1820.0
146.426514 44.0
146.978561 100.0
147.048355 152.0
147.05661 140.0
147.073883 208.0
147.099243 184.0
147.287582 180.0
147.34314 200.0
147.39389 64.0
147.809799 80.0
147.894501 116.0
148.037338 192.0
148.1633 56.0
148.243256 228.0
148.267487 40.0
148.292068 112.0
148.464417 156.0
148.670059 40.0
149.057144 212.0
149.094116 572.0
149.859146 152.0
150.067398 196.0
150.096802 372.0
150.502853 180.0
150.73024 148.0
150.820663 168.0
151.042007 168.0
151.28299 120.0
151.542587 192.0
152.082108 108.0
152.106628 768.0
152.55127 220.0
152.627487 144.0
153.113464 1112.0
153.255157 88.0
153.390701 44.0
153.42598 116.0
153.44986 64.0
153.716248 192.0
153.916199 176.0
153.953247 136.0
154.11499 352.0
154.534134 124.0
154.977341 68.0
155.030746 124.0
155.126038 188.0
155.205368 128.0
155.468323 260.0
155.532852 96.0
155.647049 180.0
155.863159 164.0
156.09433 184.0
156.320694 144.0
156.883591 252.0
157.063934 304.0
157.345123 184.0
157.425034 136.0
157.612381 176.0
157.649857 168.0
158.07106 236.0
158.205139 60.0
158.407974 84.0
158.583374 160.0
158.623489 84.0
158.658585 56.0
158.763885 180.0
158.909378 40.0
159.079285 3476.0
159.135269 224.0
159.28093 156.0
159.569931 188.0
159.600098 76.0
159.673035 56.0
160.050507 52.0
160.080719 644.0
160.136124 84.0
160.2117 152.0
160.304916 88.0
160.375488 140.0
160.509109 76.0
160.602417 128.0
160.781555 84.0
161.057632 312.0
161.094009 1156.0
161.16539 68.0
161.370117 140.0
161.451035 84.0
161.529434 220.0
161.683777 200.0
161.800217 240.0
162.065903 460.0
162.096558 216.0
162.20047 76.0
162.380493 136.0
162.677383 68.0
163.075546 248.0
163.404221 80.0
163.442383 108.0
163.796265 180.0
163.844666 132.0
163.933838 168.0
164.030701 196.0
164.058731 100.0
164.132675 140.0
164.221924 104.0
164.602188 84.0
165.133759 160.0
165.456177 168.0
165.535553 164.0
165.553467 176.0
165.707169 140.0
166.086563 180.0
166.384247 196.0
166.643646 188.0
167.562149 128.0
168.462524 164.0
168.945953 192.0
169.764435 216.0
170.044617 204.0
170.065384 216.0
170.117188 176.0
171.076721 180.0
171.206741 92.0
171.396912 212.0
171.433395 48.0
171.480301 104.0
171.92627 96.0
172.081741 244.0
172.289215 124.0
172.493057 160.0
172.571487 56.0
173.095764 164.0
173.849777 152.0
173.954758 128.0
174.067719 316.0
174.467026 52.0
175.014282 32.0
175.035339 204.0
175.075256 852.0
175.715378 184.0
176.042679 124.0
176.080017 1388.0
176.259293 60.0
176.568588 136.0
177.053329 376.0
177.086624 1340.0
177.153549 92.0
177.180038 60.0
177.272781 156.0
177.535233 36.0
178.089737 180.0
178.342346 156.0
178.544403 268.0
179.191238 148.0
179.423111 160.0
179.441772 84.0
179.492432 240.0
179.90065 100.0
180.047501 148.0
180.09903 408.0
180.935242 108.0
181.109314 140.0
181.873489 280.0
181.943283 84.0
181.964767 120.0
182.612381 140.0
182.865295 128.0
183.207275 52.0
183.271942 256.0
183.635864 92.0
184.251328 180.0
184.402649 168.0
184.578369 172.0
184.773117 88.0
184.989624 72.0
185.035645 40.0
185.257721 44.0
186.079453 56.0
186.160919 200.0
186.337479 220.0
186.601105 144.0
187.036377 136.0
187.073837 536.0
187.586624 48.0
187.892059 148.0
188.080719 356.0
188.653992 164.0
188.831726 176.0
188.965775 168.0
189.049515 228.0
189.089203 4528.0
189.157333 56.0
189.475006 56.0
189.538025 48.0
189.762787 136.0
189.960236 44.0
190.058167 488.0
190.091415 680.0
190.122131 216.0
190.242889 80.0
190.512024 128.0
190.646652 120.0
190.734604 52.0
190.819824 140.0
190.89682 48.0
191.065445 156.0
191.334305 148.0
191.614166 192.0
191.959778 64.0
192.100433 40.0
192.238388 84.0
192.434372 112.0
192.964844 112.0
193.197159 192.0
193.222061 116.0
193.509888 132.0
193.797943 48.0
193.922653 64.0
194.066803 108.0
194.363586 228.0
194.805038 172.0
195.152435 192.0
196.511642 88.0
197.131531 156.0
198.110016 140.0
198.567703 196.0
198.938095 168.0
199.070877 272.0
199.110306 144.0
199.204865 168.0
199.471832 168.0
200.203369 40.0
200.338562 140.0
201.130966 92.0
201.297531 208.0
201.362488 248.0
201.916428 84.0
202.397507 108.0
202.505127 144.0
203.06955 316.0
203.347198 56.0
203.548767 56.0
203.841339 88.0
204.026093 76.0
204.076691 2044.0
204.367386 92.0
204.432831 200.0
204.586533 204.0
204.615005 116.0
204.683334 220.0
204.763077 200.0
204.828583 184.0
204.905502 212.0
204.939697 144.0
204.972458 184.0
205.02861 272.0
205.084503 33492.0
205.153442 120.0
205.224731 96.0
205.248962 80.0
205.286819 72.0
205.355911 184.0
205.431488 56.0
205.461441 124.0
205.489975 52.0
205.527069 140.0
205.55687 112.0
205.601257 52.0
205.681183 52.0
205.723999 40.0
205.786804 80.0
205.818512 240.0
205.949585 112.0
205.981003 64.0
206.0867 5052.0
206.138153 76.0
206.18959 84.0
206.278198 132.0
206.298203 92.0
206.34967 136.0
206.667145 60.0
206.78447 40.0
206.813095 204.0
206.89325 44.0
206.930466 48.0
207.033554 60.0
207.08992 864.0
207.130936 140.0
207.168167 72.0
207.288513 116.0
207.361725 132.0
207.387817 92.0
207.483414 52.0
207.646851 76.0
207.685944 64.0
207.73291 112.0
207.798462 80.0
207.827591 156.0
207.864883 92.0
208.106003 248.0
208.266815 72.0
208.505295 72.0
208.63176 120.0
209.745804 76.0
210.475723 192.0
214.021973 32.0
214.53183 80.0
214.703857 64.0
214.759277 108.0
215.036453 52.0
215.077316 196.0
215.351776 172.0
216.322571 92.0
216.381119 112.0
216.509964 184.0
216.624191 148.0
216.650558 120.0
216.72673 204.0
216.83223 68.0
216.882065 184.0
216.993454 116.0
217.084503 15532.0
217.150299 208.0
217.286163 60.0
217.445206 44.0
217.533264 68.0
217.556747 180.0
217.640121 80.0
217.666718 96.0
217.706482 60.0
217.753479 44.0
217.944427 32.0
218.08876 1956.0
218.235413 52.0
218.30011 56.0
218.659012 68.0
218.829758 48.0
218.870972 128.0
218.918091 76.0
219.093079 408.0
219.259827 52.0
219.401321 52.0
219.421951 152.0
219.656464 100.0
219.716873 100.0
219.764084 88.0
219.837677 204.0
219.890976 60.0
219.994278 148.0
220.083496 164.0
220.095734 176.0
220.23642 44.0
220.283691 128.0
220.732925 76.0
221.28624 156.0
221.982559 196.0
222.483994 44.0
222.733444 156.0
224.826538 108.0
228.349808 56.0
228.403946 52.0
229.086639 188.0
229.123428 100.0
229.2771 52.0
231.057922 144.0
231.091934 136.0
231.706543 64.0
232.8228 108.0
233.436661 80.0
234.054382 172.0
240.042053 64.0
240.551132 108.0
240.97731 84.0
241.014389 84.0
243.383972 128.0
243.74118 172.0
244.095398 140.0
244.453278 128.0
244.727203 96.0
245.032425 376.0
245.078125 5520.0
245.122787 240.0
245.216278 72.0
245.468811 60.0
245.640335 68.0
245.783859 104.0
245.827545 80.0
246.081406 808.0
246.130341 128.0
246.373947 104.0
246.486435 76.0
246.605194 48.0
246.67395 72.0
246.879272 120.0
247.011673 64.0
247.086502 276.0
247.935333 88.0
248.399368 32.0
249.514221 128.0
249.775238 76.0
251.145432 60.0
251.400986 68.0
251.722977 124.0
251.757706 152.0
252.076767 80.0
254.58255 92.0
255.106812 172.0
255.781189 152.0
257.046478 176.0
257.662689 116.0
258.82373 208.0
259.256195 104.0
260.777435 60.0
261.475372 184.0
261.803741 180.0
261.932587 180.0
262.029602 140.0
262.054993 148.0
262.10498 9376.0
262.17746 172.0
262.203247 96.0
262.283813 88.0
262.425659 48.0
262.582062 120.0
262.703003 56.0
263.109009 1488.0
263.694305 48.0
264.10791 180.0
264.341125 52.0
264.587097 44.0
264.85318 124.0
265.014496 108.0
265.110382 124.0
265.228516 48.0
265.58844 40.0
266.94696 176.0
267.167175 160.0
268.033234 60.0
268.672272 64.0
269.419891 32.0
269.93631 124.0
270.571075 212.0
274.104156 1392.0
274.797668 68.0
275.113373 160.0
276.552429 180.0
277.102142 72.0
278.744598 88.0
284.345062 180.0
285.571411 140.0
287.03299 104.0
293.346008 56.0
296.29184 48.0
297.06662 132.0
297.286224 64.0
300.36554 20.0
303.394836 92.0
305.346313 80.0
310.112122 132.0
310.553925 28.0
311.171539 156.0
311.628113 36.0
316.322174 140.0
320.997803 60.0
322.879791 56.0
323.233948 160.0
327.156036 148.0
338.174133 112.0
340.630066 72.0
340.928467 80.0
342.447906 68.0
343.46524 136.0
351.206543 164.0
352.464661 84.0
354.110687 56.0
354.534058 120.0
355.614166 132.0
355.846924 28.0
355.974579 48.0
356.183258 3572.0
356.305115 36.0
356.635803 40.0
356.753479 184.0
357.004272 124.0
357.188538 844.0
357.275085 44.0
357.369141 140.0
357.433105 36.0
357.466949 36.0
358.184052 148.0
358.272705 84.0
359.245331 108.0
359.298157 92.0
361.035675 116.0
366.982269 48.0
367.710876 108.0
377.863495 84.0
379.032806 108.0
381.09317 40.0
383.229279 80.0
384.188354 112.0
387.119812 44.0
399.402435 40.0
429.779663 84.0
429.991974 36.0
443.017792 100.0
468.414917 132.0
469.358765 124.0
482.777344 88.0
499.631836 60.0
505.763275 104.0
524.810425 32.0
527.051575 148.0
543.590637 56.0
548.685486 52.0
551.177917 72.0
555.503967 40.0
569.884705 84.0
577.488281 124.0
583.50647 120.0
586.216431 64.0
588.444885 84.0
718.022583 100.0
745.43634 96.0
762.663086 124.0
802.932068 72.0
826.22168 144.0
836.678223 64.0
848.069702 72.0
882.493469 28.0
888.024475 124.0
897.014954 84.0
910.375427 96.0
930.944336 152.0
931.557739 52.0
959.267273 276.0
965.348877 132.0
968.827393 156.0
974.056885 144.0
974.615967 200.0
1003.767334 56.0
1005.45166 168.0
1006.278625 196.0
1008.173584 212.0
1011.867615 148.0
1014.959595 124.0
1059.89563 116.0
1081.111694 100.0
1082.178589 176.0
1085.592529 296.0
1088.348633 180.0
1102.498291 296.0
1124.781738 132.0
1130.924561 148.0
1131.071777 196.0
1133.884888 124.0
1140.845581 228.0
1150.24292 196.0
1172.547852 96.0
1176.009399 164.0
1176.93103 144.0
1185.872314 52.0
1186.009399 236.0
1202.813721 176.0
1202.910278 168.0
1203.8479 76.0
1203.904541 216.0
1215.72876 164.0
1216.159058 196.0
1216.554688 168.0
1216.922607 188.0
1220.876465 184.0
1223.179443 140.0
1224.565063 112.0
1233.035034 228.0
1253.583618 36.0
1254.506958 60.0
1259.707764 104.0
1263.48291 156.0
1267.695801 136.0
1269.022217 164.0
1277.707397 172.0
1281.822876 192.0
1297.239502 144.0
1312.019897 48.0
1319.015015 84.0
1326.949341 184.0
1334.173218 128.0
1351.473145 192.0
1356.101318 192.0
1361.067871 124.0
1362.603027 104.0
1371.993896 136.0
1374.140015 132.0
1374.951782 164.0
1381.934814 200.0
1383.185547 184.0
1385.481201 208.0
1387.156006 240.0
1393.620117 60.0
1394.080811 160.0
1404.011841 260.0
1404.936768 140.0
1416.808594 172.0
1421.794922 116.0
1422.305298 96.0
1426.534424 172.0
1432.47937 164.0
1441.17041 196.0
1443.203735 268.0
1443.347412 136.0
1448.607422 172.0
1452.518921 184.0
1460.274048 112.0
1463.363525 176.0
1463.843262 156.0
1467.805786 196.0
1472.224121 176.0
1477.016235 184.0
1479.886108 156.0
1486.071533 180.0
1487.015381 76.0
1492.615723 60.0
1494.230957 176.0
1495.108154 224.0
1498.342163 140.0
