>compound MLS001401428-01!CEFPODOXIME PROXETIL
>formula C21H27N5O9S2
>ionization [M+H]+
>parentmass 558.1322958960906
#inchi InChI=1S/C21H27N5O9S2/c1-9(2)33-21(30)35-10(3)34-19(29)15-11(6-31-4)7-36-18-14(17(28)26(15)18)24-16(27)13(25-32-5)12-8-37-20(22)23-12/h8-10,14,18H,6-7H2,1-5H3,(H2,22,23)(H,24,27)/t10?,14-,18-/m1/s1
#inchikey LTINZAODLRIQIX
#Ion_Source LC-ESI
#Instrument qTof
#Compound_Source NIH Pharmacologically Active Library
#PI Dorrestein
#Data_Collector VP/LMS
#Scan -1
#Precursor_MZ 558.136
#ExactMass 557.125
#Charge 1
#CAS_Number N/A
#Pubmed_ID N/A
#Smiles COCC1=C(N2[C@H](SC1)[C@H](NC(=O)C(=NOC)c3csc(N)n3)C2=O)C(=O)OC(C)OC(=O)OC(C)C
#INCHI_AUX N/A
#Library_Class 1
#SpectrumID CCMSLIB00000084919
#IonMode Positive
#UpdateWorkflowName UPDATE-SINGLE-ANNOTATED-GOLD
#LibraryQualityString Gold
#TaskID d252d724072548979f1f6f1ced849daf
##Scan# 1927
#SpectrumFile p3-C07_GC7_01_18252.mzXML
#LibraryName Pharm_Active_Library.mgf
#MQScore -1
#Organism Pharm_Active_Library
#TIC_Query 0
#RT_Query -1
#MZErrorPPM -1
#SharedPeaks 0
#MassDiff 0
#LibMZ -1
#SpecMZ 558.136
#SpecCharge 0
#internalFilename spec-00000.mgf

>collision 10
45.14497 168.0
45.167709 120.0
45.349815 208.0
45.60619 136.0
45.724552 124.0
45.803993 104.0
45.817463 188.0
45.946892 84.0
45.960384 184.0
46.141376 200.0
46.15625 76.0
46.184654 144.0
46.367443 160.0
46.383705 132.0
46.420315 196.0
46.446083 168.0
46.478645 132.0
46.564171 184.0
46.736824 112.0
46.841656 236.0
46.853916 176.0
47.010727 112.0
47.036659 148.0
47.119965 156.0
47.18557 68.0
47.368954 120.0
47.558186 120.0
47.651569 152.0
47.724419 76.0
47.770203 124.0
48.082592 60.0
48.205505 204.0
48.31612 64.0
48.483669 124.0
48.571022 112.0
48.855804 140.0
48.935135 264.0
48.993633 196.0
49.054951 56.0
49.071682 172.0
49.169331 168.0
49.19585 116.0
49.50626 212.0
49.650612 168.0
49.673054 172.0
49.754448 72.0
49.805004 176.0
49.987778 160.0
50.038452 188.0
50.087742 160.0
50.10183 208.0
50.30632 152.0
50.32185 184.0
50.395294 140.0
50.463142 156.0
50.593304 36.0
50.615959 160.0
50.72789 92.0
50.838524 180.0
50.848457 200.0
51.252338 128.0
51.289391 84.0
51.400635 100.0
51.413479 156.0
51.46487 224.0
51.580593 120.0
51.664967 212.0
51.743683 156.0
51.822456 232.0
51.922806 136.0
51.95723 128.0
51.968708 268.0
52.049091 164.0
52.135284 140.0
52.317963 164.0
52.433197 172.0
52.726177 60.0
52.762314 160.0
52.943192 160.0
52.983749 164.0
53.076511 156.0
53.106968 156.0
53.140335 104.0
53.230328 168.0
53.270996 132.0
53.28698 104.0
53.508053 40.0
53.663952 164.0
53.683693 208.0
53.716454 132.0
53.758072 84.0
53.776279 172.0
53.912109 172.0
53.954937 160.0
53.98959 120.0
54.195995 192.0
54.216511 64.0
54.253159 184.0
54.360229 80.0
54.38665 72.0
54.414543 128.0
54.430695 164.0
54.649712 140.0
54.91193 116.0
55.078724 204.0
55.145214 72.0
55.156796 188.0
55.579132 108.0
55.611782 148.0
55.78558 108.0
55.914986 196.0
55.934338 164.0
56.031136 188.0
56.151882 132.0
56.205585 216.0
56.387779 116.0
56.612194 124.0
56.660126 184.0
56.705082 148.0
56.786045 100.0
56.811546 172.0
56.850224 180.0
56.924118 128.0
56.955658 132.0
56.973682 180.0
56.990211 152.0
57.12101 160.0
57.134548 124.0
57.168167 140.0
57.286598 144.0
57.301666 212.0
57.322762 160.0
57.455448 84.0
58.145466 144.0
58.168236 168.0
58.189487 148.0
58.21986 212.0
58.269985 176.0
58.376389 156.0
58.793812 116.0
58.864037 180.0
59.029072 176.0
59.185154 200.0
59.270935 124.0
59.30925 164.0
59.435009 128.0
59.465702 172.0
59.493332 144.0
59.625401 196.0
59.642338 160.0
59.691536 176.0
59.713066 208.0
59.779221 200.0
59.859272 184.0
59.959408 200.0
60.198532 144.0
60.334503 144.0
60.465988 136.0
60.77282 164.0
60.951389 100.0
60.973145 164.0
61.02911 176.0
61.106876 204.0
61.188751 152.0
61.38102 208.0
61.491913 148.0
61.71674 212.0
61.771481 172.0
62.017323 152.0
62.138073 136.0
62.285645 184.0
62.397221 108.0
62.683342 144.0
62.768818 156.0
62.882404 136.0
62.950291 156.0
63.027695 152.0
63.143097 156.0
63.288689 152.0
63.317192 204.0
63.363129 188.0
63.382328 172.0
63.431274 156.0
63.443958 224.0
63.627991 228.0
63.65657 60.0
63.688335 84.0
64.030304 152.0
64.074905 188.0
64.165749 180.0
64.237511 176.0
64.579346 176.0
64.622543 212.0
64.634834 228.0
64.692963 196.0
64.745804 156.0
64.86116 144.0
64.873985 196.0
64.979836 144.0
65.201439 172.0
65.325249 100.0
65.355812 204.0
65.399269 168.0
65.433075 72.0
65.457222 188.0
65.505539 176.0
65.532928 224.0
65.560326 140.0
65.67318 128.0
65.713516 116.0
65.729652 144.0
65.805511 80.0
65.820045 152.0
65.857193 72.0
65.936356 148.0
66.009109 112.0
66.108849 232.0
66.324814 156.0
66.378006 228.0
66.478897 140.0
66.551941 164.0
66.737175 156.0
66.851044 148.0
66.961746 172.0
67.162231 144.0
67.508476 192.0
67.59845 132.0
67.695038 92.0
67.732704 192.0
67.968788 152.0
68.168045 164.0
68.229942 96.0
68.338493 40.0
68.404327 124.0
68.552559 152.0
68.687759 92.0
68.938721 152.0
69.064377 40.0
69.081543 228.0
69.10408 112.0
69.153725 184.0
69.271286 152.0
69.299454 152.0
69.342537 152.0
69.435387 140.0
69.719284 40.0
70.063721 224.0
70.127045 72.0
70.143715 128.0
70.173721 180.0
70.242096 116.0
70.505905 116.0
70.559395 128.0
70.609566 260.0
70.827156 88.0
70.994759 168.0
71.058502 92.0
71.097092 168.0
71.439865 116.0
71.473518 156.0
71.541161 148.0
71.807076 188.0
71.953888 36.0
72.203972 92.0
72.247955 92.0
72.517197 96.0
72.747887 208.0
72.836189 236.0
72.863373 32.0
72.887161 132.0
72.951744 92.0
72.990852 232.0
73.092911 104.0
73.259766 152.0
73.314293 188.0
73.419991 160.0
73.44899 112.0
73.609413 116.0
73.713623 168.0
74.105606 196.0
74.162865 136.0
74.222023 240.0
74.275185 72.0
74.324326 188.0
74.378143 72.0
75.064613 180.0
75.496338 56.0
75.539581 140.0
75.626099 168.0
75.846085 100.0
75.97094 184.0
76.080269 232.0
76.109787 152.0
76.149727 176.0
76.224426 48.0
76.302643 148.0
76.518387 140.0
76.650764 196.0
76.818138 196.0
76.858269 124.0
76.978714 96.0
77.025871 164.0
77.16568 196.0
77.247871 124.0
77.410645 136.0
77.557816 212.0
77.719162 232.0
77.892967 120.0
78.117973 144.0
78.468437 164.0
78.526634 164.0
78.561913 148.0
78.600731 128.0
78.625435 128.0
78.683685 152.0
78.779617 264.0
78.821457 196.0
78.860336 160.0
79.309914 156.0
79.643501 164.0
79.858574 44.0
79.897705 184.0
79.988464 80.0
80.278885 96.0
80.412689 120.0
80.548386 64.0
80.569824 144.0
80.618073 224.0
80.884567 208.0
80.934692 200.0
80.988419 124.0
81.022453 148.0
81.067253 104.0
81.104889 84.0
81.316536 208.0
81.42067 128.0
81.441536 240.0
81.535652 120.0
81.591377 68.0
81.736298 220.0
81.904495 160.0
82.009003 136.0
82.04866 164.0
82.191154 112.0
82.501114 220.0
82.588608 136.0
82.659164 168.0
82.822105 140.0
82.869202 92.0
83.068626 172.0
83.083145 120.0
83.526398 72.0
83.835915 168.0
83.886948 196.0
83.934357 156.0
84.330513 216.0
84.573776 92.0
84.773407 104.0
84.881569 164.0
84.949425 120.0
85.006302 92.0
85.028328 120.0
85.060204 152.0
85.101753 200.0
85.289139 192.0
85.303848 176.0
85.404984 100.0
85.436256 132.0
85.474892 172.0
85.509857 160.0
85.708748 200.0
85.839622 172.0
85.935539 156.0
85.955841 116.0
86.016747 212.0
86.131226 116.0
86.22361 160.0
86.39299 260.0
86.636246 60.0
86.764122 224.0
86.823456 96.0
87.237518 220.0
87.53521 232.0
87.767715 176.0
87.803574 84.0
87.833412 132.0
88.072342 208.0
88.208748 172.0
88.22744 96.0
88.386421 156.0
88.49498 128.0
88.629845 136.0
88.787308 120.0
89.021896 148.0
89.04631 132.0
89.059456 180.0
89.303802 208.0
89.544716 152.0
89.612534 128.0
89.833115 228.0
89.867844 184.0
90.233482 88.0
90.259956 152.0
90.293999 124.0
90.307236 192.0
90.375336 176.0
90.432114 132.0
90.744682 176.0
90.938179 140.0
91.122375 168.0
91.177483 188.0
91.253517 168.0
91.360023 120.0
91.390465 176.0
91.601791 180.0
91.763779 180.0
91.800011 140.0
91.87249 192.0
92.288849 152.0
92.422737 120.0
92.55481 136.0
92.688896 168.0
92.744476 88.0
92.782814 188.0
92.811577 188.0
92.84034 164.0
93.044518 108.0
93.126305 144.0
93.319031 124.0
93.478127 96.0
93.68222 136.0
93.959831 224.0
93.981056 68.0
94.286163 140.0
94.371216 208.0
94.491135 108.0
94.595642 192.0
94.839355 176.0
94.911438 136.0
95.023079 212.0
95.063416 116.0
95.293808 180.0
95.31324 212.0
95.373489 244.0
95.427925 72.0
95.803543 160.0
95.846405 72.0
95.895126 148.0
95.992599 140.0
96.379097 164.0
96.678291 160.0
96.791824 164.0
96.870171 152.0
96.899551 196.0
97.01001 608.0
97.048515 156.0
97.189735 144.0
97.246651 224.0
97.759598 60.0
97.789124 100.0
97.917099 172.0
97.992676 464.0
98.006989 440.0
98.335075 80.0
98.637283 180.0
98.719269 196.0
98.77372 36.0
98.799438 184.0
98.918175 148.0
98.966995 148.0
98.998337 584.0
99.025169 116.0
99.165771 156.0
99.304565 48.0
99.596336 196.0
99.703629 72.0
99.986031 144.0
100.022644 976.0
100.039772 124.0
100.244926 48.0
100.306709 216.0
100.39444 40.0
100.486198 168.0
100.50415 32.0
100.562027 124.0
100.807671 144.0
100.942703 212.0
100.959602 156.0
101.000999 212.0
101.004227 308.0
101.223763 80.0
101.35997 136.0
101.504295 172.0
101.67482 228.0
101.712952 68.0
101.81736 160.0
101.857529 136.0
102.013 152.0
102.066605 136.0
102.253632 120.0
102.410683 120.0
102.469101 144.0
102.515442 204.0
102.588005 180.0
102.70562 208.0
102.731186 104.0
102.787674 240.0
102.80584 92.0
102.92292 124.0
102.945129 64.0
103.0037 160.0
103.226021 184.0
103.343346 224.0
103.466805 108.0
103.55793 136.0
104.064903 132.0
104.30056 44.0
104.385948 144.0
104.876602 164.0
105.045616 492.0
105.321419 176.0
105.454231 64.0
105.47876 48.0
105.689407 160.0
106.02623 180.0
106.053131 332.0
106.101082 116.0
106.168755 192.0
106.318512 180.0
106.414993 212.0
106.468376 184.0
106.482758 80.0
106.569031 148.0
106.624519 144.0
107.060982 548.0
107.241966 144.0
107.365669 168.0
107.867401 128.0
108.001808 148.0
108.036171 176.0
108.063866 172.0
108.088699 208.0
108.35994 160.0
108.438683 64.0
108.484291 112.0
108.56308 56.0
108.650192 128.0
108.851524 144.0
109.047836 188.0
109.082146 188.0
109.175713 212.0
109.302605 164.0
109.319252 196.0
109.43998 232.0
109.686897 200.0
109.756699 72.0
109.785896 204.0
109.975754 156.0
110.005142 420.0
110.059662 232.0
110.163681 184.0
110.439606 164.0
110.508644 144.0
111.012825 340.0
111.053246 144.0
111.305145 56.0
111.504715 112.0
111.576187 168.0
111.593002 156.0
111.88755 176.0
111.929665 120.0
111.948616 136.0
112.020615 1316.0
112.03949 728.0
112.106613 52.0
112.207924 124.0
112.252068 128.0
112.27948 68.0
112.534813 240.0
112.549599 144.0
112.606613 144.0
112.69677 148.0
112.771416 156.0
112.811577 132.0
112.934219 140.0
112.993454 168.0
113.01239 292.0
113.054817 120.0
113.169121 200.0
113.234772 96.0
113.465744 248.0
113.592987 128.0
113.656631 200.0
113.897064 240.0
113.917778 140.0
113.948296 164.0
113.96125 112.0
114.000542 940.0
114.036766 216.0
114.153694 108.0
114.187721 168.0
114.260048 40.0
114.279198 104.0
114.447342 152.0
114.524887 136.0
114.69873 144.0
115.018791 260.0
115.042175 52.0
115.099823 152.0
115.151077 188.0
115.168159 168.0
115.242935 176.0
115.446007 144.0
116.017693 128.0
116.292267 84.0
116.375984 172.0
116.526337 124.0
116.732681 104.0
116.945709 216.0
117.003792 192.0
117.041641 228.0
117.068382 168.0
117.307549 168.0
117.814682 192.0
117.88382 144.0
117.911919 292.0
117.972443 204.0
118.115158 152.0
118.424362 132.0
118.533005 244.0
118.619698 100.0
118.725945 128.0
118.76281 128.0
119.020439 152.0
119.059174 180.0
119.114456 160.0
119.266563 176.0
119.497078 128.0
119.825836 120.0
119.882484 168.0
119.971855 60.0
120.067795 128.0
120.438835 164.0
120.465042 156.0
120.510925 132.0
120.591782 148.0
120.738266 216.0
120.843262 168.0
120.865143 176.0
120.959251 184.0
121.041756 580.0
121.074234 148.0
121.127861 160.0
121.344818 60.0
121.366745 140.0
121.640984 208.0
121.763947 140.0
121.877953 156.0
121.955093 148.0
122.006554 1104.0
122.06282 192.0
122.390678 112.0
122.531647 156.0
122.652847 96.0
122.820427 32.0
123.00605 132.0
123.077919 208.0
123.14077 120.0
123.273026 196.0
123.418915 224.0
123.553833 120.0
123.629066 72.0
123.71096 160.0
123.755241 192.0
123.819458 148.0
124.019165 1444.0
124.080933 228.0
124.114189 124.0
124.129715 112.0
124.300514 164.0
124.31926 180.0
124.367096 44.0
124.604706 108.0
124.669144 60.0
124.773621 168.0
124.818085 156.0
124.875908 184.0
124.925819 128.0
124.930725 56.0
124.941238 164.0
124.971565 172.0
125.004723 13464.0
125.069481 36.0
125.191933 100.0
125.274345 112.0
125.316673 92.0
125.381294 204.0
125.467049 204.0
125.497215 108.0
125.56411 60.0
125.651108 48.0
125.881432 148.0
125.932373 40.0
126.01181 15740.0
126.051254 376.0
126.164772 52.0
126.216194 68.0
126.247498 136.0
126.406334 52.0
126.480186 144.0
126.531677 116.0
126.55854 80.0
126.726532 144.0
126.807198 144.0
127.002182 836.0
127.01873 2572.0
127.05835 96.0
127.112198 52.0
127.134636 48.0
127.160629 200.0
127.19075 56.0
127.332199 100.0
127.658066 64.0
127.705299 52.0
127.723289 64.0
127.788528 152.0
127.957329 84.0
127.981781 228.0
128.0121 920.0
128.130753 104.0
128.207367 100.0
128.302032 80.0
128.441849 52.0
128.468918 68.0
128.514038 184.0
128.57045 136.0
128.647186 124.0
128.667511 64.0
128.927277 200.0
129.001389 1120.0
129.044815 192.0
129.191818 56.0
129.207657 84.0
129.424942 200.0
129.472488 232.0
129.91449 152.0
129.932632 148.0
129.978012 204.0
130.000702 48.0
130.04837 148.0
130.066528 244.0
130.093765 92.0
130.30043 112.0
130.734726 152.0
130.853088 196.0
130.980331 188.0
130.986908 164.0
131.005539 212.0
131.039856 184.0
131.203949 148.0
131.352173 160.0
131.514191 144.0
131.587234 172.0
131.619202 228.0
131.833923 160.0
132.029816 240.0
132.067123 232.0
132.220428 144.0
132.293671 140.0
132.875778 200.0
132.894135 64.0
132.930847 140.0
133.040131 408.0
133.064499 172.0
133.098419 212.0
133.270691 132.0
133.433868 204.0
133.468353 180.0
133.696091 68.0
133.824997 144.0
133.8871 136.0
133.917114 172.0
133.960876 36.0
134.006958 80.0
134.04425 404.0
134.058716 148.0
134.228241 48.0
134.285889 136.0
134.498169 144.0
134.532791 180.0
134.987488 196.0
134.991989 156.0
135.022644 36.0
135.054092 360.0
135.223923 88.0
135.511078 172.0
135.541199 164.0
135.930756 168.0
136.00502 60.0
136.02359 168.0
136.046494 184.0
136.065384 168.0
136.341797 144.0
136.40921 68.0
136.511505 176.0
136.630127 116.0
136.783722 156.0
137.016357 1236.0
137.07251 136.0
137.158752 148.0
137.238007 152.0
137.644012 196.0
137.724625 140.0
137.841293 212.0
137.966446 256.0
138.014969 1004.0
138.053772 208.0
138.270523 108.0
138.754242 200.0
138.867966 132.0
138.935989 164.0
139.030731 952.0
139.053772 372.0
139.1707 168.0
139.485504 84.0
139.546631 152.0
139.633636 164.0
139.988754 128.0
140.01445 768.0
140.111481 244.0
140.217514 60.0
140.377823 104.0
140.450928 144.0
140.561813 152.0
140.591965 176.0
140.781357 156.0
140.998138 3644.0
141.023987 208.0
141.119263 44.0
141.218582 68.0
141.327408 56.0
141.460953 84.0
141.500183 152.0
141.637527 108.0
141.760727 120.0
141.798645 172.0
142.006042 536.0
142.031464 2736.0
142.071335 216.0
142.106918 60.0
142.268311 176.0
142.35379 140.0
142.722107 120.0
142.914764 52.0
142.976532 284.0
142.995285 144.0
143.019363 488.0
143.036133 588.0
143.081375 132.0
143.11232 172.0
143.565063 168.0
143.717743 128.0
143.775009 184.0
143.864349 176.0
143.968384 136.0
144.025208 796.0
144.051971 176.0
144.11171 192.0
144.16188 200.0
144.647507 188.0
144.709656 184.0
144.967361 156.0
145.013168 148.0
145.834732 164.0
145.892426 116.0
145.909256 200.0
146.007843 176.0
146.048737 184.0
146.082413 208.0
146.571152 128.0
147.026474 196.0
147.072769 40.0
147.104156 232.0
147.270767 160.0
147.352036 144.0
147.449554 188.0
147.916382 36.0
148.005951 212.0
148.129471 236.0
148.253036 168.0
148.311203 44.0
148.58522 36.0
148.609482 168.0
148.759964 108.0
149.028214 604.0
149.06218 156.0
149.23613 176.0
150.00058 944.0
150.058823 144.0
150.242004 140.0
150.422577 120.0
150.622818 168.0
151.001053 208.0
151.033081 520.0
151.055527 348.0
151.121536 176.0
151.170471 148.0
151.209641 116.0
151.351624 140.0
151.839279 128.0
152.015488 1868.0
152.101822 44.0
152.2565 176.0
152.406342 96.0
152.467178 184.0
152.62265 44.0
152.824341 192.0
152.908005 208.0
153.020523 664.0
153.04483 76.0
153.050385 148.0
153.104965 160.0
153.262619 92.0
153.282333 128.0
154.003998 480.0
154.03038 584.0
154.220139 112.0
154.623291 172.0
154.701508 140.0
154.739624 40.0
154.969971 180.0
155.023483 728.0
155.096359 96.0
155.299683 48.0
155.397964 148.0
155.587524 144.0
155.652084 164.0
155.806076 76.0
156.01973 6432.0
156.104721 52.0
156.146622 40.0
156.181442 156.0
156.233673 76.0
156.266022 160.0
156.432755 64.0
156.485046 60.0
156.773987 104.0
156.903595 192.0
157.018921 536.0
157.049606 160.0
157.337692 160.0
157.784897 68.0
157.986969 196.0
158.014603 604.0
158.159485 124.0
158.282806 100.0
158.321075 100.0
158.550858 128.0
158.801559 140.0
159.030609 188.0
159.057495 108.0
159.250839 172.0
159.517181 188.0
159.735962 124.0
160.02034 124.0
160.055054 172.0
160.094803 140.0
160.209229 136.0
160.322601 76.0
160.46376 160.0
160.685715 84.0
160.801788 120.0
161.003387 164.0
161.010757 140.0
161.032394 304.0
161.929398 192.0
162.020599 108.0
162.041321 176.0
162.078873 160.0
162.13208 208.0
163.025375 132.0
163.521301 108.0
164.022324 168.0
164.060715 168.0
164.318893 88.0
164.709488 140.0
164.775909 184.0
164.847443 132.0
164.893448 188.0
164.947128 68.0
165.011292 4540.0
165.067017 204.0
165.092865 40.0
165.17215 76.0
165.223312 80.0
165.241211 52.0
165.277039 52.0
165.305191 128.0
165.351257 136.0
165.384521 32.0
165.492783 228.0
165.571426 56.0
165.64827 40.0
165.722565 140.0
165.755875 168.0
166.030701 6008.0
166.148163 48.0
166.350891 56.0
166.379135 96.0
166.466431 52.0
166.959839 152.0
166.980057 172.0
167.02916 4284.0
167.224838 40.0
167.245422 92.0
167.294342 44.0
167.394745 108.0
167.44368 48.0
167.467712 88.0
167.508072 48.0
167.675552 56.0
167.979813 44.0
168.022964 872.0
168.06636 196.0
168.195587 60.0
168.219788 88.0
168.258514 92.0
168.288208 112.0
168.400543 168.0
168.436707 76.0
168.591721 112.0
168.661514 152.0
168.881287 148.0
168.945953 76.0
169.021103 440.0
169.047043 328.0
169.098618 40.0
169.220291 132.0
169.388626 148.0
169.474121 36.0
169.658127 132.0
169.704803 120.0
169.805939 60.0
169.978561 148.0
170.026611 1640.0
170.27829 116.0
170.434158 68.0
170.517319 84.0
170.811127 172.0
170.870956 88.0
171.033188 488.0
171.495941 64.0
171.876694 184.0
171.931488 92.0
172.006393 520.0
172.04097 704.0
172.071198 200.0
172.179504 204.0
172.21608 104.0
172.341461 104.0
172.500885 120.0
172.558395 92.0
172.814713 48.0
172.835648 180.0
173.024094 168.0
173.050613 64.0
173.597916 156.0
173.891754 148.0
174.004623 188.0
174.036407 172.0
174.08078 104.0
174.743164 204.0
174.895798 172.0
175.024796 180.0
175.080093 148.0
175.293472 112.0
176.028229 140.0
176.07962 52.0
176.682297 56.0
176.96019 172.0
177.029617 224.0
177.071411 124.0
177.32576 104.0
177.545807 172.0
177.975693 132.0
177.998703 564.0
178.043259 484.0
178.113785 88.0
178.243973 112.0
178.262573 176.0
178.33699 192.0
178.677368 56.0
178.845016 248.0
178.899612 164.0
178.930191 60.0
178.975464 156.0
179.003586 728.0
179.041382 388.0
179.956665 56.0
179.975952 160.0
180.008133 1024.0
180.055466 144.0
180.154297 136.0
180.349365 60.0
180.368073 52.0
180.5793 48.0
180.900391 60.0
181.018997 1288.0
181.047623 192.0
181.093185 160.0
181.133362 96.0
181.237854 40.0
181.661453 68.0
181.984512 436.0
181.994247 112.0
182.024597 2144.0
182.082855 60.0
182.139267 48.0
182.179565 80.0
182.214478 144.0
182.367661 188.0
182.989059 212.0
183.030914 2024.0
183.131302 180.0
183.403931 248.0
183.441666 180.0
183.533325 156.0
183.651993 40.0
183.98967 148.0
184.016129 516.0
184.044312 192.0
184.32692 60.0
184.491791 60.0
184.829865 188.0
184.997665 88.0
185.019318 48.0
185.066956 128.0
185.206177 80.0
185.547623 156.0
185.878525 60.0
185.905655 188.0
186.013748 160.0
186.036407 184.0
186.060379 104.0
186.117386 68.0
186.530334 144.0
186.995453 220.0
187.0215 136.0
187.04718 160.0
188.036987 1176.0
188.626572 128.0
188.878128 132.0
189.00827 204.0
189.035339 528.0
189.149033 56.0
189.97934 188.0
190.040009 148.0
190.127518 184.0
190.462479 64.0
190.555878 112.0
190.761993 140.0
190.913208 180.0
190.988892 216.0
191.025787 168.0
191.411301 312.0
191.653687 172.0
191.997086 188.0
192.03334 1128.0
192.395599 92.0
192.691116 220.0
192.826508 124.0
193.009995 1988.0
193.172134 180.0
193.205338 100.0
193.292496 72.0
193.379669 56.0
193.96965 44.0
194.018005 988.0
194.062424 284.0
194.285782 164.0
194.34404 100.0
194.782684 76.0
194.975189 224.0
195.013885 404.0
195.143967 64.0
195.458267 40.0
195.719925 160.0
195.747757 148.0
195.942734 140.0
196.008606 428.0
196.049179 476.0
196.10994 56.0
196.266052 112.0
196.402695 160.0
197.006149 108.0
197.047836 6048.0
197.134171 28.0
197.153732 48.0
197.189636 192.0
197.229202 36.0
197.360596 48.0
197.436096 68.0
197.61792 120.0
197.974747 160.0
198.003769 348.0
198.044144 368.0
198.071518 148.0
198.23114 76.0
198.483429 160.0
199.044525 396.0
199.092361 160.0
199.556015 80.0
199.615051 256.0
199.820389 172.0
199.994995 340.0
200.047226 280.0
200.217285 48.0
200.995239 168.0
201.041336 1336.0
201.181595 132.0
201.506378 124.0
201.636368 44.0
201.839905 40.0
202.006775 132.0
202.034149 272.0
202.105789 112.0
202.400162 156.0
202.618256 60.0
202.640915 60.0
202.94136 76.0
203.011124 176.0
203.036072 708.0
203.559937 104.0
203.69342 100.0
204.028305 228.0
204.056473 228.0
204.075287 152.0
204.128265 40.0
204.395645 40.0
204.988739 128.0
205.050217 160.0
205.087692 76.0
205.321487 116.0
205.875122 220.0
205.986511 172.0
206.053925 128.0
206.226532 200.0
206.90448 76.0
206.976059 160.0
207.027603 112.0
207.067703 152.0
207.491791 212.0
207.991882 840.0
208.026291 292.0
208.079941 120.0
208.301071 156.0
208.467712 184.0
209.012665 3132.0
209.048599 108.0
209.212662 28.0
209.333588 128.0
209.918564 140.0
210.020996 3436.0
210.697876 144.0
210.839462 188.0
210.960861 168.0
210.989777 260.0
211.024582 2560.0
211.064941 72.0
211.110245 48.0
211.177734 36.0
211.203766 36.0
211.28476 104.0
211.490219 168.0
211.525497 172.0
211.617599 64.0
211.765274 44.0
211.84639 56.0
211.881149 236.0
212.029083 652.0
212.188354 64.0
212.281143 72.0
212.330444 76.0
212.475479 56.0
212.678604 88.0
212.881836 96.0
213.005966 424.0
213.042053 300.0
213.071091 176.0
213.186859 184.0
213.282776 72.0
213.30603 84.0
213.346725 88.0
213.654984 80.0
213.97963 212.0
214.026566 240.0
214.050003 508.0
214.094513 92.0
215.037399 416.0
215.65538 248.0
215.985504 116.0
216.040741 532.0
216.50383 84.0
216.659073 144.0
216.846603 60.0
216.919891 132.0
216.99176 132.0
217.024414 168.0
217.055771 256.0
218.01178 400.0
218.036682 380.0
218.189499 108.0
218.31604 208.0
218.385101 68.0
218.876572 128.0
218.986923 116.0
219.014984 36.0
219.041687 128.0
219.066666 184.0
219.359741 148.0
219.442291 52.0
219.991028 112.0
220.011688 208.0
220.032364 140.0
220.076645 144.0
220.197723 144.0
220.794724 84.0
221.004501 332.0
221.041016 172.0
221.090561 140.0
221.14679 208.0
222.003372 528.0
222.074173 164.0
222.14537 88.0
222.646988 208.0
222.988647 144.0
223.028625 304.0
223.113495 112.0
223.985413 212.0
224.061569 620.0
224.167145 156.0
224.208862 140.0
224.271454 188.0
224.444366 124.0
224.641205 164.0
224.88588 44.0
224.939621 240.0
224.991364 528.0
225.03566 1712.0
225.124725 36.0
225.196411 52.0
225.384613 28.0
225.41748 64.0
225.617737 124.0
225.79715 56.0
225.997971 776.0
226.032135 280.0
226.587387 176.0
226.905075 100.0
226.956055 180.0
227.005051 816.0
227.084991 172.0
227.463058 268.0
227.517105 152.0
227.631195 116.0
227.995163 444.0
228.027649 240.0
228.05983 160.0
228.873062 120.0
228.966415 36.0
229.009247 92.0
229.044724 252.0
229.065811 156.0
229.596298 92.0
230.049622 256.0
230.089264 300.0
230.507965 52.0
230.952377 40.0
231.056946 900.0
231.385117 96.0
231.763718 208.0
231.810608 76.0
232.004517 388.0
232.035202 548.0
232.064911 860.0
232.637177 44.0
232.895279 84.0
232.990891 160.0
233.017792 172.0
233.041168 352.0
233.066391 112.0
233.378479 116.0
233.886536 48.0
234.012634 132.0
234.037994 152.0
234.577988 208.0
234.702988 116.0
234.940887 48.0
234.998566 168.0
235.01532 152.0
235.191116 200.0
235.970093 68.0
235.993927 176.0
236.001541 140.0
236.011108 184.0
236.787125 104.0
236.998657 148.0
237.028915 200.0
237.078171 132.0
237.98587 176.0
238.016846 124.0
238.711319 100.0
239.009033 292.0
239.061996 184.0
239.640884 108.0
239.819626 64.0
240.010269 312.0
240.056915 240.0
240.257904 152.0
240.38092 120.0
240.65564 72.0
240.893433 84.0
240.927414 112.0
240.955231 112.0
241.039291 3240.0
241.174622 56.0
241.298279 44.0
241.675613 204.0
241.84407 120.0
241.951065 80.0
242.047882 684.0
242.087311 160.0
242.242172 68.0
242.56134 72.0
242.976898 200.0
243.033737 508.0
243.138245 256.0
243.212738 156.0
244.035004 184.0
244.062256 704.0
244.09816 184.0
244.362549 196.0
244.978973 164.0
245.051117 456.0
245.097366 60.0
245.855118 44.0
245.961243 32.0
246.003601 336.0
246.05835 300.0
246.961121 120.0
247.011826 1536.0
247.074875 392.0
247.286514 104.0
248.018738 1588.0
248.052399 124.0
248.062927 64.0
248.070984 116.0
248.831924 204.0
248.995895 276.0
249.025574 904.0
249.428802 48.0
249.894241 116.0
250.009903 352.0
250.027756 316.0
250.070465 148.0
250.410492 56.0
250.467194 104.0
250.933594 128.0
251.010941 244.0
251.239502 72.0
252.017883 208.0
252.060745 152.0
252.484024 68.0
252.778214 44.0
252.983948 280.0
253.047745 184.0
253.082092 100.0
253.401993 92.0
253.66185 72.0
253.993332 340.0
254.982254 132.0
255.554642 108.0
256.003479 184.0
256.028931 116.0
256.121307 64.0
256.959717 136.0
257.014282 576.0
257.122467 160.0
258.039581 444.0
258.074402 64.0
258.957611 192.0
259.014099 424.0
259.02298 264.0
259.048676 696.0
259.954651 80.0
260.01355 272.0
260.059296 312.0
260.76236 172.0
261.019867 180.0
261.025818 220.0
261.046539 176.0
261.133698 88.0
261.638885 176.0
261.883636 100.0
262.017883 632.0
262.055756 240.0
262.683014 236.0
263.010071 356.0
263.032898 488.0
264.003967 204.0
264.038483 172.0
264.314575 72.0
264.770996 116.0
265.018494 352.0
265.059326 168.0
265.240814 60.0
265.989014 152.0
266.015106 40.0
266.538971 56.0
266.996155 176.0
267.031311 108.0
267.065643 188.0
267.355194 176.0
268.003204 64.0
268.049744 576.0
269.041901 164.0
270.051025 356.0
270.61618 132.0
270.992828 136.0
271.032654 160.0
271.057281 132.0
271.297638 188.0
272.021362 164.0
272.259003 76.0
272.419952 204.0
272.600677 80.0
273.013916 244.0
273.057617 128.0
274.020447 764.0
274.996399 468.0
275.028198 620.0
275.082123 172.0
275.117035 156.0
275.976044 52.0
276.018585 676.0
276.033813 560.0
276.425903 76.0
276.803253 168.0
276.945679 172.0
276.984558 184.0
277.02298 636.0
277.1875 76.0
277.585297 68.0
277.929962 224.0
278.030212 460.0
278.066315 140.0
278.228973 40.0
278.44812 48.0
279.030975 520.0
279.881409 88.0
280.030823 460.0
281.084717 108.0
282.581635 80.0
282.953125 224.0
284.015411 104.0
284.878113 256.0
284.931854 120.0
285.009186 744.0
285.049469 136.0
286.012817 300.0
286.040192 272.0
286.122406 128.0
286.290771 52.0
287.006866 136.0
287.039215 156.0
287.9534 116.0
287.99057 112.0
288.046997 124.0
288.095276 132.0
289.001343 164.0
289.02478 152.0
289.062744 164.0
290.015717 604.0
290.074829 284.0
290.417389 48.0
291.02301 552.0
291.072388 64.0
291.979736 168.0
292.028534 324.0
292.071564 148.0
292.677338 48.0
293.031952 224.0
293.126953 56.0
293.669037 144.0
294.010712 104.0
294.020172 156.0
294.036774 248.0
294.088196 140.0
294.259369 92.0
294.556488 28.0
295.007568 144.0
295.045166 452.0
296.030579 140.0
296.239502 40.0
296.325165 180.0
296.877014 60.0
297.021057 92.0
298.002899 128.0
298.026947 108.0
298.054443 132.0
299.136566 56.0
299.874908 180.0
300.012787 108.0
300.070953 156.0
300.240356 72.0
301.027954 200.0
301.058258 136.0
301.984497 144.0
302.014801 204.0
302.084808 132.0
303.00473 392.0
303.459686 48.0
304.011414 652.0
304.056335 80.0
305.009705 152.0
305.056671 204.0
305.080994 164.0
305.672272 88.0
306.009918 196.0
306.045807 696.0
306.968109 252.0
306.998779 152.0
307.034485 256.0
308.022125 152.0
308.053558 136.0
308.843567 92.0
309.046448 148.0
310.045349 156.0
310.085846 128.0
312.688995 104.0
312.970612 92.0
314.034882 140.0
315.981262 136.0
316.048492 136.0
316.356415 52.0
317.029388 116.0
318.009735 144.0
318.059418 308.0
318.963684 72.0
319.018707 1052.0
320.015564 280.0
320.084381 196.0
321.00528 212.0
321.033508 296.0
321.885132 72.0
321.985107 92.0
322.040192 604.0
322.088684 48.0
322.345917 56.0
322.385223 40.0
323.027435 152.0
323.050049 488.0
323.103943 108.0
323.479706 184.0
323.954437 132.0
324.052338 340.0
324.877258 88.0
325.01001 36.0
325.049927 164.0
325.109894 140.0
325.997498 148.0
326.037048 204.0
327.55899 140.0
330.997223 204.0
331.04068 164.0
332.019257 148.0
333.071716 168.0
334.042297 320.0
334.988708 128.0
335.014221 148.0
335.059052 308.0
335.571808 72.0
335.907318 84.0
336.051361 108.0
336.089752 76.0
336.743195 48.0
337.039093 96.0
337.298584 44.0
337.777588 140.0
338.429016 124.0
338.91983 168.0
339.47699 48.0
340.054382 168.0
341.191711 40.0
344.608215 80.0
347.013977 168.0
347.596313 124.0
347.960052 160.0
349.059875 148.0
350.031647 700.0
350.113007 156.0
350.50415 76.0
350.794861 120.0
351.044983 452.0
351.309479 40.0
352.042023 288.0
352.17923 32.0
352.418304 68.0
353.042542 104.0
353.24826 88.0
354.026764 120.0
355.072357 96.0
356.056305 140.0
356.085693 208.0
360.002411 188.0
360.455719 196.0
361.934692 80.0
362.06723 196.0
362.927429 124.0
364.008881 100.0
364.058228 136.0
365.019653 76.0
365.293488 48.0
365.94809 48.0
366.070099 156.0
367.068329 220.0
367.093781 76.0
367.785553 56.0
368.055054 128.0
368.740417 104.0
368.881836 64.0
369.926147 152.0
373.071808 100.0
374.333801 92.0
378.040497 176.0
378.0784 148.0
379.089142 88.0
380.019745 140.0
381.033081 112.0
381.200165 208.0
381.542206 48.0
382.06665 408.0
382.121704 152.0
382.168396 124.0
383.044342 108.0
383.071594 128.0
383.578186 140.0
384.053558 96.0
384.217712 96.0
384.326965 152.0
384.607941 84.0
387.964264 136.0
392.059937 164.0
392.966858 172.0
393.033936 176.0
393.843231 136.0
395.476227 168.0
395.808777 148.0
396.042389 460.0
396.047302 328.0
397.057404 104.0
397.866516 56.0
398.096832 52.0
398.557617 52.0
398.963013 60.0
399.955902 172.0
400.841614 60.0
401.180389 84.0
409.124542 144.0
410.056793 264.0
410.76062 64.0
411.068695 336.0
412.060547 108.0
413.087402 232.0
413.144012 96.0
413.913025 140.0
421.646454 144.0
422.059326 116.0
423.061707 60.0
424.044769 116.0
426.959717 100.0
428.954742 172.0
429.917633 152.0
430.805359 56.0
442.965057 168.0
444.961243 116.0
447.972351 116.0
451.522125 48.0
454.012329 152.0
455.102875 104.0
459.192383 140.0
459.473907 136.0
463.942993 132.0
479.378143 36.0
480.943848 188.0
483.334381 124.0
502.109833 40.0
518.82843 88.0
528.657837 64.0
536.539795 100.0
539.3927 80.0
542.457092 168.0
545.809143 36.0
556.809814 148.0
558.189087 108.0
560.300049 144.0
568.337708 60.0
578.824341 124.0
585.128662 148.0
610.579102 200.0
632.815674 136.0
645.829468 172.0
649.486511 56.0
673.53479 44.0
679.908386 52.0
682.417358 64.0
688.012817 44.0
688.383545 92.0
698.677734 112.0
713.443359 64.0
732.828491 104.0
789.882751 100.0
790.068481 132.0
808.909546 100.0
813.171997 104.0
817.041687 156.0
819.136597 44.0
827.70343 164.0
841.890015 132.0
866.565613 44.0
880.636963 192.0
891.573853 240.0
898.433228 80.0
900.24176 64.0
900.373169 164.0
906.313293 236.0
913.975037 144.0
915.630493 156.0
923.113708 176.0
936.75769 132.0
942.095459 172.0
942.553711 48.0
945.38501 204.0
946.639954 208.0
947.28302 156.0
953.947327 144.0
957.725464 188.0
960.604126 244.0
968.256165 120.0
972.478333 88.0
983.039673 184.0
987.343933 192.0
1001.440308 196.0
1004.674011 132.0
1005.286072 168.0
1009.063293 212.0
1011.7901 188.0
1013.012329 208.0
1019.998901 136.0
1024.204956 200.0
1029.307007 120.0
1049.706543 128.0
1058.171021 172.0
1070.124023 60.0
1070.319336 152.0
1071.752319 228.0
1080.363892 108.0
1085.866211 176.0
1106.134033 236.0
1106.928589 208.0
1109.63855 176.0
1119.332764 156.0
1119.905518 168.0
1120.964844 248.0
1121.417969 196.0
1122.598022 184.0
1123.838745 220.0
1125.794556 240.0
1126.008301 76.0
1127.023682 168.0
1134.814697 124.0
1135.277344 168.0
1137.162476 152.0
1144.793091 148.0
1156.994141 48.0
1157.732178 124.0
1160.334106 108.0
1160.632446 104.0
1160.998657 164.0
1161.439453 140.0
1165.886597 152.0
1174.219727 136.0
1177.461548 244.0
1178.11731 168.0
1179.887329 100.0
1190.590332 228.0
1194.769409 128.0
1196.91687 136.0
1200.651855 112.0
1208.623657 180.0
1211.510742 148.0
1212.778809 184.0
1212.862061 128.0
1216.73291 188.0
1219.560181 68.0
1221.187134 160.0
1223.942993 196.0
1224.137939 132.0
1227.266602 144.0
1227.336426 144.0
1229.624512 116.0
1230.89502 160.0
1239.996582 180.0
1241.966797 232.0
1245.750244 112.0
1248.976807 120.0
1249.680298 244.0
1253.186646 200.0
1256.817871 176.0
1256.987183 60.0
1262.440674 256.0
1266.467773 140.0
1267.055664 116.0
1274.249756 108.0
1274.377686 140.0
1275.571533 240.0
1276.474487 116.0
1277.199951 168.0
1279.441528 112.0
1288.398926 100.0
1295.158936 188.0
1296.305176 180.0
1296.391235 140.0
1298.742798 168.0
1300.349976 164.0
1304.048828 132.0
1304.997803 164.0
1306.522461 164.0
1309.509766 132.0
1311.303833 152.0
1312.60144 116.0
1314.98938 172.0
1315.306885 136.0
1316.08667 148.0
1319.11377 120.0
1319.22937 152.0
1319.482422 148.0
1321.724609 164.0
1321.804199 100.0
1324.714722 60.0
1325.439209 72.0
1327.846069 204.0
1331.685425 276.0
1338.579834 132.0
1340.415527 184.0
1345.827759 244.0
1346.163696 200.0
1348.187256 192.0
1353.585938 96.0
1353.739746 72.0
1357.301025 184.0
1362.122925 156.0
1362.504883 144.0
1365.643799 152.0
1366.166016 184.0
1376.528931 136.0
1377.200928 152.0
1377.695923 224.0
1377.762329 56.0
1384.797119 136.0
1389.148071 172.0
1393.037964 220.0
1393.387085 124.0
1401.992065 152.0
1402.57019 84.0
1403.01001 236.0
1404.188232 144.0
1405.797241 136.0
1406.486206 100.0
1408.61438 136.0
1410.078857 164.0
1410.19104 132.0
1411.050659 148.0
1414.948608 140.0
1416.101807 160.0
1416.251587 152.0
1417.015625 176.0
1418.042358 136.0
1418.109741 180.0
1419.69165 148.0
1420.044189 140.0
1423.931885 128.0
1425.765137 100.0
1428.817871 156.0
1430.044556 220.0
1430.593994 192.0
1430.797241 160.0
1432.943726 200.0
1435.581909 140.0
1436.841553 52.0
1437.03772 148.0
1437.636108 228.0
1437.769653 32.0
1439.596558 184.0
1439.883545 156.0
1440.064819 116.0
1441.477539 156.0
1442.543213 104.0
1443.994995 216.0
1444.176514 136.0
1444.781738 160.0
1447.536743 212.0
1449.097168 164.0
1449.786621 116.0
1450.643188 160.0
1452.000366 60.0
1452.129395 160.0
1452.288574 52.0
1455.384888 132.0
1457.200195 56.0
1457.861328 132.0
1458.575684 172.0
1461.830933 84.0
1463.688232 176.0
1465.615356 164.0
1469.46582 108.0
1469.793945 200.0
1470.679199 136.0
1470.984497 148.0
1471.037964 40.0
1473.504639 184.0
1474.780884 132.0
1476.48584 132.0
1476.807007 148.0
1477.418945 144.0
1478.941772 64.0
1480.005005 148.0
1481.131714 240.0
1484.304565 196.0
1484.734009 108.0
1486.038086 132.0
1487.411743 96.0
1488.455933 156.0
1488.908936 360.0
1489.31604 168.0
1489.492676 160.0
1490.291626 140.0
1490.898682 132.0
1491.029419 52.0
1491.651978 220.0
1492.88208 212.0
1495.074585 204.0
1495.159302 204.0
1495.790405 156.0
1496.414062 60.0
1497.761719 128.0
1498.177612 164.0
1500.62854 136.0
1501.80835 144.0
1504.161133 184.0
