>compound MLS001157727-01!N-[(3,4-dimethoxyphenyl)methyl]-2-[(4,8,8-trimethyl-2-oxo-9,10-dihydropyrano[2,3-h]chromen-5-yl)oxy]acetamide
>formula C26H29NO7
>ionization [M+H]+
>parentmass 468.20167872009057
#inchi InChI=1S/C26H29NO7/c1-15-10-23(29)33-25-17-8-9-26(2,3)34-19(17)12-21(24(15)25)32-14-22(28)27-13-16-6-7-18(30-4)20(11-16)31-5/h6-7,10-12H,8-9,13-14H2,1-5H3,(H,27,28)
#inchikey GZSQEKMGYKUTHA
#Ion_Source LC-ESI
#Instrument qTof
#Compound_Source NIH Natural Product Library
#PI Dorrestein
#Data_Collector VVP/LMS
#Scan -1
#Precursor_MZ 468.202
#ExactMass 467.194
#Charge 1
#CAS_Number N/A
#Pubmed_ID N/A
#Smiles COc1ccc(CNC(=O)COc2cc3OC(C)(C)CCc3c4oc(=O)cc(C)c24)cc1OC
#INCHI_AUX N/A
#Library_Class 1
#SpectrumID CCMSLIB00000080259
#IonMode Positive
#UpdateWorkflowName UPDATE-SINGLE-ANNOTATED-GOLD
#LibraryQualityString Gold
#TaskID b1d8e8f6646f4e71acdff9ca3d919d08
##Scan# 2217
#SpectrumFile p2-C06_GC6_01_18006.mzXML
#LibraryName NIH_Natural_Products_Library.mgf
#MQScore -1
#Organism NIH_Natural_Products_Library
#TIC_Query 0
#RT_Query -1
#MZErrorPPM -1
#SharedPeaks 0
#MassDiff 0
#LibMZ -1
#SpecMZ 468.202
#SpecCharge 0
#internalFilename spec-00000.mgf

>collision 10
95.027954 88.0
95.059189 208.0
95.243439 108.0
95.350296 164.0
95.37751 108.0
95.426109 240.0
95.453995 232.0
95.799767 164.0
95.834831 176.0
95.918633 104.0
96.129265 120.0
96.318642 244.0
96.375298 108.0
96.402657 180.0
96.465195 152.0
96.512115 132.0
96.543404 204.0
96.623604 208.0
96.711662 200.0
96.913361 220.0
96.929039 212.0
96.958763 168.0
97.042725 176.0
97.158432 168.0
97.185905 148.0
97.26075 144.0
97.413689 156.0
97.487564 192.0
97.580681 168.0
97.623146 124.0
97.708519 116.0
97.728188 160.0
97.749832 172.0
97.773453 184.0
97.788879 224.0
97.875809 176.0
97.952118 188.0
98.104355 144.0
98.269852 136.0
98.491112 156.0
98.676872 60.0
98.742126 112.0
98.807404 96.0
98.900406 76.0
99.093918 184.0
99.257004 172.0
99.40181 208.0
99.508987 148.0
99.554657 44.0
99.581322 292.0
99.637375 248.0
99.857872 364.0
99.906464 156.0
99.968391 160.0
100.003967 136.0
100.055725 72.0
100.145332 128.0
100.211067 96.0
100.230759 204.0
100.314697 144.0
100.669838 56.0
100.729759 168.0
100.789688 92.0
100.861633 32.0
101.027611 168.0
101.079628 180.0
101.159683 200.0
101.195717 180.0
101.241776 172.0
101.38401 180.0
101.406052 228.0
101.56044 204.0
101.598686 180.0
101.622284 236.0
101.761116 144.0
101.819344 176.0
101.835411 160.0
101.951935 168.0
101.970024 120.0
102.014244 164.0
102.251587 160.0
102.291847 152.0
102.316002 104.0
102.334122 100.0
102.35627 108.0
102.38446 180.0
102.428772 196.0
102.537575 160.0
102.672646 212.0
102.765434 164.0
102.872398 196.0
102.955177 152.0
102.989517 192.0
103.005676 156.0
103.054298 176.0
103.094704 188.0
103.171471 172.0
103.199684 216.0
103.288666 228.0
103.481606 164.0
103.507423 176.0
103.559891 180.0
103.596352 156.0
103.661186 136.0
103.794968 136.0
103.93087 56.0
104.072952 180.0
104.089195 168.0
104.243301 148.0
104.261864 168.0
104.556602 168.0
104.583206 164.0
104.679909 188.0
104.709442 156.0
104.724541 48.0
104.860199 176.0
104.876511 164.0
104.935623 152.0
104.96109 92.0
104.986603 40.0
105.009033 168.0
105.03698 428.0
105.07431 228.0
105.09063 260.0
105.242844 180.0
105.266174 184.0
105.288635 64.0
105.398941 164.0
105.548157 148.0
105.580879 212.0
105.629967 244.0
105.749931 196.0
105.756889 124.0
105.763741 200.0
105.838715 188.0
105.90834 144.0
106.008728 120.0
106.040375 316.0
106.078415 208.0
106.092766 176.0
106.119415 180.0
106.269135 316.0
106.55452 240.0
106.601555 164.0
106.741554 124.0
106.815811 156.0
106.988457 68.0
107.050079 6080.0
107.131599 188.0
107.175873 116.0
107.283043 52.0
107.32428 84.0
107.491356 44.0
107.534691 48.0
107.580101 248.0
107.604874 108.0
107.619331 356.0
107.664757 128.0
107.697258 152.0
107.702789 260.0
107.753578 208.0
107.954071 132.0
108.007843 156.0
108.057579 2312.0
108.122673 44.0
108.138199 160.0
108.332832 48.0
108.359764 132.0
108.398575 164.0
108.41571 164.0
108.448875 176.0
108.470779 148.0
108.511063 48.0
108.529724 164.0
108.589859 212.0
108.676987 152.0
108.74131 168.0
108.780754 144.0
108.799431 104.0
108.855492 108.0
108.870033 196.0
109.060226 324.0
109.166916 148.0
109.192154 176.0
109.254555 120.0
109.346107 116.0
109.429375 164.0
109.533501 40.0
109.616837 216.0
109.771576 172.0
109.89415 128.0
109.958839 208.0
109.992233 200.0
110.038712 76.0
110.221962 156.0
110.244949 40.0
110.341103 108.0
110.38501 180.0
110.617859 204.0
110.688423 156.0
110.721931 160.0
110.75753 132.0
110.967094 124.0
111.078239 40.0
111.107605 188.0
111.141174 168.0
111.208328 180.0
111.342697 188.0
111.41832 220.0
111.566528 168.0
111.681076 112.0
111.969414 192.0
112.030502 164.0
112.060371 180.0
112.108192 160.0
112.203484 188.0
112.252617 156.0
112.441666 128.0
112.547211 172.0
112.652809 160.0
112.684441 148.0
112.74366 188.0
112.95932 144.0
112.981033 152.0
113.219658 196.0
113.336166 128.0
113.372185 168.0
113.392647 196.0
113.414574 204.0
113.490891 196.0
113.569359 164.0
113.76033 164.0
113.787926 228.0
113.802788 176.0
113.910149 160.0
113.938713 200.0
113.989708 148.0
114.025833 184.0
114.059837 172.0
114.312927 152.0
114.366135 144.0
114.432121 156.0
114.527954 140.0
114.602516 160.0
114.61956 200.0
114.717598 144.0
114.779427 216.0
114.832741 208.0
114.975677 124.0
115.046112 84.0
115.359154 216.0
115.407173 136.0
115.505547 104.0
115.556892 232.0
115.599686 212.0
115.625366 204.0
115.674591 108.0
115.693642 116.0
115.878036 148.0
115.938034 188.0
116.021629 168.0
116.332687 160.0
116.363686 168.0
116.440048 128.0
116.507378 152.0
116.532417 124.0
116.575386 148.0
116.605476 112.0
116.710808 188.0
116.788231 80.0
116.902252 120.0
116.958206 80.0
116.994804 188.0
117.029251 128.0
117.057243 132.0
117.096123 216.0
117.255432 144.0
117.33519 124.0
117.512039 188.0
117.593109 180.0
117.609146 228.0
117.755966 108.0
117.863434 212.0
118.017441 156.0
118.04306 468.0
118.162354 264.0
118.237488 140.0
118.300858 64.0
118.523933 132.0
118.567268 156.0
118.586777 136.0
119.048126 312.0
119.168633 180.0
119.272652 200.0
119.309608 208.0
119.614159 208.0
119.633751 188.0
119.738487 192.0
119.897301 180.0
119.975769 196.0
120.019371 232.0
120.188881 200.0
120.385963 120.0
120.492989 148.0
120.521393 136.0
120.619736 228.0
120.648155 132.0
120.697174 352.0
120.873428 128.0
121.029449 144.0
121.063721 592.0
121.085777 144.0
121.188728 140.0
121.414513 172.0
121.546127 160.0
121.614159 104.0
121.842537 168.0
122.035278 304.0
122.038689 160.0
122.065529 192.0
122.086517 212.0
122.126099 136.0
122.148094 224.0
122.207497 212.0
122.275711 220.0
122.412201 160.0
122.434219 148.0
122.465057 140.0
122.707451 188.0
122.78904 144.0
122.952301 148.0
123.009682 140.0
123.064873 128.0
123.081833 220.0
123.155418 176.0
123.170876 132.0
123.19297 196.0
123.447144 136.0
123.486946 188.0
123.568794 144.0
123.742554 196.0
123.792351 196.0
123.807854 148.0
123.923035 92.0
123.949623 196.0
123.965134 160.0
123.987297 148.0
124.033844 128.0
124.056122 336.0
124.109215 176.0
124.24894 100.0
124.422501 136.0
124.450912 84.0
124.517525 192.0
124.539734 132.0
124.599716 156.0
124.819756 144.0
124.922058 200.0
125.053009 160.0
125.100082 188.0
125.171326 184.0
125.414162 96.0
125.534546 140.0
125.625992 188.0
125.643837 84.0
125.842468 80.0
125.913925 136.0
125.967537 152.0
126.034554 168.0
126.128418 28.0
126.183731 188.0
126.211136 140.0
126.244675 136.0
126.328491 144.0
126.372551 216.0
126.658722 164.0
126.784187 216.0
126.842461 240.0
127.20726 204.0
127.259933 136.0
127.277695 152.0
127.414696 132.0
127.542839 168.0
127.567513 156.0
127.598984 124.0
127.722672 212.0
127.764732 200.0
127.805908 324.0
127.853165 180.0
128.204468 148.0
128.269836 184.0
128.38031 200.0
128.499863 204.0
128.542725 184.0
128.58786 228.0
128.612686 184.0
128.811401 240.0
129.005737 40.0
129.075821 224.0
129.121918 160.0
129.406158 164.0
129.677994 116.0
129.791336 176.0
129.990753 204.0
130.145309 172.0
130.188446 160.0
130.411087 140.0
130.483841 188.0
130.50885 244.0
130.583893 136.0
130.697632 180.0
130.768173 168.0
130.811417 148.0
130.900726 160.0
130.957153 132.0
131.048264 180.0
131.221481 152.0
131.303574 176.0
131.333221 72.0
131.390259 124.0
131.440445 124.0
131.488373 180.0
131.554565 192.0
131.645889 108.0
131.682434 224.0
131.732681 196.0
131.755524 204.0
131.914902 292.0
132.132339 164.0
132.159485 140.0
132.201385 200.0
132.260895 216.0
132.359329 60.0
132.460098 176.0
132.565491 236.0
132.583832 144.0
132.605301 116.0
132.670929 144.0
132.842911 144.0
132.934692 180.0
132.985184 192.0
133.023453 208.0
133.051422 480.0
133.221695 184.0
133.382599 156.0
133.421616 188.0
133.453812 256.0
133.476807 112.0
133.588348 160.0
133.640106 216.0
133.748276 136.0
133.783356 180.0
133.810425 40.0
133.955505 176.0
133.987762 172.0
134.015411 196.0
134.060471 192.0
134.109894 136.0
134.146774 204.0
134.238998 112.0
134.310486 148.0
134.347397 264.0
134.522781 152.0
134.654388 116.0
134.691345 148.0
134.716751 204.0
134.758331 128.0
134.781448 144.0
134.899506 244.0
134.947861 148.0
135.044525 5320.0
135.08287 188.0
135.107437 220.0
135.130569 76.0
135.154266 112.0
135.297211 72.0
135.417618 56.0
135.447723 80.0
135.50795 152.0
135.549667 156.0
135.596008 72.0
135.686417 136.0
135.711914 156.0
135.755966 64.0
135.839462 168.0
135.904419 240.0
135.983322 112.0
136.053024 5176.0
136.133102 124.0
136.143372 124.0
136.149277 240.0
136.169067 72.0
136.206223 144.0
136.259659 56.0
136.275909 36.0
136.301468 128.0
136.340973 208.0
136.408386 140.0
136.575806 132.0
136.654892 112.0
136.729355 156.0
136.780563 108.0
136.892319 96.0
136.921143 284.0
137.02507 132.0
137.060379 8480.0
137.144394 80.0
137.17485 176.0
137.19986 68.0
137.239502 84.0
137.267487 92.0
137.295471 80.0
137.318985 188.0
137.395767 148.0
137.426086 148.0
137.472763 152.0
137.575455 176.0
137.777542 216.0
137.869751 48.0
137.918839 108.0
138.021698 128.0
138.061874 724.0
138.109528 136.0
138.133957 196.0
138.503799 104.0
138.527222 112.0
138.572296 148.0
138.72406 52.0
138.87413 92.0
139.003159 188.0
139.076935 1672.0
139.181549 100.0
139.416458 124.0
139.512817 180.0
139.542236 196.0
139.691544 132.0
139.710358 244.0
139.92688 160.0
139.983383 60.0
140.078018 192.0
140.280243 68.0
140.317963 168.0
140.445297 140.0
140.556183 48.0
140.617538 168.0
140.678909 44.0
140.750488 228.0
140.896637 196.0
141.05687 104.0
141.144897 204.0
141.248398 128.0
141.314636 148.0
141.352493 176.0
141.411652 176.0
141.459 80.0
141.482666 140.0
141.561768 140.0
141.605804 176.0
141.743195 132.0
141.766891 252.0
141.859329 140.0
142.13208 200.0
142.157455 212.0
142.357574 188.0
142.592773 256.0
142.994705 164.0
143.016129 152.0
143.0923 180.0
143.259003 204.0
143.292358 204.0
143.335236 140.0
143.704819 196.0
143.750153 172.0
143.912354 176.0
144.297134 188.0
144.313858 152.0
144.337769 192.0
144.482941 184.0
144.641602 96.0
145.010468 84.0
145.077576 112.0
145.315002 168.0
145.376297 148.0
145.394196 124.0
145.442184 208.0
145.586243 208.0
145.795242 216.0
145.819275 148.0
146.009201 156.0
146.057312 188.0
146.078964 96.0
146.107819 196.0
146.293121 224.0
146.33165 140.0
146.500229 156.0
146.528687 192.0
146.548416 168.0
146.649628 156.0
146.695419 92.0
146.871445 148.0
146.948639 192.0
147.0802 148.0
147.185181 140.0
147.20932 76.0
147.245544 260.0
147.475067 220.0
147.496826 116.0
147.562088 164.0
147.579025 68.0
147.611984 228.0
147.762833 116.0
147.796265 152.0
147.825745 140.0
147.874146 132.0
148.074326 460.0
148.348892 192.0
148.569565 84.0
148.620514 172.0
148.659348 56.0
148.802551 212.0
148.882675 196.0
148.914246 224.0
148.957977 108.0
149.010056 164.0
149.059067 444.0
149.087173 180.0
149.137787 180.0
149.188828 56.0
149.235016 192.0
149.290939 52.0
149.312836 180.0
149.332291 156.0
149.37851 172.0
149.451492 196.0
149.547897 208.0
149.64621 84.0
149.699768 164.0
149.752411 136.0
149.797195 120.0
149.831299 76.0
149.945816 116.0
150.067886 352.0
150.089645 188.0
150.159241 148.0
150.238419 92.0
150.289658 36.0
150.318939 236.0
150.413956 124.0
150.429245 144.0
150.448288 88.0
150.470261 88.0
150.537323 328.0
150.589005 192.0
150.645142 80.0
150.675552 212.0
150.743561 184.0
150.778046 48.0
150.800735 196.0
150.830261 228.0
150.871262 176.0
150.920395 340.0
150.939194 408.0
150.972565 608.0
150.995087 404.0
151.01973 448.0
151.039108 352.0
151.076935 182704.0
151.171494 128.0
151.215027 160.0
151.236542 68.0
151.255676 128.0
151.277206 196.0
151.319244 72.0
151.340134 140.0
151.363266 124.0
151.393127 100.0
151.41217 60.0
151.444733 120.0
151.479721 1736.0
151.55748 272.0
151.581406 92.0
151.620377 140.0
151.647949 128.0
151.680466 148.0
151.700592 236.0
151.742477 136.0
151.758698 96.0
151.792908 192.0
151.818481 256.0
151.836838 120.0
151.87561 132.0
151.930038 204.0
151.950943 180.0
151.974136 92.0
152.00087 172.0
152.02449 144.0
152.028458 128.0
152.037704 212.0
152.047714 220.0
152.080139 23976.0
152.144699 184.0
152.176071 108.0
152.238129 72.0
152.267975 104.0
152.316711 52.0
152.33728 204.0
152.351685 88.0
152.379669 64.0
152.409195 112.0
152.44693 112.0
152.492722 44.0
152.528549 188.0
152.547699 80.0
152.626373 36.0
152.647537 72.0
152.673096 52.0
152.692001 64.0
152.734573 68.0
152.764709 64.0
152.827194 80.0
152.850204 132.0
152.882202 48.0
152.915573 64.0
152.93634 140.0
152.955017 244.0
152.988037 144.0
153.014694 124.0
153.055176 164.0
153.083282 2292.0
153.112137 180.0
153.138 272.0
153.176926 144.0
153.234726 140.0
153.255646 252.0
153.303238 108.0
153.32869 120.0
153.347305 192.0
153.355652 116.0
153.4039 108.0
153.433853 124.0
153.515884 84.0
153.554764 96.0
153.589294 64.0
153.609024 36.0
153.669586 80.0
153.742249 32.0
153.791611 228.0
153.836044 120.0
153.858261 32.0
153.892822 80.0
153.924927 88.0
154.054337 180.0
154.091873 332.0
154.120056 152.0
154.218903 52.0
154.247482 136.0
154.293854 100.0
154.364777 44.0
154.40007 72.0
154.508224 32.0
154.567612 80.0
154.817627 60.0
155.01622 72.0
155.065369 156.0
155.256256 48.0
155.288498 104.0
155.370804 252.0
155.427414 40.0
155.591232 104.0
155.633438 72.0
155.73526 108.0
155.834625 48.0
155.983734 68.0
156.001129 52.0
156.198074 100.0
156.257278 84.0
156.309525 76.0
156.486252 72.0
156.521103 60.0
156.869904 36.0
156.992065 148.0
157.184143 76.0
158.612564 52.0
158.890533 76.0
159.043839 396.0
159.63652 112.0
159.951004 156.0
160.075165 128.0
160.102066 124.0
160.757507 180.0
161.060974 156.0
161.174149 96.0
161.239853 52.0
161.308426 92.0
161.358658 60.0
161.425262 108.0
161.492676 120.0
161.563507 68.0
161.786194 60.0
161.922928 196.0
162.049469 152.0
162.057114 140.0
162.531326 96.0
162.55162 52.0
162.599838 96.0
162.711533 40.0
162.82579 76.0
162.889862 124.0
163.040451 264.0
163.075546 424.0
163.47406 72.0
163.496964 32.0
163.643005 68.0
163.855988 88.0
164.003784 92.0
164.077682 476.0
164.805084 88.0
164.92009 56.0
165.088516 432.0
165.267426 136.0
165.296021 148.0
165.365128 136.0
165.554565 40.0
165.631409 60.0
165.859451 48.0
166.044052 100.0
166.087845 988.0
166.141525 64.0
166.249283 40.0
166.59848 68.0
166.715134 108.0
166.984039 48.0
167.042358 184.0
167.07077 5092.0
167.169449 56.0
167.215591 72.0
167.290237 76.0
167.36232 148.0
167.477341 88.0
167.833832 64.0
167.890564 36.0
167.962784 76.0
167.985992 56.0
168.075058 1196.0
168.256958 84.0
168.339584 92.0
169.073761 184.0
169.107407 56.0
169.418137 248.0
169.571014 72.0
169.851028 76.0
170.466339 200.0
170.497513 136.0
170.819916 108.0
171.637695 160.0
172.44957 228.0
172.559372 156.0
172.868011 144.0
173.064331 200.0
173.37114 156.0
173.92157 88.0
174.065964 196.0
174.097473 192.0
174.281342 168.0
175.033188 176.0
175.054916 156.0
175.587006 180.0
175.782227 68.0
176.047501 956.0
176.071228 616.0
176.120148 48.0
176.220535 72.0
177.053955 632.0
177.268341 88.0
177.313385 56.0
177.451233 104.0
177.907547 80.0
178.055756 112.0
178.891129 164.0
179.040222 236.0
179.071014 656.0
179.978867 132.0
180.072342 176.0
180.102661 3412.0
180.31813 68.0
180.392975 164.0
180.887848 56.0
180.930679 72.0
181.108047 352.0
181.214569 184.0
181.405548 76.0
181.54158 36.0
182.290527 96.0
182.473297 88.0
183.03833 112.0
183.081406 140.0
183.278061 112.0
183.415497 224.0
184.771103 32.0
185.209641 196.0
185.429108 144.0
185.797882 104.0
185.827713 224.0
186.107269 156.0
186.416931 152.0
188.037308 176.0
188.187439 104.0
188.274811 80.0
188.367676 176.0
189.055283 736.0
189.346863 48.0
189.492035 20.0
189.678391 88.0
190.086487 308.0
190.345062 44.0
190.88089 116.0
191.074783 312.0
192.041672 356.0
192.066483 380.0
192.572968 188.0
192.669647 124.0
193.046814 144.0
193.079987 176.0
193.336014 44.0
193.377533 204.0
194.089478 84.0
194.125519 192.0
194.178207 52.0
194.314133 68.0
194.852737 172.0
194.894409 156.0
195.083405 208.0
195.11676 76.0
195.536774 132.0
195.664825 144.0
196.026917 120.0
197.467422 116.0
198.209 188.0
198.371826 76.0
198.528824 100.0
199.031113 216.0
199.728073 68.0
200.054489 156.0
200.127686 72.0
200.276947 112.0
201.053558 236.0
201.368454 56.0
203.032562 204.0
203.506439 48.0
203.708084 104.0
203.867188 152.0
204.041138 636.0
204.075577 64.0
204.134399 136.0
204.228241 168.0
204.518463 88.0
204.788956 72.0
205.05043 11020.0
205.110916 44.0
205.162231 76.0
205.217499 84.0
205.276276 60.0
205.336166 88.0
205.424591 44.0
205.48735 80.0
205.533005 60.0
205.572952 68.0
205.712799 36.0
205.824142 108.0
205.844131 48.0
205.892685 232.0
205.92981 120.0
205.959442 148.0
206.050705 852.0
206.567215 104.0
206.701675 44.0
206.753189 64.0
206.982193 56.0
207.022278 220.0
207.053787 116.0
207.090637 152.0
207.357468 64.0
207.819153 104.0
207.959763 152.0
208.048737 136.0
208.097656 1400.0
209.101913 96.0
210.071777 172.0
210.109283 184.0
210.721329 236.0
210.923615 76.0
211.392136 152.0
212.029236 60.0
212.844391 60.0
213.085464 140.0
213.579651 180.0
215.074387 144.0
215.141525 152.0
216.038681 172.0
216.072495 360.0
216.615356 44.0
217.050522 1968.0
217.260284 52.0
217.4422 76.0
217.64476 160.0
217.715225 136.0
218.052414 532.0
218.720734 120.0
219.035797 76.0
219.064987 608.0
219.651855 160.0
220.072205 844.0
221.081329 1104.0
221.309769 64.0
221.632614 48.0
222.078568 184.0
222.116714 68.0
222.296814 68.0
222.979843 44.0
223.060104 168.0
223.089828 192.0
223.672867 124.0
223.699646 88.0
224.057007 116.0
227.067047 128.0
228.111938 148.0
231.061264 128.0
231.115723 224.0
231.491058 100.0
232.057678 136.0
232.093521 180.0
232.266922 32.0
233.047684 172.0
233.083588 80.0
234.047806 140.0
234.073532 220.0
235.111664 156.0
236.480835 156.0
238.941833 232.0
239.095688 128.0
239.486679 148.0
240.52887 20.0
241.087891 160.0
242.483627 224.0
244.101013 140.0
244.692184 132.0
245.046448 1648.0
245.076523 188.0
246.045456 124.0
246.077362 632.0
247.059235 168.0
247.680695 92.0
247.984619 88.0
248.081787 328.0
248.596161 100.0
248.985428 108.0
250.070084 176.0
250.098419 120.0
250.133041 148.0
251.545212 76.0
252.119873 152.0
253.12915 152.0
254.086349 172.0
254.133942 180.0
254.597382 76.0
255.073959 84.0
255.105743 152.0
256.066681 180.0
257.080444 84.0
257.450775 220.0
258.038696 64.0
258.083466 100.0
258.720123 112.0
259.055664 196.0
259.098022 156.0
260.104401 164.0
260.792297 116.0
261.033417 208.0
261.112183 2584.0
262.07309 80.0
262.116455 636.0
262.398621 76.0
263.112152 140.0
263.43454 64.0
263.515289 84.0
264.585785 76.0
265.113739 72.0
265.583832 52.0
266.39859 76.0
267.090942 116.0
269.098358 168.0
272.130157 148.0
273.063385 168.0
273.112366 508.0
274.07373 1120.0
274.113525 120.0
274.144165 108.0
274.209106 52.0
274.746582 48.0
275.076569 320.0
275.122772 264.0
275.562012 188.0
275.76358 32.0
276.086884 368.0
276.272797 112.0
276.703033 76.0
276.762634 104.0
277.094604 316.0
277.195312 160.0
277.992401 212.0
278.138428 124.0
278.347565 56.0
279.065277 176.0
280.10025 156.0
280.270142 108.0
280.360107 36.0
280.916931 88.0
281.314026 44.0
281.818298 92.0
283.213287 80.0
284.796417 80.0
288.08844 516.0
288.783691 188.0
289.480865 124.0
289.612946 104.0
289.701019 52.0
290.072418 244.0
292.339111 52.0
292.488861 148.0
292.669312 136.0
293.084839 180.0
293.967987 128.0
296.032715 76.0
296.104614 124.0
297.792023 32.0
298.599701 32.0
301.109375 912.0
301.181213 116.0
302.107544 228.0
302.557465 200.0
304.249237 128.0
308.076477 196.0
309.121857 224.0
310.099762 236.0
310.817841 120.0
311.074036 76.0
311.102112 132.0
314.156647 128.0
315.205231 52.0
315.774384 148.0
316.121094 140.0
316.276794 44.0
320.029144 52.0
321.081329 160.0
321.091644 192.0
322.076111 120.0
322.601379 164.0
323.009033 60.0
323.082092 192.0
325.083435 64.0
326.617523 128.0
328.573578 84.0
330.133301 320.0
330.170105 32.0
332.452393 92.0
335.001129 40.0
335.099487 100.0
335.219727 96.0
335.923401 128.0
336.069336 132.0
336.113098 116.0
337.10675 344.0
337.541321 100.0
337.866821 160.0
338.108337 384.0
338.137604 96.0
339.10083 128.0
339.126465 104.0
340.129883 176.0
342.30423 72.0
342.433136 148.0
347.371887 104.0
348.577881 184.0
348.689362 76.0
350.259491 44.0
351.086884 112.0
355.128571 140.0
356.657898 52.0
357.293427 52.0
358.22702 108.0
362.56073 60.0
364.678467 176.0
365.096649 128.0
367.118805 80.0
371.13382 156.0
372.634491 104.0
378.253265 108.0
380.114075 444.0
381.121582 216.0
381.857788 184.0
384.155884 148.0
384.620239 40.0
386.77002 48.0
386.883545 68.0
387.333862 48.0
387.467041 116.0
387.741333 156.0
389.078888 184.0
391.603333 220.0
393.638275 168.0
395.120422 172.0
396.114075 172.0
398.134827 224.0
399.146149 220.0
399.695068 112.0
400.134857 440.0
400.9375 40.0
401.139984 104.0
401.99826 112.0
402.165863 184.0
403.444092 76.0
404.88855 188.0
408.549133 76.0
409.60379 160.0
411.672791 132.0
411.773743 48.0
412.008026 160.0
412.140259 4420.0
412.207458 88.0
412.278748 28.0
412.471405 108.0
412.517212 76.0
412.626343 64.0
412.687012 92.0
412.80426 48.0
412.864929 88.0
412.974121 48.0
413.141663 1256.0
413.74295 140.0
414.145752 184.0
414.298523 84.0
414.796173 56.0
414.852936 112.0
415.124573 60.0
415.189453 100.0
415.310669 104.0
415.546417 116.0
415.595093 136.0
416.179565 96.0
418.033081 32.0
418.317993 64.0
418.350555 76.0
418.80661 80.0
423.163818 96.0
425.669037 72.0
426.161926 56.0
426.967621 100.0
427.169159 148.0
429.009857 92.0
431.383484 164.0
432.636902 76.0
433.017853 156.0
436.819824 60.0
437.91452 80.0
448.966248 60.0
453.218689 96.0
455.309967 72.0
461.052673 88.0
464.615112 48.0
465.658173 72.0
467.029968 116.0
467.201294 172.0
467.937195 80.0
468.105133 92.0
468.135254 144.0
468.199097 1300.0
468.346283 68.0
469.217896 144.0
469.876587 192.0
470.205658 396.0
471.106964 92.0
472.425446 108.0
484.751434 52.0
486.110809 44.0
486.281952 36.0
490.15625 116.0
498.173035 96.0
498.315216 72.0
530.730042 120.0
541.240112 136.0
544.003235 80.0
551.124084 48.0
551.395142 112.0
555.182495 64.0
559.731201 108.0
562.399475 92.0
565.859741 68.0
568.172485 56.0
570.451904 56.0
587.895752 112.0
589.17041 48.0
589.890442 132.0
599.934143 72.0
607.268677 52.0
618.136292 72.0
618.472839 100.0
637.092712 140.0
638.560425 52.0
655.596252 56.0
656.294556 84.0
679.911377 36.0
689.901489 80.0
723.265869 56.0
723.501404 88.0
729.692383 124.0
752.010559 188.0
780.625671 148.0
784.0047 48.0
786.154419 20.0
789.011353 152.0
796.312561 220.0
802.902832 96.0
803.878784 184.0
807.29071 136.0
814.715576 128.0
823.698853 176.0
824.355896 140.0
835.024536 188.0
838.040894 96.0
843.188049 132.0
843.60321 132.0
847.470093 140.0
858.00116 152.0
858.572571 204.0
859.575928 192.0
864.320557 136.0
865.4151 152.0
865.684448 112.0
865.860107 168.0
872.949097 44.0
873.437256 36.0
873.701965 100.0
876.569275 168.0
876.952332 148.0
879.4245 124.0
883.341003 168.0
883.849792 176.0
885.294067 48.0
891.184143 172.0
892.991272 156.0
898.602539 116.0
900.196228 224.0
901.020447 204.0
909.553711 196.0
911.000854 152.0
912.419067 136.0
914.061035 156.0
914.62677 140.0
916.421326 84.0
918.205566 156.0
920.317566 188.0
920.631531 36.0
921.815552 148.0
922.220459 192.0
926.195618 196.0
927.119263 44.0
931.904053 108.0
936.100952 192.0
939.636108 200.0
946.144653 172.0
947.277588 80.0
952.301025 136.0
959.685425 180.0
959.882751 192.0
961.289124 60.0
962.177917 48.0
970.635681 120.0
974.813171 56.0
978.731873 252.0
980.588257 188.0
988.588074 40.0
992.108032 160.0
1001.741394 84.0
1002.358826 144.0
1004.540222 228.0
1004.62854 168.0
1007.633484 232.0
1008.954346 128.0
1011.199829 204.0
1011.896118 112.0
1012.579956 128.0
1016.535767 288.0
1020.473755 112.0
1023.171265 32.0
1024.72522 224.0
1024.890869 180.0
1029.145142 196.0
1031.112549 144.0
1032.755615 132.0
1033.465698 164.0
1036.949219 212.0
1037.013306 272.0
1037.731323 116.0
1040.104858 76.0
1042.198364 52.0
1044.274658 188.0
1044.866455 176.0
1045.690186 216.0
1046.758789 152.0
1047.299683 220.0
1048.214478 92.0
1049.587402 148.0
1051.59375 44.0
1053.672974 160.0
1057.274414 184.0
1059.838623 40.0
1062.568237 132.0
1067.680054 116.0
1068.675293 140.0
1069.111206 160.0
1075.556885 200.0
1083.292358 120.0
1083.914795 288.0
1088.532593 132.0
1094.193604 56.0
1094.263062 160.0
1094.970215 76.0
1096.228882 196.0
1098.345093 176.0
1099.004761 88.0
1100.734131 176.0
1100.819946 144.0
1101.757812 164.0
1102.815063 140.0
1104.315918 176.0
1107.214722 280.0
1107.612061 136.0
1108.601562 240.0
1110.442139 152.0
1113.262573 116.0
1114.411743 180.0
1114.963257 144.0
1115.269043 144.0
1115.322144 132.0
1115.541504 36.0
1117.41687 92.0
1122.425415 104.0
1128.414429 156.0
1128.762207 156.0
1134.198242 200.0
1135.223999 256.0
1145.102783 144.0
1146.221069 228.0
1146.288452 208.0
1146.369263 132.0
1147.609497 160.0
1147.757812 192.0
1151.780029 112.0
1153.671997 172.0
1159.282837 132.0
1159.533569 156.0
1160.150391 116.0
1167.694092 164.0
1168.000122 56.0
1171.546631 256.0
1171.941772 96.0
1172.602661 148.0
1173.713867 68.0
1175.241699 156.0
1177.678711 240.0
1178.710327 132.0
1180.084106 184.0
1180.186646 160.0
1180.856812 40.0
1183.998047 108.0
1185.372925 176.0
1187.849976 140.0
1189.043823 140.0
1190.718872 144.0
1190.918091 236.0
1191.198975 168.0
1191.529419 100.0
1192.147827 184.0
1192.917603 192.0
1193.935181 188.0
1196.061035 108.0
1196.302002 184.0
1197.107544 164.0
1197.692871 132.0
1200.16687 168.0
1200.7323 128.0
1201.284058 108.0
1202.691772 128.0
1203.40271 188.0
1206.421753 180.0
1207.126953 140.0
1207.189209 204.0
1208.932373 180.0
1209.423828 176.0
1209.887573 160.0
1211.397217 108.0
1211.452637 156.0
1211.986084 156.0
1212.505737 140.0
1214.349976 136.0
1216.160767 136.0
1216.417603 72.0
1217.320068 192.0
1217.382568 136.0
1219.452881 68.0
1220.453857 120.0
1223.410645 112.0
1225.116699 184.0
1226.308228 156.0
1227.32605 172.0
1227.835083 100.0
1228.05127 108.0
1229.558228 104.0
1231.352417 164.0
1231.645752 192.0
1232.602905 128.0
1232.686768 208.0
1232.8125 108.0
1233.029175 48.0
1233.147949 152.0
1236.392944 164.0
1238.346191 144.0
1239.088745 120.0
1239.284912 132.0
1241.513916 124.0
1241.780396 84.0
1241.871582 144.0
1244.2854 180.0
1244.51709 212.0
1245.493286 156.0
1246.237915 72.0
1247.509888 92.0
1249.443726 256.0
1250.316284 172.0
1250.682251 140.0
1252.146729 172.0
1256.001953 148.0
1257.180176 88.0
1258.012939 208.0
1258.761353 200.0
1261.417725 188.0
1261.856079 224.0
1263.312866 204.0
1264.275024 176.0
1266.710571 128.0
1267.936279 132.0
1268.042603 252.0
1268.099365 108.0
1268.226929 196.0
1270.474731 144.0
1271.013916 124.0
1271.418335 192.0
1271.539062 44.0
1271.872559 116.0
1272.802612 144.0
1273.173584 224.0
1276.2771 28.0
1276.440552 60.0
1276.632568 120.0
1277.151733 232.0
1277.201538 160.0
1279.179688 200.0
1279.78479 268.0
1280.140747 160.0
1280.333008 160.0
1280.938477 184.0
1280.988281 140.0
1282.071289 192.0
1282.41333 204.0
1282.955078 176.0
1283.026367 156.0
1283.454102 228.0
1284.003174 236.0
1285.83667 184.0
1286.678955 192.0
1286.800293 172.0
1287.421509 72.0
1289.293213 192.0
1291.073242 160.0
1291.795654 128.0
1292.146118 48.0
1292.774902 164.0
1293.842285 180.0
1294.966431 188.0
1295.92627 184.0
1300.199951 120.0
1300.400879 136.0
1301.563843 124.0
1301.678711 40.0
1301.779297 192.0
1302.325073 220.0
1302.701904 84.0
1302.856567 152.0
1302.928467 128.0
1303.10083 172.0
1306.227905 216.0
1306.443726 40.0
1307.004883 192.0
1307.465454 136.0
1308.372437 236.0
1308.552368 208.0
1309.286865 176.0
1309.675659 216.0
1311.419312 200.0
1311.563477 64.0
1311.707642 112.0
1312.990967 172.0
1313.503052 204.0
1314.072998 176.0
1316.332153 168.0
1317.162598 176.0
1317.307129 116.0
1318.730469 128.0
1319.048584 52.0
1319.272583 152.0
1321.529053 172.0
1321.782227 72.0
1322.397339 200.0
1323.28772 124.0
1323.736694 40.0
1325.127319 148.0
1327.185669 224.0
1327.395874 180.0
1327.744019 152.0
1327.874512 204.0
1328.46936 148.0
1328.977173 168.0
1329.093262 192.0
1329.746338 208.0
1329.891479 124.0
1331.023926 188.0
1331.641235 184.0
1331.982544 64.0
1333.537476 68.0
1333.762817 208.0
1334.089844 120.0
1334.824219 168.0
1335.769653 108.0
1335.915161 180.0
1336.62085 48.0
1336.919189 164.0
1337.224854 176.0
1337.450439 208.0
1337.596069 180.0
1338.667236 192.0
1338.884644 96.0
1339.358032 120.0
1340.101196 164.0
1341.128662 136.0
1341.361816 160.0
1341.514893 148.0
1341.689941 176.0
1343.17749 176.0
1343.841309 144.0
1344.279053 156.0
1345.300903 204.0
1345.892212 148.0
1347.338379 164.0
1347.857056 168.0
1348.880249 200.0
1350.752075 188.0
1351.725098 144.0
1352.303223 100.0
1353.28418 176.0
1353.396484 208.0
1354.470459 256.0
1354.961304 192.0
1355.540161 84.0
1355.701294 168.0
1355.759888 28.0
1355.950439 40.0
1356.265625 96.0
1356.859375 144.0
1357.145264 116.0
1357.629272 192.0
1357.878662 52.0
1359.252686 248.0
1359.367798 108.0
1359.778809 172.0
1360.453979 100.0
1361.092773 228.0
1362.150269 220.0
1362.400024 128.0
1362.95105 148.0
1364.626831 72.0
1364.722412 48.0
1364.825317 156.0
1365.215088 148.0
1365.273926 160.0
1365.810791 144.0
1366.635254 192.0
1367.01001 116.0
1367.355835 160.0
1367.473633 164.0
1368.50415 160.0
1368.702881 124.0
1369.122681 180.0
1369.269897 36.0
1370.831665 120.0
1371.185425 168.0
1371.436035 120.0
1371.657104 168.0
1372.00354 108.0
1373.559448 148.0
1375.485352 136.0
1375.942993 72.0
1376.865967 164.0
1377.235229 144.0
1379.015869 60.0
1379.119385 120.0
1379.496338 180.0
1380.413086 172.0
1380.671875 156.0
1381.396729 200.0
1381.640869 180.0
1382.173584 124.0
1384.79248 148.0
1385.69043 92.0
1386.260864 124.0
1387.090942 212.0
1388.232666 120.0
1390.198486 208.0
1390.836792 188.0
1391.81665 184.0
1392.165649 156.0
1392.461792 160.0
1392.945435 148.0
1394.037598 108.0
1394.847656 136.0
1395.717529 192.0
1396.401611 196.0
1396.669434 256.0
1397.524902 172.0
1397.911865 148.0
1397.993652 208.0
1398.0979 128.0
1398.380615 108.0
1398.861206 172.0
1398.983521 116.0
1399.043091 52.0
1399.236694 160.0
1399.333496 200.0
1400.956909 168.0
1401.858398 160.0
1402.253418 144.0
1402.66333 192.0
1403.572876 172.0
1403.759277 148.0
1404.907837 196.0
1406.161377 124.0
1406.653931 216.0
1406.989868 172.0
1407.064575 140.0
1407.370605 156.0
1407.818726 144.0
1408.416138 172.0
1408.513306 164.0
1409.551636 140.0
1411.412842 176.0
1411.562378 76.0
1411.622192 172.0
1411.771729 200.0
1412.003662 212.0
1413.858887 176.0
1414.367798 152.0
1415.236206 192.0
1416.044922 248.0
1416.127319 192.0
1416.359497 220.0
1416.419434 120.0
1417.955322 200.0
1420.639648 164.0
1420.96228 228.0
1422.635742 148.0
1424.069824 208.0
1425.271851 168.0
1425.44458 148.0
1428.474609 148.0
1428.925781 160.0
1429.08374 160.0
1429.389038 196.0
1429.580444 148.0
1430.25769 144.0
1431.537598 160.0
1433.631714 144.0
1434.272339 144.0
1434.8479 200.0
1435.342896 176.0
1437.598267 48.0
1437.922729 140.0
1438.904053 132.0
1439.221069 172.0
1440.384155 204.0
1440.459595 200.0
1440.527588 152.0
1440.927979 200.0
1441.018677 192.0
1441.147095 188.0
1442.099243 188.0
1442.552734 128.0
1443.489502 200.0
1443.853271 156.0
1444.828979 204.0
1446.221313 280.0
1446.349976 180.0
1446.735962 172.0
1446.811646 184.0
1447.220459 212.0
1448.159546 180.0
1448.788208 256.0
1449.152344 184.0
1449.606445 224.0
1449.674683 196.0
1452.373535 84.0
1452.767944 212.0
1452.843872 112.0
1453.496216 188.0
1455.219238 156.0
1455.469849 144.0
1455.682373 44.0
1455.788696 184.0
1456.001343 164.0
1457.277466 124.0
1457.528198 148.0
1459.822021 88.0
1460.523438 156.0
1461.071167 112.0
1461.451538 108.0
1461.634155 32.0
1461.740723 128.0
1462.014648 208.0
1463.514282 160.0
1463.651245 120.0
1464.146118 120.0
1465.997314 232.0
1466.104004 124.0
1466.744141 156.0
1467.453125 160.0
1468.322388 200.0
1468.375732 164.0
1470.458496 140.0
1472.901733 160.0
1473.283691 180.0
1473.398315 160.0
1474.743164 212.0
1475.775146 168.0
1475.836304 188.0
1477.487305 160.0
1478.337524 152.0
1478.605347 168.0
1480.458008 104.0
1481.067871 184.0
1482.395996 204.0
1482.587646 96.0
1483.729614 212.0
1483.867676 212.0
1484.588379 172.0
1485.186523 216.0
1485.478027 152.0
1485.823242 124.0
1486.229858 204.0
1487.427002 184.0
1488.179321 184.0
1488.617065 160.0
1489.723022 128.0
1490.383667 156.0
1491.636353 176.0
1492.120605 84.0
1492.935669 52.0
1493.181763 176.0
1493.235596 140.0
1494.027832 168.0
1494.17395 116.0
1494.828003 160.0
1494.958862 192.0
1495.081909 112.0
1495.466797 188.0
1496.690674 152.0
1497.14502 144.0
1497.815063 120.0
1498.023071 204.0
1498.700073 148.0
1499.098511 104.0
1499.186401 240.0
1499.548706 136.0
1500.674072 140.0
1501.020996 276.0
1501.352661 184.0
1501.522339 184.0
1501.745972 148.0
1501.969604 176.0
1503.282959 100.0
1503.643799 124.0
