>compound QuinineHCl
>formula C20H24N2O2 
>ionization [M+H]+
>parentmass 325.192352
#inchi InChI=1S/C20H24N2O2/c1-3-13-12-22-9-7-14(13)10-19(22)20(23)16-6-8-21-18-5-4-15(24-2)11-17(16)18/h3-6,8,11,13-14,19-20,23H,1,7,9-10,12H2,2H3/t13-,14-,19-,20+/m0/s1
#inchikey LOUPRKONTZGTKE
#Ion_Source LC-ESI
#Instrument qTof
#Compound_Source Isolated
#PI Sirenas
#Data_Collector Ed Esquenazi 
#Scan -1
#Precursor_MZ 325.192
#ExactMass 0.0
#Charge 1
#CAS_Number N/A
#Pubmed_ID N/A
#Smiles N/A
#INCHI_AUX N/A
#Library_Class 3
#SpectrumID CCMSLIB00000004258
#IonMode Positive
#UpdateWorkflowName UPDATE-SINGLE-ANNOTATED-BRONZE
#LibraryQualityString Bronze
#TaskID d19310cd93df49b68e9fcbec27720eb5
##Scan# 2
#SpectrumFile QuinineHCl.mgf
#LibraryName fda_library.mgf
#MQScore -1
#Organism fda_library
#TIC_Query 0
#RT_Query -1
#MZErrorPPM -1
#SharedPeaks 0
#MassDiff 0
#LibMZ -1
#SpecMZ 325.192
#SpecCharge 0
#internalFilename spec-00000.mgf

>collision 10
104.047974 16.71504
104.257057 39.59724
105.070297 419.609406
106.063904 148.580704
106.323349 6.20777
107.071907 108.751999
107.085594 424.761108
107.480766 23.18243
107.779884 6.54529
108.081161 967.998413
108.427376 7.861008
108.530952 13.26833
108.55143 12.33932
108.602081 5.55787
109.063271 97.556686
109.101204 158.792099
109.137138 14.16009
110.067421 37.364719
110.096367 4374.149902
110.125656 1.833333
110.141411 29.901569
110.154869 6.501488
110.168953 9.928996
110.197006 16.16412
110.214729 16.542801
110.258362 14.85556
110.315811 12.63601
110.341293 9.509828
110.385048 8.185927
110.45813 6.333333
110.504654 14.1875
110.538887 8.120561
110.842369 8.18889
111.535675 7.698506
115.052368 59.373402
116.048447 17.01705
116.060638 20.340281
117.057365 108.400597
117.069496 186.565094
117.141441 9.006048
117.30088 18.76342
119.072968 24.81073
119.083969 27.462959
120.081055 270.420593
120.149925 8.000443
120.180534 5.398438
120.711273 9.004573
122.070702 58.930618
122.096252 868.672485
122.637505 8.206141
123.100647 19.80871
123.342644 5.565188
123.548401 9.423913
124.111626 1052.916992
124.231415 5.595238
124.412216 6.0375
125.298523 6.751736
126.091446 17.58997
126.289688 7.424082
129.05513 49.016811
130.063431 43.975311
132.080032 171.585693
133.39267 9.442983
133.557861 7.377752
134.055252 23.497629
134.096146 1890.796997
134.271011 7.631945
134.389206 11.6742
134.429016 11.02083
134.616959 9.834936
134.693665 9.675494
135.081558 57.89867
135.381882 11.83333
135.434494 18.310369
135.925201 7.467129
136.076462 23.703159
136.112152 1136.029053
137.074188 38.338799
137.436783 7.952381
137.920898 20.444139
138.092499 10.2484
138.127014 368.782593
140.047592 9.942402
140.397354 8.650615
141.055099 21.785021
142.063766 70.165314
143.074448 252.677902
145.051727 142.430496
145.782196 7.674819
145.812164 9.901389
146.097549 57.094318
146.407806 8.973958
147.099991 41.689388
147.114792 28.370001
148.077881 20.069441
148.112747 245.604706
150.086395 12.23184
150.13031 51.706169
151.406952 6.770833
152.059799 10.55114
152.071716 9.167298
152.106995 60.030121
152.330933 8.866936
152.453384 1.166667
152.862762 15.35814
152.94606 564.619507
153.107101 21.90081
153.582886 8.57254
154.063644 158.613907
154.149261 11.85366
155.07431 163.846497
156.066086 22.91186
157.048355 30.42111
158.059402 153.868698
158.088882 5.275735
158.304977 7.099734
159.067535 107.028603
159.098312 8.41565
159.214645 17.44404
159.247543 5.503538
159.261353 10.70833
159.313538 7.680059
159.322235 5.6675
159.330963 7.849039
159.356995 12.515
159.722061 8.333333
159.761551 8.851243
160.013962 10.42857
160.075684 7677.085938
160.12825 49.969139
160.148376 7.745676
160.192993 5.320076
160.202774 8.222686
160.216049 9.857142
160.226105 19.028009
160.240585 36.318939
160.249939 7.169445
160.285309 4.836111
160.307236 11.33523
160.343506 16.86051
160.368393 8.86218
160.40361 10.18679
160.415833 21.090651
160.451767 9.588816
160.501343 12.55926
160.517578 9.606061
160.549683 4.89797
160.580597 5.358334
160.608826 18.02363
160.712143 8.543403
160.730804 9.399764
160.814545 21.32332
160.829376 11.4537
161.04422 18.425211
161.152985 7.667201
162.091721 420.948486
162.123657 10.59263
162.406387 7.838709
162.673981 14.94907
164.100266 12.13355
165.448364 9.697349
166.06282 99.65844
166.122055 3018.177979
166.177765 22.09697
166.202744 17.68527
166.226593 8.724999
166.318069 10.82046
166.519821 7.668056
166.74469 9.61638
166.768066 9.855469
167.073715 184.230804
167.221848 9.407552
167.666489 8.166667
167.67662 16.037041
167.698029 7.8416
167.917999 13.10901
168.082016 350.687714
168.753876 7.914141
168.917526 149.370605
169.051392 217.220795
169.071136 66.557953
169.252548 6.259339
169.695572 8.469087
169.821106 5.15308
170.952896 17.833521
171.066193 65.858719
171.097046 7.742608
171.272446 8.020833
172.075714 2986.00293
172.133652 9.205882
172.164917 10.00257
172.200165 10.04735
172.215607 7.714881
172.242569 9.193452
172.335968 8.319592
172.386322 5.840278
172.40741 15.56504
172.508347 8.315476
172.544006 12.83523
172.59462 8.130297
173.08371 1307.041992
173.12027 11.16696
173.294235 9.769897
173.326294 8.41565
173.463943 5.756299
174.05719 38.438862
174.091217 1193.297974
174.116928 54.280819
174.157364 11.3125
174.220581 12.18406
174.335968 9.043269
174.347382 18.59654
174.399689 8.55388
174.482559 7.935897
174.546738 7.785715
174.579514 9.349038
174.651794 9.520061
174.730698 8.380575
176.066528 29.87731
176.103745 105.738503
177.054245 28.16864
178.125031 10.07341
179.068619 17.388611
179.079956 10.66757
180.0802 159.246902
180.942642 11.90766
181.089828 27.500469
182.060928 36.0471
183.001251 9.833333
183.068695 212.765594
183.087311 8.399354
183.102005 11.24612
183.139099 6.208333
183.190887 7.504167
183.266251 9.846944
183.344772 13.70119
183.520645 6.160257
183.817642 8.010213
184.034744 9.852381
184.075424 7699.710938
184.133408 39.41539
184.1539 29.2757
184.218018 7.855978
184.284882 8.173333
184.301056 26.705299
184.343781 19.18561
184.362747 24.663799
184.393372 15.78614
184.445648 4.833965
184.503433 1.222222
184.539062 11.0
184.554306 10.22495
184.601135 7.190104
184.620346 15.50249
184.713837 11.39338
184.757462 5.372549
184.790482 12.67326
184.830627 8.319592
184.861557 13.33358
184.918304 11.5
185.110031 43.815941
185.226486 9.9225
185.652985 9.779636
186.055176 87.754227
186.090744 2496.620117
186.283264 5.751736
186.330856 11.18468
186.37056 17.940201
186.41626 7.16875
186.4767 7.745098
186.578323 16.154091
187.643906 15.02126
188.069595 296.040588
188.665161 9.863907
188.732605 8.867816
189.07814 782.280396
189.389389 9.25641
189.850281 6.537138
190.115692 17.833481
190.125732 10.59902
190.139633 9.125856
192.079605 31.309191
193.084167 24.83614
194.097122 63.034729
194.117737 9.501068
194.195297 9.667708
194.540283 10.7815
195.068268 59.14394
196.074371 441.58551
196.894119 6.886905
196.983871 10.025
197.081955 202.045395
197.116882 20.783039
197.192184 10.35006
197.510773 8.833758
198.020065 16.16552
198.091049 3870.462891
198.150818 8.125
198.167999 19.67798
198.27356 7.71875
198.356995 10.69851
198.369583 8.177083
198.42215 10.71456
198.510712 9.444776
198.52478 8.709636
198.548965 11.58654
198.586594 6.741667
198.789825 12.51282
198.863434 18.713579
198.90184 9.002192
198.944611 9.860577
199.061447 43.741928
199.786407 8.542969
199.953125 8.166667
200.068848 79.640297
200.105743 309.260803
200.367371 8.970052
200.493881 17.12731
200.505936 13.83333
200.519653 8.17742
200.933273 5.724359
201.271057 27.58621
202.085831 821.4104
202.197678 5.064637
202.252823 11.48355
202.716309 6.374281
204.101395 137.152496
205.084045 54.70417
207.05545 6.925975
207.087296 33.468472
208.079498 31.36076
208.10199 131.692505
209.085281 22.0338
209.118149 9.229167
210.090775 1073.489014
210.215408 13.50903
210.624619 8.148809
211.100586 81.086678
212.105392 563.841675
212.153442 10.46065
212.53183 8.001543
213.103027 431.811401
213.745682 5.140019
214.084915 438.288391
214.123001 44.311989
215.116135 129.4431
215.161972 5.06813
215.342209 12.40809
216.102371 117.191498
216.158203 6.339285
216.252792 10.62644
217.085022 11.34594
218.092773 24.69697
219.063553 19.89967
219.087769 57.740219
219.104538 33.61116
220.074142 18.655701
220.108795 23.837429
221.079529 31.476231
221.107117 91.583473
221.639755 5.180059
222.08815 76.830482
222.722946 24.148809
222.795456 7.576389
223.097 133.029999
223.304596 11.39855
223.627777 22.83814
224.1064 525.315674
224.348007 8.494103
224.823669 5.836309
224.9095 9.77736
225.092758 14.87346
225.105865 244.237106
225.666611 10.5011
225.800949 6.002778
225.818375 8.533654
225.963882 10.2037
226.077209 36.872971
226.121536 1021.19397
226.671127 7.021505
226.707947 14.87114
226.784271 9.314103
227.117859 870.276611
227.237518 12.483
227.32431 10.594
227.431686 12.06379
228.101547 69.074913
229.078751 21.802731
230.690201 13.17628
230.957062 40.1758
232.082794 10.43896
232.112061 79.902191
233.085037 20.856649
233.115784 160.585907
233.205429 7.148438
233.531189 8.833867
234.090454 126.412003
235.080719 6.695833
235.096481 85.872261
235.780182 5.002083
236.106415 333.623505
236.523544 7.47405
236.861359 10.65427
237.096741 13.68007
237.138275 30.33041
238.088654 27.34626
238.122284 258.26239
238.326035 8.190217
238.829498 6.707825
239.118179 334.703613
239.31424 11.33426
239.595337 7.240079
239.846664 5.695269
239.991211 7.891523
240.138107 268.556305
240.499023 8.076213
241.12764 19.22669
241.829193 8.547619
242.122391 20.929239
242.336884 8.619048
244.115433 32.446758
244.132141 71.329231
245.11261 14.4406
245.985031 18.874359
246.090302 49.113739
246.932068 60.657261
247.096634 46.473679
247.112625 39.748169
247.130951 11.86359
248.10527 68.375793
248.353302 8.720109
248.950211 7.837963
249.111649 127.193703
249.143784 5.027778
249.214096 9.176802
249.384537 8.728436
249.471649 11.66667
249.703186 10.16964
250.121597 274.366699
250.500534 8.673333
250.706589 9.613347
251.081223 20.237061
251.117844 873.013672
251.207428 13.44636
251.526062 5.428997
251.55957 5.015783
251.634216 8.609069
251.703354 9.641346
251.72049 13.84409
251.735855 8.157552
251.917831 8.171027
252.06572 8.444907
252.133545 954.688721
252.2043 8.666924
252.28894 9.681945
252.406494 15.54047
252.449265 10.27778
252.597031 5.891523
252.724716 10.33371
252.791046 8.333897
252.813278 7.755556
252.94136 7.594733
253.133408 6646.201172
253.203247 70.98188
253.233292 9.524899
253.25032 6.636364
253.267563 13.54959
253.28923 41.203239
253.43399 30.960251
253.460968 43.107731
253.4935 21.78298
253.549362 15.88992
253.582642 11.04006
253.607086 12.52083
253.682709 9.393008
253.737061 13.56806
253.809891 7.179598
254.016998 19.16898
254.152054 361.795807
255.271591 9.706667
256.129364 52.222561
258.096039 14.97704
259.108887 14.54583
260.105255 38.60503
261.117279 109.869698
262.122131 458.158813
262.529388 5.168056
262.715668 5.578526
262.801483 10.18182
263.566742 16.372789
263.703369 5.16706
264.045135 14.98338
264.138458 3325.457031
264.20874 17.460751
264.230835 19.927549
264.26297 5.251736
264.291992 8.755208
264.325165 6.333654
264.341095 27.433661
264.54892 25.9776
264.591217 12.90139
264.790283 8.537093
264.976044 5.160714
265.072754 15.95885
265.181396 23.85417
265.412231 8.350877
266.152222 587.279175
266.535889 8.172349
267.165985 20.081699
268.133301 25.973289
268.169434 111.519302
270.109711 17.51483
270.149414 82.878433
274.116302 11.01479
274.557892 9.547349
274.730743 8.619378
275.128326 40.399891
275.153351 133.380096
276.082458 5.113426
276.138794 295.820007
276.160248 143.522202
276.330444 5.911859
276.385132 14.01026
276.528137 7.964015
276.568756 27.27976
277.088623 14.47311
277.135284 131.678696
277.362061 8.703743
277.536011 12.66263
277.884247 8.446759
278.120422 25.0117
278.153381 899.789612
278.275299 11.75
278.311859 10.16376
278.336243 7.14938
278.75885 8.846944
279.03302 8.380952
279.061829 11.02769
279.100189 30.60294
279.149475 3169.852051
279.229401 18.549431
279.288818 17.08135
279.314758 22.34881
279.373169 7.600833
279.456421 11.41978
279.712952 8.489943
279.880737 7.201666
279.927673 8.230681
279.952606 9.248311
280.014862 6.16713
280.032318 9.516666
280.167786 248.828094
280.238678 8.319592
280.39325 8.095109
280.557068 3.520833
281.0112 9.341346
281.165558 124.339699
282.14801 636.065186
282.291046 11.98831
282.482849 6.748547
282.617065 10.55671
282.712708 8.203947
283.155212 37.371479
285.149414 3.166667
289.45401 7.507774
290.150848 397.898285
290.662689 6.015625
291.553284 10.50272
292.748932 11.26078
292.813721 4.868421
293.165924 61.954109
293.397949 14.21902
295.180695 177.389694
295.329041 7.894571
295.791748 12.33446
296.164612 326.648987
297.19635 1291.887939
297.36145 5.000772
297.583649 5.963141
297.607483 5.834723
297.662842 17.112329
298.502869 9.644121
298.863098 5.836111
300.127441 7.826389
300.592194 8.367045
302.385956 8.940925
303.663788 10.17649
305.104279 8.079166
305.165833 89.976486
305.217926 8.860215
305.250305 27.49929
305.277954 44.80909
305.34079 10.6973
305.382172 26.905609
305.420837 40.47308
305.499847 16.499201
305.544708 31.14159
305.610016 31.640949
305.703888 9.179588
305.809998 28.28982
305.877197 21.160721
306.024841 8.599734
306.229034 9.527554
306.453583 15.62142
306.495605 12.01442
306.520599 8.740741
306.774963 36.690868
306.837982 14.38178
306.97171 17.266911
307.071014 23.65995
307.092285 7.339285
307.116791 7.648284
307.180969 22270.519531
307.370575 43.297939
307.422058 67.940987
307.445312 65.920769
307.471588 63.994122
307.513123 58.138161
307.556427 68.426483
307.590271 38.665352
307.617279 29.376961
307.633148 13.96465
307.655792 37.738281
307.681335 24.466459
307.700104 4.060185
307.717316 57.356159
307.748383 19.20558
307.793152 35.331772
307.811127 34.637241
307.838684 62.705521
307.903625 14.28205
307.990814 24.443041
308.041656 60.114071
308.132965 22.201929
308.237183 33.765411
308.252808 27.992599
308.667206 9.500365
308.905548 9.345052
309.56134 11.52612
310.163361 41.358059
310.533356 12.46273
310.835724 27.494949
310.867554 14.98227
311.420563 14.0011
311.761993 8.255435
319.338959 7.048214
322.416016 10.00436
322.624176 7.860887
323.011475 12.00507
323.02951 6.735577
323.091003 90.742821
323.130585 174.621399
323.171448 66.519096
323.193634 143.676895
323.23233 222.1297
323.300018 226.723907
323.33197 179.888794
323.352325 65.844307
323.393372 300.609009
323.413605 28.872801
323.43869 170.883606
323.46814 110.035599
323.493256 94.714027
323.532867 78.844193
323.560089 137.811493
323.601044 137.072296
323.657776 36.42181
323.753387 171.619904
323.83783 68.15464
323.869995 103.790703
323.948486 66.418167
324.020905 212.417694
324.146271 147.440903
324.274292 56.854809
324.479218 21.850071
324.653748 42.45681
324.696991 54.82719
324.719666 10.71089
324.739441 42.308411
324.818817 48.820862
324.874542 33.034229
324.924469 25.709129
325.000946 44.041119
325.052765 56.317188
325.082794 116.174004
325.192352 211667.296875
325.255951 7.226431
325.295685 1.001894
325.632629 7.056548
325.672699 2.836806
325.733429 183.295898
325.780243 73.078941
325.80484 3.197304
325.83255 195.307404
325.883118 89.034607
325.901794 171.231003
325.938171 109.444504
325.964233 48.264629
325.990295 83.208778
326.098816 16.257441
326.274139 79.368202
326.301697 110.493202
326.424957 56.106739
326.463165 111.770401
326.492828 27.111111
326.517731 84.560593
326.540222 35.139172
326.57608 59.10022
326.604706 59.996861
326.632446 18.35173
326.656311 54.68824
326.675171 91.201111
326.721588 22.17905
326.759033 34.037529
326.94278 29.26856
327.086029 30.643259
327.208282 19.4774
327.247345 52.228249
327.337341 12.29711
327.360809 18.910641
327.396454 32.39563
327.476837 23.38026
327.535431 25.66642
327.706329 46.772381
327.806915 33.70586
327.856018 25.400419
327.918915 12.97431
328.399902 24.822479
328.447327 8.701388
328.737366 9.840278
328.951019 8.564103
329.033875 6.501667
329.108063 13.91153
329.18161 17.40864
329.210632 11.50034
329.250244 10.61433
329.434296 8.671735
329.62323 11.20119
329.778931 6.007576
330.146179 13.06209
330.28421 11.88568
330.317474 5.352941
336.216095 5.758579
341.945404 10.3138
342.645813 15.00298
352.851776 8.64
355.655823 7.926006
403.242279 16.298189
483.500641 27.92691
954.961853 19.125
1041.973877 22.22298
1215.059326 9.173612
1415.418335 15.18371
1460.349854 10.19435
