>compound MLS001142944-01!7-[2-[(4aS,8aS)-4a-hydroxy-1,3,4,5,6,7,8,8a-octahydroisoquinolin-2-yl]-2-oxoethoxy]-4-ethylchromen-2-one
>formula C22H27NO5
>ionization [M+H]+
>parentmass 386.197
#inchi InChI=1S/C22H27NO5/c1-2-15-11-21(25)28-19-12-17(6-7-18(15)19)27-14-20(24)23-10-9-22(26)8-4-3-5-16(22)13-23/h6-7,11-12,16,26H,2-5,8-10,13-14H2,1H3/t16-,22-/m0/s1
#inchikey HMODSEUUTCJCOO
#Ion_Source LC-ESI
#Instrument qTof
#Compound_Source NIH Natural Product Library
#PI Dorrestein
#Data_Collector VVP/LMS
#Scan -1
#Precursor_MZ 386.197
#ExactMass 385.189
#Charge 1
#CAS_Number N/A
#Pubmed_ID N/A
#Smiles CCc1cc(=O)oc2cc(OCC(=O)N3CC[C@@]4(O)CCCC[C@H]4C3)ccc12
#INCHI_AUX N/A
#Library_Class 1
#SpectrumID CCMSLIB00000080431
#IonMode Positive
#UpdateWorkflowName UPDATE-SINGLE-ANNOTATED-GOLD
#LibraryQualityString Gold
#TaskID b1d8e8f6646f4e71acdff9ca3d919d08
##Scan# 1899
#SpectrumFile p2-G08_GG8_01_18056.mzXML
#LibraryName NIH_Natural_Products_Library.mgf
#MQScore -1
#Organism NIH_Natural_Products_Library
#TIC_Query 0
#RT_Query -1
#MZErrorPPM -1
#SharedPeaks 0
#MassDiff 0
#LibMZ -1
#SpecMZ 386.197
#SpecCharge 0
#internalFilename spec-00000.mgf

>collision 10
95.028343 112.0
95.075882 236.0
95.094322 124.0
95.407066 72.0
95.545143 148.0
95.698906 64.0
95.813812 80.0
95.862526 36.0
95.882019 52.0
95.995087 56.0
96.080299 236.0
96.348381 252.0
96.432404 88.0
96.534065 200.0
96.55558 180.0
96.72776 116.0
96.804123 68.0
96.915771 180.0
96.929489 176.0
97.09024 152.0
97.151047 224.0
97.186363 128.0
97.579185 116.0
97.661781 192.0
98.06739 200.0
98.08979 188.0
98.108788 164.0
99.033592 176.0
99.52343 148.0
100.215622 204.0
100.305305 220.0
100.584572 208.0
100.988197 152.0
101.022202 116.0
101.060219 172.0
101.342537 84.0
101.617226 188.0
102.053078 164.0
102.131508 144.0
102.163689 120.0
102.685402 128.0
103.055122 340.0
103.277206 160.0
103.441109 252.0
103.560577 200.0
103.765251 176.0
104.578407 168.0
104.716278 200.0
105.068939 864.0
105.091377 136.0
105.84153 144.0
105.978767 268.0
106.144798 216.0
106.524498 232.0
106.606682 228.0
106.828743 104.0
106.962502 156.0
107.052124 224.0
107.07531 132.0
107.370468 164.0
107.477737 180.0
107.630486 152.0
107.830879 112.0
108.081329 5000.0
108.112617 188.0
108.143188 48.0
108.281914 120.0
108.569992 40.0
108.717056 216.0
108.792007 44.0
108.968536 132.0
108.993477 104.0
109.051666 164.0
109.089539 1948.0
109.253365 52.0
109.542732 100.0
110.05835 176.0
110.088966 352.0
110.112175 52.0
110.139328 280.0
110.360855 116.0
110.5261 152.0
110.542839 116.0
110.754295 96.0
110.81086 168.0
110.932411 236.0
111.133751 164.0
111.265976 184.0
111.408783 124.0
111.560097 208.0
111.652618 48.0
111.839874 168.0
112.360382 156.0
112.432121 60.0
113.080963 128.0
113.419518 164.0
113.761391 120.0
113.811256 148.0
113.835701 168.0
113.946159 204.0
114.205505 128.0
114.277832 160.0
115.053047 1036.0
115.158264 64.0
115.558022 104.0
116.062874 488.0
116.252281 156.0
116.280182 164.0
116.540024 164.0
116.838882 80.0
117.069977 4996.0
117.105583 76.0
117.12735 196.0
117.248009 52.0
117.506767 40.0
117.571503 112.0
118.070961 952.0
118.715935 180.0
118.765816 164.0
118.78389 180.0
119.0476 120.0
119.083191 996.0
119.236969 120.0
119.391335 104.0
119.491394 120.0
119.563202 152.0
119.676399 192.0
119.972702 128.0
120.093842 676.0
120.330498 40.0
120.465904 188.0
120.934875 188.0
121.067444 224.0
121.099792 3004.0
121.426826 204.0
121.459732 144.0
122.002136 176.0
122.019722 208.0
122.035118 248.0
122.097595 1716.0
122.292503 40.0
122.382118 184.0
122.536942 200.0
122.633904 60.0
122.666367 220.0
122.748543 48.0
123.077332 144.0
123.099747 644.0
123.276138 176.0
123.386658 136.0
123.583504 108.0
124.104019 48.0
124.141716 80.0
124.363579 200.0
125.083771 148.0
125.310928 104.0
125.342117 48.0
125.533829 160.0
126.109833 160.0
126.425186 124.0
126.55278 176.0
126.606522 84.0
127.05378 152.0
127.117645 128.0
127.14682 156.0
127.440994 144.0
127.551117 140.0
127.605072 72.0
127.836754 132.0
128.065674 188.0
128.530807 192.0
128.600769 156.0
128.743011 144.0
128.912445 124.0
129.063049 128.0
129.111389 180.0
129.136261 44.0
129.290115 76.0
129.315002 116.0
129.811157 76.0
129.958603 180.0
130.417343 104.0
130.490082 144.0
130.537842 232.0
130.948944 156.0
131.051239 192.0
131.087662 348.0
131.146072 124.0
131.275665 180.0
131.709305 112.0
131.729858 104.0
131.830399 96.0
132.057648 180.0
132.395462 228.0
132.484787 124.0
133.062729 180.0
133.166077 180.0
133.497025 100.0
133.579819 212.0
134.097839 136.0
134.31926 176.0
134.81105 132.0
134.979797 160.0
135.023743 144.0
135.078598 332.0
135.102386 524.0
135.578781 204.0
135.732376 48.0
135.755569 292.0
136.074036 456.0
136.111816 7988.0
136.275528 184.0
136.296432 148.0
136.312698 72.0
136.34523 60.0
136.467789 72.0
136.742935 184.0
136.775528 72.0
136.94783 232.0
137.031693 76.0
137.061981 148.0
137.085876 352.0
137.119629 9232.0
137.154373 156.0
137.309097 88.0
137.34642 84.0
137.423401 52.0
137.449066 68.0
137.478195 92.0
137.647491 76.0
137.885773 52.0
137.912643 128.0
137.948883 120.0
138.065796 176.0
138.089172 344.0
138.127213 5344.0
138.171051 68.0
138.207199 116.0
138.25061 116.0
138.323166 44.0
138.358276 56.0
138.512848 176.0
138.625305 164.0
138.681549 56.0
138.961823 116.0
139.130859 548.0
139.721832 144.0
139.750076 76.0
139.93602 84.0
140.103226 144.0
140.185699 176.0
140.249329 112.0
141.09317 212.0
141.618759 152.0
142.421509 196.0
143.156418 164.0
143.31839 44.0
143.864563 248.0
143.943359 164.0
144.58165 148.0
144.936066 36.0
145.064957 2316.0
145.110443 164.0
145.136719 56.0
145.221344 28.0
145.278915 72.0
145.389282 44.0
145.468491 36.0
145.492508 68.0
145.538116 124.0
145.629379 116.0
145.848038 48.0
145.929764 128.0
146.066315 396.0
146.317123 112.0
146.610992 208.0
146.804138 152.0
147.043076 464.0
147.080643 1200.0
147.105453 152.0
147.334885 88.0
147.629761 96.0
147.782166 64.0
148.04866 192.0
148.079926 208.0
148.108948 152.0
148.363434 136.0
148.441025 72.0
148.656921 100.0
148.86084 120.0
148.945847 72.0
149.059692 264.0
149.083115 200.0
149.5448 60.0
149.624329 116.0
149.887375 196.0
149.933685 120.0
150.055435 160.0
150.068283 164.0
150.091217 456.0
150.127991 7276.0
150.182373 148.0
150.260437 56.0
150.340958 72.0
150.397095 156.0
150.710617 84.0
151.032394 28.0
151.095749 304.0
151.135071 2328.0
151.171844 100.0
151.213455 68.0
151.4534 80.0
151.570999 40.0
151.777664 64.0
151.916702 64.0
151.975586 64.0
152.090927 72.0
152.139954 248.0
152.336487 52.0
153.143311 148.0
153.582047 216.0
154.1203 224.0
154.226517 176.0
155.016006 116.0
155.049118 176.0
155.832382 180.0
156.051102 188.0
156.32222 144.0
156.625977 84.0
157.127045 156.0
157.866409 96.0
158.041504 176.0
158.534821 172.0
158.592468 100.0
160.048737 312.0
160.094894 140.0
160.115036 168.0
160.485474 68.0
160.624191 172.0
161.040665 128.0
162.132614 224.0
162.76532 208.0
162.93042 140.0
163.042221 104.0
163.080338 136.0
163.762238 128.0
163.790253 48.0
164.107193 552.0
164.389404 200.0
164.527237 136.0
164.721329 104.0
164.86441 28.0
165.109833 212.0
165.224945 168.0
165.345215 204.0
166.868942 76.0
167.718475 192.0
167.880905 160.0
167.950531 68.0
168.136307 144.0
169.276382 36.0
169.722076 188.0
169.929581 68.0
171.247559 144.0
171.695847 56.0
171.789749 128.0
171.92804 140.0
172.617706 68.0
172.677856 184.0
172.751099 188.0
172.860977 140.0
172.947342 136.0
173.059891 7208.0
173.274689 112.0
173.359116 144.0
174.062347 1612.0
174.193695 156.0
174.750244 84.0
174.818649 156.0
175.03978 128.0
175.075958 3040.0
175.145126 40.0
175.163559 48.0
175.371735 232.0
175.41391 212.0
175.524643 56.0
175.59584 44.0
175.624847 68.0
176.041183 96.0
176.081161 372.0
176.350403 132.0
176.845566 156.0
177.073273 160.0
177.245468 68.0
177.301117 84.0
177.433655 84.0
178.0121 192.0
178.123047 2284.0
178.40799 176.0
178.490417 192.0
178.740448 172.0
178.932098 124.0
179.030624 172.0
179.057251 76.0
179.130447 10764.0
179.273041 76.0
179.294357 56.0
179.595642 72.0
179.665482 176.0
179.723694 132.0
179.942566 72.0
180.062729 60.0
180.133316 1064.0
180.233704 48.0
180.283524 192.0
180.471588 48.0
180.610657 204.0
180.854156 128.0
180.891632 68.0
180.923752 28.0
181.116562 44.0
181.136719 112.0
181.507843 136.0
181.548065 76.0
181.883453 136.0
183.131271 200.0
184.961792 76.0
185.0755 176.0
185.235291 112.0
185.883011 188.0
186.018982 52.0
187.041061 80.0
187.07782 172.0
187.684021 120.0
188.158768 120.0
188.500198 68.0
190.069016 220.0
191.071259 1304.0
191.892883 124.0
192.077911 220.0
192.270798 52.0
192.458511 92.0
192.533066 156.0
193.074753 136.0
193.282227 152.0
193.345871 108.0
197.136444 168.0
198.003708 112.0
199.822708 92.0
200.935593 148.0
201.065399 196.0
201.79985 112.0
201.961044 200.0
202.06572 140.0
202.402542 80.0
202.481827 120.0
202.682968 172.0
202.711304 120.0
202.946579 96.0
203.070084 7196.0
203.133759 36.0
203.372116 104.0
203.411545 76.0
203.457275 80.0
203.497025 96.0
203.636169 48.0
203.809464 232.0
203.894714 92.0
203.940186 60.0
204.073822 1100.0
204.176163 48.0
204.625763 188.0
205.192734 84.0
205.483658 84.0
208.306427 60.0
214.467148 148.0
216.079117 136.0
216.734985 72.0
221.078522 148.0
223.267944 152.0
225.088745 148.0
225.151459 136.0
226.791046 164.0
226.889969 68.0
231.064011 760.0
232.067139 116.0
232.813248 192.0
233.016769 172.0
241.109818 148.0
243.082504 156.0
244.089783 180.0
244.356461 196.0
244.627228 172.0
245.10997 132.0
246.201813 48.0
248.091766 1648.0
248.681442 76.0
249.098328 360.0
250.108459 144.0
250.262711 40.0
250.848709 120.0
251.145111 136.0
252.693054 68.0
255.628128 180.0
258.116302 152.0
259.169403 108.0
260.086609 120.0
261.093628 136.0
262.09021 148.0
263.842773 60.0
272.085541 48.0
272.108521 144.0
272.1315 28.0
272.45993 196.0
274.124847 224.0
275.107727 144.0
276.108917 192.0
280.255127 188.0
286.109711 124.0
286.53067 252.0
297.158966 140.0
298.148163 168.0
299.927612 60.0
301.238861 84.0
307.684479 20.0
311.744141 288.0
313.965546 48.0
316.65155 140.0
318.908081 152.0
319.96817 136.0
322.533112 156.0
323.015839 48.0
331.853821 116.0
334.65152 208.0
339.155945 80.0
339.679993 136.0
340.127991 204.0
340.193909 1972.0
340.304199 68.0
340.553925 52.0
341.190674 356.0
341.417633 64.0
342.205078 164.0
343.196228 60.0
347.286377 72.0
350.166901 132.0
352.356567 64.0
354.099731 96.0
354.721741 144.0
355.366791 92.0
356.350494 52.0
357.794708 176.0
362.266144 64.0
366.544281 76.0
367.940277 100.0
368.028076 88.0
368.187134 3048.0
368.48642 56.0
368.654541 84.0
368.757721 112.0
368.853271 40.0
368.960327 32.0
369.013855 44.0
369.120911 56.0
369.191864 1304.0
369.262421 76.0
369.388641 40.0
369.457489 80.0
369.534027 52.0
369.721527 60.0
369.828674 72.0
370.196014 304.0
370.755524 60.0
371.211731 148.0
371.307617 116.0
372.635773 76.0
372.758728 120.0
373.00473 92.0
373.066223 64.0
374.840546 48.0
380.926514 76.0
384.024933 96.0
387.01059 144.0
389.202454 64.0
394.612305 48.0
397.924561 40.0
411.098175 124.0
417.12085 104.0
423.162781 76.0
430.969421 64.0
440.520966 68.0
448.24939 68.0
481.21814 184.0
517.867371 68.0
523.754028 92.0
571.963806 92.0
630.984924 68.0
717.911499 60.0
790.494812 96.0
796.117493 112.0
801.636108 72.0
844.38208 216.0
855.586975 144.0
867.311157 232.0
868.560059 164.0
871.319153 168.0
878.820007 172.0
883.960754 68.0
884.94928 144.0
888.422241 68.0
901.222717 148.0
931.624695 92.0
934.877625 232.0
938.434937 152.0
943.105042 144.0
944.113831 164.0
960.31543 208.0
963.704529 224.0
978.509399 204.0
982.891113 44.0
987.238831 212.0
988.064514 152.0
990.345947 192.0
1008.975952 168.0
1013.710449 116.0
1015.935913 124.0
1018.659241 196.0
1020.483215 188.0
1027.546509 260.0
1039.383423 176.0
1045.353027 164.0
1046.743408 152.0
1049.862427 88.0
1054.568848 128.0
1069.161621 92.0
1069.395874 176.0
1070.691528 164.0
1073.141602 60.0
1087.789551 124.0
1092.882935 148.0
1095.384644 136.0
1095.799683 152.0
1097.440796 120.0
1100.099609 160.0
1107.591675 232.0
1116.804688 172.0
1117.74939 96.0
1118.394897 168.0
1118.694458 32.0
1119.187134 204.0
1121.118896 184.0
1122.63208 100.0
1122.912231 56.0
1125.18103 144.0
1132.932007 252.0
1138.532837 172.0
1138.586548 160.0
1145.655884 128.0
1152.537598 72.0
1155.35022 176.0
1157.522827 160.0
1160.117676 176.0
1163.679443 60.0
1164.202271 124.0
1166.179321 148.0
1169.491699 108.0
1170.437988 208.0
1182.151733 40.0
1182.226929 200.0
1205.014648 244.0
1207.932007 108.0
1208.872925 236.0
1211.199219 184.0
1211.954346 184.0
1215.920898 108.0
1216.455322 188.0
1217.913574 148.0
1218.517944 128.0
1227.657227 188.0
1228.940674 148.0
1234.333008 196.0
1236.025879 176.0
1237.789795 180.0
1250.651367 156.0
1253.249878 228.0
1257.19165 156.0
1259.32373 152.0
1263.833984 128.0
1266.708374 208.0
1273.539062 136.0
1275.308228 72.0
1276.317749 160.0
1278.138672 196.0
1279.348633 140.0
1280.395264 76.0
1280.901001 156.0
1282.012451 164.0
1284.84314 48.0
1286.998657 108.0
1288.784302 68.0
1290.13501 132.0
1291.114624 236.0
1292.17334 208.0
1296.605713 104.0
1296.77771 132.0
1297.838745 184.0
1299.631836 224.0
1305.054688 192.0
1306.788086 216.0
1308.121094 200.0
1310.327393 48.0
1312.124878 44.0
1317.645996 160.0
1317.732666 188.0
1318.81665 88.0
1319.713013 244.0
1320.971436 192.0
1322.324463 140.0
1325.786255 200.0
1327.627686 156.0
1327.903198 76.0
1327.968506 200.0
1328.454468 132.0
1329.884033 144.0
1330.530029 176.0
1332.76709 144.0
1336.053345 168.0
1338.309448 160.0
1338.535156 148.0
1339.095947 168.0
1339.511108 132.0
1341.230835 172.0
1347.236328 132.0
1347.411743 84.0
1347.462891 80.0
1348.675903 76.0
1350.964722 104.0
1353.973022 220.0
1355.445435 116.0
1357.563965 160.0
1360.05835 152.0
1363.157715 176.0
1364.333618 220.0
1366.091187 176.0
1366.731323 144.0
1371.363403 164.0
1376.387329 256.0
1376.549805 32.0
1376.75647 172.0
1381.753296 160.0
1382.212036 132.0
1383.166748 52.0
1386.78125 240.0
1388.234375 180.0
1393.705078 192.0
1393.779419 128.0
1398.375244 156.0
1401.890381 56.0
1403.895752 208.0
1406.096436 180.0
1408.941406 216.0
1410.21167 204.0
1410.480835 216.0
1413.734253 184.0
1414.362915 184.0
1414.827026 128.0
1415.950195 208.0
1417.15625 164.0
1418.955078 176.0
1419.149902 184.0
1419.92981 152.0
1421.0625 164.0
1421.14502 184.0
1421.212646 124.0
1421.347656 212.0
1421.677856 204.0
1424.478394 124.0
1424.726318 152.0
1427.529785 268.0
1429.064331 152.0
1430.539307 144.0
1432.572632 136.0
1434.170044 212.0
1435.05957 140.0
1435.429077 232.0
1437.941162 164.0
1438.220459 216.0
1439.54541 180.0
1441.535889 136.0
1442.390015 272.0
1452.013306 240.0
1456.233154 96.0
1459.774658 112.0
1463.98291 200.0
1464.424561 104.0
1467.076294 200.0
1468.486938 180.0
1472.249512 216.0
1473.44873 212.0
1476.284424 192.0
1476.766235 92.0
1476.965088 160.0
1477.087524 112.0
1482.899048 112.0
1486.480469 140.0
1487.600952 156.0
1489.182739 112.0
1493.640747 208.0
1495.518188 224.0
1500.363525 164.0
1502.337769 220.0
1502.453491 216.0
