>compound MLS001333215-01!GUANABENZ ACETATE
>formula C8H8Cl2N4
>ionization [M+H]+
>parentmass 231.01987806809052
#inchi InChI=1S/C8H8Cl2N4/c9-6-2-1-3-7(10)5(6)4-13-14-8(11)12/h1-4H,(H4,11,12,14)
#inchikey WDZVGELJXXEGPV
#origInchi InChI=1S/C8H8Cl2N4.C2H4O2/c9-6-2-1-3-7(10)5(6)4-13-14-8(11)12;1-2(3)4/h1-4H,(H4,11,12,14);1H3,(H,3,4)
#Ion_Source LC-ESI
#Instrument qTof
#Compound_Source NIH Pharmacologically Active Library
#PI Dorrestein
#Data_Collector VP/LMS
#Scan -1
#Precursor_MZ 231.016
#ExactMass 230.013
#Charge 1
#CAS_Number N/A
#Pubmed_ID N/A
#Smiles NC(=N)NN=Cc1c(Cl)cccc1Cl.CC(=O)O
#INCHI_AUX N/A
#Library_Class 1
#SpectrumID CCMSLIB00000085334
#IonMode Positive
#UpdateWorkflowName UPDATE-SINGLE-ANNOTATED-GOLD
#LibraryQualityString Gold
#TaskID d252d724072548979f1f6f1ced849daf
##Scan# 1443
#SpectrumFile p3-H06_GH6_01_18311.mzXML
#LibraryName Pharm_Active_Library.mgf
#MQScore -1
#Organism Pharm_Active_Library
#TIC_Query 0
#RT_Query -1
#MZErrorPPM -1
#SharedPeaks 0
#MassDiff 0
#LibMZ -1
#SpecMZ 231.016
#SpecCharge 0
#internalFilename spec-00000.mgf

>collision 10
44.931297 184.0
44.971836 96.0
44.980156 92.0
45.046116 152.0
45.22263 184.0
45.591473 132.0
45.690983 140.0
45.862011 132.0
45.913414 164.0
45.996906 140.0
46.61454 192.0
46.736927 80.0
46.942627 160.0
47.131012 172.0
47.251339 108.0
47.408813 188.0
47.690186 116.0
47.789204 108.0
47.948952 60.0
48.435333 176.0
48.526806 240.0
48.554539 168.0
48.775318 160.0
49.460247 124.0
49.551277 168.0
49.636784 60.0
50.061192 176.0
50.188019 60.0
50.326302 140.0
50.794773 168.0
50.804703 156.0
50.925365 152.0
51.040485 124.0
51.073196 120.0
51.10165 160.0
51.189907 148.0
51.335266 132.0
51.409451 100.0
51.485119 156.0
51.495117 40.0
51.516544 136.0
51.612309 176.0
51.923077 128.0
52.082401 172.0
52.224705 160.0
52.437809 128.0
52.752495 44.0
52.957977 148.0
53.673027 72.0
53.832092 160.0
53.925598 96.0
53.95776 176.0
54.017723 124.0
54.378197 184.0
54.405529 232.0
54.47805 164.0
54.664787 216.0
55.150028 112.0
55.431232 188.0
55.796383 132.0
55.82761 184.0
55.842484 200.0
55.867775 116.0
56.012177 88.0
57.013191 136.0
57.041752 156.0
57.074829 120.0
57.876099 96.0
57.980629 184.0
58.452942 212.0
58.51535 152.0
58.611313 180.0
58.74091 184.0
58.922585 176.0
59.364967 112.0
59.375702 188.0
59.516888 144.0
59.553749 112.0
59.62289 68.0
59.98307 192.0
60.089485 156.0
60.497509 120.0
60.666374 140.0
60.694283 104.0
61.650127 204.0
61.776779 188.0
61.969357 160.0
62.105747 160.0
62.297264 88.0
62.349117 140.0
62.490646 196.0
62.59454 216.0
63.010963 160.0
63.210197 168.0
63.275097 124.0
63.457306 152.0
63.56041 116.0
63.973663 180.0
64.421799 220.0
64.573654 216.0
64.748116 188.0
65.041542 116.0
65.200554 184.0
65.445076 116.0
65.714256 68.0
65.956512 176.0
66.379089 196.0
66.534859 148.0
67.409569 120.0
67.695854 132.0
67.735161 128.0
67.807259 152.0
68.178185 148.0
68.197906 116.0
68.561653 152.0
68.696861 148.0
68.861931 92.0
68.939583 136.0
68.999092 192.0
69.04705 180.0
69.162872 148.0
69.353363 128.0
69.427971 168.0
69.484375 112.0
69.901443 232.0
70.02964 404.0
70.150902 140.0
70.495125 144.0
70.593765 112.0
70.910187 196.0
71.353363 164.0
71.399063 136.0
71.808044 260.0
71.934601 184.0
72.089996 116.0
72.184662 140.0
72.43177 136.0
72.491074 124.0
72.782852 172.0
73.02758 156.0
73.593376 84.0
74.392937 132.0
74.902695 160.0
75.757088 180.0
76.081398 192.0
76.130013 212.0
76.235992 196.0
76.589188 120.0
76.848953 76.0
77.312035 64.0
77.438095 188.0
78.015419 168.0
78.353333 108.0
78.434402 200.0
79.068504 96.0
79.703392 188.0
79.724716 220.0
79.827827 200.0
80.098366 192.0
80.203651 196.0
80.258774 164.0
80.376503 128.0
80.859024 160.0
80.943169 212.0
81.097244 124.0
81.760002 224.0
82.082474 264.0
82.224998 164.0
82.470642 156.0
82.591789 160.0
82.772774 100.0
82.85247 204.0
83.01017 140.0
83.023918 228.0
83.327827 176.0
83.513252 180.0
83.966782 164.0
84.04158 172.0
84.979012 332.0
85.11792 132.0
85.342094 108.0
85.488953 100.0
85.581299 108.0
85.63839 148.0
85.76738 264.0
85.983177 220.0
85.999794 204.0
86.038559 188.0
86.435959 80.0
86.511841 148.0
86.534058 180.0
86.960442 124.0
86.982712 196.0
87.423225 136.0
87.905891 136.0
88.16922 200.0
88.513443 96.0
88.670807 92.0
89.416451 168.0
89.695221 156.0
90.032967 188.0
90.127159 144.0
90.180336 168.0
90.307022 140.0
91.542564 68.0
92.122414 128.0
92.757751 188.0
92.978333 108.0
92.999443 160.0
93.055122 188.0
93.291435 56.0
93.998314 140.0
94.148895 220.0
94.268669 120.0
94.494911 32.0
94.676872 224.0
94.992821 172.0
95.0355 128.0
95.789848 196.0
95.824921 144.0
95.934059 156.0
95.959404 152.0
96.043266 164.0
96.127159 208.0
96.214996 124.0
96.586304 248.0
96.760475 136.0
96.785927 184.0
96.850563 120.0
96.901497 160.0
97.429268 184.0
98.003784 196.0
98.193039 220.0
98.354836 208.0
98.951874 168.0
99.010498 1420.0
99.072685 52.0
99.282799 152.0
99.318832 24.0
99.356194 112.0
99.483208 236.0
99.578522 32.0
99.809052 100.0
100.018555 5768.0
100.046967 132.0
100.097595 60.0
100.151367 176.0
100.434418 44.0
100.470322 208.0
100.572098 128.0
100.604034 176.0
100.685905 52.0
100.780632 96.0
101.024429 660.0
101.149788 112.0
101.731148 140.0
101.791382 32.0
101.931999 180.0
102.018425 244.0
102.056625 132.0
102.555908 56.0
103.191826 112.0
103.750626 140.0
103.827675 180.0
104.013428 388.0
105.022133 328.0
105.056274 56.0
105.262428 64.0
105.986572 140.0
106.230553 92.0
106.885979 80.0
107.223717 184.0
107.673492 56.0
107.882195 228.0
107.989723 180.0
108.107651 252.0
108.24221 264.0
108.45768 88.0
108.58416 200.0
108.791664 84.0
108.922493 180.0
108.939117 108.0
108.98336 4052.0
109.053406 68.0
109.103294 192.0
109.178154 140.0
109.223907 160.0
109.309212 124.0
109.461174 204.0
109.556992 116.0
109.72789 160.0
109.989746 608.0
110.525787 188.0
110.831505 156.0
110.894379 64.0
110.915337 236.0
110.981308 892.0
111.187325 172.0
111.582932 148.0
111.993378 972.0
112.062813 72.0
112.233551 152.0
112.708488 80.0
112.820511 140.0
112.860687 148.0
112.979362 796.0
113.017212 208.0
113.031097 204.0
113.517136 124.0
113.585007 220.0
113.916168 168.0
113.948036 140.0
113.988029 184.0
114.064301 164.0
114.205261 136.0
114.275467 144.0
114.503242 160.0
114.68222 52.0
114.977898 356.0
115.559944 204.0
115.848976 140.0
116.01207 172.0
116.044006 168.0
116.187706 132.0
116.909691 112.0
117.039841 184.0
117.20256 136.0
117.72892 196.0
117.927689 88.0
118.028275 520.0
118.05262 464.0
118.085533 128.0
118.267281 172.0
118.568352 76.0
118.765656 60.0
118.982666 168.0
119.013062 188.0
119.032608 172.0
119.059738 308.0
119.123833 188.0
119.143379 140.0
119.820007 96.0
119.924606 188.0
119.950768 152.0
120.22123 52.0
120.317268 228.0
120.339104 88.0
120.380592 60.0
120.596886 112.0
120.629677 44.0
120.717133 96.0
120.931541 152.0
120.959839 600.0
121.036629 116.0
121.547379 156.0
121.966866 260.0
122.398079 172.0
122.598549 176.0
122.959038 464.0
122.99556 132.0
123.176636 148.0
123.459549 248.0
123.994156 144.0
124.941292 140.0
125.008087 160.0
125.148285 136.0
126.010109 532.0
126.355797 136.0
126.763321 136.0
126.864182 124.0
126.884361 188.0
126.989761 180.0
127.014137 180.0
127.113152 112.0
127.196198 196.0
127.308456 136.0
127.366852 168.0
127.476944 180.0
127.607323 148.0
127.803009 164.0
127.956062 76.0
127.980827 184.0
128.007904 176.0
128.059647 144.0
128.341354 136.0
128.449722 236.0
128.548889 192.0
129.011917 124.0
129.260727 180.0
129.613983 168.0
129.929153 152.0
129.963181 40.0
129.997223 112.0
130.12207 96.0
130.342392 128.0
130.381027 220.0
130.631134 164.0
130.708496 176.0
130.952103 160.0
131.71167 192.0
132.0065 196.0
132.333725 148.0
132.734711 44.0
132.851685 220.0
132.881516 140.0
132.960312 168.0
133.020691 428.0
133.368378 184.0
133.966675 48.0
134.017365 160.0
134.522461 144.0
134.83429 64.0
134.953217 312.0
135.345535 144.0
135.649048 100.0
135.688461 108.0
135.969147 120.0
135.994476 2840.0
136.029495 136.0
136.10611 60.0
136.482544 144.0
136.515106 184.0
136.705872 144.0
136.999496 356.0
137.386536 64.0
137.418915 44.0
137.745758 184.0
137.990005 1140.0
138.515381 200.0
138.997574 296.0
139.057938 120.0
139.987488 164.0
140.216568 164.0
140.525482 36.0
140.551437 152.0
140.92215 88.0
141.113602 164.0
141.414047 116.0
141.871231 52.0
141.983185 316.0
142.013504 204.0
142.177216 152.0
142.452652 176.0
142.676041 148.0
143.294846 132.0
143.497437 204.0
143.547226 132.0
143.755066 188.0
144.043961 164.0
144.060684 132.0
144.424042 92.0
144.785446 192.0
144.834671 152.0
144.957214 1640.0
145.017853 216.0
145.037033 88.0
145.053802 140.0
145.308014 96.0
145.368011 164.0
145.86322 156.0
145.891632 232.0
145.966537 1528.0
146.043121 312.0
146.139359 160.0
146.611343 152.0
146.95929 840.0
147.850281 92.0
147.964615 472.0
148.485046 104.0
148.606339 92.0
148.771378 144.0
148.819931 172.0
148.931656 176.0
148.962753 208.0
149.021545 180.0
149.070145 128.0
149.941391 108.0
150.009644 116.0
150.3853 92.0
150.952103 172.0
151.016037 160.0
151.101318 104.0
151.358322 136.0
151.407303 188.0
152.007919 336.0
152.025101 144.0
152.388535 132.0
152.584808 140.0
152.872955 240.0
152.934479 180.0
153.020248 1284.0
153.069885 136.0
153.367996 188.0
153.464142 32.0
154.007095 1108.0
154.102982 112.0
154.128128 36.0
154.29126 172.0
154.31105 48.0
154.372864 96.0
154.452011 148.0
154.605408 184.0
154.808411 108.0
154.996689 176.0
155.015793 720.0
155.336349 120.0
155.957138 184.0
156.001709 180.0
156.315277 152.0
156.628983 156.0
156.706223 240.0
156.858246 156.0
157.007843 152.0
157.027802 192.0
157.184967 184.0
157.218735 120.0
157.644455 204.0
157.844452 144.0
158.525345 140.0
158.806152 116.0
158.975296 572.0
159.210236 168.0
159.712921 192.0
159.959518 168.0
159.984695 136.0
160.032532 152.0
160.06778 164.0
160.218903 184.0
160.607132 84.0
160.90744 112.0
160.962738 160.0
160.978333 560.0
161.625275 108.0
161.961212 144.0
161.982254 172.0
162.088669 156.0
162.32695 140.0
162.552719 108.0
162.951202 168.0
162.967636 168.0
162.997116 68.0
163.571915 196.0
163.612656 136.0
163.961624 120.0
164.00029 7152.0
164.06868 60.0
164.54834 172.0
164.630051 72.0
164.836975 92.0
164.96933 316.0
165.004074 460.0
165.031235 192.0
165.468765 240.0
165.658279 56.0
165.997375 1808.0
166.073547 156.0
166.109467 44.0
166.227478 76.0
166.581802 156.0
167.004532 116.0
167.049683 152.0
167.129425 60.0
167.428055 116.0
167.69342 88.0
167.974487 160.0
168.361649 80.0
168.47789 148.0
169.020859 108.0
169.549149 208.0
169.75914 164.0
170.067886 40.0
170.096436 192.0
170.483444 160.0
170.703247 152.0
171.053055 192.0
171.149384 76.0
171.409882 152.0
171.501099 104.0
171.631454 236.0
171.709686 120.0
171.845947 224.0
171.971344 20988.0
172.020187 28.0
172.082855 72.0
172.142914 84.0
172.169022 128.0
172.35614 140.0
172.524384 48.0
172.55838 200.0
172.597595 72.0
172.713791 160.0
172.746674 68.0
172.972061 2996.0
173.020828 148.0
173.115738 44.0
173.148209 100.0
173.189072 84.0
173.236221 68.0
173.395096 120.0
173.520172 92.0
173.558594 44.0
173.841904 52.0
173.902267 40.0
173.934708 188.0
173.967453 8928.0
174.020401 236.0
174.05191 28.0
174.072922 124.0
174.114166 124.0
174.220001 72.0
174.265747 88.0
174.323975 56.0
174.44075 96.0
174.516998 152.0
174.795822 56.0
174.830032 100.0
174.858994 56.0
174.965958 1464.0
175.016937 32.0
175.256638 164.0
175.293533 88.0
175.33696 208.0
175.446411 56.0
175.50441 80.0
175.522873 64.0
175.670563 52.0
175.723328 104.0
175.765549 72.0
175.799866 36.0
175.962555 184.0
175.972183 200.0
178.015671 164.0
178.680191 140.0
179.024216 308.0
179.553909 140.0
180.012939 140.0
180.301468 68.0
180.614304 56.0
181.018433 128.0
181.039856 148.0
181.409622 36.0
181.932755 48.0
182.421692 108.0
184.977722 136.0
185.984756 172.0
186.97139 184.0
187.766937 68.0
187.971542 80.0
188.998688 1308.0
189.987869 196.0
190.377853 44.0
190.421799 116.0
190.588181 184.0
190.839508 52.0
190.994263 320.0
191.976135 264.0
192.001602 144.0
193.399658 64.0
196.699203 80.0
201.781418 40.0
206.99144 152.0
209.994705 200.0
213.286942 116.0
213.548645 228.0
213.662094 28.0
213.862885 136.0
213.935654 160.0
213.991638 2568.0
214.136581 52.0
214.194839 220.0
214.994446 440.0
215.989151 1276.0
216.478851 32.0
216.552063 204.0
216.847992 48.0
216.92128 44.0
216.994568 112.0
218.357132 160.0
218.580719 120.0
221.27858 132.0
224.055557 216.0
228.910995 116.0
231.01651 316.0
233.019012 388.0
261.168793 60.0
283.408997 76.0
287.974182 76.0
320.566833 48.0
324.075867 124.0
329.36441 48.0
329.808838 48.0
343.820343 92.0
423.988434 96.0
482.252747 36.0
514.119324 104.0
523.476318 72.0
548.020569 120.0
548.374756 52.0
584.09082 80.0
598.640137 20.0
626.401306 48.0
757.87384 168.0
797.091431 128.0
829.122681 72.0
870.137207 160.0
895.16156 160.0
900.576904 56.0
912.730957 228.0
915.300415 76.0
917.72876 152.0
918.000122 52.0
918.687744 76.0
932.907349 244.0
947.695679 184.0
962.142456 120.0
964.973022 164.0
972.729553 144.0
990.445557 112.0
998.118103 20.0
1020.359375 32.0
1031.183594 228.0
1042.848999 176.0
1044.237793 124.0
1066.5 204.0
1069.602783 228.0
1082.235718 168.0
1084.351685 152.0
1084.417236 56.0
1089.55542 68.0
1091.34314 232.0
1095.370972 200.0
1105.684692 172.0
1119.606934 160.0
1128.101074 60.0
1128.896729 160.0
1134.983887 108.0
1144.236084 160.0
1149.183228 132.0
1152.444458 160.0
1154.073486 144.0
1158.540527 168.0
1160.065308 180.0
1163.470947 188.0
1167.405151 208.0
1174.699951 216.0
1180.977539 152.0
1184.009644 132.0
1187.676514 148.0
1187.868652 112.0
1188.616455 160.0
1194.765991 120.0
1199.745239 32.0
1200.48999 184.0
1205.736816 148.0
1211.175293 216.0
1215.931763 140.0
1223.432129 160.0
1223.835938 176.0
1225.019897 132.0
1232.373535 176.0
1236.583496 164.0
1240.450073 64.0
1241.081055 160.0
1242.638184 136.0
1243.045166 128.0
1246.050415 156.0
1251.649292 152.0
1255.151489 136.0
1255.285522 48.0
1257.091431 156.0
1258.609131 112.0
1259.654419 272.0
1266.197266 152.0
1268.968018 180.0
1269.095703 216.0
1269.854492 196.0
1270.712769 144.0
1271.067627 216.0
1271.606934 128.0
1276.622803 136.0
1283.095459 168.0
1283.523315 112.0
1283.858398 156.0
1284.585938 64.0
1288.5625 140.0
1289.055542 176.0
1293.074829 148.0
1294.384888 168.0
1307.976074 128.0
1312.276978 212.0
1318.49231 176.0
1320.0177 172.0
1329.878174 172.0
1333.379028 180.0
1333.546143 140.0
1336.353271 168.0
1338.631592 132.0
1341.312866 168.0
1344.047852 84.0
1346.106323 124.0
1346.617554 196.0
1347.158081 108.0
1350.293945 172.0
1351.874268 148.0
1355.081543 124.0
1358.226562 152.0
1367.514282 100.0
1378.702881 228.0
1384.991943 132.0
1388.668335 152.0
1389.840454 132.0
1390.723633 116.0
1391.599609 148.0
1391.792725 160.0
1392.238281 248.0
1395.054443 96.0
1397.263184 156.0
1400.665405 164.0
1400.806885 228.0
1403.840454 168.0
1405.39209 160.0
1408.042236 100.0
1410.014648 88.0
1411.427612 208.0
1412.49707 120.0
1415.101562 204.0
1416.00769 172.0
1417.940674 44.0
1419.012573 208.0
1423.432251 164.0
1426.347412 200.0
1426.535278 192.0
1427.129272 184.0
1433.859253 160.0
1434.598022 136.0
1434.907104 200.0
1437.290649 136.0
1441.919922 204.0
1443.575562 108.0
1444.059692 144.0
1444.581543 204.0
1445.648438 136.0
1450.488281 184.0
1458.040649 164.0
1458.10144 192.0
1462.41394 140.0
1462.726074 236.0
1471.768188 160.0
1474.510742 144.0
1475.122314 144.0
1477.737793 136.0
1481.788208 104.0
1484.570679 132.0
1485.5448 204.0
1490.881226 208.0
1497.744385 124.0
1504.77002 100.0
