>compound Gatifloxacin
>formula C19H22FN3O4 
>ionization [M+H]+
>parentmass 376.168
#inchi InChI=1S/C19H22FN3O4/c1-10-8-22(6-5-21-10)16-14(20)7-12-15(18(16)27-2)23(11-3-4-11)9-13(17(12)24)19(25)26/h7,9-11,21H,3-6,8H2,1-2H3,(H,25,26)
#inchikey XUBOMFCQGDBHNK
#Ion_Source LC-ESI
#Instrument qTof
#Compound_Source Isolated
#PI Sirenas
#Data_Collector Ed Esquenazi 
#Scan -1
#Precursor_MZ 376.168
#ExactMass 0.0
#Charge 1
#CAS_Number N/A
#Pubmed_ID N/A
#Smiles N/A
#INCHI_AUX N/A
#Library_Class 3
#SpectrumID CCMSLIB00000004468
#IonMode Positive
#UpdateWorkflowName UPDATE-SINGLE-ANNOTATED-BRONZE
#LibraryQualityString Bronze
#TaskID d19310cd93df49b68e9fcbec27720eb5
##Scan# 9
#SpectrumFile Gatifloxacin.mgf
#LibraryName fda_library.mgf
#MQScore -1
#Organism fda_library
#TIC_Query 0
#RT_Query -1
#MZErrorPPM -1
#SharedPeaks 0
#MassDiff 0
#LibMZ -1
#SpecMZ 376.168
#SpecCharge 0
#internalFilename spec-00000.mgf

>collision 10
100.016228 20.578569
100.533524 2.094231
101.03611 46.39016
102.57856 4.010715
104.008369 34.981441
104.04673 51.703499
104.959686 18.373569
106.021301 28.02309
107.02626 32.32069
107.033546 10.65931
107.375946 5.737195
108.022659 68.040894
108.045166 70.030777
108.819244 11.405
109.045197 51.281391
110.042099 21.44298
110.071053 1.656818
115.040688 12.30179
115.05365 5.30431
116.050522 67.787354
118.03183 12.80192
119.487518 8.633333
119.593124 6.604167
121.030441 54.004799
121.041603 28.504169
122.040947 172.406601
122.425919 2.88
123.026642 21.90374
123.058479 3.420455
123.2089 7.384091
124.017265 9.6
126.031967 8.017858
126.694435 4.654546
127.052139 22.922581
127.842819 5.877564
128.054764 14.46207
129.042755 9.584783
130.064911 56.5653
130.106827 1.203571
130.312988 2.8
130.791107 12.13519
131.060898 25.26849
132.04248 126.056602
132.602875 2.535
133.0466 27.137779
133.14386 3.44537
134.052811 30.004
134.117081 6.061735
134.851715 2.535
135.046982 133.791595
135.089951 10.51034
135.696991 4.815385
136.054901 74.498093
137.050186 31.22937
138.034653 76.091232
138.07048 34.065048
139.056717 8.859524
140.504608 5.634783
141.041275 8.854348
141.055069 26.911579
141.657791 11.58906
142.06517 53.028389
142.100861 2.45
142.204559 2.007143
142.711136 6.85307
143.061539 79.008499
143.072311 26.409479
143.737839 2.675
144.042938 33.132549
144.079269 41.914848
144.148819 5.253125
145.036636 80.763634
145.207214 3.040909
145.312805 4.711538
145.60994 3.8375
146.036621 30.730671
146.056839 102.826698
148.020676 97.367188
148.054535 104.290298
148.084702 1.803571
148.491287 4.753125
148.50737 6.769
148.818832 8.181818
149.051651 72.000137
149.061646 51.280479
149.102341 1.80625
149.208557 3.649
150.03299 157.307999
150.064362 64.911438
150.41333 1.469445
151.042633 573.821228
151.079681 2.04
151.225388 5.094737
151.443604 5.405488
151.683441 5.486428
152.600296 6.511364
153.057831 35.37476
154.062851 28.53124
154.084686 21.367399
155.046738 22.35
155.058823 111.235603
156.067383 148.035599
156.099518 1.645
157.016724 3.803333
157.035233 28.11569
157.152161 13.89633
157.307037 5.330882
157.498016 6.552273
157.69725 2.025
158.021851 13.11478
158.333405 2.008333
158.382736 5.75625
159.027863 27.17046
159.055054 13.83902
159.063919 41.245071
159.401718 3.25625
160.037109 26.48801
160.054276 75.350342
160.296783 8.178704
160.349609 6.104032
160.413361 3.721
160.467987 3.980263
160.504379 8.648077
161.027298 35.588779
161.057755 74.622124
161.070526 51.056179
161.106003 2.420455
161.198593 2.041667
162.035019 20.35
162.044922 55.753231
162.069901 201.364395
162.123047 1.601667
162.160706 4.85
162.202789 3.223148
162.227966 4.025
162.247101 3.421552
162.620392 3.275
162.779297 2.184091
163.042786 1086.218018
163.063599 199.046295
163.123535 28.766569
163.167435 13.6565
163.192383 11.20381
163.246857 5.289286
163.33078 12.61993
163.339035 3.621552
163.413803 2.355769
163.441727 3.815385
163.484009 3.584091
163.503586 1.828572
163.647888 5.008333
163.89296 12.27682
164.015594 9.383333
164.050659 753.673523
164.092148 38.035
164.108658 2.44
164.295792 13.54325
164.354355 6.584091
164.417557 7.911364
164.453644 4.85
164.675613 2.0
164.742584 6.814535
164.779373 5.826613
164.89444 7.628488
164.961456 5.864362
165.023544 12.00992
165.084351 8.1
165.122345 3.001
165.332535 2.428571
166.031265 24.012501
166.062759 144.246597
166.120728 1.425
166.343994 6.425
166.942368 9.45606
167.396606 3.675
168.034607 19.53019
169.056473 15.08333
169.076614 56.994781
169.78035 4.867857
170.058319 125.355797
170.078247 149.831497
170.117203 1.0
170.184525 3.488889
170.268433 11.15779
170.40799 15.9284
171.056839 345.952301
171.08931 84.592438
171.273605 4.780263
171.295319 3.645
171.56546 1.775
171.681305 6.2
172.053589 212.159393
172.074921 82.673447
173.045929 11.25786
173.069733 145.099503
173.322021 2.618182
173.431961 5.057857
173.468613 2.202273
174.034668 46.286018
174.065186 216.988007
174.151993 5.802941
174.970154 2.604167
175.041885 116.081596
175.070374 122.827797
175.11319 16.637871
175.149796 15.16569
175.295776 4.91413
175.390854 9.128191
175.494522 4.970454
175.602768 2.632692
176.016846 64.508507
176.051849 182.302795
176.071594 144.555603
176.103271 31.72831
176.118164 22.914289
176.173264 1.2
176.188644 4.592391
176.295013 2.857143
176.330292 3.820161
176.667542 1.825
176.737732 5.111207
176.982269 4.669444
177.058548 485.048889
177.19986 8.602083
177.357559 2.094231
177.403671 1.633333
177.412949 5.698256
177.437119 8.871969
177.547348 3.001
177.575348 8.73913
177.645966 23.43383
177.838882 3.759211
177.921112 4.429762
177.969727 9.762903
177.997284 14.14102
178.029617 2169.308105
178.054901 887.556274
178.107193 4.000758
178.118668 7.800757
178.156296 11.24615
178.173676 13.09951
178.234497 2.535
178.26091 12.6
178.280304 7.673529
178.303741 3.620162
178.351044 8.533334
178.418335 15.64182
178.554428 12.93513
178.708115 6.807258
178.73114 6.58147
179.095306 26.698139
179.246246 21.463181
179.276642 9.136111
179.308426 10.80227
179.339661 13.85709
179.350983 6.918421
179.387573 18.414761
179.44368 1.420455
179.464127 22.521111
179.482697 3.081667
179.504257 11.75656
179.51358 8.866217
179.555542 4.7125
179.572418 2.936111
179.620804 8.56129
179.695419 8.621622
179.704773 8.023684
179.793121 2.075
179.868011 3.266667
179.89772 21.663019
180.045181 331.153015
180.078766 34.0205
180.113205 5.71413
180.138718 1.002778
180.316193 8.734701
180.396011 16.69733
180.489319 8.562963
180.652023 4.65625
181.072983 15.01818
181.092468 6.708333
181.24234 3.461538
181.528152 2.355769
182.064453 6.177941
182.175827 7.505882
182.189651 9.026999
183.069778 15.963
183.089111 66.888123
183.194458 7.538888
184.069275 204.115402
184.172287 1.25
184.226547 17.54133
184.415131 2.575
185.027496 2.041667
185.050125 98.879089
185.075592 213.166397
185.202576 3.825
185.329407 16.664129
185.453613 8.224073
185.487076 6.942857
185.904175 5.618939
186.075806 88.963379
186.127441 57.539001
186.511566 8.894117
186.725845 9.221491
186.869827 5.938793
186.901367 3.696154
186.986984 2.025
187.039337 36.217361
187.06723 236.942596
187.19635 2.829762
187.269867 16.76325
187.525452 4.404167
188.050079 847.715271
188.07402 194.810501
188.130447 1.607143
188.204086 8.744855
188.318573 4.654546
188.384186 7.728571
188.408142 7.508049
188.468506 3.335
188.483841 3.125
188.521927 6.645
188.55043 1.84
188.616684 2.09
188.711212 6.144048
188.761047 11.75093
189.019302 57.306721
189.058044 403.394592
189.099304 60.138451
189.181671 8.808333
189.237122 3.253261
189.325241 14.60417
189.360214 7.478063
189.406631 6.000806
189.541977 1.425
189.734161 6.387903
189.759109 26.95635
189.780273 9.809328
189.93428 6.088044
190.030014 758.847229
190.063446 664.072876
190.084595 152.757202
190.135086 1.601667
190.174652 4.056818
190.252609 26.773239
190.275223 6.55
190.349121 7.459615
190.385193 13.07025
190.485428 3.0
190.583939 19.420601
190.672729 4.653333
190.701736 10.84143
190.878204 10.98979
190.889069 9.81875
190.936279 18.64328
190.985672 18.759239
191.062958 1213.095947
191.099319 7.734091
191.111084 10.00833
191.151718 2.584091
191.183273 2.578572
191.197418 12.97834
191.226288 9.92803
191.298935 4.5375
191.312271 4.440909
191.327148 8.04734
191.34346 2.825
191.403625 5.023148
191.422485 2.256818
191.462112 13.975
191.649155 5.603571
191.763474 7.778125
191.779724 2.44
191.825745 4.333333
192.005707 2.82
192.021332 12.0381
192.046097 2817.62793
192.121414 32.416451
192.145538 5.438095
192.16925 16.93515
192.21788 14.81145
192.267349 41.795521
192.295074 2.472059
192.311493 37.426029
192.3349 20.599279
192.364456 14.96781
192.401199 2.401471
192.420502 3.001191
192.436249 9.861765
192.527328 20.725969
192.556091 10.43788
192.638824 5.603333
192.683289 13.34633
192.713425 16.834339
192.879227 3.203846
192.913055 11.48438
193.049103 2379.837891
193.088638 27.634769
193.145355 9.411112
193.159622 4.563334
193.171478 25.15247
193.233627 22.541759
193.285217 3.201923
193.376282 6.139583
193.488953 14.40495
193.512695 4.128572
193.55542 9.205813
193.609482 7.548809
193.624481 16.917379
193.793488 7.008334
193.948471 4.0
194.082672 52.245689
194.283157 10.10625
194.464355 6.377857
194.642319 7.163372
195.910767 2.472059
196.038879 54.832211
196.074203 12.94325
196.10083 43.327831
196.358978 5.22647
197.06665 72.201202
197.075851 32.346958
197.106354 31.671539
197.183716 1.6
197.271652 3.839516
197.46402 6.675
197.667633 1.828572
197.749146 4.425
197.804611 8.378667
197.944519 4.130882
198.058701 407.414795
198.078552 211.845703
198.125214 4.0
198.280396 15.88447
198.901978 3.106579
199.083374 133.886902
199.123123 27.60223
199.191696 7.0875
199.329178 1.44
199.402771 5.32
199.437744 1.69
200.051559 140.916595
200.070267 111.292702
200.089249 78.531174
200.116669 20.461809
200.131439 9.071717
200.28566 3.575
200.480179 4.8125
200.514664 1.401923
200.663162 15.72634
200.737015 9.337999
200.902573 2.314286
201.013535 16.48801
201.05632 331.977509
201.083115 84.79567
201.100677 42.416439
201.199997 5.470349
201.243774 16.454439
201.319885 41.854721
201.466553 5.29
201.53569 7.667063
201.682663 1.5125
201.9207 3.983696
201.981705 4.761
202.02803 52.000092
202.065063 1231.655029
202.158463 8.814228
202.183197 4.606081
202.193649 5.33426
202.223251 6.888095
202.341492 14.80242
202.395889 13.8332
202.432404 5.714286
202.498856 8.261539
202.622757 2.333333
202.698517 4.446154
202.811737 4.811842
202.904083 3.681667
202.945694 8.219565
202.986008 10.22647
203.036697 1594.31897
203.064529 985.5448
203.076462 56.32539
203.122879 28.902599
203.173737 9.52864
203.228287 4.609
203.287704 2.202778
203.350082 9.439069
203.382065 5.002778
203.43074 22.21357
203.461441 11.84701
203.516037 3.200806
203.55571 5.004546
203.699036 1.869444
203.741516 5.605488
203.76973 20.043079
203.798996 3.064474
203.831512 9.416715
203.877274 47.6782
203.999557 5.592391
204.076813 950.81073
204.143463 29.257441
204.176804 15.21184
204.226761 5.356482
204.264832 29.30419
204.280685 14.84167
204.292801 8.445192
204.303223 63.280849
204.3293 7.040451
204.355606 10.00058
204.534622 2.233333
204.604385 3.504167
204.664078 5.232143
204.696243 8.577857
204.708893 1.4
204.754608 29.93926
204.824692 9.737834
204.972778 3.400758
205.015762 279.745789
205.04155 1547.595947
205.07753 1282.386963
205.160263 53.386398
205.197113 22.584921
205.226379 2.494231
205.238373 14.41421
205.312622 29.842951
205.331589 10.8307
205.343002 18.119961
205.369095 32.26638
205.412598 12.675
205.432724 5.656034
205.447205 4.5
205.479752 19.81419
205.502899 12.49035
205.541885 8.80061
205.56308 20.22994
205.617401 15.82621
205.636032 8.745455
205.68486 10.92076
205.767456 5.95
205.930191 3.801191
206.004135 9.920714
206.056702 864.352478
206.279709 12.60068
206.390305 18.094999
206.440826 4.090909
206.453827 9.195271
206.59436 6.606429
206.689728 6.984183
206.729736 2.645
207.024963 5.003333
207.058044 1077.30603
207.126801 5.025
207.208603 10.47038
207.317352 24.366949
207.329269 11.01225
207.345428 4.6
207.437881 7.168181
207.475098 3.5
207.513855 3.184091
207.677856 10.64046
208.066544 320.56601
208.206635 6.111538
208.403183 3.519118
208.645462 1.805
208.810394 2.275
209.102234 4.504167
209.399353 1.601923
209.556763 4.53629
210.050873 12.55862
210.074692 39.39286
210.097046 19.3883
210.336807 12.21286
210.726074 9.074074
210.818253 6.387903
210.912338 3.266667
211.049973 41.16148
211.086426 152.657104
211.15744 4.65
211.175568 5.694118
211.389618 4.05
211.782913 4.889286
211.924744 18.46814
212.037109 10.41667
212.073013 155.613403
212.092514 204.798798
212.13678 1.81
212.676193 10.75519
212.790924 5.259524
212.953964 3.464286
212.977097 2.184091
213.068665 1845.271973
213.135071 7.395766
213.192413 3.628571
213.329178 3.013235
213.369843 3.409
213.406479 6.004167
213.446152 9.803461
213.481888 6.282692
213.501984 7.361428
213.562988 4.414286
213.58934 6.691129
213.791824 5.473529
213.846313 14.12917
213.938095 28.90221
214.211685 1.275
214.320343 10.3225
214.402649 2.864474
214.47908 6.145454
214.634689 4.205
214.835922 24.098209
215.018097 7.281667
215.096359 343.792603
215.174438 21.3013
215.214111 15.50916
215.253403 5.988461
215.303299 12.97045
215.366455 7.457143
215.381836 18.60091
215.408234 14.6325
215.422668 2.601316
215.478836 6.646296
215.579468 6.75921
215.815704 10.41894
215.928467 7.209091
215.959137 2.410714
216.017441 9.289
216.044235 505.845612
216.072235 769.857422
216.149643 7.330882
216.199493 1.003571
216.225067 7.275
216.274887 13.45
216.291061 27.092831
216.451553 9.2225
216.488602 2.575
216.539795 1.7
216.552597 2.664474
216.622421 15.61333
216.688278 8.775
216.727234 6.249
216.740448 14.69357
216.782959 51.151859
216.810364 12.20709
216.875381 3.75
216.972595 2.601667
217.01413 71.493652
217.0504 601.013489
217.077423 1884.975952
217.141708 4.227174
217.155121 3.16
217.177612 7.459314
217.208847 14.19681
217.228867 9.28473
217.25177 50.237
217.320892 18.378811
217.341049 10.96113
217.369339 9.5125
217.398956 2.808333
217.422409 1.225
217.471741 12.68508
217.492905 29.504009
217.531509 4.10431
217.57518 16.016781
217.618286 6.93629
217.649597 20.400339
217.675201 9.896957
217.700043 10.42366
217.74028 13.27136
217.794937 23.63628
217.80867 9.747
217.824036 9.400472
217.839478 7.01875
217.868362 5.64853
217.888412 11.31745
217.93251 57.930279
217.955994 29.57085
218.024017 130.622406
218.06012 1271.340942
218.083679 1320.703003
218.134293 18.06904
218.150131 22.00708
218.181427 42.94622
218.226334 153.570404
218.340912 28.065559
218.358292 31.242439
218.395432 35.909771
218.414902 4.8375
218.478516 54.48177
218.50238 16.20068
218.563461 17.686871
218.636093 10.60645
218.6866 27.33486
218.758591 4.666667
218.773163 1.0
218.879776 5.335
218.989441 12.66946
219.031372 316.023285
219.057678 13442.469727
219.096176 7.065385
219.121506 51.298038
219.142532 64.723686
219.202133 105.234398
219.258942 8.201471
219.277344 52.077309
219.304672 31.26063
219.322784 75.174026
219.354309 40.399502
219.374908 15.77349
219.423813 3.809
219.436707 52.937241
219.451874 2.820455
219.49939 31.817881
219.561722 31.94006
219.583069 21.66291
219.597305 14.64734
219.615341 38.546879
219.659668 15.47412
219.676453 18.61569
219.718079 13.59633
219.755051 17.22617
219.841797 6.570455
219.880508 23.232229
219.927536 12.44966
219.986313 37.941811
220.030807 21.326309
220.121002 46.75222
220.295593 6.447059
220.378174 31.397881
220.420303 12.87545
220.520859 23.48134
220.646835 3.815385
220.740799 7.408334
220.786041 2.032143
220.807007 4.296154
220.818497 4.048077
220.867569 3.578571
221.003662 8.501786
221.071991 1519.125
221.224838 11.62613
221.252457 15.81792
221.268417 9.377831
221.286148 5.72
221.324921 5.56546
221.365479 6.978703
221.396683 3.496429
221.469635 3.688889
221.702744 18.24699
221.766769 12.95803
221.956985 14.71279
221.987274 11.255
222.034256 3.45625
222.083893 43.426998
222.402145 5.82647
222.53186 7.605232
222.554062 1.736111
222.693222 4.205
223.086487 96.814339
223.113632 1.607143
223.435776 1.848077
223.527603 10.57786
223.612625 8.673529
223.758301 2.62
223.804672 5.613334
223.85199 5.425
223.940674 7.56
224.093628 71.156067
224.110397 195.033997
224.363449 3.456818
224.674133 6.891129
224.701202 4.85
225.033447 25.47794
225.063309 230.998001
225.169693 15.88167
225.233444 6.435031
225.302399 1.289286
225.477921 12.91136
225.716461 1.401923
225.755844 3.223148
225.813354 11.83769
225.990204 11.50305
226.072723 311.903412
226.097916 12.02727
226.143692 2.016667
226.205978 2.294231
226.257919 4.814286
226.367828 2.6
226.409821 13.3486
226.441116 6.064362
226.681992 6.1225
226.744843 5.470349
227.063309 83.211037
227.077805 239.942596
227.134979 1.8
227.305954 4.813334
227.337189 3.288043
227.373993 7.86579
227.526077 4.697581
227.548141 2.578572
227.578537 1.833333
227.782135 3.75625
227.907211 3.70625
227.975983 10.21333
228.042297 26.07761
228.069885 169.063995
228.084747 1245.369995
228.108887 21.20027
228.203308 4.575
228.27182 6.843085
228.408508 2.840909
228.501846 5.559211
228.679398 17.259769
228.72934 7.420455
228.745117 7.2225
228.829498 10.195
228.860901 3.249
228.876755 3.0375
228.928314 27.271669
229.040222 186.090302
229.139908 7.531618
229.223953 9.675
229.268082 22.53096
229.287384 2.4
229.315735 14.39553
229.373993 5.001191
229.461411 7.1
229.498947 6.223889
229.560257 8.939103
229.619385 9.227587
229.698242 21.330589
229.716125 23.75561
229.794418 3.6
229.854172 10.27756
229.877853 14.20285
229.982239 45.749901
230.061981 1476.907959
230.094513 20.16073
230.128281 28.892241
230.154861 13.8
230.221817 17.15197
230.254974 28.13685
230.297882 22.204081
230.352554 36.013729
230.372803 10.68138
230.389679 7.820082
230.420792 36.171619
230.528046 2.25
230.555984 6.416009
230.675171 7.456396
230.723511 30.800489
230.786377 10.43788
230.838882 10.23744
230.887985 8.773125
231.015381 29.441561
231.027283 78.035454
231.057388 1898.871948
231.092545 1641.121948
231.141235 39.50832
231.161285 14.09646
231.187973 7.914189
231.211166 14.825
231.261948 8.632692
231.280273 35.11224
231.323807 33.74268
231.412796 22.18306
231.480637 33.821659
231.494812 13.69878
231.568649 4.015385
231.588028 8.27829
231.646255 7.95577
231.67514 10.40634
231.752136 42.750591
231.808609 35.294731
231.852814 8.842513
231.928864 8.00049
231.99292 14.42109
232.041382 498.182892
232.076492 2064.710938
232.238144 15.37813
232.35434 6.043334
232.40065 7.441667
232.43277 4.938462
232.464005 4.131522
232.519867 19.795
232.549164 5.021569
232.574982 4.428571
232.593369 9.804167
232.644791 5.897581
232.658447 8.694234
232.69043 8.378531
232.783432 5.603571
232.832367 9.512209
232.872345 8.553814
233.037567 213.866898
233.072632 4437.551758
233.10675 895.801819
233.180878 23.1542
233.228226 18.99708
233.271622 8.669444
233.286652 15.36809
233.329681 9.80051
233.343094 15.91707
233.375046 34.970081
233.390488 8.402632
233.414703 3.806428
233.435959 5.2
233.451889 1.8
233.576157 27.348089
233.63382 25.79524
233.664108 27.14048
233.705582 5.3375
233.781769 12.60791
233.794235 31.99217
233.810287 3.336111
233.843201 22.12311
233.882416 23.912029
233.929062 4.607143
233.962646 1.8125
233.9879 16.128
234.007187 2.408333
234.209137 22.87339
234.252441 5.677059
234.356659 8.027273
234.457611 10.80037
234.739319 7.222222
234.857376 8.073781
234.947983 6.800862
235.087952 1380.819946
235.152237 4.101818
235.193558 10.05891
235.27153 6.856035
235.300308 8.745455
235.341858 3.402778
235.407898 10.4564
235.422775 8.632895
235.470291 12.43056
235.624649 2.408333
235.680374 3.025
235.821594 5.55625
235.946167 5.614535
236.004959 1.402273
236.041428 19.344101
236.117081 12.41828
236.505203 7.203571
236.641815 3.01
236.789932 8.2
236.885391 4.330882
237.066299 34.77626
237.102997 80.075043
237.303375 5.85625
237.321518 1.2
237.369766 1.425
237.637817 1.6
238.073196 35.044739
238.093979 123.3451
238.13147 8.6
238.144501 10.60904
238.190521 1.002778
238.320526 13.11721
238.458191 2.111364
238.502029 2.432895
238.899765 8.872059
239.021088 17.277559
239.039536 37.181759
239.079315 84.280434
239.113052 49.157372
239.19841 1.44
239.475464 9.432142
239.676208 19.10305
239.739334 5.009091
240.038162 33.6045
240.088898 148.784698
240.112381 64.813637
240.218979 2.801087
240.304855 16.42193
240.650665 9.064831
240.690186 11.08816
240.839951 12.26926
241.042953 79.077187
241.080307 361.295288
241.095856 244.151199
241.128815 74.720108
241.362778 19.15259
241.401443 4.840909
241.455414 6.438095
241.496735 7.663119
241.631393 12.86747
241.715225 5.213334
241.766251 2.375
241.784805 9.130195
241.804123 5.325
241.979965 7.882843
242.024414 30.92853
242.057327 1014.887024
242.158569 6.854348
242.243149 10.20833
242.43161 3.980263
242.608032 15.84089
242.824982 1.656818
242.860168 2.925
242.946671 21.331779
243.012695 26.689039
243.093811 1328.031006
243.124069 36.424511
243.163101 5.025
243.208969 6.879828
243.256088 5.05
243.341705 1.848077
243.405334 9.452778
243.462906 8.445371
243.493607 6.897059
243.530182 7.210593
243.659454 21.175579
243.696579 13.60345
243.717346 32.672722
243.737015 36.313541
243.775604 49.486691
243.794174 4.184091
243.809677 66.576553
243.835602 7.31579
243.869385 20.385731
243.962234 26.727699
244.041946 142.630707
244.099762 3365.836914
244.17923 30.484329
244.319565 18.01829
244.36702 14.4585
244.38327 2.405
244.426788 8.119118
244.485916 24.924339
244.520142 14.66437
244.643143 15.53676
244.691788 16.09601
244.705109 4.906579
244.76442 15.39184
244.874969 16.405001
244.942123 3.333333
245.003647 9.6
245.037247 3187.378906
245.071808 11497.419922
245.165878 58.349899
245.197983 100.841103
245.242554 69.614479
245.276901 46.459991
245.320312 64.528473
245.345093 53.643978
245.379349 54.52372
245.44101 59.424541
245.461273 17.619089
245.5112 33.141109
245.529449 24.78828
245.549301 4.688889
245.563095 29.535061
245.598328 4.447059
245.624802 21.413759
245.643051 14.82407
245.663055 2.028572
245.679535 11.84802
245.722977 7.475
245.759857 14.0313
245.797333 10.08929
245.927216 9.421576
245.973694 22.345869
245.990417 4.096429
246.043777 1878.21106
246.095398 20.24906
246.17775 18.47019
246.220016 41.027988
246.306854 10.15325
246.364212 3.813236
246.401489 20.81406
246.419662 45.740219
246.501099 19.718149
246.521225 15.60891
246.583649 17.80032
246.603409 27.643999
246.634628 12.00833
246.727539 6.215384
246.782745 10.455
246.842606 4.513637
246.858582 11.2
246.888382 16.44659
247.049622 521.32312
247.088287 2320.51709
247.12648 107.222504
247.227554 42.320339
247.253479 12.32454
247.306274 6.800641
247.336258 6.590769
247.378113 7.236364
247.49324 5.601666
247.519867 19.69915
247.569046 5.169
247.589432 15.77083
247.657837 5.215
247.690109 4.32
247.846161 5.2
248.002609 5.481
248.253555 6.013333
248.314667 6.85307
248.479156 9.800409
248.69957 2.355769
248.890732 15.40139
249.101562 225.653595
249.189438 5.184091
249.272202 3.15
249.331787 4.944047
249.497452 3.1
249.549652 7.636818
249.742035 5.038095
249.916626 4.075
249.967514 9.876562
250.055664 26.93889
250.178177 2.217308
250.191055 7.784616
250.209564 1.81
250.572891 6.003125
251.072128 50.79026
251.119522 19.55744
251.156967 2.0
251.460297 3.258333
251.592697 4.657143
251.680984 2.408333
252.081558 85.417343
252.112808 65.538979
252.392761 4.563636
252.596497 3.111364
252.76944 2.88
252.954971 8.504167
253.04213 10.07108
253.06485 45.728008
253.093826 138.086197
253.117874 39.262291
253.133896 21.63279
253.527328 3.159211
253.86499 11.162
254.060135 171.75
254.093781 208.737595
254.113846 33.520199
254.193161 8.118877
254.215088 3.200926
254.736801 2.688889
254.758148 20.11631
254.986679 3.210714
255.047318 16.04384
255.072723 233.106094
255.095825 115.885902
255.336807 4.475
255.659302 2.00625
255.709366 2.25625
255.726059 5.800757
255.818726 3.275
256.037109 14.25952
256.107025 230.112595
256.131866 62.845379
256.210297 4.211764
256.428223 1.911364
256.656281 10.56571
257.072144 185.968994
257.108826 429.442291
257.168915 1.656818
257.253754 9.333823
257.326385 6.05
257.352234 2.133333
257.436737 16.006981
257.453583 9.808333
257.493683 3.425
257.521698 8.677778
257.571533 10.58017
257.611969 5.938793
257.632233 6.021429
257.648987 38.742401
257.69104 1.469445
257.797607 45.97974
257.861206 2.015
257.886353 4.875
257.90033 2.611842
258.058228 203.955994
258.101471 223.321503
258.257996 5.005488
258.336273 11.32115
258.366669 13.83512
258.442535 2.217308
258.470154 44.00703
258.615662 9.219523
258.632935 4.593966
258.694275 4.037121
258.750214 5.219565
258.778198 2.410714
259.029633 8.821551
259.060669 572.674805
259.086853 4349.270996
259.189026 5.393589
259.205841 2.936111
259.237305 2.001316
259.255341 13.50899
259.283783 12.84643
259.319824 23.607071
259.375214 17.754311
259.397003 59.17297
259.420654 141.665802
259.45105 12.90405
259.501282 54.281361
259.538422 12.31413
259.586182 4.314286
259.601318 67.297722
259.620972 44.918751
259.673981 68.92688
259.706787 13.29758
259.721405 63.236622
259.740143 9.237755
259.794373 66.861763
259.843445 77.421638
259.865082 15.60265
259.940125 30.092461
259.960419 14.90588
260.016449 3.805556
260.121857 222.480896
260.137787 44.242981
260.244202 75.153587
260.274719 37.912319
260.455536 107.629601
260.52832 21.510071
260.586884 13.21896
260.81955 7.152027
260.888336 13.55981
260.970276 55.61171
261.005432 6.384091
261.067627 22993.439453
261.103027 14619.25
261.176575 180.881897
261.261078 12.68643
261.301788 39.48674
261.325317 21.371941
261.352936 146.957001
261.389771 20.592119
261.437866 56.687481
261.483551 74.262016
261.516327 58.99398
261.54245 8.645
261.56488 28.22887
261.581268 28.824051
261.626984 87.232018
261.702484 22.016029
261.725403 13.46897
261.762909 96.528603
261.787292 23.600901
261.807739 36.0439
261.829254 31.025579
261.874023 23.30657
261.903534 40.285149
262.038818 11.36744
262.135406 85.322021
262.185944 22.304001
262.21991 14.32387
262.244354 25.50433
262.31955 23.989611
262.360992 5.002381
262.424774 13.20357
262.468842 14.41552
262.577667 16.506371
262.601196 13.22233
262.656708 12.80152
262.682251 12.20049
262.946259 16.479851
263.056061 13.38169
263.274658 8.170454
263.297241 7.402083
263.42923 6.817754
263.544159 24.432131
263.680237 6.388462
263.728241 11.96914
263.825775 6.315132
263.884613 9.224537
263.980743 3.805556
264.118256 15.08284
264.148041 12.17052
264.21817 3.649
264.360901 4.31413
264.475891 5.681666
264.608521 3.003572
264.653778 8.000641
264.75 7.20577
264.913818 3.428571
264.970795 6.0
265.063141 20.50312
265.083008 4.644565
265.130798 33.875
265.452454 2.0
265.907501 3.248529
266.098572 18.827
266.123322 26.542311
266.24649 2.801316
266.348694 6.553723
266.54538 7.856035
266.569763 2.848077
266.672363 3.40625
267.002014 6.242105
267.067566 27.25078
267.095337 34.524021
267.133942 11.52667
267.838287 3.6
268.073944 116.514702
268.112793 262.382507
268.140015 49.249298
268.231293 5.038095
268.521942 5.028125
268.57785 12.18418
268.678741 3.7
268.744324 3.2375
268.801636 4.813334
269.255005 4.45
269.309113 8.251924
269.417725 6.226064
269.457703 2.211842
269.531921 9.00041
269.554779 2.601667
269.857574 5.27378
270.046509 44.264561
270.11615 337.671692
270.160431 57.675709
270.217712 4.096154
270.326202 6.000862
270.421265 4.555556
270.455353 8.304167
270.815643 14.20192
270.881744 7.401667
271.050964 711.237976
271.086029 151.577301
271.122253 201.820206
271.174103 4.425
271.202026 17.247141
271.23056 4.025
271.270996 13.0
271.351013 10.60577
271.455566 14.20515
271.483063 4.400806
271.51059 10.52452
271.683899 9.200455
271.743134 4.489285
272.095093 249.916595
272.117432 269.448303
272.165558 19.576969
272.383759 1.032143
272.437775 10.368
272.504333 9.633827
272.894989 2.822222
272.941559 13.22624
273.068359 1228.422974
273.10379 877.081482
273.216919 1.8
273.243652 14.69167
273.324951 5.925
273.366425 2.407143
273.395203 4.465322
273.412445 14.6236
273.49173 16.339279
273.613831 2.803846
273.636902 5.878125
273.679138 5.911364
273.758026 13.00682
273.810974 11.7789
273.890137 8.64
274.048981 18.171431
274.11084 1061.967041
274.229919 2.604167
274.357483 7.0225
274.402863 7.201
274.581451 2.875
274.668182 4.422222
274.690979 2.618182
274.875793 9.751562
275.081604 218.489304
275.1185 465.534088
275.184753 6.229762
275.215912 3.003572
275.259216 7.575
275.359833 6.539855
275.436249 5.555645
275.544983 1.4
275.568542 4.004167
275.602722 3.805556
275.833801 5.007759
276.036011 6.001087
276.1138 330.541687
276.151672 1.575
276.185303 4.982222
276.244171 3.889286
276.429596 19.023621
276.504608 2.938889
276.556549 10.21607
276.770599 8.662069
276.892181 3.912037
277.060425 45.273998
277.466095 4.225
277.517731 5.405
277.728699 3.730882
278.100647 38.44286
278.126617 22.13772
278.355011 2.866667
279.069763 28.517521
279.087128 27.200661
279.14325 24.245729
279.218384 3.801316
279.357605 4.704167
279.456757 2.0
279.556854 1.289286
280.077454 27.23134
280.146179 141.385803
280.481262 7.8
281.11377 3.275
281.149414 68.383522
281.344269 4.753125
281.880951 5.763333
282.00528 7.381643
282.092834 65.846352
282.118958 113.880302
282.45401 3.201
282.477386 2.225
283.121735 62.341869
283.185333 6.747449
283.337219 13.42667
283.489838 6.678261
283.519135 7.67161
283.608459 8.813334
284.073059 50.228088
284.123352 63.79752
284.511658 3.64853
284.557068 8.473781
284.69162 5.34569
284.815369 7.093889
285.063812 162.475998
285.10083 1182.697998
285.290924 5.428489
285.715424 7.707559
285.730591 3.025
285.755341 7.027223
285.916138 7.08
286.072205 506.924988
286.132751 85.702232
286.161743 2.225
286.197205 8.928947
286.270386 20.57012
286.361359 3.027174
286.378998 6.469444
286.417877 5.205
286.449677 5.294737
286.480438 33.237629
286.614349 7.069827
286.677643 2.20119
286.725098 4.297581
286.893372 8.6817
287.015198 5.54423
287.113037 424.533203
287.137451 94.431343
287.190765 19.460649
287.239929 24.82773
287.256927 9.82007
287.276367 19.759199
287.339447 3.6375
287.364563 3.409
287.404816 16.894791
287.499634 1.5125
287.557709 5.160714
287.80722 1.825
287.882324 7.817857
287.95816 1.85
288.076355 55.982079
288.331696 10.18418
288.372467 7.469898
288.425568 1.420455
288.644073 12.602
288.738708 3.296429
288.815613 4.610526
289.010773 8.502273
289.097595 86.700882
289.13385 1638.161987
289.229645 2.845
289.263 9.958696
289.306549 4.297581
289.385101 12.98228
289.426788 12.28983
289.549194 2.417308
289.977112 1.69
290.177032 4.0
290.36145 3.344048
291.073883 48.416592
292.106171 4.005
292.927368 3.201
294.083832 3.896429
294.119965 138.195908
294.246246 4.314286
294.53717 10.85348
295.088257 22.66181
295.315094 6.446429
295.726501 8.014517
296.13974 184.003799
296.444763 4.253261
296.732422 7.739655
297.106781 74.262451
297.148315 47.71656
297.494781 9.734821
298.112396 73.048943
298.254761 3.625
298.531281 1.625
299.081818 30.143209
299.114777 94.637444
299.142883 111.102501
300.089539 273.401306
300.113373 283.925293
300.156067 70.316933
300.314636 6.631697
300.340881 2.845
300.39447 10.33519
300.418732 7.069444
300.776581 6.054545
301.220001 9.200455
301.262665 7.605
301.811981 3.75
301.848083 3.889286
302.092957 181.457703
302.124634 61.297989
302.422638 10.64959
302.440735 9.22402
302.834076 7.400397
303.146149 24.828541
303.248932 4.725
304.379822 3.8125
305.090424 173.819794
305.123108 3.1125
305.66275 23.30448
306.118652 20.69265
307.131897 13.64167
308.108063 7.237122
308.138092 16.713039
309.099976 12.5391
310.11853 6.066667
310.158875 22.1919
311.082733 4.803571
311.119385 37.917759
311.135925 9.888235
311.197144 1.801923
312.176819 13.04813
313.078125 1.656818
313.101349 89.548752
313.139465 3.058333
313.391266 2.820455
314.025543 5.125
314.127533 40.074421
314.25473 4.201316
314.76828 14.15615
315.007538 10.80058
315.113678 614.676025
315.137573 799.71521
315.186676 2.2
315.291656 4.416026
315.360474 4.965552
315.403015 13.43289
315.433838 7.49
315.457977 1.25
315.491394 26.865511
315.557434 8.200862
315.659332 2.8
315.82312 22.22261
315.84256 2.827174
316.039459 12.80076
316.139313 7.645454
316.469543 6.245
316.916656 1.7125
317.147949 20.273371
317.525665 1.656818
318.119049 37.506119
318.30719 1.617308
319.087158 3.736111
319.319672 10.20992
322.247681 2.256818
325.428619 15.80122
326.104431 43.026051
328.321747 3.813334
329.118164 30.507259
330.165283 53.947708
331.151947 13.69918
332.169006 32.178329
333.118835 43.484299
337.264923 8.2225
338.15094 498.826813
338.342316 15.75004
338.435577 20.148149
338.492126 7.942857
338.511993 4.081
338.55545 13.15158
338.619446 1.608333
338.741089 5.214286
338.827118 7.620238
340.221771 7.200385
342.162506 4.54569
344.33548 16.91572
355.916412 15.77781
355.947418 9.034323
356.065643 8.958334
356.131226 1.848077
356.295563 12.18
356.768555 5.218939
358.155884 1035.723999
358.209717 13.86667
358.238739 8.608915
358.261536 7.266666
358.316681 12.44328
358.350067 10.43712
358.434143 13.93542
358.497711 16.408279
358.540314 13.17873
358.59079 2.688889
358.630127 6.968421
358.660461 8.42531
358.735229 11.0361
358.80835 12.24144
359.05191 2.448077
359.072968 10.98793
359.28299 3.938462
359.363617 7.202381
360.12085 2.810714
360.424591 8.877054
361.21759 5.412755
361.561493 1.44
416.25589 8.936111
915.780212 2.578572
1089.578613 22.516451
1409.320435 44.585041
1433.658081 7.842105
1470.505371 8.992392
1517.250244 10.70179
1677.228027 2.472059
1698.710205 3.223148
