>compound MLS000574951-01!
>formula C13H10N2O2
>ionization [M+H]+
>parentmass 227.08168
#inchi InChI=1S/C13H10N2O2/c1-17-13(16)12-11-9(6-7-14-12)8-4-2-3-5-10(8)15-11/h2-7,14H,1H3
#inchikey JFTNFUWYCWYMKW
#Ion_Source LC-ESI
#Instrument qTof
#Compound_Source NIH Natural Product Library
#PI Dorrestein
#Data_Collector VVP/LMS
#Scan -1
#Precursor_MZ 227.082
#ExactMass 226.074
#Charge 1
#CAS_Number N/A
#Pubmed_ID N/A
#Smiles COC(=O)c1[nH]ccc2c3ccccc3nc12
#INCHI_AUX N/A
#Library_Class 1
#SpectrumID CCMSLIB00000080361
#IonMode Positive
#UpdateWorkflowName UPDATE-SINGLE-ANNOTATED-GOLD
#LibraryQualityString Gold
#TaskID b1d8e8f6646f4e71acdff9ca3d919d08
##Scan# 1589
#SpectrumFile p2-G07_GG7_01_18055.mzXML
#LibraryName NIH_Natural_Products_Library.mgf
#MQScore -1
#Organism NIH_Natural_Products_Library
#TIC_Query 0
#RT_Query -1
#MZErrorPPM -1
#SharedPeaks 0
#MassDiff 0
#LibMZ -1
#SpecMZ 227.082
#SpecCharge 0
#internalFilename spec-00000.mgf

>collision 10
95.023773 160.0
95.138809 112.0
95.202888 136.0
95.238861 176.0
95.333046 168.0
95.385521 56.0
95.529427 188.0
95.70507 108.0
95.718216 196.0
95.78833 136.0
95.8955 144.0
95.918892 48.0
95.950081 152.0
95.99688 88.0
96.017967 192.0
96.116539 188.0
96.184181 128.0
96.22908 80.0
96.361893 144.0
96.389252 164.0
96.537819 132.0
96.551506 136.0
96.576935 68.0
96.628487 204.0
96.666931 80.0
96.694328 40.0
96.866638 192.0
96.88623 200.0
96.917572 124.0
96.935455 276.0
96.987808 172.0
97.08812 208.0
97.109695 188.0
97.135193 88.0
97.201904 180.0
97.264702 220.0
97.296112 164.0
97.621826 144.0
97.744255 72.0
97.761963 132.0
97.921432 136.0
98.094826 72.0
98.180321 200.0
98.22892 172.0
98.264435 160.0
98.29528 196.0
98.367371 200.0
98.572464 108.0
98.647568 140.0
98.698975 164.0
98.751877 176.0
98.799843 164.0
98.843376 156.0
98.932442 216.0
99.001099 108.0
99.158257 160.0
99.176094 156.0
99.203842 152.0
99.239532 224.0
99.277206 220.0
99.410118 120.0
99.435921 112.0
99.451797 188.0
99.491501 152.0
99.505402 160.0
99.553055 180.0
99.622574 176.0
99.706024 112.0
99.765656 76.0
99.841309 172.0
100.026459 120.0
100.129799 56.0
100.153694 192.0
100.201508 152.0
100.217445 172.0
100.291183 120.0
100.393639 152.0
100.406822 244.0
100.434746 152.0
100.491684 192.0
100.674255 96.0
100.720192 96.0
100.774132 176.0
100.886047 192.0
100.934036 128.0
100.990036 212.0
101.004036 72.0
101.050049 88.0
101.164124 116.0
101.204163 196.0
101.294289 188.0
101.39447 132.0
101.4506 164.0
101.689301 200.0
101.71138 96.0
101.829842 148.0
101.872025 112.0
101.912842 76.0
101.926277 144.0
101.950386 188.0
102.033646 200.0
102.05304 244.0
102.107201 136.0
102.141396 176.0
102.169563 180.0
102.276215 72.0
102.292274 184.0
102.407089 160.0
102.543152 220.0
102.608604 144.0
102.628769 112.0
102.71347 128.0
102.753822 44.0
102.810318 124.0
102.931923 168.0
102.95929 164.0
102.973854 208.0
103.121346 132.0
103.167839 240.0
103.192101 120.0
103.232544 200.0
103.329636 96.0
103.404503 364.0
103.467255 204.0
103.515854 148.0
103.635361 168.0
103.688049 168.0
103.718452 152.0
103.978073 128.0
104.000549 220.0
104.138474 216.0
104.173004 156.0
104.207542 184.0
104.22583 148.0
104.254272 144.0
104.347778 60.0
104.426315 200.0
104.545845 140.0
104.610222 192.0
104.771103 208.0
104.879105 92.0
104.893379 144.0
104.914543 200.0
104.989204 148.0
105.009598 124.0
105.040199 172.0
105.054474 144.0
105.078957 144.0
105.121811 120.0
105.215195 148.0
105.258575 176.0
105.308853 220.0
105.362747 272.0
105.389305 180.0
105.563057 132.0
105.673065 164.0
105.704208 140.0
105.837257 172.0
105.861832 208.0
105.898697 244.0
106.113869 144.0
106.199997 168.0
106.277954 108.0
106.337471 140.0
106.392891 164.0
106.423691 176.0
106.448326 152.0
106.495567 120.0
106.515213 156.0
106.55925 216.0
106.678444 132.0
106.705772 124.0
106.766861 252.0
106.828568 220.0
106.926414 152.0
106.960266 176.0
107.022034 112.0
107.083809 188.0
107.131187 116.0
107.181244 232.0
107.221855 192.0
107.300186 140.0
107.430107 224.0
107.452805 152.0
107.512642 44.0
107.535347 176.0
107.646828 140.0
107.691429 128.0
107.733582 196.0
107.798927 236.0
107.822433 180.0
107.907936 180.0
107.971283 196.0
108.004379 120.0
108.043686 168.0
108.075302 256.0
108.093346 116.0
108.116531 176.0
108.167404 168.0
108.418472 104.0
108.47538 192.0
108.544922 92.0
108.567734 196.0
108.692207 108.0
108.723335 172.0
108.943428 132.0
108.966286 244.0
108.980827 136.0
109.018227 136.0
109.115448 104.0
109.159561 220.0
109.230309 176.0
109.276077 256.0
109.38221 104.0
109.470581 144.0
109.528946 160.0
109.777496 172.0
109.807274 52.0
109.926186 136.0
110.010628 220.0
110.082756 164.0
110.116173 208.0
110.193459 160.0
110.240089 216.0
110.29377 216.0
110.371124 124.0
110.46106 180.0
110.618004 168.0
110.691284 212.0
110.752014 136.0
110.870689 212.0
110.925941 48.0
110.984642 212.0
111.030777 184.0
111.057968 152.0
111.0979 112.0
111.158745 172.0
111.184708 184.0
111.372894 192.0
111.471634 140.0
111.721184 212.0
111.785515 108.0
111.858635 48.0
111.993393 152.0
112.012184 148.0
112.136673 128.0
112.193886 140.0
112.315895 160.0
112.339096 120.0
112.358086 204.0
112.415054 124.0
112.60717 200.0
112.628296 196.0
112.643082 188.0
112.691673 212.0
112.740273 140.0
112.877686 172.0
113.000366 76.0
113.039177 5116.0
113.087128 176.0
113.12735 164.0
113.239571 184.0
113.279816 144.0
113.301003 132.0
113.357643 184.0
113.54689 112.0
113.578705 128.0
113.611122 172.0
113.641853 204.0
113.687851 280.0
113.83976 60.0
113.85463 52.0
113.87162 176.0
113.91835 292.0
113.944473 148.0
113.999092 44.0
114.034859 2352.0
114.074776 232.0
114.179794 156.0
114.206512 256.0
114.273148 140.0
114.323723 184.0
114.419899 148.0
114.494774 108.0
114.556549 124.0
114.678001 76.0
114.709976 344.0
114.76754 108.0
114.788864 152.0
114.816589 120.0
114.869911 112.0
114.897644 164.0
114.929649 100.0
114.95739 140.0
115.051575 724.0
115.113228 144.0
115.137787 136.0
115.217888 124.0
115.262756 180.0
115.296951 152.0
115.405968 56.0
115.489372 184.0
115.523598 148.0
115.577087 160.0
115.660553 152.0
115.677681 212.0
115.714073 192.0
115.737572 160.0
115.782593 124.0
115.823288 164.0
115.840424 216.0
115.921844 212.0
115.951851 144.0
115.990433 176.0
116.05088 1432.0
116.159836 148.0
116.179138 48.0
116.207031 152.0
116.234924 76.0
116.249947 132.0
116.291756 200.0
116.507607 160.0
116.589256 100.0
116.640175 44.0
116.673088 112.0
116.707489 248.0
116.769852 164.0
116.913223 200.0
116.937675 300.0
116.967812 132.0
117.047501 164.0
117.094849 112.0
117.11969 96.0
117.252121 120.0
117.299545 168.0
117.379318 172.0
117.428917 140.0
117.450485 152.0
117.472054 184.0
117.536842 140.0
117.629005 192.0
117.722427 212.0
117.847717 112.0
117.871483 120.0
117.924118 248.0
118.027115 100.0
118.163086 88.0
118.25592 152.0
118.33004 208.0
118.462143 216.0
118.481644 188.0
118.60408 176.0
118.64418 220.0
118.665863 52.0
118.735252 172.0
118.756943 140.0
118.780807 184.0
118.81768 128.0
118.84996 196.0
119.009621 176.0
119.03257 128.0
119.204178 128.0
119.250648 156.0
119.276855 152.0
119.283806 44.0
119.291656 128.0
119.386787 144.0
119.45639 160.0
119.473366 144.0
119.51268 128.0
119.545593 172.0
119.589119 152.0
119.658783 128.0
119.746376 212.0
119.830841 64.0
119.878525 168.0
119.898392 148.0
119.920189 168.0
119.97905 124.0
119.994308 132.0
120.046143 192.0
120.092438 140.0
120.12516 200.0
120.247604 172.0
120.306625 128.0
120.42202 176.0
120.448235 120.0
120.502693 160.0
120.537804 128.0
120.651466 164.0
120.76181 224.0
120.808922 184.0
120.953354 160.0
121.051346 148.0
121.127396 156.0
121.240273 52.0
121.32576 192.0
121.369507 256.0
121.444176 56.0
121.490242 224.0
121.527542 196.0
121.628494 136.0
121.659225 148.0
121.687767 64.0
121.885445 168.0
121.977753 168.0
122.006332 184.0
122.034912 124.0
122.052505 192.0
122.133881 152.0
122.257088 160.0
122.384766 164.0
122.437614 136.0
122.565384 152.0
122.596237 204.0
122.777008 168.0
122.833496 232.0
122.85421 164.0
122.98661 204.0
123.0131 128.0
123.161049 180.0
123.226768 228.0
123.348869 164.0
123.383522 148.0
123.505867 152.0
123.527992 216.0
123.545815 144.0
123.563385 180.0
123.600998 220.0
123.700302 240.0
123.780304 48.0
123.851173 184.0
123.873322 152.0
123.915413 168.0
124.010704 208.0
124.236885 80.0
124.299011 112.0
124.322136 152.0
124.357758 196.0
124.380623 140.0
124.464142 164.0
124.574326 52.0
124.687645 240.0
124.758774 192.0
124.778786 152.0
124.829926 128.0
124.86142 172.0
124.968933 144.0
124.994537 224.0
125.070206 68.0
125.136993 172.0
125.279526 160.0
125.387131 156.0
125.413231 100.0
125.428833 140.0
125.511322 132.0
125.613914 240.0
125.638451 152.0
125.658531 180.0
125.6987 188.0
125.734406 140.0
125.806267 144.0
125.863884 180.0
125.921944 112.0
126.093979 192.0
126.149864 36.0
126.216934 116.0
126.27066 172.0
126.292976 160.0
126.339951 64.0
126.369034 124.0
126.402596 156.0
126.478691 180.0
126.536896 112.0
126.655586 212.0
126.671265 176.0
126.820473 136.0
127.0401 168.0
127.063591 220.0
127.137634 104.0
127.158829 136.0
127.178032 152.0
127.204971 136.0
127.240891 112.0
127.290291 212.0
127.37793 180.0
127.616104 200.0
127.733047 64.0
127.755547 132.0
128.01889 64.0
128.043671 128.0
128.163055 208.0
128.185593 168.0
128.246445 176.0
128.262222 132.0
128.282516 108.0
128.396881 200.0
128.602814 152.0
128.677322 180.0
128.776672 156.0
128.853485 220.0
128.87381 152.0
128.93811 204.0
128.957428 112.0
128.989075 152.0
129.025253 200.0
129.047775 216.0
129.113434 156.0
129.156403 60.0
129.314789 148.0
129.396286 160.0
129.471008 84.0
129.56842 236.0
129.645462 168.0
129.74292 176.0
129.813217 184.0
130.001495 220.0
130.187653 168.0
130.253525 40.0
130.39212 204.0
130.444397 164.0
130.594482 128.0
130.630875 176.0
130.692825 192.0
130.753433 88.0
130.842758 268.0
130.876663 200.0
130.908554 152.0
130.951828 148.0
131.01561 152.0
131.048279 244.0
131.083954 140.0
131.10675 116.0
131.227554 160.0
131.284561 148.0
131.397186 220.0
131.492172 148.0
131.510437 184.0
131.57663 260.0
131.597183 176.0
131.617737 28.0
131.642853 160.0
131.741074 212.0
131.827896 140.0
131.88446 144.0
131.917038 148.0
131.974182 136.0
132.031357 68.0
132.051941 140.0
132.170898 156.0
132.260162 148.0
132.305939 104.0
132.360886 136.0
132.418152 212.0
132.585388 188.0
132.678802 244.0
132.732101 32.0
132.883499 140.0
132.986755 168.0
133.039307 180.0
133.076294 176.0
133.119919 188.0
133.266937 172.0
133.312881 172.0
133.331268 120.0
133.365555 140.0
133.480698 36.0
133.505997 200.0
133.611801 160.0
133.748383 216.0
133.791321 100.0
134.060654 116.0
134.148392 148.0
134.176056 184.0
134.210648 88.0
134.238312 88.0
134.270599 92.0
134.365173 156.0
134.492096 192.0
134.512878 160.0
134.533646 140.0
134.637558 172.0
134.718399 132.0
134.775009 176.0
134.8871 216.0
135.067459 144.0
135.210907 172.0
135.245636 132.0
135.278046 112.0
135.303497 124.0
135.403076 196.0
135.463303 256.0
135.645996 128.0
135.718231 140.0
135.829559 132.0
135.968781 120.0
136.070908 72.0
136.135925 184.0
136.193039 244.0
136.333389 136.0
136.409515 228.0
136.442642 164.0
136.475189 136.0
136.507751 124.0
136.55426 68.0
136.670578 40.0
136.710129 212.0
136.79393 160.0
136.810226 124.0
136.901031 48.0
136.942429 124.0
136.950134 96.0
136.955231 132.0
136.994202 232.0
137.022156 152.0
137.087402 148.0
137.113037 144.0
137.136337 104.0
137.229584 112.0
137.283218 168.0
137.388184 188.0
137.429916 164.0
137.462845 172.0
137.57254 92.0
137.623901 132.0
137.85405 192.0
137.922089 88.0
137.962677 160.0
137.993073 192.0
138.0345 112.0
138.168488 100.0
138.222305 208.0
138.28894 276.0
138.328308 124.0
138.390839 172.0
138.407227 128.0
138.443192 144.0
138.472794 152.0
138.491531 112.0
138.561813 176.0
138.655548 80.0
138.772751 136.0
138.854828 212.0
139.039871 852.0
139.080063 196.0
139.098846 156.0
139.127014 184.0
139.173981 232.0
139.199799 72.0
139.37323 212.0
139.415924 40.0
139.432388 164.0
139.448837 136.0
139.470795 140.0
139.531113 204.0
139.573425 132.0
139.592239 124.0
139.639343 200.0
139.660446 276.0
139.685181 164.0
139.702789 132.0
139.731018 152.0
139.759735 156.0
139.789841 136.0
139.814651 156.0
139.838272 184.0
139.865295 196.0
139.902054 212.0
139.935715 296.0
139.943329 144.0
139.979996 152.0
140.005402 296.0
140.050354 112568.0
140.108505 104.0
140.140656 212.0
140.164108 108.0
140.178406 160.0
140.199326 96.0
140.218933 88.0
140.265076 200.0
140.302216 340.0
140.359772 96.0
140.380371 112.0
140.411087 116.0
140.438324 1216.0
140.463867 408.0
140.522446 156.0
140.540573 232.0
140.572632 176.0
140.611191 224.0
140.649582 72.0
140.664612 380.0
140.687866 68.0
140.7388 196.0
140.768326 52.0
140.794128 72.0
140.822464 128.0
140.841354 208.0
140.868866 124.0
140.887619 48.0
140.948318 112.0
140.987839 148.0
141.052078 16132.0
141.135315 136.0
141.161911 76.0
141.228836 56.0
141.251709 60.0
141.274948 172.0
141.299973 112.0
141.316544 48.0
141.337677 64.0
141.401733 116.0
141.418289 128.0
141.436722 148.0
141.456802 176.0
141.479843 76.0
141.524826 128.0
141.546143 60.0
141.607712 72.0
141.624283 48.0
141.671661 64.0
141.71431 68.0
141.747482 68.0
141.79332 200.0
141.849396 60.0
141.891785 100.0
141.935608 156.0
141.970322 76.0
142.002396 176.0
142.054367 692.0
142.094315 180.0
142.124115 284.0
142.149643 128.0
142.165894 156.0
142.218384 144.0
142.319153 72.0
142.344894 124.0
142.376144 160.0
142.660507 148.0
142.746872 84.0
142.7659 72.0
142.866486 180.0
142.899094 76.0
143.012665 172.0
143.037079 152.0
143.072845 80.0
143.144272 144.0
143.226471 60.0
143.368195 120.0
143.427261 92.0
143.483292 140.0
143.505753 136.0
143.61377 120.0
143.690109 76.0
143.759308 148.0
143.814728 108.0
143.873901 212.0
143.902527 128.0
143.931183 144.0
143.947891 160.0
144.017151 204.0
144.050888 424.0
144.23938 156.0
144.27951 188.0
144.335007 176.0
144.443634 152.0
144.480911 140.0
144.515503 152.0
144.655609 128.0
144.720245 180.0
144.806458 200.0
144.837601 212.0
144.978958 192.0
145.038055 300.0
145.084427 188.0
145.149155 156.0
145.177933 40.0
145.230698 56.0
145.338654 32.0
145.424347 184.0
145.600311 172.0
145.653152 164.0
145.672379 212.0
145.773285 196.0
145.886246 148.0
145.919907 124.0
146.191727 112.0
146.242264 108.0
146.433487 180.0
146.656555 156.0
146.707169 76.0
146.970062 136.0
147.027969 164.0
147.090469 148.0
147.136597 168.0
147.242844 144.0
147.276657 136.0
147.337051 96.0
147.414368 160.0
147.436127 116.0
147.453033 176.0
147.47963 80.0
147.552155 152.0
147.663376 212.0
147.922287 184.0
148.038498 212.0
148.21669 100.0
148.252808 224.0
148.297729 72.0
148.325317 216.0
148.343796 80.0
148.617844 108.0
148.67366 160.0
148.705215 208.0
148.918884 180.0
148.962601 116.0
149.156998 192.0
149.195892 80.0
149.217636 140.0
149.24939 84.0
149.464447 176.0
149.701996 80.0
149.818909 160.0
149.928558 120.0
150.045563 172.0
150.065063 72.0
150.155289 96.0
150.296783 168.0
150.345596 176.0
150.384644 132.0
150.499374 120.0
150.616608 148.0
150.687454 184.0
150.809631 148.0
150.97345 112.0
151.000351 132.0
151.210754 140.0
151.298401 184.0
151.320908 176.0
151.760071 84.0
151.813431 76.0
151.889465 180.0
151.916458 56.0
151.948349 56.0
152.021957 188.0
152.044052 96.0
152.229446 116.0
152.323959 60.0
152.488586 188.0
152.621338 68.0
152.791046 252.0
152.815643 80.0
152.914078 184.0
152.990387 184.0
153.10611 168.0
153.143066 212.0
153.493011 40.0
153.574402 196.0
153.724899 116.0
153.801407 80.0
153.892746 44.0
153.932251 148.0
154.043137 148.0
154.065628 188.0
154.28392 148.0
154.584869 164.0
154.619522 116.0
154.743286 192.0
154.968674 160.0
155.060638 288.0
155.171921 188.0
155.236389 56.0
155.27359 136.0
155.357925 88.0
155.380249 192.0
155.402573 96.0
155.529144 152.0
155.556442 168.0
155.58873 120.0
155.70047 124.0
155.817215 144.0
155.961349 76.0
156.04718 164.0
156.312012 168.0
156.428986 284.0
156.740311 116.0
156.842499 156.0
156.902328 176.0
156.97464 116.0
157.049454 44.0
157.251556 228.0
157.281509 172.0
157.336426 96.0
157.428818 156.0
157.556198 100.0
157.613663 132.0
157.666153 156.0
158.061401 1036.0
158.081818 76.0
158.399261 72.0
158.54126 136.0
158.644836 212.0
158.755157 132.0
158.935776 64.0
158.983459 116.0
159.054977 708.0
159.129044 152.0
159.346924 224.0
159.455612 164.0
159.598907 228.0
159.6492 104.0
159.764893 172.0
159.833023 156.0
159.946091 176.0
160.054337 124.0
160.155075 192.0
160.225616 140.0
160.306244 100.0
160.356644 124.0
160.755127 140.0
161.002518 176.0
161.05304 140.0
161.103561 152.0
161.171768 204.0
161.280441 144.0
161.642105 104.0
161.720551 100.0
161.773712 64.0
161.824356 136.0
161.880051 164.0
162.331131 148.0
162.379318 204.0
162.417358 72.0
162.485855 284.0
162.678726 188.0
162.744736 144.0
162.805679 68.0
162.973343 84.0
163.242783 160.0
163.291107 136.0
163.650955 188.0
163.960693 180.0
163.996384 156.0
164.034622 156.0
164.121292 152.0
164.208008 244.0
164.251358 148.0
164.340652 140.0
164.373825 160.0
164.399353 48.0
164.47081 120.0
164.583145 172.0
164.702515 172.0
164.739197 160.0
164.828354 64.0
164.974045 172.0
164.997055 160.0
165.043564 508.0
165.153046 232.0
165.170944 152.0
165.191406 212.0
165.370529 124.0
165.416611 80.0
165.46524 152.0
165.481964 128.0
165.577911 128.0
165.852524 156.0
165.957184 176.0
165.983734 208.0
166.053223 9604.0
166.190582 152.0
166.248611 404.0
166.270142 236.0
166.298843 196.0
166.470383 172.0
166.4935 124.0
166.51918 152.0
166.594772 260.0
166.639343 164.0
166.649002 112.0
166.658875 180.0
166.682266 136.0
166.700195 128.0
166.74791 204.0
166.780228 180.0
166.822235 196.0
166.825394 264.0
166.879028 252.0
166.899948 260.0
166.908752 360.0
166.927338 220.0
166.947342 100.0
166.971863 180.0
167.007217 268.0
167.061188 150600.0
167.135117 216.0
167.228287 52.0
167.25531 212.0
167.288788 44.0
167.314606 88.0
167.323715 104.0
167.334076 144.0
167.342957 304.0
167.367615 72.0
167.376495 76.0
167.401306 52.0
167.436584 48.0
167.484848 1200.0
167.517532 188.0
167.550262 120.0
167.574097 144.0
167.612366 64.0
167.628311 84.0
167.636459 60.0
167.653931 92.0
167.67775 52.0
167.703766 120.0
167.741394 88.0
167.759445 56.0
167.799774 136.0
167.854843 116.0
167.900497 60.0
167.928436 68.0
167.95665 260.0
167.985855 144.0
168.064087 17408.0
168.128769 64.0
168.166718 248.0
168.233948 72.0
168.259933 104.0
168.282593 72.0
168.291611 120.0
168.318375 84.0
168.340591 84.0
168.387894 108.0
168.494949 68.0
168.534042 184.0
168.588593 84.0
168.618988 68.0
168.686188 44.0
168.704285 96.0
168.724976 60.0
168.743073 48.0
168.775482 32.0
168.807922 48.0
168.8284 48.0
168.853622 48.0
168.891388 124.0
168.934448 76.0
168.973602 128.0
169.016693 100.0
169.062256 712.0
169.135605 76.0
169.181396 248.0
169.219879 388.0
169.26416 100.0
169.302719 128.0
169.341599 124.0
169.353256 192.0
169.362915 276.0
169.388382 172.0
169.406021 164.0
169.428314 116.0
169.444855 228.0
169.484619 128.0
169.52478 68.0
169.599243 132.0
169.626999 120.0
169.688095 36.0
169.718369 100.0
169.774124 44.0
169.848877 72.0
169.877411 60.0
169.939682 84.0
169.972519 188.0
170.021576 128.0
170.06218 196.0
170.118744 48.0
170.137955 104.0
170.190445 104.0
170.235596 60.0
170.253769 88.0
170.282333 64.0
170.33429 104.0
170.38884 144.0
170.461594 36.0
170.548111 96.0
170.799576 36.0
170.828201 36.0
171.046783 140.0
171.083221 32.0
171.114471 44.0
171.271988 172.0
171.456894 76.0
171.739899 44.0
171.758163 88.0
171.956467 48.0
171.990387 68.0
172.183609 116.0
172.225388 160.0
172.30899 56.0
172.923508 80.0
172.973236 240.0
173.229874 76.0
173.313705 64.0
173.442123 128.0
173.599426 120.0
173.906387 52.0
175.262833 172.0
175.447891 176.0
175.643036 136.0
176.054764 176.0
176.086456 156.0
176.17627 220.0
176.451126 64.0
176.519867 72.0
176.609787 76.0
176.707672 144.0
176.834702 156.0
177.706543 80.0
177.802078 120.0
177.841888 52.0
177.918869 100.0
178.038361 60.0
178.42897 116.0
178.506073 92.0
178.535324 176.0
179.534012 96.0
179.675385 28.0
180.228058 176.0
181.051987 144.0
181.07341 108.0
181.303818 48.0
181.571915 148.0
181.877777 48.0
182.146301 40.0
182.286011 136.0
182.339752 200.0
182.568283 60.0
182.689316 72.0
182.942276 44.0
183.090378 40.0
183.451431 164.0
184.066162 148.0
184.26918 248.0
184.344833 200.0
184.379456 128.0
184.452942 216.0
184.54216 80.0
184.580017 140.0
184.66655 152.0
184.731476 124.0
184.790985 180.0
184.860474 112.0
184.882996 144.0
184.93631 120.0
184.951828 148.0
185.071365 37068.0
185.151825 44.0
185.297287 116.0
185.330032 96.0
185.394272 96.0
185.419144 120.0
185.516815 20.0
185.560181 80.0
185.72905 120.0
185.765015 84.0
185.880249 168.0
186.04039 60.0
186.073944 3520.0
186.12999 44.0
186.197876 60.0
186.254913 84.0
186.320114 68.0
186.453262 40.0
186.548401 72.0
187.078308 444.0
187.182327 100.0
187.231354 36.0
187.27124 108.0
187.426071 108.0
187.490173 92.0
187.53923 48.0
187.574661 128.0
187.713715 36.0
187.803711 232.0
187.84462 44.0
187.899185 40.0
188.458908 124.0
188.529953 92.0
189.055023 104.0
189.131653 80.0
189.654831 128.0
190.596161 104.0
191.036057 60.0
193.813553 92.0
194.97908 164.0
195.054459 588.0
195.195908 100.0
196.058609 116.0
196.301712 204.0
196.535751 64.0
196.63063 92.0
196.770203 48.0
200.940903 68.0
204.710861 40.0
207.201599 60.0
208.29747 156.0
208.541718 124.0
212.144196 92.0
212.872452 64.0
212.939255 192.0
213.065674 1372.0
213.203629 64.0
213.392578 80.0
213.761993 108.0
214.058838 168.0
217.382675 116.0
217.937653 144.0
218.381561 44.0
218.802368 48.0
219.270737 88.0
220.737961 40.0
223.460922 108.0
226.362244 28.0
227.08168 452.0
228.081375 140.0
231.260574 116.0
232.710205 104.0
235.221252 84.0
238.769409 116.0
239.446487 44.0
239.643646 72.0
240.405289 84.0
242.647858 120.0
243.193832 56.0
247.398972 108.0
247.442795 40.0
248.335907 88.0
250.78775 96.0
254.785126 40.0
257.256409 44.0
258.039124 56.0
264.379272 40.0
265.11441 132.0
266.295349 128.0
268.678162 52.0
270.380585 52.0
270.979828 72.0
275.526703 120.0
275.708435 64.0
278.883575 36.0
279.815033 88.0
280.924805 44.0
284.206909 60.0
284.787689 92.0
290.160034 96.0
290.998047 64.0
296.161163 52.0
298.240479 76.0
305.923431 52.0
306.560822 108.0
307.883026 84.0
309.845337 92.0
312.591125 64.0
313.397461 68.0
316.499908 60.0
319.060425 28.0
320.512573 40.0
320.569611 88.0
321.45755 128.0
322.021606 84.0
323.258606 128.0
324.200409 80.0
324.874512 136.0
326.965759 48.0
328.338379 152.0
328.475464 36.0
330.017548 40.0
330.328583 36.0
330.748322 64.0
332.996368 52.0
333.257935 36.0
333.69043 68.0
339.012451 120.0
340.634186 60.0
342.11618 68.0
347.204224 72.0
347.641998 96.0
348.128296 108.0
349.71582 32.0
350.777405 44.0
351.590515 56.0
357.203308 104.0
364.754883 56.0
366.11319 28.0
372.831146 44.0
379.633423 40.0
383.938507 76.0
385.382843 64.0
387.021698 48.0
387.864014 84.0
393.240906 80.0
398.233673 36.0
398.742218 140.0
400.978973 120.0
406.493835 68.0
416.652832 76.0
423.207123 80.0
425.462097 72.0
434.985962 88.0
449.458862 52.0
455.814758 60.0
468.06604 60.0
472.099121 132.0
481.440033 80.0
484.89624 52.0
487.731659 44.0
488.444 44.0
494.285339 64.0
505.915466 120.0
511.936584 56.0
523.880676 108.0
524.691895 48.0
526.3573 60.0
541.946228 60.0
553.718079 48.0
553.755554 48.0
557.790833 84.0
559.700928 60.0
560.035278 64.0
565.270996 64.0
570.692688 168.0
574.09259 68.0
580.414307 40.0
594.641052 88.0
600.576965 56.0
618.819153 72.0
623.680786 56.0
629.130432 92.0
629.529846 116.0
638.420044 40.0
641.819092 76.0
642.252747 140.0
655.556458 88.0
656.907593 136.0
671.949524 72.0
684.742981 64.0
688.675598 176.0
696.800476 124.0
705.887512 36.0
721.199097 96.0
734.461731 60.0
734.693665 64.0
736.45343 152.0
749.582458 88.0
767.380371 32.0
769.659119 144.0
771.758789 72.0
773.47937 48.0
775.756042 84.0
792.318848 108.0
792.649414 56.0
798.470947 76.0
802.24353 44.0
803.523682 168.0
804.054138 156.0
808.960327 164.0
809.062195 60.0
828.814575 116.0
835.204224 132.0
836.936462 48.0
838.682068 88.0
839.581482 92.0
840.140991 108.0
841.988037 76.0
859.916626 224.0
861.580811 140.0
863.082886 88.0
865.897644 80.0
867.725952 124.0
868.329895 148.0
869.157043 108.0
877.827637 188.0
881.298462 88.0
886.07312 176.0
889.008179 152.0
891.127991 176.0
891.312195 116.0
900.104248 196.0
902.35083 132.0
910.68042 124.0
915.389404 64.0
918.010742 176.0
924.214355 60.0
927.042236 116.0
928.697327 172.0
931.981628 176.0
933.598572 160.0
933.835754 164.0
934.401428 196.0
940.672363 76.0
942.229614 136.0
943.885986 216.0
945.23175 180.0
947.772888 100.0
949.311462 232.0
949.519958 192.0
951.514221 128.0
951.937927 168.0
954.740173 212.0
956.524475 272.0
958.951294 132.0
960.338562 76.0
962.177429 160.0
964.308594 112.0
965.229675 80.0
975.869751 124.0
976.242859 116.0
979.080627 152.0
979.803223 192.0
981.292725 136.0
986.09314 160.0
987.274719 152.0
988.300598 132.0
991.726135 188.0
994.002686 132.0
1001.880798 208.0
1006.383911 252.0
1008.386475 148.0
1016.004028 212.0
1017.514465 132.0
1022.0271 196.0
1022.249817 172.0
1022.408936 124.0
1022.536194 52.0
1024.624756 208.0
1024.956055 132.0
1026.766602 152.0
1027.200317 96.0
1027.787231 148.0
1031.376343 164.0
1031.453003 144.0
1033.409912 60.0
1034.715576 88.0
1036.227051 216.0
1039.580566 180.0
1040.151855 124.0
1041.879272 124.0
1042.855957 80.0
1043.209473 144.0
1045.18396 84.0
1045.660156 140.0
1046.89624 124.0
1052.796997 180.0
1054.134155 136.0
1055.711426 108.0
1056.177124 140.0
1056.51355 180.0
1057.108765 80.0
1062.090942 148.0
1063.38208 176.0
1066.194214 104.0
1070.181763 196.0
1071.881836 76.0
1072.546631 64.0
1076.128052 176.0
1077.192627 256.0
1079.905151 168.0
1080.036011 76.0
1080.094849 112.0
1080.330322 124.0
1082.14978 140.0
1083.053467 160.0
1086.337524 216.0
1087.420166 136.0
1089.298096 252.0
1090.001099 116.0
1091.756226 140.0
1093.809082 184.0
1094.822998 156.0
1096.878662 88.0
1102.74646 124.0
1106.66272 188.0
1107.974121 188.0
1110.148071 136.0
1110.207764 136.0
1110.791504 228.0
1116.270752 172.0
1117.661011 172.0
1121.556885 84.0
1122.190186 156.0
1122.663696 148.0
1124.171265 148.0
1127.577148 168.0
1128.479614 148.0
1133.385742 172.0
1134.317383 148.0
1134.424561 180.0
1134.538574 28.0
1137.926636 92.0
1138.732422 156.0
1139.018066 164.0
1139.296631 164.0
1143.431885 188.0
1144.333984 196.0
1144.933228 264.0
1146.994995 172.0
1147.501953 240.0
1149.227173 188.0
1150.219238 112.0
1154.441895 176.0
1156.160278 68.0
1157.290649 140.0
1158.326782 100.0
1159.85144 156.0
1162.869751 256.0
1163.555298 176.0
1164.112183 136.0
1165.606567 144.0
1166.932007 228.0
1167.999634 124.0
1168.625488 196.0
1168.993042 196.0
1171.157959 152.0
1171.423584 188.0
1171.954956 72.0
1172.254883 196.0
1172.527466 144.0
1174.006836 200.0
1180.120728 164.0
1181.766602 72.0
1183.32019 68.0
1186.999634 100.0
1187.884399 136.0
1188.810669 128.0
1190.623047 56.0
1190.835938 184.0
1191.763306 232.0
1194.389404 108.0
1195.414551 148.0
1196.102783 232.0
1196.563965 220.0
1197.658936 216.0
1198.08606 164.0
1199.023193 196.0
1199.264404 72.0
1199.664185 184.0
1200.374268 196.0
1200.760498 40.0
1201.346802 176.0
1201.705566 172.0
1202.4646 164.0
1202.782104 172.0
1205.752075 232.0
1206.685303 180.0
1207.535767 148.0
1207.722534 152.0
1207.854004 180.0
1208.435059 156.0
1209.625366 220.0
1209.895386 152.0
1210.407715 136.0
1210.504639 148.0
1211.114136 160.0
1211.308105 56.0
1212.846313 132.0
1213.678223 188.0
1213.879395 136.0
1214.41333 144.0
1214.604126 240.0
1216.147949 196.0
1217.737915 176.0
1218.383911 116.0
1219.120483 168.0
1219.308105 180.0
1219.683472 176.0
1220.225708 116.0
1220.858398 192.0
1222.862061 208.0
1223.766968 220.0
1224.219604 188.0
1225.24353 84.0
1225.382812 120.0
1226.860352 148.0
1227.160156 204.0
1228.415405 172.0
1229.706299 184.0
1230.069214 180.0
1230.446289 148.0
1230.753418 176.0
1231.451782 116.0
1232.194702 136.0
1232.324951 140.0
1232.981812 56.0
1233.121582 208.0
1234.785522 204.0
1235.016357 48.0
1235.201782 164.0
1238.76123 104.0
1239.160645 140.0
1240.59021 112.0
1240.91272 52.0
1241.010864 88.0
1242.245239 124.0
1243.501221 128.0
1243.711792 140.0
1246.22583 200.0
1246.675537 184.0
1247.076172 168.0
1247.835449 248.0
1248.222168 160.0
1248.763672 148.0
1250.219971 188.0
1250.269165 36.0
1250.691528 152.0
1251.416626 128.0
1251.677124 208.0
1252.761719 192.0
1255.475342 128.0
1255.729248 176.0
1255.947876 100.0
1256.44873 224.0
1257.457764 196.0
1257.52832 180.0
1257.994263 196.0
1258.664917 172.0
1259.378174 200.0
1259.526611 208.0
1259.604248 192.0
1259.653687 224.0
1260.925537 204.0
1263.640869 180.0
1264.659912 172.0
1265.295044 144.0
1266.167969 200.0
1266.947144 204.0
1267.329712 160.0
1269.576782 172.0
1270.215088 116.0
1271.641235 136.0
1273.28125 172.0
1273.465942 256.0
1274.0271 188.0
1275.313232 192.0
1275.441284 120.0
1275.945923 204.0
1277.005493 160.0
1277.105103 188.0
1277.318481 216.0
1277.368286 212.0
1277.851929 204.0
1278.108154 60.0
1278.399902 152.0
1279.111572 196.0
1279.204102 104.0
1280.272095 168.0
1281.354858 136.0
1281.433228 128.0
1281.753784 152.0
1282.52356 104.0
1282.986816 184.0
1284.120605 336.0
1284.170532 364.0
1284.334595 124.0
1285.069336 224.0
1286.927734 256.0
1287.417847 216.0
1287.63916 180.0
1290.168701 128.0
1291.634644 168.0
1292.872437 180.0
1293.40918 212.0
1293.487915 120.0
1293.86731 212.0
1294.325562 156.0
1295.034546 136.0
1295.471436 124.0
1296.352783 180.0
1297.234375 200.0
1297.341919 136.0
1298.998413 148.0
1299.471924 136.0
1299.679932 180.0
1299.888062 92.0
1300.182251 164.0
1300.291504 148.0
1300.785156 184.0
1300.900024 140.0
1301.122559 220.0
1302.975464 156.0
1303.406616 92.0
1303.715576 96.0
1304.139648 200.0
1305.081299 216.0
1305.685425 164.0
1306.232056 164.0
1306.692383 108.0
1306.814697 156.0
1307.009033 120.0
1308.283691 172.0
1308.534912 124.0
1308.614136 180.0
1309.125366 164.0
1309.578979 148.0
1311.747925 164.0
1313.298218 212.0
1313.615601 172.0
1314.380249 108.0
1315.080322 144.0
1317.672729 136.0
1318.135132 188.0
1318.24353 224.0
1318.886719 184.0
1318.94458 160.0
1319.183105 232.0
1319.2771 184.0
1320.195312 136.0
1321.157349 140.0
1322.032837 108.0
1323.067871 116.0
1323.987427 160.0
1324.284424 136.0
1325.81311 156.0
1326.70459 120.0
1327.088867 204.0
1327.161377 212.0
1327.821289 188.0
1328.314453 152.0
1330.179443 196.0
1330.339111 136.0
1331.152222 104.0
1331.210327 188.0
1331.907593 116.0
1332.249023 116.0
1332.394287 152.0
1332.743042 180.0
1333.745972 52.0
1334.938232 252.0
1335.316406 128.0
1335.942017 184.0
1336.312988 136.0
1336.385742 124.0
1338.583984 152.0
1338.860718 168.0
1339.246704 204.0
1339.479736 176.0
1341.184814 168.0
1343.810181 176.0
1348.059814 132.0
1349.10498 160.0
1350.794189 132.0
1351.445312 128.0
1351.628296 156.0
1353.084717 232.0
1354.000122 108.0
1354.988892 160.0
1355.135498 140.0
1355.362671 136.0
1355.860962 200.0
1356.256714 240.0
1356.461914 136.0
1357.554321 72.0
1357.877075 152.0
1358.962769 212.0
1359.036133 196.0
1359.637817 132.0
1360.276367 136.0
1360.738892 204.0
1362.427979 204.0
1362.750122 208.0
1364.404907 144.0
1364.573975 272.0
1365.073975 160.0
1366.294922 184.0
1367.111694 128.0
1367.177979 168.0
1367.693115 152.0
1368.907959 84.0
1369.106689 84.0
1369.695923 224.0
1370.012695 200.0
1370.071655 140.0
1370.344238 184.0
1370.550537 80.0
1370.764282 60.0
1371.287476 176.0
1371.416382 124.0
1371.552856 228.0
1371.914062 140.0
1372.717651 144.0
1376.082275 180.0
1376.702515 152.0
1376.805908 264.0
1377.222046 200.0
1378.623291 184.0
1379.872437 184.0
1380.04248 184.0
1380.182983 180.0
1380.560181 48.0
1380.789429 116.0
1381.129639 108.0
1381.469849 168.0
1381.603027 120.0
1381.79541 208.0
1383.364258 116.0
1383.423584 228.0
1383.615967 152.0
1384.000977 172.0
1384.479614 200.0
1385.230347 184.0
1385.65271 196.0
1386.445557 184.0
1387.483276 188.0
1388.855103 184.0
1389.263062 192.0
1390.375244 180.0
1390.836182 156.0
1391.133179 144.0
1391.87561 96.0
1392.321167 144.0
1392.959839 204.0
1393.413086 192.0
1394.245239 160.0
1395.598145 152.0
1397.431152 236.0
1399.065186 92.0
1399.288574 128.0
1399.91394 96.0
1400.025635 224.0
1401.120605 196.0
1401.353149 204.0
1402.491699 168.0
1403.214844 128.0
1403.811401 216.0
1403.953003 228.0
1404.87793 116.0
1404.982422 76.0
1406.721191 204.0
1407.669312 124.0
1407.758911 200.0
1408.214478 108.0
1410.119751 136.0
1410.261719 144.0
1410.568237 248.0
1410.687744 136.0
1411.151245 124.0
1411.285889 132.0
1413.941406 132.0
1414.308228 188.0
1414.704956 188.0
1415.086792 192.0
1415.251465 128.0
1415.38623 136.0
1417.303711 152.0
1418.120605 136.0
1419.39502 148.0
1420.737549 168.0
1421.150269 140.0
1422.463623 132.0
1423.356934 152.0
1423.634888 244.0
1423.702393 152.0
1425.618042 200.0
1425.805908 116.0
1425.986328 160.0
1426.685303 196.0
1427.732666 200.0
1427.835815 148.0
1428.114014 152.0
1428.71582 184.0
1428.888916 144.0
1429.468262 140.0
1429.709106 188.0
1429.821899 140.0
1430.085327 120.0
1430.619751 220.0
1431.238525 160.0
1431.530884 168.0
1432.109253 168.0
1432.683228 140.0
1432.848999 240.0
1432.935913 128.0
1433.225708 144.0
1433.457397 164.0
1433.514282 176.0
1434.650146 172.0
1435.746826 272.0
1436.588135 156.0
1436.663574 80.0
1437.599243 132.0
1437.79541 148.0
1437.863403 124.0
1438.112427 248.0
1439.034424 148.0
1439.380737 188.0
1439.713013 192.0
1439.841309 116.0
1440.740234 156.0
1440.793091 40.0
1441.125488 120.0
1441.473145 212.0
1441.526001 124.0
1441.752686 220.0
1443.930054 216.0
1444.966309 156.0
1445.019287 88.0
1445.50354 188.0
1445.579224 220.0
1446.56311 100.0
1446.782715 128.0
1447.445557 200.0
1447.988037 192.0
1448.312256 208.0
1448.797119 176.0
1448.971313 200.0
1449.585083 184.0
1450.562744 184.0
1450.919067 224.0
1451.078247 52.0
1451.275391 68.0
1451.472534 164.0
1451.654541 156.0
1451.957886 196.0
1452.799805 276.0
1453.11084 204.0
1453.406738 212.0
1453.763428 208.0
1454.415039 184.0
1454.590698 212.0
1455.577637 136.0
1455.752319 124.0
1455.828247 128.0
1455.964966 168.0
1456.709351 208.0
1457.10437 200.0
1457.423462 140.0
1457.993408 188.0
1458.494995 208.0
1458.95874 100.0
1459.384399 216.0
1459.734253 148.0
1460.220947 80.0
1460.35022 204.0
1460.441528 224.0
1460.502319 176.0
1460.961426 208.0
1462.100098 176.0
1463.082031 192.0
1463.158081 144.0
1465.100098 188.0
1465.732544 140.0
1465.984009 212.0
1466.258301 200.0
1466.418335 244.0
1466.692749 184.0
1466.807129 200.0
1467.637817 120.0
1467.65332 116.0
1468.751465 200.0
1469.163452 188.0
1469.414673 116.0
1470.727783 148.0
1471.420288 208.0
1472.659424 96.0
1472.88855 136.0
1473.064331 52.0
1474.080444 168.0
1475.257446 132.0
1475.800293 184.0
1475.869141 136.0
1476.626099 168.0
1477.008545 124.0
1477.360474 124.0
1477.620605 56.0
1478.332153 164.0
1478.956177 172.0
1479.020996 196.0
1479.748169 120.0
1479.932007 160.0
1480.13208 184.0
1480.429688 172.0
1480.559937 156.0
1480.881592 64.0
1481.00415 196.0
1481.501953 204.0
1482.03064 188.0
1482.758667 152.0
1483.226196 160.0
1485.588013 100.0
1485.833496 148.0
1486.063599 140.0
1486.125 116.0
1486.616089 192.0
1487.675293 76.0
1488.573608 184.0
1488.734863 168.0
1488.888428 180.0
1489.466553 152.0
1489.718018 156.0
1489.879272 176.0
1489.940796 176.0
1491.078003 68.0
1491.431519 196.0
1491.989746 188.0
1492.446289 172.0
1492.938477 276.0
1493.046143 200.0
1493.146118 200.0
1493.223022 156.0
1493.652344 176.0
1493.716919 184.0
1494.692383 56.0
1494.846191 132.0
1495.092529 168.0
1495.508057 92.0
1495.808228 184.0
1495.993042 200.0
1496.069946 124.0
1496.270142 36.0
1496.555054 184.0
1496.932373 160.0
1497.594604 116.0
1498.3573 204.0
1500.2146 168.0
1500.499756 156.0
1500.845093 184.0
1501.911011 108.0
1502.096069 192.0
1502.474121 124.0
1502.675293 168.0
1504.110107 220.0
