>compound MLS000728595-01!(12bS)-9,10-dimethoxy-1,2,3,4,6,7,12,12b-octahydroindolo[2,3-a]quinolizine
>formula C17H22N2O2
>ionization [M+H]+
>parentmass 287.1754043960905
#inchi InChI=1S/C17H22N2O2/c1-20-15-9-12-11-6-8-19-7-4-3-5-14(19)17(11)18-13(12)10-16(15)21-2/h9-10,14,18H,3-8H2,1-2H3/t14-/m0/s1
#inchikey AFVMSZFXJMRJFZ
#Ion_Source LC-ESI
#Instrument qTof
#Compound_Source NIH Natural Product Library
#PI Dorrestein
#Data_Collector VVP/LMS
#Scan -1
#Precursor_MZ 287.176
#ExactMass 286.168
#Charge 1
#CAS_Number N/A
#Pubmed_ID N/A
#Smiles COc1cc2[nH]c3[C@@H]4CCCCN4CCc3c2cc1OC
#INCHI_AUX N/A
#Library_Class 1
#SpectrumID CCMSLIB00000080597
#IonMode Positive
#UpdateWorkflowName UPDATE-SINGLE-ANNOTATED-GOLD
#LibraryQualityString Gold
#TaskID b1d8e8f6646f4e71acdff9ca3d919d08
##Scan# 1399
#SpectrumFile p2-C11_GC11_01_18011.mzXML
#LibraryName NIH_Natural_Products_Library.mgf
#MQScore -1
#Organism NIH_Natural_Products_Library
#TIC_Query 0
#RT_Query -1
#MZErrorPPM -1
#SharedPeaks 0
#MassDiff 0
#LibMZ -1
#SpecMZ 287.176
#SpecCharge 0
#internalFilename spec-00000.mgf

>collision 10
95.031273 144.0
95.0662 284.0
95.112778 88.0
95.190437 120.0
95.297264 156.0
95.326408 220.0
95.340012 116.0
95.493599 140.0
95.536392 208.0
95.600601 312.0
95.711555 52.0
95.855698 144.0
96.003853 172.0
96.029205 124.0
96.081299 772.0
96.126747 28.0
96.271202 176.0
96.296585 64.0
96.42749 176.0
96.447037 80.0
96.507637 124.0
96.634766 128.0
96.771088 172.0
96.810936 172.0
96.824638 92.0
96.873611 136.0
97.061752 120.0
97.082748 248.0
97.195137 160.0
97.254013 72.0
97.303085 188.0
97.464142 236.0
97.481827 168.0
97.700027 192.0
97.857513 176.0
97.893089 240.0
97.934311 96.0
98.056465 200.0
98.098557 372.0
98.151093 168.0
98.184616 128.0
98.291138 144.0
98.318764 204.0
98.439186 152.0
98.456955 144.0
98.644653 152.0
98.670357 124.0
98.705948 104.0
98.792969 84.0
98.84639 132.0
98.868156 168.0
98.988907 132.0
99.018616 168.0
99.074074 112.0
99.192978 224.0
99.254433 88.0
99.279015 212.0
99.348701 136.0
99.389313 208.0
99.417091 176.0
99.500458 124.0
99.56797 188.0
99.699089 136.0
99.758713 176.0
99.818359 96.0
99.864098 124.0
100.128799 72.0
100.162659 152.0
100.202507 132.0
100.246338 128.0
100.306129 108.0
100.324234 192.0
100.428947 188.0
100.45475 128.0
100.491592 180.0
100.523521 228.0
100.589378 204.0
100.89502 160.0
100.99556 244.0
101.069023 108.0
101.37339 124.0
101.469597 232.0
101.489754 152.0
101.628044 156.0
101.738426 44.0
101.909134 156.0
102.071945 104.0
102.192627 164.0
102.285202 100.0
102.341568 192.0
102.615578 168.0
102.635742 196.0
102.670021 380.0
102.766846 144.0
102.821327 152.0
102.843529 144.0
102.936394 100.0
103.054222 144.0
103.077797 144.0
103.100021 76.0
103.134384 120.0
103.310303 224.0
103.340652 168.0
103.449936 100.0
103.494476 64.0
103.569405 104.0
103.640305 196.0
103.666016 384.0
103.772049 180.0
103.932281 148.0
103.960693 76.0
103.978958 116.0
104.003456 224.0
104.047974 188.0
104.06218 112.0
104.094666 176.0
104.166809 192.0
104.234825 204.0
104.263275 124.0
104.299866 200.0
104.415756 140.0
104.517464 136.0
104.562233 124.0
104.639587 228.0
104.698639 128.0
104.802521 208.0
104.816788 108.0
105.059402 84.0
105.116531 44.0
105.173676 52.0
105.200211 64.0
105.273712 200.0
105.316116 184.0
105.323494 140.0
105.343155 96.0
105.398323 128.0
105.52095 108.0
105.545486 152.0
105.561844 184.0
105.5858 196.0
105.67141 156.0
105.729591 148.0
105.745964 100.0
105.885185 84.0
105.913857 80.0
106.004005 176.0
106.063408 488.0
106.081352 216.0
106.126297 284.0
106.295181 152.0
106.416283 68.0
106.516907 172.0
106.54567 184.0
106.646355 264.0
106.662804 284.0
106.701859 368.0
106.751205 140.0
106.788223 164.0
106.806732 104.0
107.000175 184.0
107.096954 144.0
107.123734 48.0
107.142273 220.0
107.208206 132.0
107.265915 88.0
107.327766 136.0
107.364883 148.0
107.383446 384.0
107.488655 148.0
107.620758 160.0
107.717819 160.0
107.854195 208.0
107.905876 156.0
107.920349 100.0
107.963074 236.0
108.045837 136.0
108.08168 180.0
108.121002 152.0
108.32267 236.0
108.431648 132.0
108.576775 192.0
108.591286 176.0
108.630699 172.0
109.093781 172.0
109.27565 124.0
109.343376 144.0
109.449547 132.0
109.503693 164.0
109.537018 248.0
109.649529 148.0
109.716225 68.0
109.743332 164.0
109.964447 188.0
110.056305 308.0
110.09967 204.0
110.127304 176.0
110.192062 160.0
110.288185 188.0
110.421234 132.0
110.59565 196.0
110.614494 196.0
110.652176 188.0
110.794586 144.0
110.872108 168.0
110.970627 232.0
111.073387 88.0
111.098557 156.0
111.159401 244.0
111.184586 168.0
111.216064 172.0
111.232857 184.0
111.323135 140.0
111.394547 156.0
111.482788 256.0
111.56897 140.0
111.682518 116.0
111.714073 112.0
111.739311 124.0
111.755653 188.0
111.829796 124.0
111.859268 172.0
112.074081 64.0
112.09304 120.0
112.268005 160.0
112.365036 168.0
112.40934 364.0
112.476875 128.0
112.502213 44.0
112.599335 148.0
112.658478 208.0
112.732086 148.0
112.774696 252.0
112.802666 208.0
112.84922 204.0
113.337608 132.0
113.401184 116.0
113.454178 108.0
113.566559 212.0
113.622299 116.0
113.68325 156.0
113.766022 132.0
113.793625 152.0
113.810608 64.0
113.840332 200.0
113.866882 224.0
113.892067 224.0
113.931664 144.0
113.999657 164.0
114.040039 224.0
114.103806 168.0
114.204041 116.0
114.320763 200.0
114.399513 260.0
114.500114 208.0
114.552834 216.0
114.706261 184.0
114.889648 216.0
114.91098 88.0
114.930183 120.0
115.055199 1136.0
115.406494 212.0
115.496307 188.0
115.524117 184.0
115.664902 164.0
115.673744 104.0
115.679535 280.0
115.721008 144.0
115.937347 196.0
115.984497 104.0
116.005936 176.0
116.056938 404.0
116.162476 184.0
116.212746 120.0
116.228981 44.0
116.250443 160.0
116.359909 144.0
116.417885 76.0
116.443649 156.0
116.514534 160.0
116.578995 200.0
116.680016 104.0
116.759575 160.0
116.828407 104.0
116.968277 144.0
116.996262 168.0
117.024452 172.0
117.0597 536.0
117.097466 192.0
117.136238 200.0
117.172859 152.0
117.241806 172.0
117.315094 404.0
117.450943 144.0
117.595497 172.0
117.625717 208.0
117.658096 168.0
117.820068 164.0
117.916199 188.0
117.964859 156.0
118.065262 928.0
118.109734 144.0
118.15258 208.0
118.243881 176.0
118.259026 72.0
118.308815 108.0
118.40625 112.0
118.501564 168.0
118.583908 180.0
118.605583 68.0
118.757355 172.0
118.794228 140.0
118.852806 156.0
118.870163 160.0
119.04615 288.0
119.07299 268.0
119.126358 136.0
119.215439 48.0
119.291512 144.0
119.330643 164.0
119.361084 160.0
119.391083 216.0
119.573044 192.0
119.61998 208.0
119.696175 152.0
119.778938 160.0
119.805077 252.0
119.844292 152.0
119.881332 160.0
119.898766 192.0
119.924919 144.0
119.962776 196.0
119.9925 160.0
120.040466 144.0
120.080048 364.0
120.127708 64.0
120.162613 44.0
120.238571 128.0
120.311012 100.0
120.398354 228.0
120.458382 192.0
120.514122 144.0
120.538162 92.0
120.815826 168.0
120.86396 152.0
120.8946 52.0
121.04126 184.0
121.065346 180.0
121.142006 140.0
121.21431 212.0
121.286629 200.0
121.312935 116.0
121.422562 76.0
121.525665 176.0
121.577179 168.0
121.844009 148.0
121.951683 156.0
121.994125 152.0
122.056404 176.0
122.151772 136.0
122.206772 160.0
122.358635 220.0
122.47496 184.0
122.517723 184.0
122.680275 136.0
122.702316 124.0
122.757439 140.0
122.810371 84.0
122.832428 232.0
122.854485 144.0
123.042068 324.0
123.128181 208.0
123.170525 140.0
123.274139 236.0
123.479584 116.0
123.503914 176.0
123.581467 204.0
123.729622 116.0
123.74733 188.0
123.813759 104.0
123.915657 112.0
124.004295 152.0
124.026459 224.0
124.163918 128.0
124.232681 104.0
124.390228 84.0
124.547882 180.0
124.685631 164.0
124.743034 184.0
124.830132 236.0
125.081535 64.0
125.099342 152.0
125.130508 152.0
125.272346 180.0
125.302002 184.0
125.317596 140.0
125.337646 148.0
125.471375 208.0
125.513733 200.0
125.712265 44.0
125.821632 104.0
125.886383 140.0
125.931046 96.0
126.065094 128.0
126.221565 136.0
126.255112 156.0
126.358002 216.0
126.458702 140.0
126.482796 204.0
126.597504 168.0
126.749825 120.0
126.868614 140.0
126.947083 152.0
127.056992 140.0
127.079422 220.0
127.132629 180.0
127.458878 156.0
127.564507 144.0
127.625214 380.0
127.640953 196.0
127.672432 168.0
127.964951 304.0
128.059891 100.0
128.113586 228.0
128.28035 152.0
128.368271 124.0
128.447205 188.0
128.526169 112.0
128.59613 248.0
128.78273 176.0
128.930374 184.0
128.966537 184.0
129.002701 152.0
129.023056 112.0
129.069031 332.0
129.158737 76.0
129.179092 60.0
129.218307 192.0
129.25148 180.0
129.294479 176.0
129.32843 160.0
129.398605 176.0
129.416718 156.0
129.505035 148.0
129.627365 84.0
129.702164 128.0
129.720291 140.0
129.838196 124.0
129.95842 120.0
130.040115 196.0
130.065643 1712.0
130.133179 124.0
130.154938 76.0
130.196762 156.0
130.29216 96.0
130.37851 164.0
130.680923 208.0
130.699127 136.0
130.762589 208.0
130.805557 236.0
130.892609 132.0
130.931046 168.0
131.048187 172.0
131.070831 1220.0
131.115494 204.0
131.266312 212.0
131.31192 140.0
131.419128 192.0
131.610855 248.0
131.655243 184.0
131.706772 160.0
131.832428 136.0
131.855286 176.0
131.887283 204.0
132.019882 168.0
132.045258 180.0
132.082184 1640.0
132.381454 80.0
132.452454 148.0
132.489105 156.0
132.525757 168.0
132.738922 140.0
132.864029 132.0
132.917847 196.0
132.972916 240.0
133.011932 244.0
133.05452 892.0
133.086105 536.0
133.106964 216.0
133.154282 40.0
133.227539 216.0
133.319702 160.0
133.407043 144.0
133.515671 160.0
133.940887 80.0
133.975449 116.0
134.063248 492.0
134.09874 348.0
134.159805 76.0
134.224365 76.0
134.431961 156.0
134.563538 168.0
134.604828 156.0
134.886948 88.0
134.928558 136.0
134.950668 236.0
135.007187 188.0
135.072235 128.0
135.332489 452.0
135.459579 216.0
135.590286 132.0
135.609116 188.0
135.685608 272.0
135.72966 52.0
135.820099 144.0
135.910583 144.0
136.012695 92.0
136.031555 136.0
136.053268 464.0
136.075363 260.0
136.096268 88.0
136.117157 144.0
136.147354 172.0
136.330307 196.0
136.461044 204.0
136.495926 104.0
136.537781 164.0
136.684326 184.0
136.819321 144.0
136.921768 120.0
137.024261 104.0
137.094162 164.0
137.322861 172.0
137.343628 112.0
137.731094 124.0
137.75679 136.0
137.784821 120.0
137.810516 140.0
137.94841 156.0
138.066513 180.0
138.11676 88.0
138.15419 184.0
138.203323 156.0
138.491257 168.0
138.577942 44.0
138.594345 132.0
138.664917 68.0
138.723236 36.0
138.758408 180.0
138.934296 52.0
138.960098 188.0
138.976517 204.0
139.053955 124.0
139.150208 216.0
139.251175 196.0
139.286407 208.0
139.322708 308.0
139.370987 52.0
139.709534 160.0
139.728348 124.0
139.749527 72.0
139.789536 100.0
139.820129 164.0
139.973129 180.0
140.015518 96.0
140.067337 188.0
140.135651 208.0
140.159225 32.0
140.187241 180.0
140.328918 220.0
140.392578 148.0
140.418533 188.0
140.444473 124.0
140.515244 152.0
140.581314 212.0
140.652115 60.0
140.67099 156.0
140.746536 160.0
140.803436 208.0
140.942596 112.0
141.070724 200.0
141.16951 140.0
141.204987 176.0
141.512604 48.0
141.775406 188.0
141.794495 140.0
142.066162 1156.0
142.152588 40.0
142.427979 116.0
142.515884 188.0
142.574249 156.0
142.652237 160.0
142.693909 172.0
142.743271 36.0
142.85585 212.0
142.891541 196.0
143.028992 184.0
143.073547 3600.0
143.155746 80.0
143.241486 124.0
143.342468 196.0
143.532242 56.0
143.615707 28.0
143.670563 216.0
143.694427 204.0
143.723053 152.0
143.873413 172.0
143.961761 188.0
143.999969 136.0
144.081039 1612.0
144.133743 264.0
144.169586 52.0
144.244003 180.0
144.27475 164.0
144.470856 192.0
144.588089 60.0
144.641464 176.0
144.743698 44.0
144.798767 128.0
144.822723 36.0
144.844284 100.0
145.019196 136.0
145.06546 1564.0
145.091675 304.0
145.250977 204.0
145.388535 100.0
145.431732 168.0
145.486938 156.0
145.527756 92.0
145.568954 180.0
145.587784 108.0
145.626205 116.0
145.667038 188.0
145.683853 168.0
145.707886 164.0
145.794388 164.0
145.94809 136.0
145.954529 128.0
145.963638 216.0
146.005219 176.0
146.033234 204.0
146.060638 8064.0
146.093842 908.0
146.147858 220.0
146.265778 108.0
146.362076 64.0
146.403412 120.0
146.453598 196.0
146.475266 120.0
146.527069 152.0
146.542465 188.0
146.731232 168.0
146.759644 180.0
146.84404 152.0
146.875397 112.0
146.91217 164.0
146.991196 176.0
147.010498 200.0
147.043884 352.0
147.067383 1796.0
147.10704 152.0
147.220856 144.0
147.384781 192.0
147.416199 152.0
147.476608 224.0
147.49353 176.0
147.64827 212.0
147.670044 148.0
147.711151 60.0
147.769211 172.0
147.800674 92.0
147.832123 140.0
147.977356 172.0
147.994308 180.0
148.020935 216.0
148.040314 160.0
148.075531 1156.0
148.146881 144.0
148.190491 56.0
148.269043 132.0
148.311661 256.0
148.545273 116.0
148.660889 204.0
148.716232 184.0
148.978958 180.0
149.044556 140.0
149.081863 376.0
149.146622 180.0
149.168503 64.0
149.217117 220.0
149.256439 164.0
149.326538 72.0
149.472504 104.0
149.545303 192.0
149.784332 184.0
149.879135 148.0
149.96199 156.0
150.01149 92.0
150.281448 136.0
150.31073 108.0
150.466934 172.0
150.484024 208.0
150.523087 212.0
150.58902 136.0
150.786926 136.0
150.987396 112.0
151.06781 160.0
151.185547 80.0
151.334869 164.0
151.535706 52.0
151.626373 220.0
151.79306 124.0
151.869095 216.0
151.981384 216.0
152.05719 192.0
152.342834 180.0
152.382141 144.0
152.411621 140.0
152.458313 28.0
152.500092 248.0
152.517303 64.0
152.598419 128.0
152.718918 84.0
152.809937 160.0
152.849304 164.0
152.866531 208.0
153.087097 372.0
153.132401 64.0
153.272827 260.0
153.44165 136.0
153.487259 156.0
153.590851 124.0
153.611511 152.0
153.780823 180.0
153.922211 208.0
154.067642 584.0
154.092209 184.0
154.334183 136.0
154.405899 192.0
154.64093 172.0
154.702805 172.0
154.732513 204.0
154.950455 112.0
155.048325 404.0
155.066223 192.0
155.072922 152.0
155.163589 104.0
155.213181 132.0
155.384323 148.0
155.456284 156.0
155.577896 180.0
155.647415 172.0
155.759171 244.0
155.856064 140.0
155.911652 240.0
156.042465 328.0
156.081039 320.0
156.112091 228.0
156.189194 124.0
156.218292 188.0
156.316071 212.0
156.659653 188.0
156.799179 212.0
156.991135 204.0
157.050064 364.0
157.0858 348.0
157.111938 176.0
157.190704 240.0
157.325485 140.0
157.352936 152.0
157.560226 148.0
157.755157 180.0
157.807648 120.0
157.907684 160.0
157.995224 200.0
158.022751 120.0
158.061127 12624.0
158.145355 56.0
158.226883 92.0
158.278046 164.0
158.303085 172.0
158.35495 192.0
158.398254 136.0
158.418289 40.0
158.438339 136.0
158.483429 156.0
158.543564 132.0
158.598709 48.0
158.628784 88.0
158.71312 232.0
158.829391 160.0
158.869522 108.0
158.934235 160.0
158.958694 52.0
159.012543 216.0
159.067627 5396.0
159.102158 80.0
159.227463 224.0
159.359085 128.0
159.396774 48.0
159.41687 188.0
159.46965 196.0
159.538788 220.0
159.557632 196.0
159.676834 156.0
159.703476 56.0
159.748032 196.0
159.889648 140.0
159.937469 140.0
159.97084 188.0
160.01709 248.0
160.046509 376.0
160.076782 39476.0
160.13179 112.0
160.160461 120.0
160.201202 76.0
160.251099 148.0
160.315247 132.0
160.344315 120.0
160.427094 180.0
160.444946 176.0
160.491943 40.0
160.526993 96.0
160.585007 136.0
160.602661 200.0
160.653442 140.0
160.74646 64.0
160.791885 148.0
160.809555 132.0
160.85936 112.0
160.946732 200.0
160.981216 48.0
161.009003 112.0
161.050812 208.0
161.081619 6380.0
161.147919 52.0
161.191833 224.0
161.256592 256.0
161.294495 176.0
161.410797 80.0
161.455399 100.0
161.51828 128.0
161.537247 52.0
161.757401 56.0
161.808029 156.0
161.899185 112.0
162.008087 172.0
162.058029 508.0
162.089279 292.0
162.144913 128.0
162.165741 176.0
162.212769 140.0
162.253525 80.0
162.276733 120.0
162.335052 60.0
162.428894 144.0
162.464401 272.0
162.494843 232.0
162.532898 132.0
162.558273 136.0
162.576035 128.0
162.624268 64.0
162.642029 104.0
162.669952 52.0
162.748657 192.0
163.02298 132.0
163.063644 140.0
163.23143 180.0
163.330612 100.0
163.36113 108.0
163.613068 96.0
163.641083 80.0
163.686905 112.0
163.824448 56.0
163.949295 40.0
164.089478 184.0
164.199127 216.0
164.247589 164.0
164.377701 268.0
164.41597 132.0
164.433838 140.0
164.472122 112.0
164.51297 120.0
164.755569 104.0
164.867996 140.0
164.88588 236.0
164.995804 108.0
165.075195 316.0
165.123642 172.0
165.200378 220.0
165.240967 180.0
165.446045 124.0
165.561264 164.0
165.932816 60.0
166.009735 104.0
166.067917 360.0
166.086288 756.0
166.132843 224.0
166.15593 84.0
166.661713 148.0
166.720825 96.0
166.761948 100.0
166.872482 156.0
166.947632 176.0
167.011765 172.0
167.074417 496.0
167.358749 268.0
167.466904 132.0
167.508118 120.0
167.536453 144.0
167.585403 68.0
167.706528 112.0
167.763229 104.0
167.796753 380.0
167.856049 112.0
167.961792 40.0
168.060226 180.0
168.08075 760.0
168.137238 92.0
168.165619 48.0
168.212082 164.0
168.254272 140.0
168.408325 40.0
168.529739 192.0
168.581421 148.0
168.62793 100.0
168.777863 132.0
168.819244 128.0
169.063293 548.0
169.089569 672.0
169.11676 88.0
169.155579 76.0
169.25914 84.0
169.344604 244.0
169.414536 176.0
169.46376 156.0
169.850021 120.0
170.01088 196.0
170.062271 1452.0
170.095596 536.0
170.213364 212.0
170.255798 104.0
170.32579 192.0
170.480911 104.0
170.761688 180.0
170.785095 140.0
170.956802 216.0
170.9767 248.0
171.014053 208.0
171.032272 120.0
171.069473 2664.0
171.106216 436.0
171.193695 184.0
171.258804 136.0
171.316101 184.0
171.488083 84.0
171.519363 152.0
171.691437 96.0
171.827072 172.0
172.043152 416.0
172.075623 2744.0
172.111557 372.0
172.182068 100.0
172.263443 156.0
172.296997 72.0
172.474686 160.0
172.626328 108.0
172.662933 132.0
172.714401 136.0
172.747879 160.0
172.797318 32.0
172.835587 124.0
172.874832 212.0
172.979523 100.0
173.050934 360.0
173.084854 29628.0
173.135956 172.0
173.204712 36.0
173.257111 112.0
173.340942 92.0
173.364212 196.0
173.395706 76.0
173.412811 104.0
173.42363 80.0
173.433884 148.0
173.466751 136.0
173.486847 144.0
173.540161 148.0
173.566376 48.0
173.601181 248.0
173.617279 116.0
173.650803 208.0
173.730988 68.0
173.778824 72.0
173.836548 44.0
173.920532 152.0
173.940384 100.0
173.980484 396.0
174.05603 7180.0
174.088898 4664.0
174.130768 160.0
174.164917 56.0
174.251404 228.0
174.278992 160.0
174.309219 48.0
174.33812 224.0
174.374908 64.0
174.422684 208.0
174.451141 160.0
174.506348 48.0
174.543152 36.0
174.574707 76.0
174.616791 80.0
174.643097 148.0
174.722 168.0
174.812775 72.0
174.845673 180.0
174.964127 64.0
175.062531 2736.0
175.097504 1256.0
175.166885 220.0
175.213928 84.0
175.29335 84.0
175.340271 112.0
175.374954 204.0
175.406677 36.0
175.522675 128.0
175.543777 108.0
175.573608 148.0
175.68277 200.0
175.709946 60.0
175.783829 88.0
175.87355 152.0
175.955383 68.0
176.070938 2644.0
176.09819 160.0
176.106613 328.0
176.253647 112.0
176.282898 224.0
176.444138 56.0
176.462646 128.0
176.523209 152.0
176.560471 92.0
176.597504 76.0
176.616013 192.0
176.634537 56.0
176.724487 176.0
176.915024 176.0
176.952087 140.0
177.036819 116.0
177.078262 2212.0
177.245636 140.0
177.381256 32.0
177.452072 192.0
177.4767 100.0
177.516464 52.0
177.550934 160.0
177.569504 96.0
177.601334 108.0
177.680908 48.0
177.718063 184.0
177.967545 44.0
178.023315 136.0
178.082184 120.0
178.529037 144.0
178.621307 196.0
178.722397 148.0
178.778275 56.0
178.980591 172.0
179.073792 136.0
179.09639 124.0
179.238953 160.0
179.26561 188.0
179.318909 40.0
179.710892 56.0
179.836319 140.0
179.854996 272.0
180.074051 184.0
180.101913 256.0
180.175446 244.0
180.440018 132.0
180.833237 168.0
180.876068 220.0
181.087357 384.0
181.3582 48.0
181.379166 180.0
181.419846 184.0
181.596817 196.0
181.964447 180.0
182.060669 792.0
182.094391 340.0
182.359314 136.0
182.53009 160.0
182.595917 232.0
182.628189 112.0
182.727722 80.0
182.811127 152.0
182.878403 132.0
182.95108 152.0
183.06839 1332.0
183.109955 236.0
183.201538 40.0
183.26889 124.0
183.317383 188.0
183.487198 84.0
183.521194 152.0
183.638199 84.0
183.662476 172.0
183.829742 124.0
183.878311 188.0
183.913406 176.0
183.972794 212.0
184.075516 3380.0
184.112061 404.0
184.140198 48.0
184.207718 116.0
184.353622 192.0
184.513092 68.0
184.567169 48.0
184.596909 108.0
184.615845 236.0
184.702393 56.0
184.761902 216.0
184.824127 228.0
184.910721 224.0
185.039825 144.0
185.081223 912.0
185.112854 176.0
185.118744 320.0
185.436142 68.0
185.544556 96.0
185.619431 156.0
185.704544 120.0
185.833511 208.0
185.875458 108.0
185.918869 212.0
185.954727 172.0
186.010361 220.0
186.054398 664.0
186.092957 4264.0
186.125183 156.0
186.179489 104.0
186.209366 184.0
186.307144 104.0
186.375076 32.0
186.4729 160.0
186.505508 144.0
186.671356 172.0
186.723434 160.0
187.064117 348.0
187.097717 804.0
187.137482 184.0
187.417175 108.0
187.537079 68.0
187.564331 168.0
187.591599 196.0
187.692474 44.0
187.748657 160.0
187.839737 56.0
187.913391 160.0
187.933792 208.0
188.018021 140.0
188.071884 15564.0
188.157135 80.0
188.183411 60.0
188.205429 56.0
188.24585 120.0
188.295547 152.0
188.327057 156.0
188.358932 196.0
188.383789 92.0
188.41301 108.0
188.451248 60.0
188.555084 104.0
188.585159 52.0
188.607025 136.0
188.812073 96.0
188.833954 88.0
188.877716 124.0
188.909058 76.0
188.939163 232.0
188.984406 108.0
189.006302 168.0
189.07901 21480.0
189.15004 92.0
189.209747 72.0
189.236206 72.0
189.282761 64.0
189.321091 60.0
189.358551 112.0
189.425171 60.0
189.447083 88.0
189.502365 68.0
189.537491 76.0
189.579147 80.0
189.671783 116.0
189.72113 260.0
189.754028 148.0
189.792404 204.0
189.833542 168.0
189.907578 92.0
189.926788 120.0
189.954208 120.0
189.981644 208.0
190.052567 152.0
190.084854 4276.0
190.138046 60.0
190.16568 56.0
190.206665 80.0
190.25882 68.0
190.297729 184.0
190.327454 128.0
190.363403 88.0
190.404343 36.0
190.504303 132.0
190.527267 152.0
190.642563 140.0
190.68457 260.0
190.899002 48.0
190.923752 132.0
190.970505 80.0
191.093063 1772.0
191.149323 76.0
191.192474 112.0
191.253906 68.0
191.35025 204.0
191.397049 56.0
191.441971 140.0
191.527802 92.0
191.549957 92.0
191.613754 84.0
191.653214 100.0
191.678009 152.0
191.796509 160.0
191.815811 96.0
192.069489 216.0
192.101944 1568.0
192.243301 136.0
192.425476 124.0
192.635361 136.0
192.665741 36.0
192.697876 116.0
192.814957 136.0
192.922745 224.0
192.96698 156.0
193.096268 164.0
193.202057 60.0
193.376389 144.0
193.531403 72.0
193.586777 196.0
193.669861 136.0
193.75296 176.0
194.097916 332.0
194.16597 188.0
194.232529 200.0
194.263046 104.0
194.310211 72.0
194.332413 112.0
194.421204 36.0
194.53334 160.0
194.576645 48.0
194.857147 128.0
194.904373 116.0
194.951614 152.0
195.068481 236.0
195.099045 292.0
195.119064 180.0
195.474396 208.0
195.578644 192.0
195.705429 220.0
195.783386 72.0
195.933807 64.0
195.967239 80.0
195.98674 136.0
196.020172 128.0
196.076904 496.0
196.112198 352.0
196.241058 160.0
196.29335 104.0
196.480118 108.0
196.519287 80.0
196.541595 252.0
196.597412 200.0
196.62532 116.0
196.686722 108.0
196.80397 52.0
196.843063 124.0
197.010635 212.0
197.055344 184.0
197.084213 964.0
197.124954 152.0
197.264938 124.0
197.452515 140.0
197.490173 152.0
197.61171 160.0
197.734833 212.0
197.768417 156.0
197.905594 132.0
198.051758 208.0
198.09259 4304.0
198.147705 72.0
198.656677 188.0
198.833435 120.0
199.001862 68.0
199.063629 68.0
199.098099 2340.0
199.263062 124.0
199.293961 72.0
199.333298 52.0
199.381073 88.0
199.417603 88.0
199.456955 104.0
199.521622 272.0
199.754288 92.0
199.830978 52.0
199.856293 152.0
199.921021 196.0
200.071442 2948.0
200.106476 2256.0
200.199707 208.0
200.343353 100.0
200.388428 100.0
200.729492 80.0
200.750397 48.0
200.859222 44.0
200.893066 100.0
200.912811 128.0
200.949493 168.0
201.017212 36.0
201.077057 1004.0
201.112152 1376.0
201.141388 124.0
201.183731 40.0
201.463745 128.0
201.590439 88.0
201.661102 52.0
201.723282 68.0
201.7883 196.0
201.861816 168.0
201.91272 132.0
202.034348 180.0
202.086609 4600.0
202.130539 180.0
202.161667 84.0
202.184311 76.0
202.243744 60.0
202.269211 132.0
202.33432 48.0
202.379623 176.0
202.495728 148.0
202.531479 96.0
202.580704 168.0
202.730865 212.0
202.7677 128.0
202.805054 160.0
202.87825 256.0
202.916733 160.0
203.09288 2140.0
203.161835 44.0
203.184525 196.0
203.227798 144.0
203.258301 32.0
203.31221 124.0
203.363297 140.0
203.418518 72.0
203.459198 112.0
203.547821 148.0
203.586182 152.0
203.625259 160.0
203.643814 100.0
203.689819 176.0
203.769363 184.0
203.799316 140.0
203.868958 156.0
203.949585 76.0
203.972122 208.0
204.00592 152.0
204.013138 36.0
204.062408 420.0
204.103439 77992.0
204.175919 144.0
204.242142 44.0
204.282089 68.0
204.313324 72.0
204.334656 192.0
204.402267 128.0
204.454834 120.0
204.496185 56.0
204.537186 52.0
204.570999 156.0
204.618042 80.0
204.627869 56.0
204.638763 176.0
204.676682 160.0
204.701553 136.0
204.747864 40.0
204.776352 64.0
204.817795 80.0
204.88446 140.0
204.938721 100.0
204.966583 112.0
204.988739 364.0
205.034866 108.0
205.057343 176.0
205.105759 8560.0
205.153961 76.0
205.192612 100.0
205.247299 92.0
205.287872 128.0
205.350693 60.0
205.391998 36.0
205.571732 40.0
205.614532 44.0
205.712784 104.0
205.734421 52.0
205.761963 124.0
205.799149 204.0
205.848633 56.0
205.871475 56.0
205.914307 76.0
205.937149 68.0
206.028564 36.0
206.054276 48.0
206.110458 1484.0
206.170944 236.0
206.201401 80.0
206.254303 36.0
206.340302 100.0
206.430511 120.0
206.4646 132.0
206.537384 40.0
206.589584 148.0
206.613251 100.0
206.726212 52.0
206.809204 92.0
207.023926 88.0
207.078339 172.0
207.104111 368.0
207.129883 116.0
207.267395 92.0
207.419296 52.0
207.58844 128.0
207.625732 132.0
207.66301 104.0
207.723236 164.0
207.749054 92.0
208.076218 68.0
208.115387 112.0
208.297333 96.0
208.334686 116.0
208.527206 88.0
208.587555 92.0
208.834839 108.0
209.079712 172.0
209.117493 456.0
209.689072 148.0
209.805222 76.0
209.909027 132.0
209.932098 160.0
210.092712 888.0
210.177277 160.0
210.211899 196.0
210.38797 96.0
210.56987 48.0
210.705643 52.0
210.879013 104.0
211.03511 128.0
211.099243 1052.0
211.335907 168.0
211.370636 124.0
211.619553 56.0
211.723801 176.0
211.746964 36.0
211.896194 192.0
211.999008 108.0
212.076111 500.0
212.106583 4264.0
212.373001 36.0
212.651535 76.0
213.077499 564.0
213.114059 1188.0
213.232391 64.0
213.302139 40.0
213.392273 80.0
213.444595 80.0
213.531845 192.0
213.632843 116.0
213.811127 176.0
213.962494 128.0
214.036499 240.0
214.087234 3268.0
214.123856 2668.0
214.279938 84.0
214.326553 76.0
214.492676 44.0
214.81926 124.0
214.871765 140.0
215.055603 72.0
215.092926 3252.0
215.126434 740.0
215.408905 72.0
215.566681 80.0
215.666962 152.0
215.695267 128.0
215.727432 68.0
215.753738 96.0
216.005219 60.0
216.043259 120.0
216.100876 552.0
216.139954 212.0
216.426651 184.0
216.757629 92.0
216.789871 72.0
216.813309 116.0
216.975616 108.0
217.015564 64.0
217.110306 2088.0
217.165131 64.0
217.217926 56.0
217.276596 32.0
217.581802 112.0
217.651016 84.0
217.710709 80.0
217.754517 44.0
217.804977 72.0
217.847031 64.0
217.904861 60.0
217.943054 92.0
218.01358 48.0
218.066483 32.0
218.118057 2256.0
218.275208 64.0
218.581116 124.0
219.123032 136.0
219.382217 48.0
219.479507 108.0
219.550278 68.0
219.839371 76.0
219.862991 48.0
220.03714 104.0
220.255661 60.0
220.924988 176.0
221.486145 104.0
221.717239 168.0
222.094391 620.0
222.36673 48.0
222.607193 56.0
223.093781 408.0
223.156876 128.0
223.403717 72.0
223.495956 100.0
223.835281 120.0
224.075165 176.0
224.109024 2000.0
224.159958 32.0
224.687698 76.0
224.86972 132.0
224.992096 132.0
225.021957 84.0
225.071579 208.0
225.114258 512.0
225.467026 200.0
225.556686 148.0
225.92749 100.0
226.088303 1156.0
226.123749 1636.0
226.211777 152.0
226.43634 236.0
226.52919 108.0
226.571121 176.0
226.631042 108.0
226.678986 160.0
226.85582 172.0
226.909775 132.0
227.044708 184.0
227.093445 568.0
227.130722 2648.0
227.508621 184.0
227.894211 140.0
227.957306 328.0
228.102036 4640.0
228.132324 624.0
228.170715 72.0
228.286972 84.0
228.358597 76.0
228.4534 76.0
228.537628 140.0
229.034348 72.0
229.109161 1196.0
229.157867 52.0
229.254288 136.0
229.332642 56.0
229.368805 60.0
229.392929 44.0
229.455841 92.0
229.50145 116.0
229.64621 144.0
229.733673 112.0
229.781952 84.0
229.893585 60.0
229.920746 160.0
229.972061 184.0
230.060211 136.0
230.117828 6364.0
230.189423 48.0
230.234711 84.0
230.273972 76.0
230.684906 108.0
230.75444 96.0
230.856232 36.0
230.920746 132.0
231.050812 52.0
231.118378 1028.0
231.235397 68.0
231.326202 160.0
231.353439 72.0
231.483643 96.0
231.509766 108.0
231.577515 140.0
231.75322 92.0
231.813812 116.0
232.004761 184.0
232.127075 916.0
232.450607 80.0
233.060928 48.0
233.129257 152.0
233.708557 108.0
234.588715 108.0
234.811447 80.0
235.607971 92.0
235.873825 200.0
236.21936 160.0
236.353973 64.0
236.834595 68.0
237.116013 216.0
237.367844 60.0
237.410782 184.0
237.855652 44.0
237.944672 132.0
238.052139 136.0
238.088913 176.0
238.122589 140.0
239.133148 1508.0
239.278946 188.0
239.343613 96.0
239.365158 92.0
239.94133 132.0
240.100937 1492.0
240.135361 164.0
240.16127 268.0
240.549042 140.0
240.836212 72.0
241.030838 168.0
241.112946 956.0
241.240997 164.0
241.284271 84.0
241.315186 120.0
241.389404 100.0
241.602814 64.0
242.117386 3948.0
242.185989 100.0
242.228119 136.0
242.249802 60.0
242.348938 76.0
242.488388 80.0
242.634079 36.0
242.770493 100.0
242.795303 72.0
242.882156 212.0
243.126053 2460.0
243.158722 408.0
243.260712 84.0
243.471848 84.0
243.509109 92.0
243.565018 60.0
243.608505 80.0
243.800827 80.0
243.937897 112.0
244.003174 144.0
244.135117 4568.0
244.438614 60.0
244.482422 52.0
244.616013 80.0
244.942978 60.0
244.983475 136.0
245.134369 484.0
245.313782 92.0
245.653687 84.0
245.700485 72.0
245.781601 72.0
245.915787 64.0
246.145721 184.0
246.258011 76.0
246.421661 84.0
246.883163 112.0
247.130829 180.0
247.600922 44.0
248.321747 184.0
250.122116 164.0
250.72998 116.0
251.042068 200.0
251.673157 52.0
251.81842 48.0
252.826935 80.0
252.915543 72.0
252.972519 212.0
253.13176 148.0
253.336685 76.0
253.367188 96.0
253.510956 120.0
254.117966 992.0
254.773743 80.0
254.948502 140.0
255.12442 1136.0
256.131317 780.0
256.323181 64.0
256.386932 68.0
256.635559 32.0
256.661072 56.0
256.731232 140.0
257.136658 620.0
257.254486 100.0
257.423676 36.0
257.452423 64.0
257.545044 168.0
257.573792 132.0
257.870178 136.0
257.973236 144.0
258.039581 100.0
258.091522 140.0
258.14975 12272.0
258.235413 64.0
258.270172 116.0
258.379364 72.0
258.440155 52.0
258.463715 84.0
258.49881 144.0
258.604858 36.0
258.686584 36.0
258.779419 56.0
258.955536 128.0
258.997162 52.0
259.045227 144.0
259.1539 1940.0
259.208618 60.0
259.234253 88.0
259.428711 60.0
259.634979 96.0
259.660614 156.0
259.731201 88.0
260.154907 380.0
260.289612 64.0
260.516174 72.0
260.594727 100.0
260.652435 100.0
260.790771 104.0
260.851837 120.0
260.93219 76.0
261.031158 92.0
261.054382 144.0
261.997437 80.0
262.210083 68.0
262.43573 116.0
262.54538 124.0
262.897003 76.0
263.035797 92.0
263.833679 64.0
265.601715 128.0
266.530212 36.0
268.933563 196.0
268.979248 176.0
269.123077 148.0
269.429901 112.0
270.151367 3736.0
270.754608 96.0
270.967529 80.0
271.14801 920.0
271.990662 40.0
272.148102 376.0
272.811859 144.0
272.88092 168.0
272.910492 108.0
273.071625 112.0
273.107819 140.0
273.15387 116.0
273.367706 112.0
273.634308 132.0
274.125092 60.0
276.102478 96.0
278.156677 40.0
278.355896 120.0
278.880768 144.0
280.091187 92.0
280.548431 84.0
280.895233 152.0
283.855072 100.0
284.633545 100.0
285.159363 204.0
286.062378 48.0
286.540588 156.0
287.177917 1756.0
287.245148 148.0
287.602814 68.0
287.764862 132.0
287.818878 36.0
288.031647 176.0
288.17807 388.0
288.241089 56.0
289.482513 88.0
290.360229 96.0
290.516266 140.0
291.069489 76.0
293.788849 92.0
294.89859 52.0
298.646057 84.0
299.231049 72.0
300.168243 92.0
300.467285 68.0
300.578705 92.0
306.574341 136.0
306.630096 116.0
317.699402 48.0
318.881805 40.0
324.866241 108.0
326.651581 68.0
328.146057 52.0
332.504852 72.0
332.82431 68.0
332.958679 52.0
339.128143 128.0
341.415375 80.0
344.012909 68.0
344.807037 116.0
353.19873 72.0
360.405487 132.0
362.282013 72.0
362.695038 32.0
363.123474 80.0
365.189575 80.0
365.707031 72.0
366.224823 108.0
366.323853 80.0
370.568207 84.0
372.325012 52.0
373.051178 92.0
373.131897 60.0
378.189087 60.0
381.637756 60.0
386.431183 132.0
386.489868 76.0
386.634644 124.0
389.049103 100.0
391.67981 88.0
393.039886 112.0
394.615814 64.0
397.201782 60.0
398.821777 52.0
398.901276 128.0
401.465332 72.0
402.822327 56.0
409.448334 112.0
418.287018 100.0
418.893738 132.0
424.656982 132.0
426.849945 28.0
433.069122 60.0
433.425385 80.0
444.949463 68.0
445.600433 56.0
445.713867 48.0
452.792419 92.0
453.271088 92.0
456.926758 84.0
457.624725 52.0
461.558655 100.0
463.283417 124.0
466.076385 68.0
472.033386 80.0
473.646118 56.0
474.484009 112.0
484.726654 48.0
486.884918 48.0
490.096069 88.0
490.576447 60.0
497.992432 44.0
504.283417 120.0
512.509033 80.0
514.394165 80.0
518.585388 80.0
528.116577 100.0
532.259399 116.0
548.027466 116.0
549.528748 172.0
559.167664 64.0
559.534851 164.0
564.687622 136.0
568.980652 68.0
571.756531 88.0
573.952515 44.0
581.851624 72.0
584.249695 60.0
586.850403 40.0
595.041382 52.0
595.250122 120.0
595.439514 76.0
604.609741 48.0
614.101501 68.0
616.62439 80.0
617.158264 80.0
619.281189 144.0
629.595886 84.0
631.995239 100.0
633.311829 52.0
634.048279 112.0
635.607849 80.0
641.819763 80.0
663.007446 132.0
669.480225 228.0
694.793091 144.0
700.523804 60.0
707.235046 88.0
711.969421 132.0
715.69165 72.0
719.829346 184.0
724.048584 52.0
762.038025 108.0
769.677368 80.0
771.594543 108.0
775.075806 116.0
780.84906 104.0
781.238403 136.0
828.739685 152.0
829.249695 192.0
831.394531 144.0
849.737793 64.0
854.397095 32.0
872.267822 100.0
874.332214 104.0
875.756958 68.0
878.981628 32.0
883.530945 160.0
898.483887 128.0
901.684326 164.0
905.752808 176.0
907.136963 180.0
914.356506 120.0
921.507996 124.0
923.932251 180.0
926.099304 92.0
931.333557 140.0
934.975342 168.0
944.309509 112.0
951.86554 152.0
963.852173 152.0
964.995605 192.0
966.609924 156.0
968.739685 216.0
971.870422 228.0
982.172302 188.0
988.432068 172.0
995.220215 180.0
997.048096 108.0
1001.899292 100.0
1007.621216 184.0
1011.687561 80.0
1014.436768 160.0
1017.177063 212.0
1019.330017 228.0
1023.6427 184.0
1025.789795 72.0
1027.983643 72.0
1037.693115 196.0
1039.450439 160.0
1053.679565 140.0
1056.808716 160.0
1060.136963 128.0
1062.59436 156.0
1068.129028 144.0
1069.996704 56.0
1072.256836 60.0
1072.30249 148.0
1078.934204 120.0
1082.729248 104.0
1088.861084 156.0
1092.055176 252.0
1093.97644 176.0
1095.438354 44.0
1099.631836 176.0
1101.170044 60.0
1104.421875 172.0
1104.838501 120.0
1105.367798 204.0
1105.480347 156.0
1108.870972 120.0
1109.865356 116.0
1111.205078 152.0
1111.782349 100.0
1112.857666 132.0
1114.239014 88.0
1115.455078 172.0
1122.938965 80.0
1123.65271 56.0
1123.706055 120.0
1125.748535 216.0
1126.770386 136.0
1127.124512 92.0
1128.488037 204.0
1129.256958 180.0
1132.181641 124.0
1135.109985 204.0
1142.107666 96.0
1142.470947 172.0
1145.863892 196.0
1151.050537 204.0
1152.617676 176.0
1154.415649 192.0
1161.879639 120.0
1163.325073 212.0
1168.673462 204.0
1169.626221 184.0
1173.959229 160.0
1177.576172 168.0
1193.955566 116.0
1199.174072 136.0
1199.670288 124.0
1201.477051 136.0
1202.415405 100.0
1207.265015 104.0
1208.572388 224.0
1208.641602 128.0
1213.101562 204.0
1214.516113 156.0
1214.855957 224.0
1215.140381 144.0
1216.896362 172.0
1217.27124 160.0
1223.347656 148.0
1223.549561 48.0
1223.883789 172.0
1225.966431 204.0
1228.943848 100.0
1229.837036 196.0
1234.168213 76.0
1236.546631 72.0
1237.183594 144.0
1237.379517 220.0
1238.044678 164.0
1238.429932 216.0
1240.356689 176.0
1240.735229 160.0
1241.177002 168.0
1245.443726 188.0
1247.88916 160.0
1250.28772 176.0
1254.450317 172.0
1254.71106 212.0
1262.95166 80.0
1264.557739 128.0
1265.803711 208.0
1266.341919 108.0
1266.589722 124.0
1267.581543 108.0
1268.921143 156.0
1270.332397 124.0
1270.906982 160.0
1271.013428 132.0
1271.112793 120.0
1275.579956 172.0
1275.757568 68.0
1277.613647 128.0
1278.816162 96.0
1279.10083 136.0
1280.23999 92.0
1282.020874 128.0
1285.586426 140.0
1289.62146 144.0
1289.864502 100.0
1290.836792 124.0
1291.215698 224.0
1292.302979 88.0
1292.682251 152.0
1292.746704 104.0
1293.104492 216.0
1294.987427 188.0
1295.173584 44.0
1295.689331 188.0
1296.635132 148.0
1299.876465 160.0
1300.974609 60.0
1301.656616 148.0
1303.495483 108.0
1307.925537 116.0
1308.343018 188.0
1308.551758 152.0
1309.617554 264.0
1313.228394 164.0
1313.372681 108.0
1313.52417 96.0
1314.47644 216.0
1315.797241 140.0
1316.266602 52.0
1316.38208 132.0
1320.580811 192.0
1322.89624 112.0
1323.974976 112.0
1326.235352 124.0
1326.380371 192.0
1326.554321 32.0
1328.635498 108.0
1330.427979 128.0
1330.907104 88.0
1331.873047 160.0
1333.296997 144.0
1333.842041 172.0
1336.889404 32.0
1337.166748 172.0
1337.922974 96.0
1338.840332 304.0
1340.027588 144.0
1340.829102 196.0
1340.916626 172.0
1342.899658 184.0
1343.351929 132.0
1343.950073 152.0
1344.438965 148.0
1344.979004 136.0
1345.869629 264.0
1348.397095 64.0
1353.473877 184.0
1354.521118 180.0
1354.872681 96.0
1354.92395 80.0
1355.356201 156.0
1356.800049 208.0
1357.23999 40.0
1357.819214 208.0
1360.930542 216.0
1362.105469 176.0
1363.508789 132.0
1366.369141 152.0
1367.355103 188.0
1368.88623 208.0
1370.462524 76.0
1370.587769 188.0
1370.639404 180.0
1370.897217 140.0
1371.649048 156.0
1373.780029 328.0
1374.222656 116.0
1375.012207 208.0
1376.156372 124.0
1376.685669 232.0
1377.943604 164.0
1378.172729 160.0
1379.00769 156.0
1381.418091 188.0
1382.365112 124.0
1383.156982 144.0
1384.911743 192.0
1385.245117 160.0
1386.571289 144.0
1387.505249 92.0
1387.638672 184.0
1387.757324 204.0
1387.987183 204.0
1388.231934 164.0
1389.121948 80.0
1390.108643 180.0
1390.962158 180.0
1391.110596 184.0
1392.380249 188.0
1393.657837 160.0
1393.724731 128.0
1393.836182 144.0
1394.341431 144.0
1395.597656 200.0
1395.709229 176.0
1400.345337 72.0
1401.298706 156.0
1404.447266 144.0
1404.660767 152.0
1404.787598 104.0
1405.153198 204.0
1405.899292 148.0
1406.041138 136.0
1406.227661 132.0
1406.279907 108.0
1407.646118 156.0
1407.88501 212.0
1409.782471 52.0
1409.87207 136.0
1411.427979 140.0
1412.376709 136.0
1413.356689 176.0
1414.202271 216.0
1414.771118 212.0
1415.108032 216.0
1415.474976 104.0
1415.7146 156.0
1416.073975 232.0
1417.789551 152.0
1421.133911 112.0
1422.004272 164.0
1426.044922 200.0
1426.73645 152.0
1427.210083 40.0
1427.383057 168.0
1428.985107 136.0
1429.767578 124.0
1430.023438 152.0
1430.821411 132.0
1431.988525 68.0
1432.063843 124.0
1432.365112 120.0
1437.363403 208.0
1437.521851 96.0
1437.627441 60.0
1438.306763 192.0
1440.526611 136.0
1441.010132 148.0
1444.631226 160.0
1445.349976 152.0
1446.409424 192.0
1448.090332 20.0
1450.105591 152.0
1451.0 220.0
1451.189575 156.0
1451.280518 228.0
1451.348755 148.0
1451.674805 128.0
1452.675903 188.0
1453.609131 216.0
1454.307251 124.0
1455.116455 196.0
1456.744629 204.0
1457.80835 148.0
1459.037842 152.0
1459.609863 192.0
1461.732056 164.0
1462.698486 168.0
1464.129883 176.0
1465.386719 152.0
1467.627441 144.0
1469.023071 192.0
1470.663574 148.0
1470.915405 120.0
1471.57959 248.0
1474.711426 40.0
1474.83374 172.0
1475.452881 176.0
1476.003418 128.0
1476.148682 204.0
1476.706909 196.0
1477.456543 160.0
1478.106812 68.0
1479.277832 188.0
1480.188843 140.0
1480.564087 100.0
1480.885742 200.0
1481.06189 192.0
1481.460205 132.0
1483.276245 272.0
1486.221069 168.0
1486.597046 140.0
1487.003784 76.0
1488.669678 84.0
1489.222534 168.0
1489.506714 88.0
1489.990723 140.0
1490.881958 52.0
1492.611572 60.0
1493.003784 56.0
1494.757568 160.0
1495.142334 44.0
1495.634888 124.0
1495.904297 56.0
1496.389282 260.0
1496.612549 32.0
1497.775391 92.0
1498.314575 88.0
1498.568848 184.0
1498.661255 120.0
1500.657471 156.0
1501.760132 124.0
1502.485229 144.0
1502.770752 200.0
1503.372559 112.0
1504.028564 136.0
