>compound MLS001140845-01!4-[[[2-(4-butyl-7-methyl-2-oxochromen-5-yl)oxyacetyl]amino]methyl]cyclohexane-1-carboxylic acid
>formula C24H31NO6
>ionization [M+H]+
>parentmass 430.223
#inchi InChI=1S/C24H31NO6/c1-3-4-5-18-12-22(27)31-20-11-15(2)10-19(23(18)20)30-14-21(26)25-13-16-6-8-17(9-7-16)24(28)29/h10-12,16-17H,3-9,13-14H2,1-2H3,(H,25,26)(H,28,29)/t16-,17-
#inchikey RCJINVKJESWGOW
#Ion_Source LC-ESI
#Instrument qTof
#Compound_Source NIH Natural Product Library
#PI Dorrestein
#Data_Collector VVP/LMS
#Scan -1
#Precursor_MZ 430.223
#ExactMass 429.215
#Charge 1
#CAS_Number N/A
#Pubmed_ID N/A
#Smiles CCCCc1cc(=O)oc2cc(C)cc(OCC(=O)NC[C@H]3CC[C@@H](CC3)C(=O)O)c12
#INCHI_AUX N/A
#Library_Class 1
#SpectrumID CCMSLIB00000080090
#IonMode Positive
#UpdateWorkflowName UPDATE-SINGLE-ANNOTATED-GOLD
#LibraryQualityString Gold
#TaskID b1d8e8f6646f4e71acdff9ca3d919d08
##Scan# 2128
#SpectrumFile p2-H03_GH3_01_18063.mzXML
#LibraryName NIH_Natural_Products_Library.mgf
#MQScore -1
#Organism NIH_Natural_Products_Library
#TIC_Query 0
#RT_Query -1
#MZErrorPPM -1
#SharedPeaks 0
#MassDiff 0
#LibMZ -1
#SpecMZ 430.223
#SpecCharge 0
#internalFilename spec-00000.mgf

>collision 10
95.087784 344.0
95.471489 172.0
95.948555 108.0
96.087433 212.0
96.213882 184.0
96.729988 88.0
96.786758 136.0
97.546036 132.0
97.896255 216.0
98.158348 132.0
98.42672 124.0
98.661842 180.0
99.523705 80.0
99.678642 136.0
99.776039 168.0
99.905304 212.0
100.590836 44.0
101.058495 92.0
101.154556 104.0
101.884529 248.0
102.742165 204.0
103.267372 180.0
104.57811 56.0
104.73082 156.0
105.070229 164.0
105.761978 112.0
106.106133 244.0
106.220978 100.0
107.071922 164.0
107.086784 168.0
107.323334 220.0
108.075195 180.0
108.091743 184.0
108.317421 160.0
109.580536 140.0
110.057289 140.0
110.091286 444.0
110.758789 136.0
111.059807 184.0
111.222198 168.0
111.789665 144.0
112.110809 492.0
112.409218 120.0
113.060112 144.0
113.113022 192.0
113.819023 28.0
114.810692 152.0
115.051811 188.0
116.061684 164.0
117.071175 208.0
117.627945 212.0
118.070885 168.0
118.824715 128.0
121.064354 176.0
121.611465 232.0
121.903564 56.0
123.045784 204.0
123.077667 104.0
123.940331 56.0
124.084572 264.0
124.107346 248.0
124.657082 152.0
125.068527 160.0
125.511871 216.0
125.98951 204.0
126.700943 140.0
127.630157 160.0
127.938393 228.0
127.98793 120.0
128.065506 352.0
128.641754 112.0
129.066513 188.0
129.116257 180.0
130.065613 44.0
130.086044 64.0
130.301804 104.0
131.089096 92.0
132.059387 156.0
133.0634 168.0
133.403107 136.0
134.093658 168.0
135.043228 120.0
135.08139 468.0
135.512543 80.0
137.064041 184.0
137.325806 212.0
137.844086 124.0
137.97731 120.0
138.059677 160.0
138.089203 156.0
138.557724 252.0
138.670212 88.0
138.78273 164.0
139.052521 392.0
139.11824 196.0
140.108841 1056.0
141.073563 184.0
141.106659 268.0
142.078278 172.0
142.115646 140.0
142.787918 168.0
142.968735 156.0
143.083282 164.0
143.910324 132.0
144.056 116.0
144.558105 144.0
145.070679 320.0
145.142593 56.0
146.01915 132.0
147.045517 136.0
147.084213 444.0
147.330444 144.0
148.422028 124.0
148.47052 144.0
148.924393 148.0
149.059158 532.0
150.224243 56.0
150.778519 208.0
151.030365 132.0
151.075607 724.0
151.177155 52.0
151.404831 60.0
152.076614 220.0
152.107513 320.0
152.912292 168.0
153.114685 844.0
154.120667 160.0
154.348068 164.0
155.072144 188.0
155.636581 208.0
155.693695 80.0
156.049042 148.0
156.092682 180.0
156.230591 184.0
157.075089 192.0
157.107513 180.0
158.066971 36.0
159.041885 180.0
159.075958 208.0
159.114685 288.0
159.225174 224.0
159.805847 236.0
159.93924 124.0
160.039932 180.0
160.057556 124.0
160.077713 68.0
160.344437 160.0
160.990601 220.0
161.055496 456.0
161.09668 112.0
161.121948 164.0
162.065109 428.0
162.098618 212.0
162.646439 148.0
162.709915 168.0
162.872437 48.0
163.072754 196.0
163.115448 164.0
163.207901 68.0
163.363052 212.0
163.543716 180.0
163.747406 76.0
164.072983 188.0
164.127121 76.0
165.053955 504.0
165.090912 216.0
165.70929 172.0
166.056503 232.0
166.08757 188.0
166.301666 84.0
167.057129 152.0
167.085434 148.0
167.129181 116.0
168.07225 72.0
169.05162 168.0
169.58255 144.0
170.117264 280.0
171.081375 152.0
171.320969 48.0
171.631119 208.0
172.874542 108.0
173.133713 168.0
173.508423 168.0
174.059906 132.0
174.105316 152.0
174.558701 108.0
175.03894 128.0
175.074768 808.0
175.110245 160.0
176.044891 128.0
176.068329 176.0
177.023438 140.0
177.054047 1796.0
177.924957 168.0
178.059357 340.0
179.070282 124.0
180.102036 188.0
180.406067 224.0
182.079956 188.0
182.257248 176.0
183.080399 128.0
184.094528 172.0
184.780975 204.0
185.095856 156.0
185.200577 56.0
185.723709 180.0
185.881073 52.0
186.103958 424.0
186.968094 116.0
187.074249 140.0
187.093307 168.0
187.117172 460.0
187.183151 200.0
187.439209 100.0
187.957306 160.0
188.115616 168.0
189.053192 660.0
189.090866 344.0
189.129745 136.0
190.060379 896.0
190.093506 292.0
190.132904 148.0
190.207001 76.0
190.432159 112.0
191.069534 1328.0
191.113937 120.0
191.179977 40.0
191.430496 28.0
191.650864 56.0
191.796921 184.0
192.069901 144.0
192.870682 124.0
193.235718 44.0
193.279984 32.0
193.459885 188.0
194.080322 304.0
194.366211 104.0
195.029953 88.0
196.091522 196.0
197.103455 208.0
197.131393 92.0
197.237595 68.0
198.115082 196.0
198.306839 80.0
199.081177 76.0
199.112061 140.0
200.003357 124.0
201.053238 444.0
201.086349 192.0
201.128296 172.0
201.616669 280.0
201.729721 56.0
201.842819 64.0
202.062424 208.0
202.204926 88.0
202.986832 116.0
203.070801 5252.0
203.098343 144.0
203.104279 408.0
203.154175 224.0
203.193893 68.0
203.213745 96.0
203.554367 68.0
203.727615 84.0
203.852646 40.0
204.072815 1136.0
204.108475 276.0
204.296188 112.0
204.566544 52.0
204.614944 76.0
204.871262 44.0
205.077148 252.0
205.125809 160.0
205.33873 144.0
205.361557 80.0
205.461395 128.0
205.604065 112.0
205.963821 144.0
206.080872 144.0
206.306732 40.0
206.77298 152.0
207.007736 180.0
207.291336 172.0
207.996872 36.0
208.370209 168.0
208.436295 156.0
208.953842 88.0
209.097733 108.0
211.073853 96.0
211.275818 116.0
212.081238 376.0
212.139328 208.0
214.115356 192.0
214.528946 188.0
214.919754 208.0
214.983963 176.0
215.068604 184.0
215.111313 196.0
216.068008 112.0
217.051376 464.0
217.082275 164.0
217.123398 1228.0
217.506897 52.0
218.046555 180.0
218.091431 192.0
218.122894 312.0
219.06543 152.0
219.814331 160.0
220.100662 172.0
220.69162 184.0
221.159042 108.0
222.122055 80.0
222.412857 132.0
222.694931 52.0
223.087173 176.0
224.081192 140.0
224.763992 96.0
227.107986 296.0
228.025253 136.0
228.115433 188.0
228.635788 196.0
229.075394 156.0
230.058502 212.0
230.09433 152.0
230.741272 232.0
231.061905 160.0
231.095383 152.0
231.131454 132.0
232.103943 160.0
232.200836 160.0
232.267563 72.0
232.87767 168.0
233.08197 176.0
233.117447 4624.0
233.155121 188.0
233.161423 224.0
233.464233 264.0
233.61937 40.0
233.722809 72.0
234.077881 880.0
234.120377 1064.0
234.216003 104.0
234.353531 120.0
234.478043 76.0
234.831711 64.0
234.903458 100.0
235.069672 192.0
235.882095 180.0
235.918777 112.0
237.10643 108.0
237.624664 108.0
238.063599 152.0
238.180313 172.0
238.552139 48.0
239.070267 172.0
240.014572 76.0
240.582275 136.0
243.101791 128.0
243.309753 124.0
244.310471 36.0
244.939285 148.0
245.07637 212.0
245.116028 3076.0
245.537735 68.0
245.728012 44.0
245.877808 56.0
245.918381 116.0
245.977676 76.0
246.11911 468.0
246.286819 48.0
246.830612 124.0
247.129868 388.0
248.128067 252.0
249.09346 156.0
249.131165 128.0
251.063797 104.0
251.208893 68.0
251.739136 72.0
251.811783 104.0
253.456818 84.0
255.094498 96.0
257.059662 228.0
260.475861 200.0
260.957916 156.0
262.148926 148.0
265.08316 156.0
266.078949 164.0
266.380981 68.0
272.119537 160.0
272.552673 124.0
272.904388 100.0
273.11264 1952.0
273.545929 52.0
274.111694 464.0
275.068878 204.0
275.118408 152.0
275.151398 172.0
275.795593 56.0
275.960876 40.0
276.09314 144.0
276.157043 320.0
277.765778 76.0
278.446228 68.0
285.087952 188.0
287.897583 52.0
288.090118 72.0
288.161041 56.0
288.184692 52.0
289.111237 88.0
289.869812 100.0
289.995209 128.0
290.140472 3000.0
290.198608 64.0
290.273193 180.0
290.480072 60.0
290.51062 108.0
290.731171 56.0
290.81601 52.0
290.920715 52.0
291.144073 1148.0
291.532623 44.0
291.858948 168.0
292.14093 176.0
292.256927 132.0
293.072357 132.0
293.149078 132.0
293.183167 116.0
293.207031 56.0
299.115479 116.0
301.084259 68.0
302.136902 188.0
302.176697 128.0
303.135712 164.0
303.218903 136.0
304.044312 188.0
304.280365 124.0
305.917816 140.0
320.531799 136.0
325.005096 108.0
327.049957 124.0
327.093872 144.0
328.161133 696.0
329.17392 136.0
330.156403 60.0
333.295715 68.0
339.035919 152.0
339.200256 120.0
342.220764 128.0
343.211914 180.0
351.080963 164.0
357.103302 208.0
359.065582 136.0
359.831604 124.0
360.179016 200.0
363.066895 272.0
370.231689 156.0
376.739868 128.0
383.234619 72.0
383.698425 116.0
384.150818 64.0
384.216522 2972.0
384.459045 68.0
384.548828 48.0
384.794739 144.0
384.978271 40.0
385.224121 1220.0
385.33374 68.0
385.466583 60.0
385.689362 112.0
386.212372 112.0
395.59848 56.0
399.455719 56.0
402.504639 72.0
429.259186 168.0
430.247833 108.0
441.412415 28.0
451.027649 100.0
499.856476 52.0
507.149536 192.0
508.176483 52.0
528.224304 108.0
656.278076 92.0
670.003662 72.0
779.850403 160.0
870.052979 200.0
882.147461 192.0
886.983704 112.0
910.582275 184.0
935.190552 60.0
965.13501 168.0
980.056702 128.0
1001.708801 152.0
1018.668396 28.0
1035.1875 20.0
1053.609009 172.0
1091.544067 192.0
1122.341797 160.0
1131.040039 196.0
1166.121338 192.0
1187.663208 64.0
1206.462402 232.0
1206.780396 128.0
1229.209229 240.0
1242.629517 184.0
1264.785767 160.0
1271.44104 184.0
1273.769897 68.0
1282.593262 76.0
1286.502319 160.0
1296.336914 184.0
1301.688354 36.0
1339.527588 80.0
1379.516235 196.0
1389.180176 168.0
1399.130859 160.0
1410.753784 48.0
1412.324097 176.0
1447.220581 244.0
1461.809692 128.0
1477.917725 144.0
