>compound MLS001304022-01!
>formula C15H21N3O2
>ionization [M+H]+
>parentmass 276.1706533640905
#inchi InChI=1S/C15H21N3O2/c1-15-7-8-17(3)13(15)18(4)12-6-5-10(9-11(12)15)20-14(19)16-2/h5-6,9,13H,7-8H2,1-4H3,(H,16,19)/t13-,15+/m1/s1
#inchikey PIJVFDBKTWXHHD
#Ion_Source LC-ESI
#Instrument qTof
#Compound_Source NIH Pharmacologically Active Library
#PI Dorrestein
#Data_Collector VP/LMS
#Scan -1
#Precursor_MZ 276.175
#ExactMass 275.163
#Charge 1
#CAS_Number N/A
#Pubmed_ID N/A
#Smiles CNC(=O)Oc1ccc2N(C)[C@H]3N(C)CC[C@@]3(C)c2c1
#INCHI_AUX N/A
#Library_Class 1
#SpectrumID CCMSLIB00000086126
#IonMode Positive
#UpdateWorkflowName UPDATE-SINGLE-ANNOTATED-GOLD
#LibraryQualityString Gold
#TaskID d252d724072548979f1f6f1ced849daf
##Scan# 1218
#SpectrumFile p5-F03_GF3_01_18466.mzXML
#LibraryName Pharm_Active_Library.mgf
#MQScore -1
#Organism Pharm_Active_Library
#TIC_Query 0
#RT_Query -1
#MZErrorPPM -1
#SharedPeaks 0
#MassDiff 0
#LibMZ -1
#SpecMZ 276.175
#SpecCharge 0
#internalFilename spec-00000.mgf

>collision 10
44.920689 208.0
44.994087 124.0
45.143738 204.0
45.23204 120.0
45.569988 128.0
45.590141 156.0
45.633156 144.0
45.660049 164.0
45.771744 148.0
45.973946 188.0
45.991493 124.0
46.137383 208.0
46.238831 132.0
46.378334 172.0
46.391888 132.0
47.098125 124.0
47.221134 176.0
47.253967 120.0
47.310078 148.0
47.385399 144.0
47.410065 220.0
47.421844 188.0
47.474495 160.0
47.5033 176.0
47.636452 152.0
47.687294 200.0
47.896435 56.0
47.908833 112.0
47.937767 116.0
48.224823 132.0
48.284275 172.0
48.334072 196.0
48.382515 132.0
48.516895 208.0
48.665344 48.0
48.775093 80.0
49.165073 180.0
49.20974 76.0
49.273987 100.0
49.307522 156.0
49.43758 224.0
49.636497 128.0
49.806313 212.0
49.8316 100.0
49.914528 264.0
49.986267 192.0
50.258217 168.0
50.282207 188.0
50.300556 128.0
50.586098 124.0
50.679569 132.0
50.694698 236.0
51.126869 68.0
51.165302 164.0
51.190929 168.0
51.533264 180.0
51.553268 40.0
51.805088 192.0
51.868137 160.0
51.898243 80.0
52.017319 204.0
52.066135 204.0
52.079063 212.0
52.113541 140.0
52.238617 112.0
52.261635 140.0
52.480564 120.0
52.503635 152.0
52.69273 56.0
52.831516 180.0
53.118343 156.0
53.407398 280.0
53.646206 128.0
53.882622 124.0
54.283672 148.0
54.29834 204.0
54.427475 200.0
54.530308 84.0
54.547947 144.0
54.624413 184.0
54.687683 216.0
54.71418 140.0
54.755409 152.0
54.890984 108.0
55.096142 200.0
55.601765 152.0
55.700542 188.0
55.745113 196.0
56.030792 184.0
56.132725 208.0
56.242546 188.0
56.447422 180.0
56.653767 172.0
56.67474 68.0
56.749683 148.0
56.811172 188.0
56.872696 172.0
56.928246 172.0
57.146198 76.0
57.180809 192.0
57.225967 76.0
57.250061 168.0
57.578827 112.0
57.731461 52.0
57.844936 52.0
57.91156 184.0
58.084354 92.0
58.126835 232.0
58.260445 116.0
58.41246 144.0
58.608852 216.0
58.662193 224.0
58.910931 152.0
59.245956 200.0
59.267406 128.0
59.34404 176.0
59.428398 144.0
59.4683 184.0
59.945045 140.0
60.012871 180.0
60.148628 92.0
60.210388 184.0
60.385029 188.0
60.442265 144.0
60.553329 140.0
60.64204 152.0
60.960186 144.0
61.053459 152.0
61.347736 140.0
61.435066 156.0
61.474072 204.0
61.78344 220.0
62.274075 64.0
62.341629 96.0
62.629539 244.0
62.646866 68.0
62.752457 216.0
62.809231 156.0
62.97654 92.0
63.384697 176.0
63.400543 92.0
63.574989 212.0
63.609905 164.0
63.709949 96.0
63.779869 188.0
63.790997 96.0
63.865086 148.0
63.946877 128.0
63.964382 132.0
64.604286 152.0
64.751083 84.0
64.828445 84.0
64.902176 148.0
65.012863 184.0
65.080276 120.0
65.422974 156.0
65.462982 180.0
65.567696 96.0
65.604767 248.0
65.67894 200.0
65.719269 252.0
65.835495 152.0
65.922729 104.0
65.955048 156.0
66.094131 152.0
66.173439 192.0
66.218781 196.0
66.363007 148.0
66.50901 208.0
66.580444 148.0
66.61293 180.0
66.640549 168.0
66.694176 180.0
66.713684 76.0
66.777908 248.0
66.801498 156.0
66.933327 192.0
67.003365 96.0
67.414543 172.0
67.651703 140.0
67.858124 208.0
68.02874 188.0
68.066505 100.0
68.09771 212.0
68.155205 172.0
68.355812 124.0
68.433174 172.0
68.482574 212.0
68.800827 204.0
69.243973 220.0
69.298637 240.0
69.333435 168.0
69.515854 164.0
69.554024 144.0
69.708481 144.0
69.916351 100.0
70.076202 116.0
70.179543 160.0
70.379768 60.0
70.409821 196.0
70.540146 128.0
70.76432 156.0
70.87487 224.0
70.949898 172.0
71.121391 236.0
71.149925 160.0
71.215416 136.0
71.370026 192.0
71.38179 204.0
71.405334 108.0
71.417114 36.0
71.477676 124.0
71.506287 112.0
71.534897 84.0
71.684792 148.0
71.730301 196.0
71.760643 132.0
71.93103 184.0
72.093178 84.0
72.252113 100.0
72.675674 156.0
72.762238 140.0
72.777519 72.0
73.108986 144.0
73.241783 160.0
73.605042 140.0
73.680191 188.0
73.746834 100.0
73.769058 144.0
73.945236 200.0
73.988029 68.0
74.001724 172.0
74.075363 36.0
74.113052 88.0
74.373726 140.0
74.392609 224.0
74.426941 148.0
74.478462 68.0
74.655487 168.0
74.674408 172.0
75.089478 132.0
75.115349 152.0
75.132599 152.0
75.631996 104.0
75.770538 160.0
75.799988 160.0
75.841583 220.0
75.938675 84.0
76.086174 184.0
76.150421 168.0
76.256409 100.0
76.632278 220.0
76.656357 284.0
76.705475 272.0
77.215317 232.0
77.227554 180.0
77.274788 140.0
77.385056 192.0
77.402565 52.0
77.458603 176.0
77.623352 212.0
77.830406 176.0
78.000816 168.0
78.108078 68.0
78.185493 176.0
78.225975 152.0
78.462036 148.0
78.652557 168.0
78.682564 168.0
78.783226 160.0
78.800896 112.0
78.850372 148.0
78.862747 212.0
79.018356 160.0
79.113922 144.0
79.175896 156.0
79.198921 180.0
79.299911 160.0
79.647682 152.0
79.821846 148.0
80.005104 40.0
80.049622 144.0
80.391884 144.0
80.593658 140.0
80.801056 180.0
80.897697 52.0
80.937088 176.0
80.954994 164.0
80.989021 132.0
81.082184 144.0
81.284828 60.0
81.354828 228.0
81.369186 264.0
81.636917 168.0
81.716057 176.0
81.777245 216.0
81.840248 156.0
81.910484 136.0
82.016792 192.0
82.558426 76.0
82.721268 228.0
82.73394 72.0
82.817238 224.0
82.867958 108.0
83.33606 144.0
83.370583 192.0
83.818237 40.0
83.944016 212.0
84.210464 76.0
84.245163 196.0
84.259781 216.0
84.296326 140.0
84.369438 236.0
84.442574 68.0
84.499283 160.0
84.660362 152.0
84.753784 76.0
84.790428 180.0
85.153694 128.0
85.212479 88.0
85.273117 204.0
85.342972 164.0
85.552704 228.0
85.59137 220.0
85.670563 180.0
85.84935 152.0
86.08371 116.0
86.286964 128.0
86.464539 192.0
86.664528 132.0
86.838783 168.0
87.039207 60.0
87.213837 80.0
87.388641 132.0
87.446327 68.0
87.569214 164.0
87.694038 196.0
87.740646 152.0
87.761154 204.0
87.865311 156.0
88.345718 152.0
88.381264 212.0
88.581589 236.0
88.703392 124.0
89.255348 212.0
89.274155 176.0
89.33622 184.0
89.41713 116.0
89.929024 192.0
89.98452 176.0
90.037392 128.0
90.28875 240.0
90.762161 164.0
91.0532 164.0
91.419411 212.0
91.436539 160.0
91.474609 120.0
91.566002 140.0
91.594574 188.0
91.874794 72.0
91.93203 76.0
92.170731 148.0
92.474792 132.0
92.570518 244.0
92.681618 148.0
92.71994 60.0
92.73336 144.0
92.748688 140.0
92.796616 120.0
92.862587 232.0
92.877159 120.0
92.998039 216.0
93.053711 160.0
93.084427 212.0
93.216972 120.0
93.274628 136.0
93.54586 48.0
93.582436 116.0
93.771217 108.0
94.071678 68.0
94.276855 160.0
94.3619 148.0
94.462463 220.0
94.599861 172.0
94.642448 88.0
94.702484 188.0
94.801239 144.0
94.927292 116.0
95.033974 152.0
95.053383 140.0
95.07325 184.0
95.344673 72.0
95.616943 152.0
96.203644 176.0
96.30323 172.0
96.463455 212.0
96.61599 208.0
96.672729 136.0
96.721657 76.0
96.776474 132.0
96.956688 156.0
97.315659 184.0
97.64579 176.0
97.832718 192.0
97.97451 124.0
98.043472 144.0
98.552582 220.0
98.618034 164.0
98.807625 164.0
99.09272 120.0
99.284996 112.0
99.328629 128.0
99.366325 176.0
99.470589 208.0
100.06591 144.0
100.177437 92.0
100.31572 172.0
100.390701 128.0
101.079872 44.0
101.183945 148.0
101.234009 176.0
101.298096 156.0
101.395393 208.0
101.72924 192.0
101.93013 156.0
102.245804 172.0
102.312225 204.0
102.346451 156.0
102.366585 176.0
102.424995 80.0
102.443123 164.0
102.4814 72.0
102.51767 160.0
102.614426 128.0
102.71727 160.0
102.787888 88.0
103.053986 636.0
103.351639 156.0
103.525719 152.0
103.604713 128.0
103.807396 144.0
103.987953 200.0
104.057037 536.0
104.121948 148.0
104.256027 220.0
104.495972 164.0
105.065781 212.0
105.125587 76.0
105.221519 120.0
105.409431 140.0
105.427826 220.0
105.640465 248.0
105.847176 148.0
106.035645 152.0
106.129944 152.0
106.148399 176.0
106.234535 124.0
106.257103 192.0
106.28788 156.0
106.727448 212.0
106.848793 96.0
107.044327 284.0
107.087578 184.0
107.157616 180.0
107.186462 252.0
107.211189 52.0
107.454498 236.0
108.270988 48.0
108.783119 108.0
109.204926 140.0
109.340164 128.0
109.413017 180.0
109.523384 140.0
109.673401 136.0
109.861076 92.0
109.929924 144.0
110.02803 200.0
110.172127 176.0
110.198219 200.0
110.360222 128.0
110.502449 88.0
110.67617 200.0
110.755745 88.0
111.408127 228.0
111.523697 48.0
111.87709 204.0
112.117203 200.0
112.222603 148.0
112.241577 116.0
112.395561 136.0
112.507423 240.0
112.632011 200.0
112.779915 92.0
112.968109 172.0
113.11412 220.0
113.457298 112.0
113.514542 176.0
113.546356 252.0
113.699104 60.0
113.764908 216.0
113.781891 168.0
113.87957 148.0
113.990036 164.0
114.064423 196.0
114.445236 264.0
114.745651 204.0
114.762703 184.0
114.826675 224.0
114.941879 116.0
115.050728 60.0
115.409653 120.0
115.621429 144.0
115.769142 124.0
115.784134 140.0
115.818405 92.0
115.970535 132.0
116.298691 124.0
116.403893 160.0
116.455429 132.0
116.470467 200.0
116.489799 156.0
116.681061 156.0
116.734818 144.0
116.924126 156.0
117.058052 292.0
117.122208 168.0
117.341583 100.0
117.3722 112.0
117.529655 128.0
117.605194 140.0
117.667793 160.0
117.780083 80.0
117.847054 188.0
117.998344 244.0
118.019966 200.0
118.062332 784.0
118.167908 180.0
118.338028 52.0
118.435471 192.0
118.450638 148.0
118.504799 168.0
118.639168 116.0
118.83316 200.0
118.908134 120.0
119.076271 132.0
119.08149 372.0
119.336067 176.0
119.379555 156.0
119.429688 156.0
119.490486 224.0
119.819237 36.0
119.993584 132.0
120.054642 104.0
120.085175 156.0
120.373245 48.0
120.399445 128.0
120.471527 128.0
120.652908 204.0
120.803802 180.0
121.06633 1344.0
121.241707 32.0
121.487282 196.0
121.509224 76.0
121.990166 204.0
122.068146 164.0
122.254105 232.0
122.611748 140.0
122.835762 104.0
123.155823 148.0
123.202209 168.0
123.281754 204.0
123.423225 200.0
123.817116 28.0
123.868057 160.0
123.912369 84.0
124.473526 64.0
124.515717 188.0
124.566803 192.0
124.675674 208.0
124.813499 208.0
125.089371 236.0
125.107178 160.0
125.37001 184.0
125.526054 140.0
125.575111 96.0
125.892021 180.0
126.567329 164.0
126.733086 176.0
126.813759 164.0
126.986397 204.0
127.015556 192.0
127.159149 60.0
127.21302 172.0
127.266907 176.0
127.460075 88.0
127.484795 76.0
127.644394 172.0
127.774849 116.0
128.058182 180.0
128.128311 132.0
128.265594 148.0
128.640228 172.0
128.762146 200.0
128.881882 120.0
128.9655 140.0
129.072098 340.0
129.388504 128.0
129.510788 164.0
129.547028 88.0
129.889313 200.0
129.980072 188.0
130.064804 344.0
130.416107 196.0
130.852859 112.0
130.898407 184.0
131.028229 172.0
131.047318 116.0
131.070267 320.0
131.190033 152.0
131.301758 180.0
131.452805 172.0
132.034866 224.0
132.058701 216.0
132.078781 352.0
132.346069 84.0
132.419357 176.0
132.531601 164.0
132.604935 168.0
132.664536 184.0
132.868637 164.0
132.946655 252.0
133.057541 192.0
133.088531 156.0
133.249283 120.0
133.304886 80.0
133.348557 64.0
133.37384 72.0
133.389923 128.0
133.507187 140.0
133.645203 128.0
133.7948 196.0
133.900726 128.0
134.064224 156.0
134.095444 2464.0
134.200287 44.0
134.304062 144.0
134.32251 256.0
134.482849 180.0
134.838135 176.0
134.964539 212.0
135.001541 148.0
135.077866 140.0
135.098038 388.0
135.3116 132.0
135.360214 152.0
135.418121 100.0
135.622009 112.0
135.666046 96.0
135.867813 156.0
136.023285 116.0
136.083649 116.0
136.157959 200.0
136.480972 160.0
136.580963 172.0
136.706604 168.0
136.920776 136.0
137.072189 152.0
137.365952 144.0
138.240753 76.0
138.338074 192.0
138.516037 156.0
138.968491 32.0
139.313614 144.0
140.021606 108.0
140.099335 180.0
140.139389 180.0
140.443497 176.0
140.629883 160.0
140.706665 152.0
141.072952 192.0
141.322296 104.0
141.364883 220.0
141.47139 196.0
141.495056 76.0
141.826706 184.0
141.98793 108.0
142.028244 184.0
142.067337 192.0
142.106827 144.0
142.814453 136.0
143.073151 168.0
143.276245 144.0
143.397781 76.0
143.922592 172.0
144.049698 380.0
144.080917 948.0
144.187744 52.0
144.211655 216.0
144.469894 132.0
144.563217 244.0
144.805008 172.0
144.821777 168.0
144.891235 68.0
144.927185 168.0
145.066162 496.0
145.08548 556.0
145.262817 144.0
145.416382 176.0
145.81987 96.0
146.017014 176.0
146.059967 9508.0
146.090393 224.0
146.115646 144.0
146.137299 44.0
146.426956 144.0
146.508057 140.0
146.633347 72.0
146.691208 200.0
146.862396 172.0
146.891342 192.0
146.916611 188.0
146.953613 152.0
146.970963 88.0
147.014389 192.0
147.031281 320.0
147.068588 41596.0
147.133652 128.0
147.173706 68.0
147.195435 80.0
147.25029 112.0
147.274017 180.0
147.299286 48.0
147.32103 52.0
147.362259 60.0
147.462784 40.0
147.518845 64.0
147.548203 208.0
147.615906 92.0
147.676361 84.0
147.706528 136.0
147.746506 76.0
147.765869 72.0
147.831192 92.0
147.87233 140.0
147.903809 40.0
147.930435 80.0
147.957062 140.0
147.978851 52.0
148.005478 104.0
148.071579 4232.0
148.095627 212.0
148.112473 476.0
148.148376 136.0
148.165329 68.0
148.191986 220.0
148.250137 108.0
148.284073 96.0
148.306 76.0
148.326019 52.0
148.381027 60.0
148.478012 72.0
148.502274 48.0
148.524094 60.0
148.55806 40.0
148.640549 60.0
148.846878 68.0
148.93486 104.0
148.965179 124.0
149.031479 168.0
149.072906 512.0
149.151718 92.0
149.168732 84.0
149.189453 48.0
149.206467 116.0
149.229645 60.0
149.257523 168.0
149.448151 108.0
149.556763 96.0
149.576233 136.0
149.91478 44.0
150.080536 144.0
150.170761 136.0
150.199936 108.0
150.239059 176.0
150.351303 84.0
150.456253 44.0
150.915573 176.0
151.101456 160.0
151.147934 240.0
151.58136 132.0
151.630371 148.0
151.65242 128.0
151.826492 200.0
151.949142 84.0
152.017838 76.0
152.462326 128.0
152.509033 68.0
152.801651 216.0
152.823807 72.0
152.917313 48.0
152.951767 140.0
152.978851 136.0
153.035477 180.0
153.161072 172.0
153.762665 52.0
153.900909 204.0
154.061874 200.0
154.360504 124.0
154.966919 176.0
155.016479 128.0
155.04126 104.0
155.070999 176.0
155.311508 124.0
155.514969 132.0
155.624191 108.0
156.066452 156.0
156.086349 52.0
156.265427 144.0
156.883072 36.0
156.987778 184.0
157.037659 116.0
157.079941 160.0
157.746201 220.0
157.996872 148.0
158.060318 288.0
158.096542 364.0
158.429962 120.0
158.853622 52.0
158.951462 164.0
159.001663 200.0
159.071213 316.0
159.103882 556.0
159.124649 112.0
159.383362 260.0
159.519073 104.0
159.783127 136.0
159.989487 76.0
160.075668 6652.0
160.112045 732.0
160.141907 68.0
160.297058 176.0
160.387497 120.0
160.46312 36.0
160.480774 76.0
160.500946 92.0
160.717865 248.0
160.74057 60.0
160.914734 52.0
160.950089 116.0
160.966339 100.0
160.975327 44.0
160.981796 100.0
161.083588 15272.0
161.139847 92.0
161.182159 164.0
161.221893 144.0
161.266235 108.0
161.309189 140.0
161.351807 176.0
161.394791 140.0
161.437775 116.0
161.46286 128.0
161.581955 192.0
161.69751 144.0
161.736313 188.0
161.771759 84.0
161.817322 172.0
161.908478 36.0
161.928741 36.0
161.967041 136.0
161.997131 152.0
162.031342 156.0
162.057785 212.0
162.091278 38000.0
162.145355 48.0
162.16481 36.0
162.192978 84.0
162.252075 92.0
162.288589 84.0
162.354507 60.0
162.376434 112.0
162.450897 28.0
162.476257 56.0
162.508743 60.0
162.58963 112.0
162.610748 148.0
162.702133 72.0
162.753479 88.0
162.77272 100.0
162.823364 156.0
162.854492 116.0
162.920532 68.0
162.998932 248.0
163.094208 3952.0
163.151794 28.0
163.223907 140.0
163.361206 104.0
163.393387 100.0
163.581711 96.0
163.599533 240.0
163.632629 136.0
163.698822 192.0
163.805801 92.0
163.87088 72.0
163.89241 48.0
163.917892 100.0
164.063171 284.0
164.098984 252.0
164.13855 92.0
164.162613 56.0
164.282486 60.0
164.376556 60.0
164.410065 68.0
164.43692 92.0
164.483185 80.0
164.913193 76.0
165.005219 92.0
165.058914 84.0
165.130524 112.0
165.650116 152.0
166.006378 96.0
166.078186 168.0
166.278946 48.0
166.468277 164.0
166.758575 132.0
166.881973 68.0
167.834641 132.0
168.170013 144.0
168.872772 92.0
169.079758 144.0
170.095764 188.0
170.469757 36.0
170.588837 192.0
171.070572 152.0
171.10701 196.0
171.226791 40.0
171.998566 124.0
172.075195 1952.0
172.1082 208.0
172.680511 76.0
172.902893 96.0
173.020676 232.0
173.083328 4568.0
173.279953 40.0
173.395248 104.0
173.489609 76.0
174.08757 1112.0
174.182388 132.0
174.34256 216.0
174.397842 56.0
174.563477 180.0
175.072876 104.0
175.091934 320.0
175.113495 48.0
175.196182 100.0
175.290604 88.0
175.434967 84.0
175.574707 200.0
175.685486 156.0
175.754089 124.0
175.90451 124.0
175.97316 104.0
176.076523 188.0
176.106918 10672.0
176.150101 60.0
176.197189 140.0
176.276917 108.0
176.647049 188.0
176.763474 48.0
176.879913 72.0
176.903748 68.0
176.922272 84.0
176.956696 64.0
177.014938 52.0
177.044067 168.0
177.111038 1472.0
177.160614 32.0
177.214569 76.0
177.468048 72.0
178.030594 60.0
178.113617 192.0
178.245758 144.0
178.511581 44.0
179.28624 148.0
181.920837 172.0
182.45813 48.0
183.521606 60.0
184.818085 116.0
186.089264 112.0
186.268509 64.0
187.096008 200.0
188.03978 200.0
188.107071 5580.0
188.406952 44.0
188.472519 52.0
188.677505 108.0
188.770462 56.0
188.940048 40.0
189.108932 412.0
189.18634 44.0
189.739731 96.0
190.121002 180.0
190.412003 68.0
190.653763 160.0
192.433197 28.0
197.913483 28.0
198.928375 280.0
199.557678 52.0
200.988525 56.0
203.595657 48.0
207.097977 92.0
207.269867 56.0
208.061462 40.0
211.581558 108.0
214.629364 84.0
216.933182 164.0
217.681351 72.0
219.114487 296.0
219.146164 168.0
219.488083 44.0
220.113632 176.0
220.88205 180.0
228.877594 128.0
233.124603 672.0
234.274734 88.0
234.953094 164.0
236.901917 88.0
238.555969 100.0
245.058273 232.0
245.133057 172.0
248.827042 168.0
251.755371 88.0
256.186371 44.0
256.294708 124.0
264.396759 108.0
265.608521 88.0
269.629578 32.0
271.266113 176.0
282.730042 124.0
292.419739 64.0
297.005035 68.0
298.385498 88.0
304.849182 44.0
309.68811 92.0
319.483826 76.0
321.004669 48.0
336.127075 68.0
339.118561 132.0
346.770111 52.0
354.679413 64.0
369.46756 80.0
377.371063 64.0
390.666534 56.0
394.997864 60.0
403.008636 64.0
419.495636 128.0
497.646118 168.0
499.352509 76.0
511.482574 72.0
561.783997 48.0
587.657593 92.0
589.903259 128.0
620.04657 88.0
702.198914 108.0
749.078064 72.0
760.736633 148.0
775.580627 152.0
788.482056 156.0
803.085327 92.0
818.11853 104.0
829.750061 68.0
878.618713 144.0
893.631653 132.0
908.153931 72.0
911.275452 44.0
940.342773 176.0
943.140137 148.0
943.812561 152.0
949.421753 140.0
957.158386 88.0
960.350647 228.0
960.776306 136.0
977.250122 188.0
981.217468 200.0
1029.790771 144.0
1041.312866 204.0
1051.614258 216.0
1058.492798 144.0
1068.800537 216.0
1079.51123 216.0
1087.234863 88.0
1087.897827 164.0
1089.184814 144.0
1089.447632 176.0
1093.570435 148.0
1100.941162 188.0
1102.348267 72.0
1104.430786 84.0
1105.456177 120.0
1108.323364 308.0
1108.926392 172.0
1120.275513 164.0
1120.548706 176.0
1135.575806 56.0
1138.005005 140.0
1138.481812 116.0
1142.797241 64.0
1145.954956 136.0
1160.974609 172.0
1166.372192 168.0
1170.855835 160.0
1176.132935 108.0
1181.545044 120.0
1182.77002 132.0
1184.406494 52.0
1192.021729 176.0
1193.678345 216.0
1196.47876 160.0
1197.1604 84.0
1198.50354 80.0
1200.626709 168.0
1207.532959 60.0
1210.120972 184.0
1216.783691 136.0
1218.499146 168.0
1221.363159 184.0
1233.174438 164.0
1235.265137 196.0
1236.020752 160.0
1236.440552 216.0
1237.217529 176.0
1241.021851 128.0
1246.054077 164.0
1246.784912 136.0
1247.4104 176.0
1258.569824 180.0
1258.972412 180.0
1259.233643 84.0
1259.593872 204.0
1261.113037 204.0
1261.904785 212.0
1263.588013 132.0
1269.041504 204.0
1273.782227 196.0
1276.120239 92.0
1276.881104 200.0
1278.005005 200.0
1279.271851 104.0
1280.147583 132.0
1282.577026 144.0
1283.182983 204.0
1289.028687 152.0
1290.84436 196.0
1292.568237 184.0
1293.935303 168.0
1294.22168 240.0
1296.800659 272.0
1297.001343 212.0
1298.055176 124.0
1300.063721 132.0
1301.161987 152.0
1301.714844 172.0
1303.194458 104.0
1303.62561 152.0
1303.8125 132.0
1305.854248 204.0
1307.976807 100.0
1310.533447 124.0
1311.354858 156.0
1314.54248 112.0
1315.090942 216.0
1315.740601 88.0
1316.773193 136.0
1317.950684 132.0
1318.037354 108.0
1321.717896 96.0
1323.737427 84.0
1324.534058 236.0
1327.737549 188.0
1332.927979 168.0
1336.22168 172.0
1336.418213 136.0
1339.534058 148.0
1339.956543 168.0
1342.996338 52.0
1343.506958 196.0
1344.645264 192.0
1346.594604 184.0
1347.683105 176.0
1347.770752 84.0
1348.282227 128.0
1348.983887 148.0
1350.117188 80.0
1350.48291 200.0
1354.244995 112.0
1354.34021 152.0
1357.814209 120.0
1358.987915 136.0
1363.768555 88.0
1363.952271 172.0
1364.731567 156.0
1365.3125 88.0
1366.496704 148.0
1366.967651 164.0
1368.925781 96.0
1369.183472 148.0
1369.544312 212.0
1375.369263 148.0
1375.723633 124.0
1376.410278 212.0
1379.927246 124.0
1380.045532 36.0
1380.592773 140.0
1380.72583 204.0
1386.419678 184.0
1388.576294 164.0
1388.717163 196.0
1390.334473 68.0
1391.700317 152.0
1393.304565 164.0
1393.728027 92.0
1394.768555 104.0
1395.437622 232.0
1395.734985 172.0
1396.077026 108.0
1396.155518 152.0
1397.01416 212.0
1397.334106 200.0
1397.430786 224.0
1397.624268 52.0
1397.884644 180.0
1403.963379 128.0
1404.030518 224.0
1406.373169 228.0
1406.918091 220.0
1407.522949 168.0
1408.217407 44.0
1409.55603 156.0
1409.681641 144.0
1410.16748 48.0
1410.645874 88.0
1411.976685 228.0
1412.290894 64.0
1412.597534 96.0
1416.385132 140.0
1417.741211 180.0
1418.265869 172.0
1418.393311 200.0
1420.417847 160.0
1421.295654 196.0
1425.726074 148.0
1429.486084 136.0
1430.97644 220.0
1431.059204 168.0
1434.532227 136.0
1434.652832 32.0
1434.924316 136.0
1435.866211 152.0
1436.372192 188.0
1436.666382 164.0
1438.657349 276.0
1441.173584 212.0
1441.271851 164.0
1442.140869 180.0
1443.698242 224.0
1450.82312 152.0
1451.490356 228.0
1451.740601 68.0
1452.210815 132.0
1453.978516 152.0
1454.297363 196.0
1455.90686 208.0
1456.111938 144.0
1456.34729 108.0
1456.446045 132.0
1458.520386 76.0
1459.067749 168.0
1459.49353 172.0
1462.315796 244.0
1462.962769 148.0
1463.282471 76.0
1463.701294 136.0
1464.409546 152.0
1465.422729 176.0
1465.933228 148.0
1469.86792 148.0
1471.218872 136.0
1473.204346 104.0
1474.350464 180.0
1474.533813 180.0
1474.908325 152.0
1476.460449 120.0
1479.873291 216.0
1480.585327 164.0
1480.707886 112.0
1481.718994 220.0
1484.171631 160.0
1484.286621 112.0
1486.296265 144.0
1486.940918 104.0
1487.08667 160.0
1487.593384 136.0
1489.098267 284.0
1495.248901 184.0
1495.641357 144.0
1497.450684 152.0
1499.924072 52.0
1501.211548 148.0
1501.658813 156.0
1502.491943 200.0
1503.047485 120.0
1503.155518 224.0
1503.896362 160.0
1504.081543 156.0
1504.444458 152.0
