>compound MLS002153360-01!
>formula C12H14N2O
>ionization [M+H]+
>parentmass 203.118
#inchi InChI=1S/C12H14N2O/c1-15-8-2-3-11-10(6-8)9-4-5-13-7-12(9)14-11/h2-3,6,13-14H,4-5,7H2,1H3
#inchikey QYMDEOQLJUUNOF
#Ion_Source LC-ESI
#Instrument qTof
#Compound_Source NIH Natural Product Library
#PI Dorrestein
#Data_Collector VVP/LMS
#Scan -1
#Precursor_MZ 203.118
#ExactMass 202.111
#Charge 1
#CAS_Number N/A
#Pubmed_ID N/A
#Smiles COc1ccc2[nH]c3CNCCc3c2c1
#INCHI_AUX N/A
#Library_Class 1
#SpectrumID CCMSLIB00000079806
#IonMode Positive
#UpdateWorkflowName UPDATE-SINGLE-ANNOTATED-GOLD
#LibraryQualityString Gold
#TaskID b1d8e8f6646f4e71acdff9ca3d919d08
##Scan# 1351
#SpectrumFile p1-C11_GC11_01_17907.mzXML
#LibraryName NIH_Natural_Products_Library.mgf
#MQScore -1
#Organism NIH_Natural_Products_Library
#TIC_Query 0
#RT_Query -1
#MZErrorPPM -1
#SharedPeaks 0
#MassDiff 0
#LibMZ -1
#SpecMZ 203.118
#SpecCharge 0
#internalFilename spec-00000.mgf

>collision 10
94.989944 156.0
95.163429 152.0
95.288902 132.0
95.382179 112.0
95.43856 272.0
95.617523 108.0
95.654503 160.0
95.831718 88.0
95.977898 104.0
96.20031 184.0
96.213974 228.0
96.251068 180.0
96.317467 32.0
96.42688 136.0
96.507027 132.0
96.694817 192.0
96.761368 132.0
96.798569 196.0
96.851448 208.0
97.398689 96.0
97.647316 96.0
97.689606 144.0
97.884506 144.0
97.971107 180.0
98.04007 220.0
98.148483 60.0
98.426697 208.0
98.474091 48.0
98.511536 188.0
98.683556 148.0
98.762238 172.0
98.954605 168.0
99.014008 140.0
99.537529 208.0
99.559372 156.0
99.724266 152.0
99.827644 168.0
99.958267 156.0
100.07637 132.0
100.090302 136.0
100.187897 196.0
100.259621 108.0
100.303986 200.0
100.323402 232.0
100.409142 48.0
100.535904 140.0
100.587021 132.0
100.650597 224.0
100.668571 80.0
100.692535 272.0
100.918968 148.0
100.942329 104.0
100.998329 144.0
101.016335 172.0
101.103004 200.0
101.170418 112.0
101.194443 168.0
101.537086 156.0
101.575195 176.0
101.59726 152.0
101.625351 132.0
101.693581 108.0
101.812027 188.0
101.952652 168.0
101.980789 256.0
102.012947 108.0
102.048782 408.0
102.099403 48.0
102.260353 152.0
102.411354 96.0
102.568512 180.0
102.594719 140.0
102.822639 200.0
103.000313 164.0
103.053474 828.0
103.368355 416.0
103.676064 44.0
103.915329 216.0
104.0168 184.0
104.05558 152.0
104.062378 512.0
104.138626 132.0
104.242233 176.0
104.445534 180.0
104.528946 184.0
104.569641 132.0
104.814011 44.0
104.895531 124.0
105.083145 192.0
105.201515 128.0
105.285225 52.0
105.317902 136.0
105.46093 112.0
105.630638 196.0
105.700195 188.0
105.88443 160.0
106.079079 252.0
106.278008 92.0
106.41552 216.0
106.452484 80.0
106.530525 156.0
106.801857 64.0
106.861511 56.0
106.880295 156.0
107.017929 96.0
107.093895 176.0
107.160042 132.0
107.232162 236.0
107.324928 40.0
107.514702 156.0
107.820343 216.0
107.838943 136.0
107.950584 144.0
108.045723 156.0
108.095383 128.0
108.217499 180.0
108.457802 192.0
108.472313 144.0
108.50341 84.0
108.594643 132.0
108.831215 64.0
108.901817 156.0
109.055748 180.0
109.07843 120.0
109.109612 132.0
109.134201 140.0
109.137856 116.0
109.270569 396.0
109.604958 68.0
109.761284 232.0
109.796738 104.0
109.846794 264.0
109.940681 100.0
110.33754 204.0
110.56134 100.0
110.693222 188.0
111.385307 192.0
111.479851 148.0
111.526085 240.0
111.620689 228.0
111.736366 148.0
111.839478 188.0
111.959488 116.0
112.149094 108.0
112.172279 208.0
112.235527 136.0
112.277702 68.0
112.334648 136.0
112.628052 116.0
112.735802 192.0
112.841484 52.0
112.864021 172.0
113.112259 136.0
113.245651 260.0
113.340981 148.0
113.482994 148.0
113.525398 92.0
113.724823 204.0
113.788506 48.0
114.030655 152.0
114.049789 168.0
114.177353 208.0
114.366699 132.0
114.479538 188.0
114.645699 144.0
114.716026 224.0
114.841835 116.0
114.999718 176.0
115.016792 36.0
115.031731 200.0
115.054787 1952.0
115.405594 132.0
115.448357 156.0
115.474022 56.0
115.732948 208.0
115.78006 128.0
115.859306 188.0
115.885017 144.0
116.057686 548.0
116.165855 164.0
116.245239 156.0
116.313919 184.0
116.335381 56.0
116.406235 28.0
116.520065 268.0
116.563042 100.0
116.640411 152.0
116.857605 108.0
116.87912 132.0
117.0588 956.0
117.206406 144.0
117.309853 180.0
117.331413 184.0
117.523361 132.0
117.549248 116.0
117.67012 188.0
117.901245 176.0
117.916367 152.0
118.042732 164.0
118.061752 160.0
118.227791 224.0
118.260254 120.0
118.294884 48.0
118.314369 72.0
118.619804 196.0
118.92347 136.0
118.964714 144.0
119.048531 304.0
119.068932 200.0
119.084137 180.0
119.12323 224.0
119.305771 20.0
119.370995 184.0
119.523262 184.0
120.032959 236.0
120.052582 112.0
120.190002 216.0
120.445427 124.0
120.491302 172.0
120.578705 152.0
120.808289 116.0
120.948334 144.0
121.031517 148.0
121.068748 216.0
121.211128 280.0
121.263725 124.0
121.292221 248.0
121.33606 144.0
121.375526 172.0
121.9375 180.0
121.974861 164.0
122.137573 196.0
122.355431 148.0
122.480949 168.0
122.586693 152.0
122.749817 192.0
122.875267 164.0
123.016769 160.0
123.317169 240.0
123.49826 172.0
123.686539 208.0
124.074196 140.0
124.351463 176.0
124.413612 228.0
124.675461 180.0
124.769058 204.0
124.86467 96.0
124.92028 196.0
125.011497 88.0
125.136147 172.0
125.171768 208.0
125.187355 264.0
125.49485 128.0
125.510452 96.0
125.628654 136.0
125.655426 200.0
125.677742 184.0
125.854065 100.0
125.941162 188.0
126.050629 160.0
126.245102 220.0
126.37484 160.0
126.406158 120.0
126.515831 132.0
126.576889 176.0
126.654663 76.0
126.742035 144.0
126.789093 184.0
126.885475 96.0
126.903412 212.0
127.052986 372.0
127.15464 160.0
127.392647 196.0
127.977371 192.0
128.013397 108.0
128.049362 960.0
128.166565 72.0
128.213882 204.0
128.295029 160.0
128.322083 68.0
128.349136 28.0
128.417984 160.0
128.452881 64.0
128.561172 60.0
128.585999 200.0
128.924759 280.0
128.988037 188.0
129.015167 184.0
129.033249 148.0
129.051163 152.0
129.066147 124.0
129.074387 184.0
129.125961 196.0
129.18251 128.0
129.372589 80.0
129.460892 152.0
129.494858 152.0
129.635315 112.0
129.735046 152.0
129.800797 188.0
129.821198 112.0
129.877899 236.0
129.903214 152.0
130.066025 25892.0
130.115387 196.0
130.145233 60.0
130.186554 60.0
130.207001 132.0
130.247879 88.0
130.263016 48.0
130.334198 56.0
130.470566 84.0
130.497849 100.0
130.545593 40.0
130.638855 336.0
130.671524 88.0
130.718475 88.0
130.734406 176.0
130.800415 204.0
130.829758 184.0
130.859604 64.0
130.884613 220.0
130.917587 200.0
130.973373 200.0
131.012192 80.0
131.073959 47960.0
131.155746 40.0
131.176254 96.0
131.222672 56.0
131.265701 84.0
131.289444 56.0
131.336487 88.0
131.373459 44.0
131.389633 56.0
131.411148 36.0
131.44809 220.0
131.494843 188.0
131.547058 72.0
131.609711 32.0
131.638748 112.0
131.66452 100.0
131.723907 64.0
131.800186 88.0
131.845001 52.0
131.878189 92.0
131.922699 160.0
131.976349 112.0
132.077316 6612.0
132.157715 100.0
132.174286 76.0
132.288712 144.0
132.31575 400.0
132.334503 92.0
132.356888 196.0
132.387161 100.0
132.403198 32.0
132.467331 56.0
132.528503 108.0
132.721313 188.0
132.760696 96.0
132.829498 116.0
132.865433 108.0
132.978638 128.0
133.008469 184.0
133.067978 412.0
133.073563 400.0
133.100739 128.0
133.300034 88.0
133.424255 104.0
133.440353 80.0
133.45874 140.0
133.741699 160.0
133.801544 160.0
134.064285 172.0
134.290054 44.0
134.657013 168.0
134.740173 172.0
134.897324 40.0
134.920441 152.0
135.084625 180.0
135.105438 200.0
135.218826 156.0
135.350769 140.0
135.376236 80.0
135.424881 180.0
135.463272 160.0
135.62645 140.0
136.860001 36.0
136.890274 208.0
137.050995 176.0
137.617767 160.0
137.657455 152.0
138.527496 144.0
138.572006 196.0
138.67511 172.0
138.743088 116.0
138.963531 180.0
139.090256 116.0
139.355621 160.0
139.496628 52.0
139.729446 220.0
140.051941 360.0
140.299362 252.0
140.648468 44.0
140.726379 180.0
140.988571 120.0
141.05719 168.0
141.116211 136.0
141.213165 188.0
141.345627 204.0
141.551575 200.0
141.589462 180.0
142.065018 1920.0
142.134674 184.0
142.215363 180.0
142.607254 184.0
142.64386 140.0
142.973495 52.0
143.018723 132.0
143.073029 15556.0
143.154846 68.0
143.19252 52.0
143.247498 52.0
143.266357 92.0
143.290192 72.0
143.312317 56.0
143.33963 208.0
143.416489 32.0
143.528534 200.0
143.580994 56.0
143.676392 52.0
143.733658 64.0
143.759903 168.0
143.848221 76.0
144.01297 40.0
144.049042 168.0
144.07605 1492.0
144.275818 52.0
144.414505 68.0
144.517365 80.0
144.83815 180.0
144.979507 212.0
145.052536 332.0
145.094559 148.0
145.144897 88.0
145.63446 112.0
145.893967 100.0
146.061447 328.0
146.099976 380.0
146.141693 80.0
146.228317 168.0
146.358307 44.0
146.806503 164.0
147.021194 72.0
147.063354 128.0
147.081528 148.0
147.41481 80.0
147.443817 208.0
148.078247 216.0
148.256943 104.0
148.625519 140.0
148.943542 168.0
149.065674 220.0
149.213272 72.0
149.237595 184.0
149.295944 40.0
149.330002 216.0
149.653641 136.0
149.850922 136.0
150.272705 204.0
150.929718 100.0
151.083801 44.0
151.1138 116.0
151.169434 52.0
151.382401 40.0
151.919159 56.0
152.729752 176.0
152.929047 120.0
153.202362 156.0
153.927475 68.0
154.008972 80.0
154.067169 176.0
154.144852 48.0
154.25853 196.0
154.899429 124.0
154.988602 56.0
155.071381 268.0
155.566467 132.0
155.886856 260.0
155.978806 100.0
156.074539 152.0
156.212555 200.0
156.745331 168.0
156.840027 152.0
156.877426 96.0
157.054459 224.0
157.074417 244.0
157.181686 288.0
157.23909 136.0
157.488754 36.0
157.811111 48.0
157.876129 120.0
157.971176 168.0
158.060379 3884.0
158.116287 188.0
158.256577 100.0
158.378693 184.0
158.549545 144.0
158.669861 132.0
158.752594 132.0
158.953278 140.0
159.008911 212.0
159.068726 35748.0
159.151566 112.0
159.198486 144.0
159.241974 64.0
159.259552 88.0
159.304214 200.0
159.330154 152.0
159.355011 64.0
159.387665 60.0
159.419189 132.0
159.442322 80.0
159.478668 76.0
159.531311 132.0
159.56572 204.0
159.59761 40.0
159.63652 44.0
159.664185 56.0
159.719513 164.0
159.810074 48.0
159.860397 144.0
159.93338 136.0
159.957718 120.0
159.986252 80.0
160.006393 64.0
160.041641 184.0
160.070953 6092.0
160.133133 144.0
160.172958 136.0
160.212891 52.0
160.245651 68.0
160.268326 36.0
160.429611 72.0
160.527939 80.0
160.550644 136.0
160.638916 108.0
160.686844 92.0
160.896317 100.0
160.926605 132.0
161.001785 52.0
161.027618 68.0
161.077072 528.0
161.198746 92.0
161.217087 80.0
161.234787 104.0
161.257309 144.0
161.294571 116.0
161.320724 60.0
161.348358 120.0
161.39151 144.0
161.472427 44.0
161.646027 120.0
161.707718 128.0
161.781113 68.0
162.079971 160.0
162.178802 100.0
162.414597 44.0
162.942612 84.0
163.328995 248.0
163.415482 60.0
164.077652 164.0
164.649216 112.0
164.700287 160.0
164.944412 96.0
164.981369 64.0
165.301498 240.0
165.48793 64.0
166.149139 80.0
167.547668 168.0
168.460876 68.0
169.863876 56.0
169.983215 92.0
170.056519 180.0
170.783371 56.0
170.913437 112.0
171.067856 516.0
171.947968 92.0
171.968857 152.0
172.079605 140.0
172.096161 192.0
172.483398 44.0
172.71611 68.0
172.752731 176.0
173.082611 1324.0
173.116531 164.0
173.321487 132.0
173.433533 108.0
173.619675 120.0
173.803207 116.0
173.929306 224.0
174.020844 176.0
174.061295 356.0
174.092102 33916.0
174.131668 168.0
174.172821 116.0
174.197098 68.0
174.228622 36.0
174.259583 56.0
174.305145 64.0
174.370514 144.0
174.394165 96.0
174.436218 112.0
174.454483 88.0
174.4888 168.0
174.523727 56.0
174.570297 76.0
174.61377 192.0
174.632416 104.0
174.684784 76.0
174.71759 56.0
174.907059 44.0
174.927811 124.0
174.983398 132.0
175.067215 332.0
175.094894 3584.0
175.141403 40.0
175.1651 84.0
175.214371 80.0
175.286301 32.0
175.354813 68.0
175.460251 172.0
175.499802 144.0
175.573624 40.0
175.60527 56.0
175.634293 108.0
175.66066 56.0
175.959015 144.0
176.064484 144.0
176.098877 736.0
176.196548 60.0
176.336594 48.0
176.444046 68.0
176.487503 184.0
176.772949 32.0
177.167435 56.0
177.265472 124.0
177.413895 104.0
177.588898 96.0
178.117096 188.0
178.138351 64.0
178.747177 44.0
178.874924 84.0
179.581009 56.0
181.131256 92.0
181.200897 64.0
182.478394 68.0
183.617416 104.0
184.076172 148.0
184.28685 100.0
184.438187 68.0
186.096085 100.0
186.134094 152.0
187.09111 168.0
187.985092 20.0
190.836502 192.0
193.892227 136.0
194.54126 96.0
195.461197 20.0
202.100082 116.0
203.111252 124.0
203.838211 140.0
213.190842 20.0
213.267853 72.0
217.91423 128.0
228.420792 84.0
234.485519 96.0
239.106995 96.0
248.918365 60.0
249.194763 88.0
261.305542 84.0
263.484924 92.0
265.621429 88.0
266.757935 100.0
269.913849 108.0
275.735718 80.0
281.362579 84.0
282.712921 88.0
284.727692 96.0
298.443237 36.0
305.637665 80.0
311.437347 100.0
318.991943 48.0
320.101959 72.0
320.771759 88.0
326.842133 100.0
328.131531 60.0
333.914337 96.0
339.787994 84.0
340.411987 88.0
348.962158 92.0
353.509003 32.0
364.968719 156.0
398.602783 96.0
403.441254 136.0
407.111359 64.0
449.140106 116.0
457.926422 96.0
467.688385 92.0
496.890808 84.0
500.450806 156.0
501.644745 144.0
504.465942 72.0
533.448486 108.0
564.724609 120.0
577.738953 88.0
636.103821 168.0
658.16748 68.0
673.564087 228.0
682.290588 172.0
686.007507 156.0
691.020935 60.0
694.99762 188.0
734.711914 156.0
738.325378 156.0
740.912659 56.0
746.557434 132.0
756.098816 32.0
762.075806 128.0
764.632751 28.0
798.859131 164.0
802.356201 44.0
805.183105 108.0
805.979614 164.0
813.353088 176.0
828.721985 72.0
835.617371 116.0
836.728088 60.0
839.430359 80.0
843.402283 60.0
855.450012 212.0
863.197876 204.0
877.176697 148.0
900.979126 176.0
901.487 172.0
905.255615 132.0
905.411316 196.0
907.502563 72.0
913.826904 216.0
915.674866 216.0
922.934326 156.0
924.053223 48.0
935.553589 164.0
939.703796 228.0
956.987427 148.0
957.436951 136.0
981.904419 184.0
983.994751 180.0
989.684265 176.0
994.956909 44.0
995.251953 228.0
998.28064 228.0
1011.789978 196.0
1017.253784 124.0
1017.355347 220.0
1017.92041 148.0
1019.667358 56.0
1019.838989 72.0
1023.133972 136.0
1023.700623 140.0
1024.050903 156.0
1036.399048 168.0
1040.150757 212.0
1042.430664 56.0
1048.756836 100.0
1055.341431 88.0
1055.981567 268.0
1057.773804 180.0
1061.071167 144.0
1063.127319 152.0
1065.036011 124.0
1070.583618 140.0
1071.130615 80.0
1071.423828 48.0
1074.957642 168.0
1080.118896 100.0
1080.35437 44.0
1081.787476 160.0
1083.156006 140.0
1089.400757 84.0
1091.595947 192.0
1092.944336 76.0
1093.069336 136.0
1093.957886 140.0
1094.365967 196.0
1095.53833 204.0
1097.007812 208.0
1100.814575 136.0
1102.928711 148.0
1103.093262 172.0
1106.110229 156.0
1108.156616 252.0
1108.567383 160.0
1108.872192 184.0
1110.038208 168.0
1110.675659 224.0
1112.94519 204.0
1113.0979 68.0
1120.061035 180.0
1124.821899 208.0
1124.96875 176.0
1126.350952 116.0
1131.064941 216.0
1131.111816 176.0
1132.035767 80.0
1135.366211 100.0
1139.749634 132.0
1140.522461 148.0
1140.65686 168.0
1140.865234 208.0
1142.788696 84.0
1145.407349 128.0
1146.478638 188.0
1148.056152 148.0
1152.68689 168.0
1153.166626 208.0
1153.28833 188.0
1156.074707 140.0
1158.776245 108.0
1159.494507 188.0
1161.243652 180.0
1167.321655 136.0
1169.30127 184.0
1172.270508 168.0
1173.572388 160.0
1175.632324 184.0
1175.959961 152.0
1177.386719 152.0
1177.455078 184.0
1178.097168 116.0
1178.267944 196.0
1179.620972 140.0
1181.987305 144.0
1185.733154 160.0
1186.761353 208.0
1187.282471 204.0
1187.851685 196.0
1190.384155 28.0
1190.775635 156.0
1193.180664 44.0
1193.668823 192.0
1193.964478 176.0
1194.748535 240.0
1195.395386 152.0
1196.716919 180.0
1196.944092 140.0
1199.286377 112.0
1199.506958 152.0
1201.555054 92.0
1201.610229 172.0
1205.297119 160.0
1205.587402 176.0
1208.200928 120.0
1208.366943 68.0
1212.694824 236.0
1215.933716 184.0
1216.051758 176.0
1216.128052 216.0
1217.71106 124.0
1221.714722 192.0
1225.209351 224.0
1230.481689 172.0
1230.928589 208.0
1231.575928 184.0
1231.927246 160.0
1235.128784 144.0
1237.445068 212.0
1238.124268 424.0
1238.62146 124.0
1238.668701 184.0
1239.861572 168.0
1240.667725 116.0
1240.891968 248.0
1243.515503 156.0
1243.68396 120.0
1243.810303 160.0
1244.45752 104.0
1245.28479 204.0
1246.043335 128.0
1246.872559 172.0
1247.484009 188.0
1248.390991 208.0
1249.319336 216.0
1251.824951 76.0
1253.445068 212.0
1254.495239 144.0
1255.327148 204.0
1256.060669 168.0
1257.04126 160.0
1257.542358 200.0
1257.994141 140.0
1258.587158 44.0
1258.742432 180.0
1259.14502 116.0
1260.953613 156.0
1261.363525 188.0
1262.388672 168.0
1263.003906 172.0
1263.859985 176.0
1264.418945 112.0
1264.666626 196.0
1266.344604 180.0
1269.845825 128.0
1271.058838 200.0
1271.89624 100.0
1274.189941 88.0
1276.087524 160.0
1277.780151 144.0
1279.438354 184.0
1279.772949 164.0
1281.233032 96.0
1282.102295 128.0
1282.665283 188.0
1283.556519 148.0
1285.532349 188.0
1290.966309 164.0
1292.420532 244.0
1293.358032 168.0
1295.778442 156.0
1297.505615 144.0
1298.251343 124.0
1298.796387 60.0
1298.925537 264.0
1299.729004 140.0
1301.099854 156.0
1301.745972 236.0
1302.277466 216.0
1302.600708 144.0
1305.97168 192.0
1306.108398 112.0
1309.116699 180.0
1309.714478 184.0
1310.496582 152.0
1310.727417 176.0
1311.703125 216.0
1313.873657 148.0
1314.09021 168.0
1314.486938 176.0
1315.295288 184.0
1315.786133 168.0
1315.966675 272.0
1317.29541 156.0
1318.357544 112.0
1319.824951 192.0
1320.056274 80.0
1320.584229 140.0
1322.031128 128.0
1322.624512 184.0
1323.457031 200.0
1325.405518 56.0
1326.949219 204.0
1328.849487 76.0
1329.096069 184.0
1330.583984 132.0
1331.201172 132.0
1331.462524 172.0
1331.52063 60.0
1331.833008 152.0
1332.123535 160.0
1334.085571 152.0
1334.994385 132.0
1336.303589 208.0
1337.606201 152.0
1337.737305 88.0
1337.897461 104.0
1338.143311 156.0
1340.876587 44.0
1343.435791 128.0
1344.420776 156.0
1345.026489 176.0
1346.895752 224.0
1347.24646 192.0
1347.458252 188.0
1347.538574 200.0
1349.044067 132.0
1350.374878 64.0
1350.864868 56.0
1351.01123 128.0
1351.252686 204.0
1351.823364 44.0
1352.676392 228.0
1353.433716 192.0
1353.829102 148.0
1354.085449 120.0
1357.478394 144.0
1358.182495 128.0
1360.435181 156.0
1360.728882 176.0
1364.438843 160.0
1365.637451 152.0
1366.141235 292.0
1367.175049 192.0
1367.263428 44.0
1371.247681 144.0
1371.71936 212.0
1372.832642 196.0
1373.924194 120.0
1374.21936 124.0
1374.462891 116.0
1375.540283 116.0
1376.27124 132.0
1376.470581 72.0
1376.78064 44.0
1377.474976 148.0
1378.125122 164.0
1378.383667 208.0
1379.033936 144.0
1379.359253 56.0
1379.477417 116.0
1382.154663 48.0
1382.768921 196.0
1383.671997 156.0
1383.745972 36.0
1384.738281 128.0
1385.152954 164.0
1386.293945 100.0
1386.998047 144.0
1388.466064 112.0
1389.749268 140.0
1390.164795 208.0
1390.996094 124.0
1391.241089 168.0
1392.117188 120.0
1393.840454 172.0
1394.05603 212.0
1394.84375 172.0
1395.230347 184.0
1395.579712 156.0
1396.033325 132.0
1396.546509 276.0
1397.709473 192.0
1397.878174 148.0
1398.049316 180.0
1398.741455 100.0
1399.277466 116.0
1400.401855 228.0
1400.662476 40.0
1403.501831 168.0
1406.463501 120.0
1407.270142 220.0
1408.180786 132.0
1408.389893 156.0
1410.10083 168.0
1410.467041 144.0
1410.668945 124.0
1412.104492 160.0
1412.194214 180.0
1413.308838 196.0
1413.907471 148.0
1415.427124 176.0
1415.659302 200.0
1415.80896 104.0
1416.475586 204.0
1417.839233 164.0
1418.034058 160.0
1418.686157 216.0
1418.903564 156.0
1419.263428 152.0
1422.474365 172.0
1424.344116 100.0
1425.353394 228.0
1429.38855 220.0
1430.254028 216.0
1431.594116 112.0
1431.887817 132.0
1433.260132 148.0
1433.424683 200.0
1433.790527 212.0
1434.592773 236.0
1436.387451 220.0
1436.787354 64.0
1437.126831 116.0
1438.009644 164.0
1438.213501 224.0
1438.63623 128.0
1438.824951 184.0
1440.47876 160.0
1441.551514 48.0
1442.035156 160.0
1443.411011 108.0
1444.318604 192.0
1444.787598 168.0
1446.036011 168.0
1446.876221 132.0
1447.837891 64.0
1448.629395 196.0
1451.755737 124.0
1454.024048 212.0
1454.851318 140.0
1455.807983 152.0
1455.883911 124.0
1456.278931 152.0
1458.543091 144.0
1459.135986 152.0
1459.303223 200.0
1460.21582 132.0
1460.618896 168.0
1461.189453 156.0
1461.790527 404.0
1462.376465 256.0
1465.612915 124.0
1467.076172 168.0
1467.438721 180.0
1467.762329 208.0
1467.914795 224.0
1468.380005 172.0
1469.778442 192.0
1470.340698 48.0
1470.424683 188.0
1473.853394 180.0
1474.823853 44.0
1475.557739 124.0
1475.978271 160.0
1476.115845 140.0
1476.727661 140.0
1476.929321 220.0
1477.393188 212.0
1477.637939 160.0
1480.469971 172.0
1481.504028 196.0
1482.132202 180.0
1484.102051 168.0
1485.19873 116.0
1485.981079 48.0
1487.792236 180.0
1488.536987 200.0
1489.258911 188.0
1489.435547 164.0
1489.612305 188.0
1492.148193 152.0
1492.363525 128.0
1493.37085 144.0
1494.463257 156.0
1494.678589 104.0
1496.094727 52.0
1496.602905 128.0
1498.143188 140.0
1499.584106 140.0
1499.745972 100.0
1500.162109 188.0
1500.856079 72.0
1500.963989 140.0
1501.149048 120.0
1501.511475 148.0
1501.642578 148.0
1503.177734 144.0
1504.227417 160.0
