>compound MLS001141084-01!N-[(2S)-3-methyl-1-[(4-methylphenyl)methylamino]-1-oxobutan-2-yl]-1-[(2S)-pyrrolidine-2-carbonyl]piperidine-4-carboxamide
>formula C24H36N4O3
>ionization [M+H]+
>parentmass 429.284912
#inchi InChI=1S/C24H36N4O3/c1-16(2)21(23(30)26-15-18-8-6-17(3)7-9-18)27-22(29)19-10-13-28(14-11-19)24(31)20-5-4-12-25-20/h6-9,16,19-21,25H,4-5,10-15H2,1-3H3,(H,26,30)(H,27,29)/t20-,21-/m0/s1
#inchikey YAQNNOLWSOWJMO
#Ion_Source LC-ESI
#Instrument qTof
#Compound_Source NIH Natural Product Library
#PI Dorrestein
#Data_Collector VVP/LMS
#Scan -1
#Precursor_MZ 429.287
#ExactMass 428.279
#Charge 1
#CAS_Number N/A
#Pubmed_ID N/A
#Smiles CC(C)[C@H](NC(=O)C1CCN(CC1)C(=O)[C@@H]2CCCN2)C(=O)NCc3ccc(C)cc3
#INCHI_AUX N/A
#Library_Class 1
#SpectrumID CCMSLIB00000080382
#IonMode Positive
#UpdateWorkflowName UPDATE-SINGLE-ANNOTATED-GOLD
#LibraryQualityString Gold
#TaskID b1d8e8f6646f4e71acdff9ca3d919d08
##Scan# 1652
#SpectrumFile p2-A08_GA8_01_17977.mzXML
#LibraryName NIH_Natural_Products_Library.mgf
#MQScore -1
#Organism NIH_Natural_Products_Library
#TIC_Query 0
#RT_Query -1
#MZErrorPPM -1
#SharedPeaks 0
#MassDiff 0
#LibMZ -1
#SpecMZ 429.287
#SpecCharge 0
#internalFilename spec-00000.mgf

>collision 10
95.197121 120.0
95.270927 132.0
95.502251 176.0
95.583961 164.0
95.842621 120.0
95.874123 164.0
96.197906 160.0
96.706131 164.0
97.072495 272.0
97.08622 160.0
97.346619 312.0
97.699593 176.0
98.652687 176.0
98.712875 184.0
98.748474 92.0
99.118675 164.0
99.773674 188.0
99.829346 172.0
100.090027 44.0
100.149773 124.0
100.804161 76.0
100.970093 112.0
101.334419 196.0
101.56897 168.0
101.821877 236.0
101.884468 124.0
101.960503 124.0
102.04895 240.0
102.135422 140.0
102.256149 136.0
102.395073 108.0
102.544167 184.0
102.564323 76.0
102.671181 152.0
103.053505 576.0
103.109283 104.0
103.145668 256.0
103.230583 156.0
103.809753 192.0
103.882774 48.0
103.907112 96.0
104.225891 160.0
104.244179 228.0
104.748764 184.0
104.818031 244.0
104.999466 136.0
105.015785 76.0
105.042305 200.0
105.069939 11020.0
105.101471 176.0
105.14772 180.0
105.183105 56.0
105.221893 64.0
105.326927 104.0
105.401192 72.0
105.630615 76.0
105.671532 56.0
106.072929 1852.0
106.181602 176.0
106.200066 68.0
106.214424 212.0
106.241089 160.0
106.290329 104.0
106.33548 156.0
106.438126 144.0
106.470985 156.0
106.588081 132.0
106.604523 64.0
106.684677 56.0
106.719635 108.0
106.770515 140.0
106.806007 124.0
106.890358 96.0
106.908882 120.0
106.93248 188.0
107.073578 212.0
107.092117 196.0
107.127136 220.0
107.186882 152.0
107.320869 48.0
107.395592 156.0
107.463974 188.0
107.568443 92.0
107.642769 56.0
108.107895 168.0
108.300438 164.0
108.484863 168.0
108.619659 88.0
108.771133 192.0
109.10144 140.0
109.120148 144.0
109.203331 144.0
109.751038 208.0
109.803169 160.0
109.832375 172.0
110.003479 116.0
110.087486 256.0
110.114151 132.0
110.35656 184.0
110.62854 208.0
110.743706 176.0
110.831696 112.0
111.011971 196.0
111.093773 172.0
111.111382 112.0
111.305756 152.0
111.413048 144.0
111.433884 208.0
111.517944 200.0
111.570496 192.0
111.587311 172.0
111.623055 120.0
111.646187 196.0
111.711609 160.0
111.73674 168.0
111.826012 204.0
111.883965 52.0
111.898697 176.0
111.956848 176.0
111.976616 148.0
112.020058 232.0
112.076332 45128.0
112.10466 172.0
112.130417 40.0
112.152489 36.0
112.177216 144.0
112.225281 60.0
112.240044 64.0
112.311745 48.0
112.375031 112.0
112.424263 200.0
112.493546 52.0
112.545998 56.0
112.570869 144.0
112.599716 52.0
112.632591 112.0
112.647377 92.0
112.750908 84.0
112.769936 80.0
112.799522 136.0
112.82489 68.0
112.917931 136.0
112.936974 196.0
112.983505 132.0
113.03006 112.0
113.079109 3836.0
113.129532 48.0
113.152824 40.0
113.214226 60.0
113.307426 92.0
113.332733 68.0
113.345894 104.0
113.555443 72.0
113.570297 76.0
113.62545 56.0
113.65303 56.0
113.693352 52.0
113.754906 168.0
113.848328 120.0
113.894386 128.0
113.937729 136.0
113.97802 76.0
114.07872 236.0
114.171356 72.0
114.420319 116.0
114.499107 100.0
114.663155 88.0
114.887047 56.0
114.93399 32.0
115.008682 120.0
115.090149 124.0
115.480888 76.0
115.577156 48.0
115.795517 152.0
115.836212 80.0
115.889771 48.0
116.104141 92.0
116.696808 72.0
116.714012 140.0
116.903313 92.0
116.954964 120.0
117.101379 156.0
117.372917 164.0
117.474289 152.0
118.191582 204.0
118.965332 156.0
119.241196 96.0
119.835274 76.0
120.07943 108.0
120.144867 112.0
120.227783 88.0
120.594704 164.0
120.730255 136.0
120.830879 60.0
121.154892 120.0
121.18338 56.0
122.096062 1640.0
122.210953 64.0
122.285774 60.0
123.081619 72.0
123.105911 120.0
123.463921 80.0
123.554611 120.0
123.718384 140.0
124.044029 100.0
124.112541 204.0
124.665497 32.0
124.954567 144.0
125.036896 84.0
125.070282 112.0
125.208435 84.0
125.304115 128.0
125.78582 92.0
125.953293 72.0
126.051598 156.0
126.938057 144.0
127.083862 344.0
127.632744 164.0
127.699387 96.0
127.915398 52.0
128.345718 196.0
128.706741 176.0
128.871643 156.0
128.950729 124.0
129.004974 192.0
129.450714 156.0
129.804214 140.0
130.096909 200.0
130.74472 156.0
131.302887 168.0
131.330261 160.0
131.56987 172.0
131.585846 164.0
132.562561 104.0
133.492279 132.0
134.122955 256.0
134.926483 204.0
135.037476 152.0
135.616318 208.0
135.653397 208.0
135.93869 192.0
137.029221 228.0
137.229675 176.0
137.495605 128.0
139.258606 148.0
139.545303 176.0
140.073792 120.0
140.279831 60.0
140.341125 120.0
140.423676 140.0
141.082474 144.0
141.32135 204.0
141.382874 104.0
141.994125 228.0
142.212402 172.0
143.652023 28.0
144.072189 192.0
144.263367 128.0
145.1996 44.0
145.965683 140.0
146.618073 56.0
147.70459 200.0
148.346313 228.0
148.761139 196.0
149.848236 184.0
150.245636 168.0
150.831726 40.0
150.914856 208.0
151.208191 180.0
152.107956 116.0
153.330399 192.0
153.794098 160.0
154.24118 68.0
154.550323 200.0
154.63446 80.0
154.674072 152.0
155.869492 84.0
156.272293 104.0
157.433914 176.0
157.808731 160.0
157.943771 92.0
158.214035 112.0
158.735199 188.0
158.790375 172.0
158.878174 144.0
158.993591 72.0
159.443146 208.0
159.61409 132.0
160.021713 156.0
161.103653 140.0
161.612808 156.0
161.730789 108.0
162.516403 60.0
162.9077 160.0
163.123383 360.0
163.524826 180.0
163.853775 144.0
165.109665 164.0
165.130127 192.0
165.844482 128.0
166.352371 104.0
167.143631 172.0
168.637192 184.0
169.100159 144.0
169.138977 200.0
169.227005 144.0
169.537857 132.0
169.760803 124.0
170.06694 164.0
170.804886 208.0
171.242172 88.0
171.367218 264.0
172.350891 188.0
172.947174 120.0
173.875 88.0
173.940628 176.0
174.06665 156.0
174.128738 680.0
174.339844 208.0
174.892166 200.0
174.944809 136.0
175.134079 160.0
175.529724 160.0
175.608841 96.0
175.951904 200.0
175.988861 100.0
176.144913 1044.0
176.932755 96.0
177.152664 188.0
178.207748 220.0
178.312607 212.0
179.011795 188.0
180.115967 124.0
180.351105 156.0
180.998535 260.0
181.135635 232.0
181.210129 140.0
182.353302 84.0
182.646393 192.0
182.893936 132.0
182.912781 240.0
183.009705 160.0
183.07164 232.0
183.113419 164.0
183.148834 9864.0
183.203613 156.0
183.244034 68.0
183.330261 72.0
183.447876 100.0
183.49469 84.0
183.51355 36.0
183.535126 184.0
183.626816 96.0
183.648392 112.0
183.713135 112.0
183.76709 68.0
183.815659 48.0
183.915512 88.0
184.085602 100.0
184.104507 228.0
184.152649 1524.0
184.371964 80.0
184.461166 56.0
184.601761 192.0
184.828979 36.0
185.1539 340.0
185.232391 80.0
185.554886 88.0
185.695892 96.0
185.850525 112.0
185.994354 88.0
186.227875 196.0
186.771484 140.0
187.127991 120.0
187.580231 88.0
188.527328 124.0
188.644867 232.0
188.896454 56.0
189.033249 108.0
189.405594 152.0
189.46312 168.0
189.83316 172.0
189.981262 136.0
190.25296 136.0
190.923401 132.0
191.978165 76.0
193.151993 164.0
193.556061 204.0
194.110275 80.0
194.138 144.0
194.901382 204.0
194.937515 172.0
195.833344 192.0
196.190033 44.0
196.569351 128.0
196.909943 140.0
197.055206 164.0
197.424179 96.0
197.947495 124.0
198.998993 132.0
201.85054 92.0
201.870331 136.0
201.926895 184.0
202.110779 196.0
202.555267 204.0
202.719589 108.0
202.815948 132.0
203.530884 168.0
204.140167 300.0
204.26413 128.0
206.100174 208.0
207.112915 128.0
208.144882 656.0
209.125717 620.0
209.158722 216.0
209.60379 136.0
210.114136 168.0
210.132843 132.0
210.220886 36.0
210.89093 52.0
211.029694 88.0
211.070175 128.0
211.090408 200.0
211.144135 15140.0
211.249496 80.0
211.281311 32.0
211.336288 100.0
211.550446 64.0
211.588089 40.0
211.611252 48.0
211.639236 60.0
211.66626 60.0
211.718384 140.0
211.741562 112.0
211.84874 68.0
211.883499 84.0
212.146606 1432.0
212.356003 132.0
212.49234 104.0
212.532959 52.0
212.582291 84.0
212.94519 148.0
213.150986 172.0
213.375259 104.0
213.561371 140.0
213.660278 104.0
214.027008 156.0
214.146408 132.0
215.926788 60.0
216.14035 120.0
216.175461 88.0
216.737686 120.0
217.147491 356.0
218.02301 176.0
218.128815 60.0
218.293472 120.0
218.387589 64.0
220.631653 80.0
220.850479 148.0
220.877106 184.0
220.948105 104.0
220.98262 108.0
221.022064 148.0
221.086456 148.0
221.124252 356.0
221.164444 11140.0
221.211487 240.0
221.279572 76.0
221.389145 128.0
221.45134 88.0
221.513535 92.0
221.673004 136.0
221.892868 52.0
221.964035 84.0
222.168777 1696.0
222.334396 52.0
222.340515 44.0
222.376404 52.0
222.501083 68.0
222.548584 132.0
223.168594 188.0
223.395615 60.0
223.58522 144.0
223.793823 124.0
223.996933 108.0
224.107162 72.0
225.207977 52.0
226.1521 320.0
226.419296 72.0
227.138763 228.0
228.18071 180.0
229.161896 140.0
229.306549 56.0
230.589264 116.0
231.140778 224.0
231.421158 152.0
231.66951 160.0
232.00589 140.0
232.290955 116.0
232.646011 76.0
233.141113 104.0
233.460327 120.0
233.9776 180.0
237.832443 100.0
238.680374 124.0
238.744949 60.0
242.917816 176.0
244.374878 120.0
245.524338 164.0
246.851578 128.0
247.327118 144.0
250.476608 144.0
253.579453 44.0
256.487793 180.0
256.911926 244.0
257.176758 168.0
258.685547 128.0
260.079926 152.0
260.962128 184.0
264.162659 140.0
265.179413 64.0
266.22406 148.0
267.322876 84.0
268.088135 148.0
269.089539 116.0
269.298553 56.0
269.92276 128.0
271.583191 148.0
272.187042 208.0
273.502106 280.0
273.558044 244.0
275.051331 116.0
275.579742 152.0
276.366669 96.0
277.681824 48.0
279.133087 152.0
280.202179 3788.0
280.491455 64.0
280.528137 64.0
280.568146 168.0
280.594818 128.0
280.744843 72.0
281.045074 132.0
281.202332 440.0
281.368835 60.0
281.672729 68.0
281.826416 48.0
281.883209 108.0
282.187561 280.0
282.195221 184.0
282.33786 228.0
283.057343 92.0
283.221466 60.0
285.036469 148.0
285.302002 60.0
285.483551 236.0
287.639893 124.0
288.653473 180.0
289.140594 144.0
290.177155 184.0
290.811523 36.0
291.419403 68.0
292.408966 124.0
293.771942 156.0
294.174622 80.0
294.321442 136.0
296.202454 60.0
296.432007 144.0
297.121185 96.0
300.027252 60.0
300.969177 116.0
304.966461 120.0
305.199951 184.0
307.774963 220.0
308.196716 2516.0
308.84436 92.0
309.197418 304.0
309.481293 68.0
309.761444 72.0
310.188965 104.0
310.280121 144.0
310.571167 124.0
312.214905 116.0
313.411774 112.0
314.221252 164.0
316.190948 172.0
316.229401 176.0
318.456512 168.0
319.213501 124.0
320.976166 188.0
323.223022 196.0
324.849609 60.0
328.154694 64.0
328.529236 140.0
328.573059 88.0
329.641846 84.0
329.916534 136.0
330.093689 140.0
330.220276 132.0
330.679779 92.0
330.752167 100.0
331.320709 96.0
331.664948 172.0
331.722961 108.0
332.009399 128.0
332.063812 124.0
332.163849 288.0
332.234192 10960.0
332.361267 44.0
332.466522 108.0
332.536987 84.0
332.586273 64.0
332.662506 48.0
332.749634 96.0
332.796844 100.0
332.834747 56.0
332.974792 96.0
333.043793 116.0
333.235596 2488.0
333.421661 52.0
333.447083 68.0
333.570679 40.0
333.66156 136.0
333.763367 32.0
334.02887 40.0
334.095093 96.0
334.242615 608.0
334.385437 60.0
334.458221 44.0
334.774994 48.0
334.862396 36.0
335.0336 84.0
335.073669 84.0
335.313019 88.0
335.376129 120.0
335.464844 84.0
335.509277 76.0
335.908508 72.0
336.37561 124.0
336.715179 52.0
337.350952 32.0
340.140442 104.0
341.148865 180.0
345.182465 84.0
345.356293 92.0
349.228607 220.0
349.946838 128.0
355.415192 120.0
361.349579 40.0
362.246826 80.0
363.183105 140.0
364.789337 148.0
366.181976 108.0
375.808014 36.0
382.341431 48.0
390.097839 236.0
394.256134 124.0
408.772552 128.0
411.277985 140.0
412.766083 52.0
412.826752 140.0
413.660217 80.0
419.575195 88.0
419.762756 112.0
423.023163 116.0
427.90036 36.0
428.652008 136.0
429.176178 80.0
429.284912 4868.0
429.377625 24.0
429.430054 56.0
429.573547 72.0
429.660187 76.0
429.929993 164.0
430.118225 116.0
430.286102 1500.0
430.390717 100.0
430.601318 84.0
430.74588 56.0
431.282898 496.0
431.642761 68.0
431.779205 40.0
432.213593 124.0
432.279785 128.0
432.370819 48.0
432.486725 76.0
432.884186 76.0
433.091248 136.0
433.244507 148.0
434.2435 108.0
435.098328 100.0
435.51358 80.0
435.555115 32.0
439.576935 56.0
440.612427 88.0
440.996887 132.0
445.677948 104.0
446.564941 84.0
450.82309 56.0
459.225098 168.0
491.863708 100.0
506.35907 84.0
517.916687 68.0
547.171692 104.0
569.585693 60.0
587.914246 76.0
589.406372 48.0
649.506653 60.0
684.753845 92.0
717.366882 84.0
723.719238 192.0
725.079895 92.0
727.858704 112.0
736.605103 36.0
744.898499 112.0
758.458496 180.0
759.928223 40.0
778.71405 68.0
782.773804 92.0
800.974792 88.0
803.084167 64.0
812.298523 40.0
813.820557 108.0
831.481628 104.0
888.456909 100.0
901.299438 184.0
903.140747 160.0
930.797729 156.0
935.260071 160.0
941.815918 280.0
946.627991 136.0
947.963379 48.0
961.406494 164.0
964.105225 144.0
965.428162 168.0
967.711487 164.0
973.155212 92.0
973.850708 172.0
984.094727 248.0
985.437622 68.0
986.099976 216.0
989.709534 132.0
992.529175 136.0
996.213318 156.0
1001.560181 156.0
1007.047607 144.0
1011.859863 168.0
1015.084961 156.0
1023.720947 132.0
1025.727905 188.0
1026.87561 184.0
1027.373169 216.0
1027.749512 176.0
1031.492065 184.0
1033.244263 160.0
1040.197388 132.0
1043.248657 144.0
1045.165283 200.0
1049.13916 192.0
1049.596924 124.0
1053.792358 84.0
1055.220703 200.0
1061.131836 144.0
1061.747803 64.0
1069.681152 172.0
1071.999756 64.0
1072.788452 132.0
1072.88623 72.0
1074.816772 144.0
1078.238647 172.0
1078.676636 44.0
1082.589111 216.0
1085.984009 196.0
1087.315918 152.0
1094.178345 116.0
1094.93335 212.0
1096.90564 148.0
1100.098389 148.0
1104.340576 208.0
1104.744141 84.0
1110.798828 204.0
1111.104004 136.0
1113.347534 120.0
1113.918701 100.0
1114.983765 188.0
1115.247681 228.0
1115.73291 200.0
1116.723633 116.0
1121.724243 184.0
1124.065186 152.0
1126.381958 164.0
1128.380005 168.0
1134.834229 92.0
1139.969238 120.0
1140.661499 252.0
1142.073608 244.0
1143.365356 212.0
1144.112427 76.0
1146.261108 272.0
1146.469971 44.0
1147.143921 220.0
1152.914795 192.0
1153.47583 240.0
1154.753662 156.0
1161.764404 156.0
1163.046997 152.0
1164.5271 192.0
1165.444214 140.0
1166.191772 148.0
1168.517456 152.0
1169.442871 128.0
1171.737671 80.0
1172.160156 160.0
1172.316895 132.0
1174.027954 124.0
1178.697266 160.0
1181.671509 20.0
1182.964966 128.0
1190.719849 168.0
1190.767944 88.0
1191.049561 228.0
1191.228149 124.0
1193.021729 168.0
1194.431396 124.0
1197.315308 164.0
1198.775757 240.0
1200.76123 208.0
1202.98999 164.0
1203.645874 124.0
1204.571289 148.0
1208.366577 172.0
1216.016846 384.0
1217.940063 128.0
1218.954468 192.0
1220.026245 200.0
1221.394653 232.0
1222.250366 108.0
1223.656372 180.0
1224.150757 236.0
1224.937744 176.0
1225.662354 252.0
1225.724976 144.0
1226.177979 76.0
1228.234863 160.0
1228.995239 160.0
1230.649414 212.0
1235.772705 184.0
1236.367432 208.0
1238.425781 112.0
1239.672852 180.0
1239.74292 156.0
1241.516602 160.0
1243.144043 160.0
1243.480957 116.0
1244.133789 212.0
1245.355591 148.0
1248.546387 152.0
1251.234253 104.0
1251.691895 116.0
1252.13562 164.0
1252.360962 224.0
1252.713135 212.0
1252.903442 200.0
1253.896973 152.0
1257.077515 204.0
1258.397461 96.0
1261.117188 132.0
1261.166626 168.0
1261.732178 200.0
1262.898926 188.0
1263.26062 148.0
1264.625244 200.0
1265.701294 120.0
1265.750977 68.0
1267.521729 88.0
1267.904419 148.0
1268.322632 152.0
1269.045654 152.0
1269.272583 172.0
1273.324707 132.0
1273.516479 188.0
1274.148682 180.0
1275.036865 148.0
1277.369019 132.0
1277.51123 60.0
1279.859863 188.0
1280.942383 152.0
1281.184692 64.0
1281.441162 88.0
1281.633545 96.0
1287.340088 172.0
1289.268921 96.0
1289.361816 128.0
1291.084717 192.0
1292.472412 196.0
1292.866089 188.0
1294.054321 128.0
1295.608398 172.0
1296.231689 88.0
1296.296265 156.0
1296.489746 192.0
1298.195923 120.0
1298.726562 108.0
1300.183105 48.0
1305.189941 156.0
1306.052979 144.0
1308.370117 104.0
1309.054077 240.0
1310.94873 172.0
1311.00415 196.0
1312.657104 208.0
1313.356689 60.0
1317.680786 176.0
1318.482788 220.0
1318.605713 236.0
1319.314087 136.0
1320.651855 172.0
1324.734375 160.0
1330.848145 168.0
1331.400024 108.0
1334.895508 168.0
1335.950073 196.0
1338.140625 180.0
1338.249878 188.0
1341.018066 188.0
1341.331421 164.0
1343.446167 120.0
1344.13208 180.0
1346.518311 180.0
1347.256958 116.0
1348.089844 188.0
1349.113159 196.0
1350.546387 172.0
1351.072998 172.0
1351.95105 132.0
1355.737183 180.0
1356.330811 196.0
1357.980591 148.0
1358.251953 200.0
1359.961548 160.0
1363.45752 164.0
1366.567993 160.0
1366.862305 192.0
1371.752686 36.0
1372.578369 144.0
1375.846924 168.0
1378.476318 196.0
1379.26709 128.0
1381.004761 176.0
1382.151367 148.0
1384.068481 44.0
1385.20166 212.0
1386.157349 228.0
1386.312988 148.0
1387.617554 116.0
1389.271362 160.0
1393.236572 132.0
1393.703735 132.0
1394.14209 160.0
1395.427979 132.0
1395.73291 176.0
1397.279907 284.0
1398.329102 84.0
1402.455322 176.0
1409.19397 140.0
1411.406372 148.0
1413.620483 296.0
1415.244873 184.0
1415.334717 212.0
1415.873901 144.0
1416.248291 164.0
1421.001099 204.0
1422.104126 160.0
1422.697144 168.0
1424.131348 128.0
1424.454346 148.0
1425.75415 164.0
1426.107422 160.0
1428.844604 156.0
1431.674805 180.0
1434.338867 200.0
1434.673584 52.0
1434.952515 196.0
1435.450195 72.0
1435.714111 232.0
1435.812134 96.0
1436.584595 236.0
1437.728394 176.0
1438.30957 204.0
1441.353149 52.0
1446.193115 180.0
1446.760864 124.0
1446.934937 188.0
1447.83606 180.0
1449.282837 152.0
1450.161987 48.0
1452.717285 164.0
1454.568848 164.0
1456.733032 164.0
1459.49939 136.0
1460.602173 192.0
1461.081421 192.0
1461.522705 152.0
1462.740356 152.0
1464.164185 164.0
1465.641968 228.0
1468.172729 224.0
1468.226196 216.0
1468.439697 116.0
1471.652344 172.0
1471.976807 220.0
1472.843628 136.0
1473.302002 224.0
1473.966675 164.0
1474.09668 156.0
1475.036743 180.0
1475.380737 168.0
1477.935181 84.0
1478.738647 192.0
1480.009399 196.0
1480.415283 164.0
1490.548706 152.0
1492.016724 148.0
1494.293091 152.0
1494.600952 160.0
1496.964111 180.0
1499.120972 156.0
1499.591064 212.0
1501.194702 204.0
1502.073853 128.0
1503.107666 176.0
