>compound MLS001140686-01!(2S)-1-[(2S)-2-[[(2S)-2-(2,4-dioxo-1H-quinazolin-3-yl)-3-phenylpropanoyl]amino]-3-methylbutanoyl]pyrrolidine-2-carboxylic acid
>formula C27H30N4O6
>ionization [M+H]+
>parentmass 507.224
#inchi InChI=1S/C27H30N4O6/c1-16(2)22(25(34)30-14-8-13-20(30)26(35)36)29-23(32)21(15-17-9-4-3-5-10-17)31-24(33)18-11-6-7-12-19(18)28-27(31)37/h3-7,9-12,16,20-22H,8,13-15H2,1-2H3,(H,28,37)(H,29,32)(H,35,36)/t20-,21-,22-/m0/s1
#inchikey SYRLGRSPYCBUON
#Ion_Source LC-ESI
#Instrument qTof
#Compound_Source NIH Natural Product Library
#PI Dorrestein
#Data_Collector VVP/LMS
#Scan -1
#Precursor_MZ 507.224
#ExactMass 506.217
#Charge 1
#CAS_Number N/A
#Pubmed_ID N/A
#Smiles CC(C)[C@H](NC(=O)[C@H](Cc1ccccc1)n2c(=O)[nH]c3ccccc3c2=O)C(=O)N4CCC[C@H]4C(=O)O
#INCHI_AUX N/A
#Library_Class 1
#SpectrumID CCMSLIB00000079654
#IonMode Positive
#UpdateWorkflowName UPDATE-SINGLE-ANNOTATED-GOLD
#LibraryQualityString Gold
#TaskID b1d8e8f6646f4e71acdff9ca3d919d08
##Scan# 1970
#SpectrumFile p1-D09_GD9_01_17917.mzXML
#LibraryName NIH_Natural_Products_Library.mgf
#MQScore -1
#Organism NIH_Natural_Products_Library
#TIC_Query 0
#RT_Query -1
#MZErrorPPM -1
#SharedPeaks 0
#MassDiff 0
#LibMZ -1
#SpecMZ 507.224
#SpecCharge 0
#internalFilename spec-00000.mgf

>collision 10
94.984726 192.0
95.285614 184.0
95.303101 64.0
95.421661 216.0
95.526672 176.0
96.17749 120.0
96.26339 128.0
96.43557 128.0
96.507629 168.0
96.881439 152.0
96.89711 144.0
96.951973 80.0
97.361984 124.0
97.745308 156.0
97.829933 136.0
97.965813 80.0
97.979599 124.0
98.103752 128.0
98.391777 216.0
99.115654 192.0
99.252419 132.0
99.558006 176.0
99.587799 168.0
99.714951 180.0
99.738808 160.0
99.899872 132.0
100.599319 108.0
100.633263 112.0
100.934967 76.0
101.525696 28.0
102.045753 164.0
102.285141 160.0
102.526833 88.0
102.926239 60.0
102.960564 240.0
102.978745 180.0
103.054825 3016.0
103.249557 128.0
103.39724 148.0
103.74765 212.0
104.054207 356.0
104.074295 148.0
105.030769 136.0
105.151146 36.0
105.330818 48.0
105.39006 68.0
105.473846 152.0
105.496338 104.0
105.537224 116.0
105.754066 140.0
106.09819 172.0
106.22123 136.0
106.350502 156.0
106.975372 152.0
107.251389 68.0
107.502998 52.0
108.060883 120.0
108.601547 216.0
109.210106 236.0
109.541061 112.0
109.734871 76.0
109.805763 168.0
109.968498 144.0
110.46788 188.0
110.970497 124.0
111.732864 164.0
111.821236 144.0
111.941231 160.0
112.516838 140.0
112.666779 184.0
113.184952 132.0
113.237892 160.0
113.483704 192.0
113.770111 148.0
113.969749 108.0
114.054749 140.0
114.20784 192.0
114.458961 216.0
115.051666 172.0
115.26738 168.0
116.042198 184.0
116.070648 3604.0
116.130119 36.0
116.18589 152.0
116.379044 148.0
116.778748 180.0
116.836823 100.0
117.075623 320.0
117.222221 56.0
117.575882 136.0
117.856598 128.0
117.962494 184.0
118.310776 136.0
118.562027 112.0
119.178291 164.0
119.803459 124.0
119.913811 136.0
120.042511 540.0
120.454918 80.0
120.974152 204.0
120.999435 140.0
121.062935 192.0
121.108925 64.0
121.146164 64.0
121.242569 196.0
121.446465 132.0
121.682396 124.0
121.832794 176.0
121.872337 136.0
122.035019 160.0
122.065765 160.0
122.144936 104.0
122.201057 180.0
122.613907 96.0
123.439529 192.0
123.536842 96.0
123.751511 204.0
123.926483 208.0
124.141487 160.0
125.38195 80.0
125.471107 152.0
125.821365 120.0
126.085121 192.0
126.552444 144.0
126.722664 152.0
126.751785 128.0
126.845917 136.0
127.023064 128.0
127.234001 56.0
127.355255 196.0
127.526016 240.0
127.735123 160.0
127.847618 84.0
128.005188 236.0
128.05249 156.0
128.367981 116.0
128.580032 116.0
128.636459 212.0
129.022751 68.0
129.138077 160.0
129.185577 144.0
129.579483 64.0
129.633865 176.0
129.828812 184.0
129.937698 156.0
130.051147 112.0
130.14325 148.0
130.180557 124.0
130.221436 96.0
130.428192 192.0
130.778473 168.0
130.912796 128.0
130.937836 132.0
131.047928 628.0
131.599121 144.0
131.822403 160.0
131.923538 180.0
131.97612 152.0
132.042435 148.0
132.143082 220.0
132.22316 260.0
132.284958 100.0
132.523315 236.0
132.931274 132.0
133.089661 232.0
133.39061 136.0
133.556168 80.0
133.57457 48.0
134.06958 52.0
134.124893 176.0
134.267838 164.0
134.722534 88.0
134.76181 196.0
135.20578 180.0
135.393295 128.0
135.597168 148.0
135.629623 68.0
135.91951 120.0
135.961273 112.0
136.075012 168.0
136.500214 156.0
136.818954 200.0
136.970322 128.0
137.373581 120.0
137.665329 192.0
137.836044 192.0
138.355072 228.0
138.570526 120.0
139.177994 40.0
139.257828 108.0
139.4646 120.0
139.553925 132.0
139.671509 144.0
140.471619 188.0
141.436447 96.0
141.900757 196.0
142.133194 68.0
142.282715 96.0
142.717499 136.0
142.938705 52.0
143.643906 184.0
143.98999 144.0
144.301605 184.0
144.606812 128.0
145.041855 452.0
145.488892 96.0
145.6642 124.0
145.74588 152.0
145.875656 148.0
145.923737 124.0
145.945374 136.0
146.02449 8792.0
146.05957 124.0
146.118546 192.0
146.19072 72.0
146.229233 60.0
146.45314 84.0
146.520584 100.0
146.718201 148.0
146.867706 56.0
146.985916 124.0
147.02803 620.0
147.058319 164.0
147.234558 68.0
147.309433 76.0
147.466492 192.0
147.785522 60.0
147.799561 212.0
147.942993 88.0
148.022903 168.0
148.078598 92.0
148.188995 152.0
148.248169 252.0
148.284531 80.0
148.306335 40.0
148.771698 132.0
148.895905 168.0
148.946899 128.0
149.022461 152.0
149.172882 132.0
149.788513 68.0
150.010269 136.0
150.071213 188.0
150.139481 232.0
150.454239 132.0
150.583664 136.0
151.900482 136.0
152.57579 208.0
152.880783 180.0
153.484283 108.0
153.582932 200.0
153.629807 232.0
154.130981 276.0
154.378174 140.0
154.519165 148.0
155.019318 224.0
155.106049 140.0
155.674194 140.0
155.850555 140.0
156.295624 120.0
156.42691 80.0
156.462387 104.0
156.701462 112.0
156.816086 144.0
157.235077 128.0
157.359894 104.0
157.407333 180.0
157.844604 132.0
157.872116 212.0
157.914627 148.0
158.50293 112.0
159.235428 140.0
159.529404 108.0
159.695358 88.0
160.070328 40.0
160.203827 112.0
160.342407 156.0
160.362564 120.0
161.673294 80.0
162.09111 208.0
162.2229 52.0
162.491714 204.0
162.547546 100.0
162.641434 52.0
163.050674 5232.0
163.159637 68.0
163.207947 112.0
163.358002 96.0
164.051376 856.0
164.073578 132.0
164.116928 52.0
164.486832 124.0
164.60939 164.0
164.864838 60.0
165.0513 148.0
165.414719 156.0
165.701538 220.0
165.824539 148.0
167.324661 56.0
167.99469 148.0
168.100464 144.0
168.201126 212.0
168.381851 148.0
168.420593 100.0
168.441269 152.0
168.596283 160.0
168.707428 212.0
168.813431 112.0
169.183411 136.0
169.432022 92.0
169.533081 156.0
170.018021 132.0
170.241272 224.0
170.581619 220.0
170.649216 148.0
171.052444 176.0
171.126663 180.0
171.273773 144.0
171.331085 128.0
171.693375 96.0
171.722076 140.0
172.118729 240.0
172.455719 120.0
172.71196 116.0
172.821838 152.0
172.876785 216.0
172.931732 156.0
172.952682 152.0
172.978851 72.0
173.324554 96.0
173.497528 124.0
173.519928 148.0
173.578659 144.0
173.696823 164.0
174.277008 188.0
174.303268 156.0
174.439941 80.0
174.755524 156.0
176.107849 132.0
176.652344 204.0
176.739655 176.0
177.033478 252.0
177.248032 156.0
177.637756 204.0
177.948257 104.0
179.355499 60.0
179.483459 44.0
180.075882 432.0
180.452652 180.0
180.605087 124.0
181.384262 132.0
181.472717 152.0
181.743622 72.0
182.033508 92.0
182.189285 176.0
182.347824 80.0
183.39209 116.0
183.7966 236.0
184.120529 180.0
184.185349 172.0
184.46907 196.0
185.077789 120.0
185.213196 172.0
185.94252 160.0
186.314514 172.0
186.684158 172.0
187.043289 80.0
187.209366 204.0
188.226486 112.0
188.251053 164.0
188.513306 120.0
188.901535 128.0
189.049271 128.0
189.142334 256.0
189.572311 144.0
190.099518 188.0
190.208588 120.0
190.539169 148.0
190.812943 172.0
190.975189 176.0
191.170517 232.0
191.20079 204.0
191.327408 132.0
192.019012 144.0
192.082458 196.0
192.112793 184.0
192.167969 184.0
192.261795 44.0
193.569336 224.0
193.691193 196.0
194.092209 156.0
194.165131 180.0
194.633759 160.0
194.78685 156.0
195.098068 160.0
195.323318 128.0
196.189331 104.0
196.923187 292.0
198.022339 140.0
198.425842 136.0
198.825348 224.0
198.899918 56.0
198.927994 88.0
198.976028 72.0
199.012222 112.0
199.110504 144.0
199.130157 220.0
199.633194 120.0
199.663666 192.0
199.824463 120.0
201.202591 160.0
201.250595 160.0
201.335297 208.0
201.679977 136.0
202.529297 188.0
202.619461 152.0
203.067322 120.0
203.396454 192.0
203.708801 148.0
204.027069 220.0
204.081085 164.0
204.573257 272.0
204.698532 120.0
204.789673 48.0
205.097382 168.0
205.137283 132.0
205.251328 160.0
205.613617 40.0
206.084778 232.0
206.494308 224.0
206.968582 172.0
207.077698 152.0
207.696487 180.0
207.882965 108.0
208.69873 96.0
208.980591 232.0
209.3116 240.0
210.938751 144.0
211.282867 244.0
211.389923 168.0
211.485428 164.0
211.722824 144.0
212.293716 148.0
212.424225 120.0
213.019302 96.0
213.289536 192.0
213.798508 132.0
214.112915 124.0
214.841599 184.0
215.138077 208.0
215.302765 84.0
215.402069 132.0
215.819977 80.0
216.457855 96.0
216.531067 184.0
216.60408 176.0
216.651154 60.0
216.850403 40.0
217.765778 140.0
217.80246 132.0
217.826202 148.0
218.250656 136.0
218.591858 172.0
218.897995 120.0
219.030533 136.0
219.098282 116.0
219.39592 208.0
219.445618 140.0
219.561035 160.0
219.59938 120.0
220.030197 64.0
220.066559 240.0
220.904922 164.0
221.082443 152.0
221.106125 160.0
222.01561 120.0
222.089279 492.0
222.128311 116.0
222.160934 60.0
222.196533 156.0
222.386459 156.0
223.098633 168.0
223.441345 160.0
223.789551 156.0
223.968231 152.0
224.021851 196.0
224.564331 180.0
224.943268 44.0
225.014923 136.0
225.065674 140.0
225.11644 52.0
226.126892 108.0
226.480179 176.0
227.022644 120.0
227.343628 152.0
227.385635 100.0
227.406647 108.0
227.929169 196.0
228.215912 188.0
228.23877 144.0
228.283875 156.0
228.431244 180.0
228.68399 120.0
228.801392 192.0
228.948929 176.0
229.150742 116.0
229.238113 176.0
229.418961 176.0
229.627014 116.0
230.339325 176.0
230.547791 116.0
230.822876 160.0
231.049713 100.0
231.101135 156.0
232.2341 256.0
232.583023 144.0
232.87146 144.0
233.351593 216.0
233.670929 108.0
233.923508 96.0
234.438232 152.0
234.499176 136.0
234.883362 236.0
234.980972 124.0
235.084717 92.0
235.106079 132.0
235.463257 132.0
235.661819 232.0
235.716812 132.0
235.930756 176.0
236.475235 192.0
236.747696 128.0
236.864075 144.0
236.980499 148.0
237.075485 72.0
237.100327 528.0
238.020279 124.0
238.109329 168.0
238.318207 196.0
238.628632 160.0
238.699341 140.0
239.027115 180.0
239.342438 40.0
239.422501 44.0
239.569778 260.0
239.866165 68.0
240.359619 176.0
240.393555 212.0
241.737762 116.0
242.431412 100.0
242.955414 192.0
243.554794 176.0
243.650803 168.0
243.964676 260.0
244.639725 128.0
244.804733 136.0
244.860794 120.0
246.255402 220.0
246.951859 160.0
247.085754 1636.0
247.317932 172.0
247.461929 56.0
247.991333 208.0
248.032074 140.0
248.093689 316.0
248.163742 88.0
248.298569 164.0
249.099579 176.0
249.434631 216.0
249.463455 112.0
249.516891 180.0
250.382202 108.0
250.505035 136.0
250.98407 192.0
251.25531 184.0
251.668747 168.0
251.987747 144.0
252.066742 96.0
253.078903 196.0
254.029663 216.0
254.810608 164.0
256.210419 124.0
257.127014 136.0
257.173401 56.0
257.416016 116.0
257.559723 164.0
258.493256 76.0
259.059937 156.0
259.229767 116.0
259.364349 152.0
259.976929 136.0
260.368591 204.0
260.570953 72.0
260.824799 112.0
260.908386 108.0
261.19458 184.0
261.310394 248.0
261.703033 108.0
261.915588 232.0
262.073456 116.0
263.115173 96.0
263.224945 152.0
263.325043 260.0
263.516754 224.0
263.622284 68.0
263.716003 36.0
263.822662 168.0
263.877625 184.0
263.906708 176.0
264.027527 188.0
264.152496 240.0
264.217194 52.0
264.254517 96.0
264.326233 108.0
264.366028 72.0
264.395569 136.0
264.521393 76.0
264.563477 132.0
264.620087 212.0
264.645782 180.0
264.689728 128.0
264.74115 64.0
264.762512 144.0
264.786957 164.0
264.824463 140.0
264.889435 256.0
264.924927 104.0
264.982147 260.0
265.054382 440.0
265.097839 87588.0
265.186523 216.0
265.22699 96.0
265.238434 76.0
265.294983 196.0
265.355682 160.0
265.388 60.0
265.423767 112.0
265.456177 144.0
265.47525 68.0
265.50235 92.0
265.529724 96.0
265.567688 188.0
265.62915 440.0
265.660645 48.0
265.722656 144.0
265.750305 96.0
265.790283 112.0
265.832642 68.0
265.868439 104.0
265.885651 52.0
265.892639 100.0
265.957306 40.0
266.010803 92.0
266.051453 188.0
266.100067 17268.0
266.161469 180.0
266.204712 88.0
266.22525 156.0
266.26709 116.0
266.379425 64.0
266.402161 28.0
266.442963 108.0
266.480133 168.0
266.511322 60.0
266.58905 60.0
266.642609 44.0
266.681091 76.0
266.689301 120.0
266.727112 68.0
266.769379 40.0
266.792114 40.0
266.855255 104.0
266.875214 100.0
266.938446 72.0
266.975708 96.0
267.062012 100.0
267.103455 1552.0
267.22467 52.0
267.250519 80.0
267.303192 88.0
267.376495 120.0
267.430817 104.0
267.55011 60.0
267.605774 68.0
267.644531 40.0
267.692841 112.0
267.708435 64.0
267.753143 192.0
267.793549 84.0
267.821716 64.0
267.869232 172.0
267.90506 92.0
267.934509 116.0
267.999542 88.0
268.065491 100.0
268.100311 160.0
268.113068 144.0
268.159241 120.0
268.188568 104.0
268.21463 104.0
268.279816 88.0
268.318939 140.0
268.37439 76.0
268.459167 80.0
268.493134 116.0
268.576569 84.0
268.611389 88.0
268.739685 140.0
268.876709 120.0
268.910126 84.0
269.092163 68.0
269.186859 136.0
269.226044 104.0
269.382812 72.0
269.644196 76.0
270.304779 64.0
270.47168 148.0
270.684143 80.0
270.779449 64.0
271.228302 76.0
271.261078 44.0
271.844879 96.0
272.120605 84.0
272.646149 88.0
273.165649 152.0
274.100647 96.0
274.859039 124.0
275.007538 108.0
275.080139 1456.0
275.169281 48.0
276.089935 408.0
276.193695 80.0
276.269775 48.0
276.395508 136.0
276.425293 124.0
277.299561 60.0
277.379089 48.0
277.601227 112.0
277.707336 120.0
277.780334 96.0
278.407623 116.0
279.105438 48.0
280.697052 52.0
281.141663 140.0
281.507904 84.0
283.719513 104.0
283.769806 56.0
283.89386 104.0
285.428436 88.0
289.789276 252.0
290.019714 76.0
290.484253 56.0
291.567352 132.0
292.344482 168.0
292.403961 52.0
292.444794 48.0
292.856781 88.0
292.926331 192.0
292.970673 120.0
292.996429 212.0
293.091461 13456.0
293.14743 116.0
293.217926 60.0
293.265625 64.0
293.374725 52.0
293.408813 76.0
293.439484 56.0
293.495819 48.0
293.68161 52.0
293.858978 84.0
294.094849 3148.0
294.251465 56.0
294.302673 52.0
294.562592 76.0
294.750122 76.0
294.791138 68.0
294.86557 72.0
294.981567 72.0
295.061157 56.0
295.101196 156.0
295.51944 44.0
295.57077 68.0
295.690552 56.0
295.714508 80.0
296.015747 52.0
296.080811 128.0
296.173279 64.0
296.289764 60.0
296.522766 108.0
296.62558 36.0
297.016479 40.0
297.483154 56.0
297.781891 144.0
297.805908 76.0
298.331635 80.0
298.881927 64.0
299.522247 68.0
300.963776 80.0
301.167511 164.0
302.585297 124.0
303.226105 52.0
307.120148 100.0
310.084991 112.0
316.060974 76.0
322.076141 196.0
326.95575 72.0
328.561615 68.0
329.447205 76.0
333.992798 128.0
336.021851 108.0
346.918793 128.0
349.965179 36.0
351.422485 92.0
352.72583 104.0
358.019714 92.0
359.739014 40.0
361.042511 180.0
361.303497 144.0
363.019287 200.0
365.811798 80.0
367.992401 136.0
368.061127 112.0
369.17691 160.0
369.988068 72.0
371.233307 168.0
372.361572 68.0
387.929199 60.0
390.27298 136.0
392.150726 160.0
392.186188 144.0
393.641937 72.0
395.468353 92.0
396.553589 164.0
401.355743 80.0
403.98764 84.0
404.53186 116.0
409.176605 116.0
411.179932 184.0
412.452179 88.0
426.963104 176.0
432.947021 172.0
434.522125 176.0
453.213989 92.0
456.01474 148.0
456.665222 200.0
462.198212 72.0
464.082794 116.0
475.831177 68.0
476.991058 80.0
478.866333 128.0
479.271484 104.0
481.207977 72.0
481.596649 112.0
487.559387 152.0
492.237671 112.0
499.514923 100.0
502.513031 108.0
502.691528 104.0
503.865784 232.0
504.232178 188.0
504.495911 68.0
504.647919 80.0
505.265106 160.0
505.333923 4848.0
505.551453 36.0
505.958771 116.0
505.993011 80.0
506.039337 72.0
506.240845 60.0
506.337219 1148.0
506.617065 152.0
506.845551 72.0
507.136841 76.0
507.337921 536.0
507.859497 104.0
508.0112 68.0
508.335602 100.0
508.904297 68.0
508.9823 88.0
509.355682 124.0
509.483643 40.0
510.126251 48.0
510.193665 124.0
510.35553 112.0
513.882141 76.0
514.697205 88.0
515.354004 108.0
519.428345 52.0
522.608398 80.0
522.790405 132.0
526.702209 48.0
530.156372 120.0
532.459351 80.0
565.168091 40.0
575.119263 76.0
594.136719 84.0
602.387085 88.0
607.008057 40.0
639.415039 52.0
665.626892 60.0
732.802612 140.0
744.3125 124.0
744.535095 56.0
746.496887 84.0
748.695374 64.0
751.06073 64.0
751.404358 48.0
757.351868 48.0
763.988281 60.0
798.965393 60.0
800.485046 84.0
860.293701 36.0
864.314636 76.0
881.822693 76.0
893.140076 96.0
893.223328 124.0
905.955994 36.0
925.027283 40.0
938.764221 160.0
948.368652 84.0
954.157227 52.0
959.235901 196.0
959.297485 44.0
990.830322 92.0
999.324768 192.0
1006.390076 144.0
1007.198425 124.0
1015.768921 80.0
1020.150452 184.0
1023.420471 188.0
1052.724609 92.0
1072.244995 184.0
1075.714966 104.0
1079.510864 136.0
1080.668579 60.0
1114.572876 156.0
1131.058594 248.0
1132.672363 144.0
1145.084595 120.0
1150.093994 148.0
1150.748779 140.0
1153.025146 236.0
1153.268433 52.0
1155.439087 152.0
1158.153564 140.0
1163.897583 48.0
1164.814331 116.0
1187.591675 92.0
1195.746948 164.0
1197.74353 168.0
1210.914917 132.0
1223.622192 192.0
1243.544312 204.0
1254.841431 128.0
1260.75647 236.0
1310.745605 60.0
1312.237671 148.0
1313.110107 224.0
1321.069824 196.0
1327.327393 156.0
1327.987305 44.0
1332.981934 60.0
1337.338013 168.0
1346.962646 112.0
1349.732422 220.0
1358.007568 216.0
1365.587158 140.0
1370.357178 164.0
1370.681396 48.0
1376.021362 124.0
1378.621338 188.0
1407.166626 132.0
1410.767456 196.0
1413.130615 208.0
1419.21228 156.0
1421.380005 132.0
1427.93811 136.0
1432.265869 84.0
1441.719238 136.0
1448.255859 196.0
1450.263794 240.0
1454.154541 152.0
1467.153931 52.0
1477.287598 108.0
1483.589966 228.0
1487.371704 160.0
1495.60376 68.0
1497.359253 180.0
1497.898315 156.0
1498.838257 52.0
1502.647095 128.0
