>compound MLS000863611-01!2,2-dimethylpyrano[3,2-g]chromen-8-one
>formula C14H12O3
>ionization [M+H]+
>parentmass 229.085831
#inchi InChI=1S/C14H12O3/c1-14(2)6-5-10-7-9-3-4-13(15)16-11(9)8-12(10)17-14/h3-8H,1-2H3
#inchikey QOTBQNVNUBKJMS
#Ion_Source LC-ESI
#Instrument qTof
#Compound_Source NIH Natural Product Library
#PI Dorrestein
#Data_Collector VVP/LMS
#Scan -1
#Precursor_MZ 229.086
#ExactMass 228.079
#Charge 1
#CAS_Number N/A
#Pubmed_ID N/A
#Smiles CC1(C)Oc2cc3oc(=O)ccc3cc2C=C1
#INCHI_AUX N/A
#Library_Class 1
#SpectrumID CCMSLIB00000080474
#IonMode Positive
#UpdateWorkflowName UPDATE-SINGLE-ANNOTATED-GOLD
#LibraryQualityString Gold
#TaskID b1d8e8f6646f4e71acdff9ca3d919d08
##Scan# 2189
#SpectrumFile p2-E09_GE9_01_18033.mzXML
#LibraryName NIH_Natural_Products_Library.mgf
#MQScore -1
#Organism NIH_Natural_Products_Library
#TIC_Query 0
#RT_Query -1
#MZErrorPPM -1
#SharedPeaks 0
#MassDiff 0
#LibMZ -1
#SpecMZ 229.086
#SpecCharge 0
#internalFilename spec-00000.mgf

>collision 10
95.394279 188.0
95.563477 192.0
97.788506 188.0
98.581314 128.0
98.699921 200.0
99.367409 100.0
100.67318 224.0
100.954956 416.0
101.257149 164.0
101.549767 172.0
101.573837 88.0
103.051514 212.0
103.065659 112.0
103.861282 136.0
105.068031 500.0
105.279877 192.0
106.340385 116.0
106.428658 184.0
107.0476 360.0
109.025299 164.0
109.100128 164.0
109.229057 116.0
109.258179 232.0
109.514221 160.0
110.5644 160.0
110.792633 240.0
110.907883 76.0
110.998032 100.0
112.110069 100.0
112.188057 144.0
112.331451 252.0
113.051933 164.0
113.87027 144.0
115.054558 1136.0
116.059044 540.0
116.113396 188.0
116.96209 172.0
117.067589 176.0
117.280876 36.0
117.86573 200.0
119.045174 192.0
120.604065 52.0
120.86869 176.0
121.15332 80.0
121.293564 120.0
121.666489 144.0
121.793854 208.0
122.275368 180.0
123.139626 152.0
123.823036 128.0
124.754974 164.0
125.665855 44.0
125.953842 204.0
126.043205 132.0
126.839943 156.0
127.053398 248.0
127.17865 140.0
127.562752 156.0
127.787643 168.0
128.00824 152.0
128.063995 808.0
128.201965 160.0
128.770493 76.0
128.998703 128.0
129.068817 1672.0
129.381027 120.0
130.038391 156.0
130.07753 320.0
131.049042 908.0
131.085571 164.0
131.212158 192.0
131.264603 80.0
131.305649 96.0
131.734772 188.0
132.052917 688.0
132.20578 72.0
132.333954 84.0
133.026321 132.0
133.692871 140.0
134.65654 92.0
135.632965 180.0
136.636154 224.0
137.453979 176.0
137.921066 236.0
137.951462 156.0
139.051392 424.0
140.061234 148.0
141.068649 476.0
142.075378 548.0
143.048798 552.0
143.087524 164.0
143.351913 88.0
144.055023 584.0
144.091599 128.0
144.16806 80.0
144.349731 96.0
145.016205 52.0
145.061768 160.0
145.096954 488.0
145.139938 92.0
145.461426 32.0
146.071945 172.0
146.910095 116.0
147.009018 64.0
147.038986 436.0
147.095901 32.0
147.2724 208.0
147.51622 64.0
147.547653 104.0
147.704834 228.0
148.060623 172.0
148.82692 116.0
148.994492 76.0
149.960541 132.0
150.553391 180.0
151.054443 168.0
151.968246 148.0
152.060455 736.0
152.233353 120.0
152.314392 132.0
152.557678 208.0
153.068069 672.0
154.078018 116.0
155.052979 180.0
155.085281 912.0
155.507034 132.0
156.058517 44.0
156.092804 232.0
157.06311 924.0
157.119507 212.0
157.561386 72.0
157.966385 72.0
158.028931 164.0
158.071457 1280.0
158.111496 180.0
158.910858 68.0
159.044891 156.0
159.077179 372.0
160.341675 68.0
161.051498 132.0
162.374359 148.0
163.23526 216.0
163.431122 64.0
163.787537 140.0
165.067719 396.0
165.391083 120.0
165.554947 172.0
166.079773 144.0
166.897003 208.0
167.051315 164.0
167.085052 180.0
168.062607 408.0
169.062378 1200.0
169.361588 120.0
169.421158 108.0
169.475571 140.0
170.017532 52.0
170.070129 408.0
170.212219 164.0
170.251175 132.0
170.601944 180.0
171.045227 1084.0
171.082367 372.0
171.351471 164.0
171.424423 48.0
171.588638 48.0
172.044952 176.0
172.095139 184.0
172.191406 144.0
172.465744 188.0
172.549408 108.0
173.043884 184.0
173.092178 328.0
173.290085 44.0
174.097992 172.0
175.037079 668.0
175.468903 156.0
176.046219 628.0
176.08902 224.0
176.675827 44.0
176.715515 140.0
177.046402 132.0
178.104645 224.0
180.051605 160.0
181.081284 188.0
181.338486 128.0
182.065094 120.0
182.264328 252.0
183.036316 112.0
183.081039 376.0
183.456619 124.0
184.051147 212.0
184.092239 384.0
184.468948 72.0
185.015396 160.0
185.060715 1596.0
185.094223 168.0
185.551819 44.0
185.93428 120.0
186.065399 680.0
186.134247 152.0
186.937073 160.0
187.042038 292.0
187.073166 340.0
187.097672 132.0
187.776169 60.0
187.87709 176.0
188.611664 76.0
188.926132 116.0
189.060074 172.0
189.714828 140.0
190.557373 256.0
191.520203 136.0
192.626312 156.0
192.761688 192.0
193.31752 176.0
196.048294 316.0
197.015549 176.0
197.059311 444.0
197.384491 216.0
198.07016 180.0
198.378403 136.0
199.039276 540.0
199.073151 176.0
199.380432 56.0
200.049515 448.0
200.092102 180.0
200.805023 44.0
201.05394 268.0
201.08696 408.0
201.135132 64.0
201.225479 212.0
201.86264 128.0
202.062042 144.0
202.784134 124.0
203.010941 124.0
204.508179 72.0
207.995361 124.0
208.549728 92.0
210.067215 148.0
210.179733 56.0
211.076035 1088.0
211.593094 52.0
212.078903 140.0
212.134827 188.0
212.311691 84.0
212.564072 120.0
212.804993 160.0
213.055084 4324.0
213.339554 104.0
214.061935 2672.0
214.131012 60.0
214.786819 48.0
215.062012 764.0
215.399811 36.0
215.516663 104.0
215.542969 128.0
215.750488 40.0
216.558105 88.0
216.678207 108.0
221.33783 48.0
227.072403 172.0
227.617767 92.0
228.075562 316.0
229.037277 124.0
229.085831 3688.0
229.118622 344.0
230.020294 108.0
230.089539 260.0
230.35849 60.0
230.434021 68.0
230.808807 36.0
231.096725 148.0
231.562347 80.0
231.877426 96.0
248.937164 84.0
270.212006 36.0
284.75885 44.0
288.962433 136.0
294.60257 88.0
313.550018 128.0
325.248566 36.0
333.756622 104.0
352.8797 100.0
379.478394 84.0
467.388885 64.0
559.396667 40.0
574.585449 40.0
595.977722 48.0
614.273499 96.0
674.433533 164.0
710.638367 76.0
810.937927 20.0
813.981567 76.0
920.831177 216.0
925.572266 88.0
931.3396 136.0
937.137024 220.0
985.419434 192.0
1013.671509 160.0
1081.233032 176.0
1106.509766 184.0
1127.863647 132.0
1151.014526 108.0
1152.189819 92.0
1156.754395 256.0
1168.304199 184.0
1177.69043 168.0
1191.82312 88.0
1211.181152 196.0
1220.077271 140.0
1222.525513 80.0
1223.270264 104.0
1230.164429 268.0
1237.890015 192.0
1240.194946 56.0
1262.244385 232.0
1266.115234 204.0
1292.274902 168.0
1300.824463 176.0
1308.581421 184.0
1317.141357 188.0
1318.521362 180.0
1324.924927 172.0
1346.024536 136.0
1354.771851 148.0
1360.954346 160.0
1379.231567 148.0
1379.933838 236.0
1384.069824 132.0
1385.951172 100.0
1389.131714 164.0
1398.784302 164.0
1415.477905 172.0
1427.483887 108.0
1432.978516 144.0
1433.279907 164.0
1447.533569 184.0
1448.859009 228.0
1449.631836 144.0
1454.538696 232.0
1472.332031 96.0
1480.675537 168.0
1482.567749 172.0
1488.036865 148.0
1496.093628 248.0
1497.017578 224.0
1499.243896 112.0
