>compound MLS002701928-01!
>formula C13H12Cl2O4
>ionization [M+H]+
>parentmass 303.017
#inchi InChI=1S/C13H12Cl2O4/c1-3-7(2)13(18)8-4-5-9(12(15)11(8)14)19-6-10(16)17/h4-5H,2-3,6H2,1H3,(H,16,17)
#inchikey AVOLMBLBETYQHX
#Ion_Source LC-ESI
#Instrument qTof
#Compound_Source NIH Pharmacologically Active Library
#PI Dorrestein
#Data_Collector VP/LMS
#Scan -1
#Precursor_MZ 303.017
#ExactMass 302.011
#Charge 1
#CAS_Number N/A
#Pubmed_ID N/A
#Smiles CCC(=C)C(=O)c1ccc(OCC(=O)O)c(Cl)c1Cl
#INCHI_AUX N/A
#Library_Class 1
#SpectrumID CCMSLIB00000085228
#IonMode Positive
#UpdateWorkflowName UPDATE-SINGLE-ANNOTATED-GOLD
#LibraryQualityString Gold
#TaskID d252d724072548979f1f6f1ced849daf
##Scan# 2180
#SpectrumFile p3-G03_GG3_01_18296.mzXML
#LibraryName Pharm_Active_Library.mgf
#MQScore -1
#Organism Pharm_Active_Library
#TIC_Query 0
#RT_Query -1
#MZErrorPPM -1
#SharedPeaks 0
#MassDiff 0
#LibMZ -1
#SpecMZ 303.017
#SpecCharge 0
#internalFilename spec-00000.mgf

>collision 10
44.967606 164.0
45.015671 140.0
45.208187 188.0
45.224247 268.0
45.457458 176.0
45.80307 188.0
46.502121 176.0
46.730816 176.0
46.840717 112.0
47.084885 36.0
47.520222 128.0
47.562767 180.0
48.301403 196.0
48.430141 96.0
49.102901 132.0
49.84071 60.0
50.162674 156.0
51.750095 112.0
52.575268 132.0
52.669121 128.0
53.235455 188.0
53.284843 44.0
53.360424 208.0
53.482632 176.0
53.893917 144.0
53.917297 84.0
54.182167 248.0
54.594658 172.0
54.960003 172.0
55.24052 84.0
55.504375 48.0
56.072296 116.0
56.327461 100.0
56.83202 128.0
57.817616 168.0
58.278637 148.0
58.295353 156.0
58.528103 172.0
59.037815 140.0
59.172478 204.0
59.410042 112.0
59.591217 168.0
59.681908 160.0
59.726509 164.0
59.774204 240.0
60.368149 216.0
61.178131 148.0
61.600769 116.0
61.628891 100.0
61.69923 192.0
61.849415 180.0
62.65506 108.0
63.005322 208.0
63.480194 120.0
63.523796 188.0
64.202225 160.0
64.238914 148.0
64.468849 124.0
64.817719 180.0
64.905891 100.0
65.019791 144.0
65.095253 52.0
65.540848 96.0
65.673058 164.0
65.95887 160.0
68.287498 180.0
68.859444 216.0
68.922226 140.0
69.513412 164.0
70.404099 60.0
70.420799 148.0
70.599632 208.0
71.717873 140.0
72.444534 176.0
72.749802 156.0
74.128021 156.0
74.806488 132.0
76.508339 152.0
76.621552 188.0
76.822044 292.0
77.096191 172.0
78.558891 120.0
78.823746 168.0
78.915665 152.0
79.793343 156.0
79.8965 140.0
80.372246 188.0
81.109116 144.0
82.696083 188.0
82.946053 188.0
83.567184 164.0
84.536163 200.0
84.629524 20.0
85.078735 88.0
85.834976 112.0
86.015793 164.0
86.13398 136.0
86.906021 188.0
87.301704 88.0
87.67778 252.0
88.387444 140.0
88.428619 184.0
88.563431 152.0
88.673981 144.0
89.042946 248.0
89.165741 156.0
89.363197 168.0
90.094749 160.0
90.446495 140.0
91.05706 144.0
91.850807 180.0
92.749573 60.0
92.841606 144.0
92.979744 36.0
93.410164 180.0
93.448639 104.0
93.714355 124.0
93.781815 180.0
94.366768 208.0
95.240814 148.0
95.456558 72.0
95.643333 184.0
97.234421 184.0
97.934402 120.0
98.8228 136.0
99.572159 80.0
99.824562 152.0
100.463943 52.0
100.847359 148.0
101.219482 216.0
101.237511 136.0
101.407814 96.0
102.044197 176.0
102.428596 244.0
102.491051 144.0
103.05368 212.0
103.784752 192.0
103.985596 184.0
104.41227 36.0
104.792946 196.0
105.068199 244.0
105.650475 148.0
105.855164 100.0
105.976021 104.0
106.671783 180.0
106.764313 52.0
106.832191 176.0
107.605072 144.0
107.766182 68.0
107.80751 156.0
108.610863 124.0
108.776878 136.0
108.982491 60.0
109.069778 188.0
109.252785 176.0
109.927895 156.0
110.820808 128.0
111.032539 224.0
111.133232 160.0
111.498634 240.0
112.480202 136.0
112.617455 132.0
112.701965 216.0
113.042419 152.0
113.116501 84.0
113.504234 196.0
113.81617 52.0
114.028618 180.0
114.058372 192.0
114.464752 48.0
114.547821 132.0
114.660751 156.0
114.927322 172.0
114.946526 128.0
115.052895 1196.0
116.060249 596.0
116.316338 136.0
116.599876 220.0
117.027977 180.0
117.067459 476.0
117.267105 180.0
117.709381 148.0
118.073448 156.0
118.180618 184.0
118.325638 152.0
119.049896 136.0
120.465721 116.0
120.968704 204.0
121.060669 164.0
121.13076 100.0
122.735207 148.0
123.123611 200.0
123.209763 132.0
123.548027 148.0
124.001984 108.0
125.013939 704.0
126.054649 212.0
126.933754 244.0
127.012253 220.0
127.04879 308.0
127.324249 164.0
127.974152 124.0
128.06189 1048.0
128.28508 32.0
128.853806 256.0
129.068466 1196.0
129.125076 76.0
129.475891 36.0
129.530258 60.0
129.743286 164.0
130.042725 152.0
130.078812 504.0
130.149429 152.0
130.292526 212.0
130.603973 116.0
131.046646 448.0
131.086655 392.0
132.056976 492.0
132.148483 280.0
132.960541 412.0
133.001022 120.0
133.067596 168.0
133.145676 52.0
133.883942 160.0
134.109741 176.0
134.954071 224.0
136.009399 164.0
136.085449 244.0
136.657242 124.0
137.014236 536.0
137.491516 128.0
137.596558 36.0
137.989075 180.0
138.796906 112.0
138.96814 132.0
138.992722 176.0
139.011703 128.0
139.031509 176.0
139.054001 260.0
139.950668 168.0
140.974457 72.0
141.002823 160.0
141.026459 124.0
141.06929 1824.0
141.591949 104.0
141.715134 168.0
142.070114 156.0
143.078476 176.0
143.712479 116.0
143.748276 204.0
144.053894 128.0
144.099289 176.0
144.345505 80.0
144.957245 196.0
144.991882 152.0
145.027847 368.0
145.062393 976.0
145.32283 180.0
145.582077 160.0
146.036331 196.0
146.072021 436.0
147.039459 144.0
147.079697 152.0
147.123154 124.0
148.006744 136.0
148.955444 172.0
149.015015 328.0
149.060898 168.0
149.688522 188.0
150.023361 388.0
150.6642 172.0
151.009918 328.0
151.030991 560.0
151.114059 188.0
151.278046 156.0
151.393127 224.0
151.736191 124.0
152.000412 356.0
152.018066 468.0
152.035706 232.0
152.337479 84.0
152.990585 140.0
153.023941 176.0
153.041656 180.0
153.555954 36.0
153.997772 112.0
154.420441 60.0
155.012604 192.0
155.033844 148.0
155.059235 200.0
155.299744 172.0
155.649689 136.0
156.064789 240.0
156.303452 164.0
156.76915 196.0
157.028427 128.0
157.062439 316.0
158.071243 804.0
158.112778 148.0
158.164734 132.0
158.74913 200.0
158.791779 56.0
158.862015 184.0
158.974655 424.0
159.042114 144.0
159.078308 876.0
159.102936 100.0
159.404358 44.0
159.474731 188.0
159.731216 80.0
159.945114 132.0
159.972946 144.0
160.043289 176.0
160.078552 116.0
160.948547 112.0
160.974915 172.0
161.059677 40.0
161.097565 108.0
162.021439 204.0
162.102081 116.0
162.781952 108.0
162.972458 172.0
162.99942 244.0
163.028748 284.0
163.07666 172.0
163.924179 56.0
164.035065 288.0
165.011292 944.0
165.043579 792.0
165.1241 188.0
165.144562 148.0
165.303192 88.0
165.920502 116.0
166.016006 672.0
166.074371 100.0
167.00325 200.0
167.025787 504.0
167.086533 160.0
167.253799 52.0
167.547394 208.0
167.830902 124.0
167.980499 140.0
168.015015 348.0
168.037262 296.0
168.055313 160.0
168.362518 128.0
168.447754 100.0
168.913071 172.0
169.027405 148.0
169.073486 148.0
169.296143 40.0
169.581146 108.0
170.510345 192.0
170.981339 128.0
171.173752 176.0
171.945435 144.0
172.053131 468.0
172.920334 188.0
172.955383 1156.0
172.992783 172.0
173.011963 160.0
173.058365 200.0
173.289581 88.0
173.958191 208.0
174.021378 140.0
174.06665 712.0
174.402313 188.0
174.951828 784.0
174.988983 148.0
175.030838 332.0
175.06662 120.0
175.094315 252.0
175.363068 152.0
175.392059 80.0
175.766571 40.0
175.798233 132.0
175.997894 76.0
176.037399 1600.0
176.963989 132.0
177.009766 428.0
177.472733 48.0
177.711456 72.0
178.027908 308.0
178.282394 104.0
178.70787 144.0
178.960739 196.0
179.02475 4644.0
179.091232 60.0
179.128525 52.0
179.165817 52.0
179.1978 124.0
179.229767 60.0
179.408356 48.0
179.856522 200.0
179.989746 156.0
180.030045 500.0
180.323959 36.0
180.810745 100.0
181.020889 736.0
181.199036 56.0
181.290131 84.0
181.410751 136.0
181.432205 148.0
181.984909 140.0
182.011627 160.0
182.028778 288.0
182.189041 176.0
182.264267 112.0
182.74559 148.0
182.972031 212.0
183.00267 132.0
183.082077 48.0
184.004303 132.0
184.06102 52.0
184.109619 160.0
184.972168 228.0
184.991699 292.0
185.465179 96.0
186.966446 352.0
187.001923 168.0
187.070633 164.0
187.416519 68.0
187.972809 352.0
188.952896 588.0
188.989334 176.0
189.01123 176.0
189.621948 180.0
189.948257 364.0
190.014099 164.0
190.063492 256.0
190.947021 492.0
191.027145 348.0
191.069138 56.0
191.652847 108.0
192.044327 176.0
192.135727 152.0
192.858902 128.0
192.975006 124.0
193.004349 644.0
193.040222 432.0
193.210098 52.0
194.010834 1116.0
194.048691 720.0
194.079819 48.0
194.759766 200.0
194.834778 184.0
194.979279 100.0
195.019394 3540.0
195.096024 52.0
195.132156 72.0
195.485428 120.0
195.510483 60.0
195.727615 160.0
195.980347 252.0
196.021057 212.0
196.043182 156.0
196.859818 68.0
197.016602 892.0
197.185226 144.0
197.818863 100.0
197.97287 176.0
198.163361 84.0
198.272644 128.0
198.841995 172.0
198.973785 152.0
199.011414 172.0
199.836807 156.0
199.983337 196.0
200.007721 132.0
200.104202 148.0
200.205582 40.0
200.631073 80.0
200.957657 136.0
200.986343 224.0
201.021301 196.0
201.093704 168.0
201.435364 84.0
201.984772 184.0
202.702927 208.0
202.981476 452.0
203.03746 104.0
203.559647 124.0
203.988693 144.0
204.022797 180.0
204.073975 108.0
204.848114 92.0
205.012207 188.0
205.042847 260.0
207.017807 232.0
207.101959 212.0
207.296783 172.0
208.018555 320.0
208.981842 168.0
209.019699 168.0
209.040619 160.0
210.007217 260.0
210.034836 208.0
211.00798 280.0
211.031158 168.0
211.977905 984.0
212.006699 544.0
212.046448 36.0
212.101517 64.0
212.145004 80.0
212.417603 144.0
212.987045 472.0
213.131836 84.0
213.597015 124.0
213.742477 112.0
213.976028 136.0
214.00737 152.0
214.15007 120.0
214.96637 308.0
215.001358 332.0
215.033539 196.0
215.993973 180.0
216.082642 52.0
216.838165 92.0
216.943695 140.0
216.991516 276.0
217.052185 84.0
217.471725 64.0
219.015457 148.0
221.030731 236.0
221.111847 56.0
222.046417 284.0
222.119293 148.0
222.612 96.0
223.036865 160.0
223.069565 92.0
224.0457 132.0
224.967239 116.0
225.028778 276.0
225.950516 232.0
226.022324 180.0
226.833984 156.0
226.971909 148.0
226.992279 300.0
227.974365 152.0
228.600082 108.0
228.792725 120.0
228.980392 1360.0
229.431442 52.0
229.975586 120.0
230.669189 80.0
230.9785 1168.0
231.056305 44.0
231.141022 48.0
231.980347 176.0
232.041748 84.0
232.310562 48.0
233.075012 160.0
233.428314 108.0
234.134369 152.0
234.359802 68.0
234.6707 132.0
235.018433 288.0
235.693268 184.0
235.962234 164.0
237.024384 116.0
238.377686 64.0
239.009506 420.0
239.045013 156.0
240.024612 140.0
240.095551 52.0
240.848663 148.0
241.000549 148.0
241.040222 144.0
241.986313 172.0
242.987183 196.0
243.338608 84.0
243.919571 208.0
243.970001 788.0
244.006943 380.0
244.915329 56.0
244.964981 160.0
245.011902 124.0
245.594864 56.0
245.962952 576.0
246.006775 148.0
246.481522 36.0
248.024506 160.0
248.639267 116.0
248.95636 196.0
251.850876 168.0
253.024384 4536.0
253.705307 52.0
253.733841 32.0
254.027466 472.0
254.266754 104.0
254.598618 84.0
255.021469 1092.0
256.020813 96.0
256.305267 44.0
256.678223 68.0
256.895111 152.0
256.995056 548.0
258.0065 104.0
258.204773 52.0
259.00708 328.0
259.05304 184.0
259.799988 80.0
261.001251 196.0
263.515442 76.0
267.039307 136.0
268.050598 456.0
268.117004 116.0
269.046661 220.0
272.79126 64.0
274.312164 56.0
276.124969 120.0
292.998444 64.0
301.23233 176.0
315.841888 100.0
344.124268 148.0
345.946991 212.0
383.170807 64.0
409.445801 56.0
417.491699 112.0
428.919617 56.0
455.291077 44.0
501.22641 56.0
738.010803 116.0
809.344116 132.0
938.426453 164.0
952.760803 168.0
979.455566 220.0
997.697998 148.0
1053.163818 124.0
1080.317505 176.0
1092.125366 252.0
1122.286011 196.0
1125.609131 136.0
1171.55835 88.0
1176.038574 212.0
1189.029663 204.0
1203.949219 68.0
1220.755249 192.0
1245.44165 168.0
1257.94812 56.0
1259.946777 152.0
1288.601562 224.0
1288.901611 176.0
1314.119995 108.0
1333.048828 216.0
1353.826172 148.0
1360.109741 172.0
1361.761841 104.0
1369.720825 160.0
1372.079102 144.0
1379.67627 124.0
1387.57605 160.0
1388.562378 228.0
1390.098022 112.0
1394.911133 152.0
1415.286987 144.0
1429.700439 144.0
1430.60376 160.0
1435.312866 116.0
1444.247559 188.0
1445.314209 192.0
1455.600952 60.0
1460.875854 136.0
1464.895508 188.0
1473.509033 44.0
1476.811523 156.0
1478.364746 92.0
1482.722534 188.0
1485.774414 180.0
1485.843506 152.0
1494.526001 104.0
1498.460571 120.0
1501.960693 176.0
