>compound MLS000860082-01!Chloroethylclonidine dihydrochloride
>formula C13H17Cl3N4
>ionization [M+H]+
>parentmass 335.0591560360905
#inchi InChI=1S/C13H17Cl3N4/c1-20(5-2-14)8-9-6-10(15)12(11(16)7-9)19-13-17-3-4-18-13/h6-7H,2-5,8H2,1H3,(H2,17,18,19)
#inchikey XFDVJGKSQRUEEM
#origInchi InChI=1S/C13H17Cl3N4.ClH/c1-20(5-2-14)8-9-6-10(15)12(11(16)7-9)19-13-17-3-4-18-13;/h6-7H,2-5,8H2,1H3,(H2,17,18,19);1H
#Ion_Source LC-ESI
#Instrument qTof
#Compound_Source NIH Pharmacologically Active Library
#PI Dorrestein
#Data_Collector VP/LMS
#Scan -1
#Precursor_MZ 335.06
#ExactMass 334.052
#Charge 1
#CAS_Number N/A
#Pubmed_ID N/A
#Smiles CN(CCCl)Cc1cc(Cl)c(NC2=NCCN2)c(Cl)c1.Cl
#INCHI_AUX N/A
#Library_Class 1
#SpectrumID CCMSLIB00000085748
#IonMode Positive
#UpdateWorkflowName UPDATE-SINGLE-ANNOTATED-GOLD
#LibraryQualityString Gold
#TaskID d252d724072548979f1f6f1ced849daf
##Scan# 123
#SpectrumFile p4-E11_GE11_01_18383.mzXML
#LibraryName Pharm_Active_Library.mgf
#MQScore -1
#Organism Pharm_Active_Library
#TIC_Query 0
#RT_Query -1
#MZErrorPPM -1
#SharedPeaks 0
#MassDiff 0
#LibMZ -1
#SpecMZ 335.06
#SpecCharge 0
#internalFilename spec-00000.mgf

>collision 10
45.316757 172.0
45.65638 156.0
47.74136 36.0
48.071991 40.0
48.255707 128.0
48.914692 148.0
50.38726 136.0
51.079086 156.0
51.214314 156.0
51.904606 176.0
51.916077 100.0
53.05666 148.0
53.738789 140.0
53.759216 136.0
54.294666 208.0
54.658993 180.0
55.385372 144.0
56.018188 112.0
56.497402 184.0
57.97456 152.0
58.179333 104.0
58.890472 208.0
61.632828 132.0
61.684402 120.0
62.840782 196.0
62.920792 36.0
63.365219 188.0
64.509506 124.0
64.799179 120.0
65.843185 188.0
66.422646 104.0
66.827171 80.0
67.556458 220.0
68.177895 176.0
68.475685 184.0
68.861633 104.0
68.891365 68.0
70.195969 108.0
70.762421 176.0
71.465691 180.0
71.671112 136.0
72.582214 148.0
73.562225 36.0
73.698853 148.0
75.035934 200.0
75.586937 120.0
78.129204 76.0
78.921127 156.0
80.099571 40.0
80.201141 192.0
80.860222 128.0
81.249069 172.0
82.016945 140.0
82.238808 188.0
83.009521 76.0
83.498047 48.0
83.76561 84.0
83.823914 168.0
83.889534 156.0
84.117561 64.0
84.461098 172.0
84.942863 168.0
85.124565 116.0
85.370819 112.0
85.45359 96.0
85.704002 96.0
86.398224 184.0
87.752174 260.0
88.835037 228.0
89.570053 128.0
90.758827 184.0
91.296234 196.0
92.979378 184.0
93.304008 168.0
93.945328 156.0
95.053986 116.0
95.553352 204.0
95.627304 52.0
96.374207 204.0
96.540367 176.0
97.646492 152.0
98.806396 148.0
99.448448 80.0
100.449341 164.0
100.654915 256.0
101.951035 40.0
102.035408 164.0
102.180267 92.0
102.351349 124.0
102.472206 160.0
103.05127 152.0
103.225105 120.0
103.439575 132.0
105.598503 148.0
106.065353 128.0
106.463394 160.0
106.564049 212.0
108.081627 40.0
108.348724 172.0
108.64312 140.0
110.263145 196.0
110.524551 136.0
111.975182 176.0
112.719894 112.0
113.800179 144.0
114.201828 144.0
114.42527 160.0
114.557312 112.0
119.065956 132.0
120.822876 112.0
121.046135 148.0
121.657867 224.0
122.042351 52.0
122.998497 148.0
123.155273 40.0
123.201668 196.0
123.694817 156.0
125.013214 104.0
125.3517 180.0
126.997185 256.0
127.340591 96.0
127.893715 204.0
129.231979 200.0
130.097748 200.0
130.286255 144.0
130.338501 144.0
130.520355 144.0
130.886703 72.0
131.274094 56.0
132.34581 148.0
134.114777 188.0
135.070755 144.0
137.020813 172.0
137.428848 168.0
137.664612 144.0
138.005768 184.0
138.0233 180.0
138.820663 208.0
139.008331 124.0
139.257187 144.0
139.654419 72.0
140.198288 188.0
140.658218 192.0
143.02153 160.0
143.061996 92.0
144.051666 168.0
144.304993 208.0
145.114273 168.0
145.872925 132.0
146.171158 64.0
146.305939 112.0
146.877075 164.0
147.976654 48.0
150.017441 156.0
151.868546 200.0
152.018204 228.0
152.175308 196.0
152.304932 128.0
152.912781 104.0
152.949707 128.0
153.02356 152.0
153.398041 212.0
153.600235 252.0
154.012466 196.0
154.266983 164.0
155.6073 68.0
155.853195 164.0
155.945145 136.0
156.268433 68.0
156.9534 128.0
157.514954 204.0
157.962036 160.0
158.250229 204.0
158.909409 88.0
158.973404 352.0
159.831558 152.0
159.964951 168.0
160.367981 132.0
160.610046 216.0
161.871201 148.0
162.365372 120.0
162.408493 116.0
162.563248 120.0
162.939056 176.0
163.020355 148.0
163.104233 148.0
164.020615 104.0
164.722351 144.0
165.017441 156.0
165.025009 104.0
166.043121 416.0
167.132339 152.0
167.536575 72.0
167.894852 220.0
168.300003 144.0
169.116943 192.0
169.557251 112.0
171.983948 308.0
172.051819 144.0
172.089127 284.0
172.991165 124.0
173.089844 472.0
173.215546 124.0
173.304626 140.0
173.802826 104.0
173.928802 148.0
173.988068 2344.0
174.088959 164.0
174.538315 148.0
174.585648 92.0
174.956665 84.0
174.9832 144.0
175.810684 120.0
175.844986 68.0
175.982864 1568.0
176.024521 184.0
176.124878 68.0
176.146011 80.0
176.241119 104.0
176.299255 132.0
176.983246 92.0
177.201584 140.0
177.734528 52.0
177.9814 308.0
178.076996 52.0
178.164658 124.0
178.260315 120.0
179.023102 480.0
179.148987 44.0
179.45015 148.0
179.500809 100.0
179.898361 164.0
180.023865 156.0
180.673386 144.0
180.750977 48.0
180.836609 136.0
181.022324 460.0
181.040497 124.0
181.610962 88.0
182.607437 196.0
184.930542 112.0
184.979324 356.0
185.998505 188.0
186.28093 112.0
186.973572 200.0
186.993774 452.0
187.03688 32.0
188.042664 72.0
188.403107 216.0
188.990433 172.0
189.097672 220.0
189.95459 196.0
189.999222 144.0
190.158371 196.0
190.31485 28.0
191.048676 236.0
191.95726 184.0
192.032074 148.0
192.951645 168.0
193.053955 164.0
193.95932 180.0
194.52243 156.0
195.261551 184.0
195.578735 84.0
196.035507 52.0
197.244019 172.0
197.786682 144.0
197.985474 136.0
198.369339 152.0
198.44223 72.0
198.8069 60.0
198.978973 184.0
199.152237 128.0
199.194366 148.0
199.649704 112.0
199.686264 108.0
199.93486 144.0
199.964813 244.0
200.003021 3368.0
200.961792 168.0
201.002167 636.0
201.719284 184.0
201.928528 112.0
201.948334 128.0
201.997482 1340.0
202.2341 36.0
202.493469 132.0
202.976807 156.0
203.00589 176.0
203.197601 96.0
203.470062 80.0
204.011917 132.0
204.117905 160.0
204.137802 60.0
204.408051 80.0
204.50766 96.0
204.570282 92.0
205.02887 216.0
205.984726 140.0
206.048615 1840.0
206.424866 72.0
206.527832 68.0
207.050644 880.0
207.23494 72.0
208.058411 524.0
208.296448 48.0
208.333786 40.0
208.693039 152.0
209.058258 304.0
209.331848 148.0
209.478745 44.0
209.683319 100.0
209.764038 204.0
210.062485 272.0
210.11586 148.0
210.228409 92.0
210.254379 84.0
210.444901 52.0
212.56955 196.0
212.723373 180.0
212.994904 164.0
213.740631 76.0
213.982208 152.0
214.209366 112.0
214.646561 176.0
214.996613 140.0
215.125046 64.0
215.621613 96.0
215.99588 60.0
217.431595 104.0
218.592422 144.0
220.057312 140.0
221.50061 140.0
225.02475 136.0
225.344345 164.0
225.993164 120.0
226.828735 152.0
226.936661 172.0
227.218597 168.0
228.101517 120.0
228.206741 52.0
229.017593 292.0
229.655273 112.0
229.950958 196.0
230.022125 1500.0
230.046631 268.0
230.077744 48.0
230.394852 224.0
230.82103 120.0
231.025406 292.0
232.018265 652.0
232.459854 76.0
232.684479 80.0
233.034164 180.0
233.943115 60.0
234.023636 196.0
234.198898 88.0
234.360367 92.0
234.753601 36.0
234.915253 144.0
235.070862 144.0
235.217361 128.0
236.837997 200.0
236.963608 160.0
237.754745 180.0
237.911285 88.0
238.983932 244.0
239.698303 96.0
239.827744 68.0
240.852173 148.0
240.926315 100.0
241.247711 148.0
241.64978 220.0
241.751892 48.0
241.884979 160.0
241.928314 188.0
242.023087 7932.0
242.172943 60.0
242.244186 60.0
242.359634 76.0
242.476578 52.0
242.507584 92.0
242.544769 108.0
242.647079 72.0
242.671875 88.0
242.749405 144.0
242.786621 84.0
242.881424 148.0
243.029907 4232.0
243.103058 68.0
243.183746 36.0
243.289291 84.0
243.314117 80.0
243.341171 56.0
243.397186 48.0
243.547028 36.0
243.568771 52.0
243.590515 76.0
243.699249 52.0
243.736542 48.0
243.873276 116.0
244.021072 5440.0
244.082733 68.0
244.237076 40.0
244.448639 100.0
244.504654 56.0
244.828445 156.0
244.921875 64.0
244.96698 132.0
245.028046 3980.0
245.136856 36.0
245.645065 80.0
245.754272 40.0
245.791718 92.0
245.910294 72.0
246.032364 400.0
246.641205 56.0
246.716232 156.0
246.738113 136.0
246.940186 116.0
247.027084 180.0
247.122818 52.0
247.645615 104.0
247.686325 40.0
247.74585 88.0
247.789703 108.0
247.824173 136.0
248.821564 52.0
248.865524 60.0
249.057098 60.0
249.295868 108.0
249.493896 140.0
249.566208 44.0
254.209732 32.0
256.03772 272.0
257.031403 120.0
257.651764 100.0
258.041687 204.0
259.031464 204.0
261.039764 120.0
262.037598 84.0
262.069824 136.0
263.008301 108.0
270.553528 76.0
271.052307 408.0
272.054352 192.0
273.053955 184.0
273.58371 80.0
274.046539 168.0
274.888947 220.0
275.014374 72.0
276.160919 88.0
277.024872 84.0
278.009644 104.0
279.019409 108.0
283.040039 156.0
289.690247 100.0
292.847687 216.0
299.085449 204.0
299.117401 44.0
313.845062 176.0
315.370148 128.0
332.110901 128.0
333.104462 220.0
334.116608 200.0
335.056366 148.0
335.099152 112.0
336.098236 128.0
343.893219 52.0
442.910614 56.0
469.637054 108.0
499.723694 88.0
597.119019 52.0
619.166321 44.0
892.627319 56.0
918.314392 116.0
941.896362 60.0
1128.19397 32.0
1231.799194 56.0
1264.666138 136.0
1280.499634 144.0
1284.705322 116.0
1292.621948 108.0
1296.646729 92.0
1351.38147 48.0
1363.19458 176.0
1391.515137 156.0
1396.6875 160.0
1405.814453 64.0
1410.661987 204.0
1439.370728 76.0
1458.4552 132.0
1493.630127 132.0
1494.160889 120.0
1497.524902 248.0
