>compound MLS000877020-01!3',4,6-trimethoxy-5'-methylspiro[1-benzofuran-2,4'-cyclohex-2-ene]-1',3-dione
>formula C17H18O6
>ionization [M+H]+
>parentmass 319.118317
#inchi InChI=1S/C17H18O6/c1-9-5-10(18)6-14(22-4)17(9)16(19)15-12(21-3)7-11(20-2)8-13(15)23-17/h6-9H,5H2,1-4H3
#inchikey QPCYNIYZPDJCMB
#Ion_Source LC-ESI
#Instrument qTof
#Compound_Source NIH Natural Product Library
#PI Dorrestein
#Data_Collector VVP/LMS
#Scan -1
#Precursor_MZ 319.118
#ExactMass 318.11
#Charge 1
#CAS_Number N/A
#Pubmed_ID N/A
#Smiles COC1=CC(=O)CC(C)C21Oc3cc(OC)cc(OC)c3C2=O
#INCHI_AUX N/A
#Library_Class 1
#SpectrumID CCMSLIB00000079928
#IonMode Positive
#UpdateWorkflowName UPDATE-SINGLE-ANNOTATED-GOLD
#LibraryQualityString Gold
#TaskID b1d8e8f6646f4e71acdff9ca3d919d08
##Scan# 1929
#SpectrumFile p1-H12_GH12_01_17968.mzXML
#LibraryName NIH_Natural_Products_Library.mgf
#MQScore -1
#Organism NIH_Natural_Products_Library
#TIC_Query 0
#RT_Query -1
#MZErrorPPM -1
#SharedPeaks 0
#MassDiff 0
#LibMZ -1
#SpecMZ 319.118
#SpecCharge 0
#internalFilename spec-00000.mgf

>collision 10
95.012901 676.0
95.049057 804.0
95.251427 148.0
95.325256 140.0
95.395226 80.0
95.84481 44.0
95.872086 108.0
96.022209 96.0
96.147072 116.0
96.414627 76.0
96.860725 132.0
97.060631 332.0
97.074356 92.0
97.21756 128.0
97.274063 168.0
97.482674 164.0
97.508224 156.0
97.66748 48.0
97.785538 144.0
98.004128 188.0
98.086899 64.0
98.169708 132.0
98.226906 128.0
98.442032 40.0
98.538818 108.0
98.67717 36.0
98.910606 164.0
99.035355 108.0
99.051201 184.0
99.342606 192.0
99.412048 100.0
99.594704 208.0
99.978424 132.0
100.363014 124.0
100.594315 148.0
100.698151 152.0
100.78405 160.0
101.033966 108.0
101.055977 136.0
101.144028 116.0
101.256157 112.0
101.402412 172.0
101.520699 228.0
101.875961 128.0
101.902084 56.0
101.940262 136.0
101.980186 152.0
102.048805 156.0
102.139297 180.0
102.268082 176.0
102.320419 152.0
102.505722 136.0
102.550064 156.0
102.755753 272.0
103.053345 256.0
103.277527 180.0
103.376076 188.0
103.590691 56.0
103.617027 128.0
103.797424 188.0
104.002327 236.0
104.062279 168.0
104.504288 140.0
104.526337 248.0
104.722107 200.0
104.958511 100.0
104.972778 192.0
105.030479 292.0
105.069519 112.0
105.240089 76.0
105.26255 56.0
105.403496 184.0
105.552719 176.0
105.581345 140.0
105.603844 136.0
105.636269 116.0
105.659073 156.0
106.042938 184.0
106.070694 60.0
106.160912 168.0
106.700935 180.0
106.885712 172.0
107.003372 132.0
107.020836 168.0
107.047173 1352.0
107.139297 232.0
107.250572 48.0
107.275314 112.0
107.295929 168.0
107.335106 176.0
107.429977 132.0
107.7789 116.0
107.87397 148.0
107.890503 184.0
107.925652 100.0
108.018723 228.0
108.052231 172.0
108.1408 128.0
108.248459 112.0
108.391388 124.0
108.510994 204.0
108.74028 204.0
108.791679 144.0
108.949516 200.0
108.9786 184.0
109.026848 524.0
109.062057 1140.0
109.74456 140.0
109.969856 168.0
110.037521 668.0
110.09095 116.0
110.159874 152.0
110.381416 128.0
110.448341 32.0
110.668083 76.0
110.722534 120.0
110.906906 224.0
111.04454 312.0
111.085144 156.0
111.271919 204.0
111.326515 212.0
111.807938 212.0
112.151245 84.0
112.17865 160.0
112.454971 192.0
112.67646 176.0
112.974792 156.0
112.995949 180.0
113.061546 368.0
113.311409 180.0
113.415245 148.0
113.612457 136.0
113.820457 140.0
113.865051 172.0
114.041397 160.0
114.109428 152.0
114.143448 140.0
114.181725 156.0
114.375343 108.0
114.641571 172.0
114.952919 192.0
115.021217 200.0
115.046043 216.0
115.329102 172.0
115.416451 148.0
115.724564 220.0
115.754547 180.0
115.915207 128.0
116.06311 208.0
116.284073 160.0
116.391617 208.0
116.632027 160.0
116.991264 180.0
117.02356 156.0
117.068779 124.0
117.2519 280.0
117.371681 92.0
117.422646 180.0
117.767296 148.0
117.793472 140.0
117.879898 132.0
117.970993 188.0
117.990128 188.0
118.037697 148.0
118.32547 36.0
118.46624 68.0
118.737183 160.0
118.93029 68.0
119.012779 164.0
119.045761 264.0
119.119202 172.0
119.390892 132.0
119.440918 228.0
119.560577 124.0
119.660713 80.0
119.919937 192.0
119.938828 216.0
120.028992 192.0
120.055115 188.0
120.090004 180.0
120.201271 188.0
120.303474 184.0
120.587814 176.0
120.714615 52.0
120.885246 212.0
120.979362 148.0
121.028145 416.0
121.059784 148.0
121.290421 156.0
121.37812 164.0
121.689697 176.0
121.740196 152.0
121.891769 280.0
122.036118 3032.0
122.138008 192.0
122.162201 172.0
122.188042 220.0
122.256813 76.0
122.393295 300.0
122.43734 76.0
123.009369 392.0
123.042526 636.0
123.076851 108.0
123.291122 44.0
123.364067 128.0
123.452507 196.0
123.477592 108.0
123.749016 180.0
123.910698 176.0
123.97496 168.0
124.046318 144.0
124.364586 136.0
124.571373 224.0
124.92527 160.0
124.963089 104.0
125.017326 128.0
125.060738 776.0
125.227287 176.0
125.693932 136.0
125.863579 156.0
125.912704 184.0
126.051216 196.0
126.116028 164.0
126.147316 216.0
126.265823 132.0
126.400047 64.0
126.482857 156.0
126.774017 200.0
126.906273 84.0
126.933182 60.0
127.039696 220.0
127.055901 400.0
127.083466 224.0
127.23159 192.0
127.534851 180.0
127.793472 92.0
128.041092 200.0
128.072617 128.0
128.115417 124.0
128.909637 128.0
129.031693 128.0
129.067932 152.0
129.239777 168.0
129.273483 116.0
129.466141 56.0
129.529572 204.0
129.552216 104.0
129.731247 184.0
129.946701 96.0
130.010239 128.0
130.044281 220.0
130.080597 96.0
130.185043 164.0
130.590683 156.0
130.680573 136.0
130.710159 200.0
131.01297 152.0
131.04715 328.0
131.081329 96.0
131.113235 188.0
131.873245 124.0
132.037857 236.0
132.060135 200.0
132.314728 220.0
132.568985 72.0
132.844131 212.0
132.908371 52.0
133.028152 144.0
133.065186 532.0
133.243576 224.0
133.310211 152.0
133.59993 132.0
133.841599 84.0
134.002823 176.0
134.037384 192.0
134.069641 148.0
134.19873 132.0
134.244858 76.0
134.401718 208.0
134.536148 224.0
134.556351 88.0
134.757294 152.0
134.932938 132.0
135.045456 1008.0
135.0793 600.0
135.307739 176.0
135.659882 64.0
135.805969 132.0
135.868591 116.0
136.014801 352.0
136.050018 116.0
136.083252 204.0
136.154114 148.0
136.516647 32.0
136.642258 160.0
136.767914 120.0
136.826111 152.0
136.844742 164.0
136.881989 188.0
137.021027 536.0
137.05748 456.0
137.189545 220.0
137.31546 40.0
137.376099 160.0
137.59314 88.0
137.763626 144.0
137.955246 244.0
138.031525 4884.0
138.135315 48.0
138.314163 148.0
138.418518 176.0
138.458328 148.0
138.678558 208.0
138.847366 128.0
138.91069 108.0
139.034073 952.0
139.073105 384.0
139.138336 212.0
139.44371 100.0
139.518921 184.0
139.617676 164.0
139.690598 64.0
140.630768 200.0
140.819656 104.0
141.055954 296.0
141.07486 160.0
141.287704 184.0
141.730133 152.0
142.078979 184.0
142.254593 288.0
142.763062 176.0
143.081894 260.0
143.169998 136.0
143.379654 184.0
143.410629 140.0
143.672943 184.0
143.739594 124.0
144.054901 104.0
144.250854 48.0
144.334534 168.0
144.377579 140.0
144.54982 84.0
144.600082 100.0
145.06337 436.0
145.103119 80.0
145.239807 112.0
145.931442 80.0
145.962708 320.0
146.031555 248.0
146.06868 344.0
146.241776 220.0
146.735611 164.0
146.754898 104.0
146.856186 152.0
147.044373 356.0
147.070358 204.0
147.086212 252.0
147.401794 152.0
147.544388 168.0
147.57341 140.0
147.912094 148.0
148.050903 372.0
148.101364 296.0
148.121735 112.0
148.144577 164.0
148.270569 88.0
148.348129 112.0
148.5858 252.0
148.796951 216.0
149.021332 320.0
149.05835 412.0
149.231842 116.0
149.355881 200.0
149.409393 216.0
149.45076 132.0
149.49942 120.0
149.625992 164.0
149.879303 56.0
150.030182 2672.0
150.103561 40.0
150.376785 40.0
150.45491 152.0
150.486649 124.0
150.616074 152.0
150.682037 120.0
151.038361 888.0
151.078094 164.0
151.33017 60.0
151.352936 68.0
151.413437 196.0
151.758957 196.0
152.009155 100.0
152.042053 528.0
152.12941 44.0
152.190796 220.0
152.47821 188.0
152.524902 136.0
152.581451 184.0
152.655212 176.0
152.832321 112.0
152.854462 176.0
152.933228 192.0
153.025391 188.0
153.051331 312.0
153.13266 104.0
153.512192 188.0
153.561508 148.0
153.702133 256.0
153.756424 188.0
153.95639 152.0
153.976151 232.0
154.025543 152.0
154.059677 216.0
154.161438 92.0
154.485336 56.0
154.804626 140.0
154.859116 40.0
154.933426 208.0
155.030304 240.0
155.062042 124.0
155.33255 184.0
155.90361 172.0
156.053787 48.0
156.154709 160.0
156.313919 116.0
156.525513 164.0
156.582794 204.0
156.844406 160.0
156.976547 172.0
157.066895 280.0
157.096268 188.0
157.295898 156.0
157.3172 172.0
157.820541 164.0
158.071442 524.0
158.651764 140.0
158.807236 108.0
158.890015 200.0
158.91008 80.0
159.038071 152.0
159.058151 80.0
159.083252 320.0
159.314285 160.0
159.45752 120.0
159.527893 52.0
159.603317 80.0
159.786926 140.0
159.872482 136.0
159.922821 76.0
160.054062 200.0
160.136841 224.0
160.378723 148.0
160.804977 132.0
161.057358 1088.0
161.206528 112.0
161.307632 104.0
161.813599 56.0
161.985809 96.0
162.006073 132.0
162.065536 476.0
162.142899 148.0
162.343185 144.0
162.960007 188.0
163.033691 372.0
163.074036 2152.0
163.188751 72.0
163.206543 72.0
163.273941 40.0
163.295303 204.0
163.458374 212.0
163.491455 156.0
163.544907 76.0
163.795914 76.0
163.916733 64.0
164.050644 304.0
164.079971 588.0
164.156357 120.0
164.498245 56.0
164.694855 148.0
164.866043 148.0
164.899261 112.0
164.932495 240.0
164.950378 80.0
164.991287 104.0
165.011734 172.0
165.054123 31900.0
165.136337 220.0
165.19075 156.0
165.211868 144.0
165.242935 112.0
165.285416 60.0
165.307938 40.0
165.384338 96.0
165.418503 72.0
165.531296 76.0
165.561401 104.0
165.597748 88.0
165.661789 36.0
165.728394 60.0
165.75145 204.0
165.938568 72.0
166.025818 6624.0
166.057053 2504.0
166.127579 40.0
166.210968 60.0
166.302841 64.0
166.370575 64.0
166.526215 184.0
166.554474 40.0
166.595566 164.0
166.721481 172.0
166.91684 136.0
166.95285 156.0
167.030167 612.0
167.062317 164.0
167.068176 124.0
167.125198 40.0
167.150925 28.0
167.171509 188.0
167.202393 80.0
167.246155 116.0
167.405777 128.0
167.457291 80.0
167.712357 48.0
167.93927 88.0
168.037094 188.0
168.078583 36.0
168.145676 128.0
168.338226 116.0
168.372864 80.0
168.416779 136.0
168.693268 80.0
169.057953 196.0
169.373825 92.0
169.433411 40.0
169.717239 176.0
169.78334 136.0
170.034988 164.0
170.679245 76.0
170.757263 156.0
171.042084 220.0
171.07077 164.0
171.124176 180.0
171.376831 100.0
171.997513 64.0
172.056412 184.0
172.083435 392.0
172.130661 116.0
173.056732 120.0
173.174133 88.0
173.409943 124.0
174.027908 212.0
174.066086 196.0
174.092072 164.0
174.302216 120.0
174.594009 100.0
175.041382 240.0
175.071518 300.0
175.476151 152.0
175.951035 120.0
176.045441 632.0
176.07515 164.0
176.127975 32.0
176.146469 172.0
176.587875 160.0
177.053513 536.0
177.090256 188.0
177.146393 112.0
177.628845 144.0
177.6819 60.0
177.74823 152.0
178.016342 124.0
178.057526 144.0
178.103989 168.0
178.18634 180.0
178.390976 64.0
178.481369 272.0
179.03476 220.0
179.066986 140.0
179.317276 176.0
179.386581 120.0
179.442566 152.0
179.463898 128.0
179.554565 184.0
179.922806 216.0
180.04277 180.0
180.379608 132.0
180.411697 88.0
180.475067 204.0
180.684479 112.0
180.796951 232.0
180.826294 152.0
180.886871 184.0
180.9655 132.0
181.048615 39784.0
181.12886 108.0
181.148376 28.0
181.196732 36.0
181.245331 68.0
181.262146 128.0
181.304657 92.0
181.327133 40.0
181.396301 40.0
181.42717 176.0
181.504074 100.0
181.528198 64.0
181.564026 80.0
181.608658 40.0
181.659622 36.0
181.70256 48.0
181.729385 44.0
181.815247 40.0
181.868927 40.0
181.903824 108.0
182.051834 4340.0
182.10054 76.0
182.161621 76.0
182.216751 92.0
182.239532 48.0
182.387344 48.0
182.574265 176.0
182.610504 72.0
182.688507 80.0
182.731552 44.0
182.758469 140.0
182.788956 144.0
182.84996 104.0
182.882263 36.0
182.928024 60.0
183.015488 156.0
183.057693 660.0
183.105728 44.0
183.164978 104.0
183.197876 96.0
183.334732 104.0
183.361679 68.0
183.425919 144.0
183.480286 104.0
183.509933 80.0
183.531509 144.0
183.561172 52.0
183.628586 72.0
183.709518 124.0
184.035202 188.0
184.233749 104.0
184.303482 92.0
184.668442 44.0
184.700897 196.0
185.049591 212.0
185.053604 180.0
185.064453 272.0
185.366913 60.0
185.450928 120.0
185.65155 88.0
185.82515 28.0
185.879425 148.0
185.996124 40.0
186.360031 68.0
186.425247 184.0
186.455139 180.0
186.708954 124.0
187.037552 376.0
187.073868 144.0
187.27681 88.0
187.328568 88.0
187.43483 84.0
187.52475 180.0
187.969284 188.0
188.041931 200.0
188.076675 480.0
188.1194 40.0
188.6931 104.0
188.725922 96.0
188.759811 152.0
188.838043 96.0
189.054337 472.0
189.481323 188.0
190.061798 4164.0
190.098267 176.0
190.142181 76.0
190.39476 76.0
190.49913 52.0
190.518356 184.0
190.562317 168.0
190.723511 104.0
191.030014 168.0
191.067337 1264.0
191.459076 80.0
191.525177 152.0
191.610565 164.0
191.712524 108.0
191.797958 64.0
192.050385 124.0
192.078781 900.0
192.104736 160.0
192.230957 60.0
192.449036 68.0
192.573303 72.0
193.048294 1016.0
193.086182 164.0
193.322525 76.0
193.612671 292.0
193.721237 44.0
193.965088 224.0
194.059631 484.0
194.142532 60.0
194.245163 196.0
194.264572 48.0
194.367233 80.0
194.414398 76.0
194.975388 152.0
195.022644 76.0
195.068146 228.0
195.100754 360.0
195.281219 40.0
195.576157 340.0
195.862961 72.0
196.069138 352.0
196.406509 60.0
196.76091 168.0
196.950806 164.0
197.061508 208.0
197.381195 208.0
197.434326 44.0
197.613342 136.0
197.739273 80.0
198.066788 136.0
198.627487 164.0
198.750931 48.0
199.044769 424.0
199.067429 352.0
199.225418 132.0
199.728607 200.0
200.041641 332.0
200.066284 156.0
200.088806 176.0
200.131042 136.0
200.201431 92.0
200.409882 92.0
200.449341 116.0
200.720551 148.0
200.798904 124.0
201.053284 1248.0
201.094955 168.0
201.267365 196.0
201.380325 68.0
201.886215 152.0
202.060028 296.0
202.237045 56.0
203.036285 124.0
203.064377 96.0
203.099304 456.0
203.893402 68.0
204.042358 288.0
204.10376 112.0
204.815262 84.0
205.054749 148.0
206.056274 312.0
206.087631 128.0
206.350571 160.0
206.957153 72.0
207.062744 1708.0
207.094604 128.0
207.753906 84.0
208.068192 428.0
208.328064 164.0
208.391266 136.0
208.661438 84.0
209.044952 336.0
209.072052 192.0
209.369293 204.0
209.507553 124.0
210.092789 192.0
210.150482 176.0
210.340958 96.0
210.713501 48.0
211.06868 204.0
211.717224 140.0
211.899719 64.0
212.048767 148.0
213.058868 356.0
213.112503 96.0
213.83078 44.0
214.022919 172.0
214.059753 528.0
215.035309 320.0
215.069687 768.0
215.105179 148.0
216.039001 436.0
216.07399 1040.0
216.320602 44.0
216.891815 120.0
216.980453 68.0
217.0504 484.0
217.082382 184.0
217.164505 48.0
217.651657 144.0
218.053345 1892.0
218.096146 108.0
218.154068 132.0
219.021957 128.0
219.065018 2088.0
219.296173 124.0
219.337433 208.0
219.900803 132.0
220.062759 564.0
220.674774 156.0
221.011948 48.0
221.044052 544.0
221.083618 368.0
221.387894 68.0
221.823441 164.0
221.983551 132.0
222.05191 152.0
222.084381 128.0
222.128876 72.0
222.185242 44.0
222.799789 56.0
222.915665 284.0
223.022659 68.0
223.058731 172.0
223.096359 2496.0
223.284302 84.0
223.325943 108.0
223.668121 64.0
224.058228 264.0
224.100281 400.0
225.050568 208.0
225.188782 120.0
225.421814 228.0
225.445724 88.0
225.894211 80.0
226.056763 388.0
227.028091 172.0
227.071945 212.0
228.041641 312.0
228.076157 172.0
228.110275 168.0
228.194458 88.0
229.05011 604.0
229.081055 280.0
229.377579 112.0
229.516739 128.0
230.055588 560.0
230.213333 72.0
230.41571 36.0
230.445923 44.0
230.51239 60.0
231.062363 648.0
231.069641 504.0
231.101929 1460.0
231.280579 148.0
231.937881 152.0
232.068176 216.0
232.098557 124.0
232.183472 48.0
232.568787 64.0
233.033417 196.0
233.079971 396.0
233.2948 68.0
233.39209 60.0
233.900146 96.0
234.050476 456.0
234.093338 248.0
234.216827 96.0
235.057938 324.0
235.122375 172.0
235.256683 132.0
235.482635 140.0
235.806503 176.0
235.898193 52.0
236.066238 3216.0
236.225403 68.0
236.311066 64.0
236.347778 176.0
236.500793 96.0
236.577332 64.0
236.779419 72.0
236.810043 56.0
237.072525 628.0
237.110306 116.0
237.312622 44.0
237.51503 44.0
238.058258 68.0
238.079758 164.0
238.27327 60.0
238.85994 120.0
238.94043 168.0
239.066589 336.0
239.097366 180.0
239.448334 112.0
239.851974 200.0
240.033875 176.0
240.077042 136.0
240.586151 40.0
241.047089 304.0
241.082031 332.0
241.151443 96.0
241.454437 72.0
241.507004 68.0
241.578156 56.0
242.056839 704.0
242.091949 112.0
242.463715 168.0
242.822556 172.0
243.064056 3268.0
243.490631 56.0
243.824875 96.0
244.034256 340.0
244.070236 1660.0
244.348572 72.0
244.718948 52.0
244.871536 196.0
245.080017 1896.0
245.282822 56.0
245.884811 120.0
246.083435 264.0
246.337555 96.0
246.603149 112.0
247.059158 196.0
247.091125 180.0
247.2005 64.0
247.619995 92.0
247.67012 40.0
247.970901 84.0
248.109802 168.0
248.619247 160.0
248.68602 200.0
249.075989 692.0
249.1539 60.0
249.355011 88.0
249.436737 120.0
250.079071 304.0
250.664185 144.0
250.799698 116.0
250.83606 164.0
250.976242 224.0
250.998322 120.0
251.04715 212.0
251.090622 13800.0
251.179199 44.0
251.225403 60.0
251.34845 40.0
251.414719 76.0
251.505875 68.0
251.594635 36.0
251.708298 108.0
251.996445 212.0
252.093506 1088.0
252.507843 68.0
252.789398 80.0
252.944489 48.0
253.095383 288.0
253.263092 116.0
253.403687 76.0
253.647705 136.0
253.784027 120.0
253.901093 96.0
253.92424 112.0
253.980652 64.0
254.012375 96.0
254.063126 48.0
254.117065 148.0
254.41539 64.0
254.840973 80.0
255.032593 160.0
255.065842 268.0
255.27327 40.0
255.296585 60.0
255.550003 72.0
255.648651 60.0
255.740952 40.0
255.79187 48.0
256.065155 136.0
257.036102 152.0
257.079407 320.0
258.043243 248.0
258.090363 280.0
258.434387 148.0
258.709625 192.0
259.017029 140.0
259.058167 640.0
259.096283 1040.0
259.40799 160.0
259.918884 48.0
259.975708 128.0
260.063782 144.0
260.103302 280.0
260.49585 40.0
261.035797 88.0
261.084045 84.0
261.112976 76.0
262.04068 484.0
262.080261 192.0
262.568695 56.0
263.055939 220.0
264.21933 144.0
266.986206 124.0
267.314758 96.0
268.070251 124.0
269.087952 164.0
269.114075 124.0
270.051971 112.0
271.059448 584.0
272.064941 1520.0
272.123047 152.0
272.175568 96.0
272.208405 44.0
272.402191 64.0
273.072937 964.0
274.074463 280.0
274.581177 60.0
274.828583 80.0
275.08963 172.0
275.7995 124.0
277.068695 652.0
277.102539 928.0
277.182892 240.0
277.345276 52.0
277.524292 72.0
277.580688 56.0
278.078674 172.0
278.101532 216.0
279.016174 144.0
279.114807 140.0
279.973358 92.0
280.866577 84.0
282.781128 172.0
283.055664 88.0
285.076111 280.0
285.989899 228.0
286.080048 276.0
286.414154 152.0
286.794891 48.0
287.055511 1336.0
287.090942 1280.0
287.148926 156.0
287.2771 92.0
288.060852 352.0
288.101685 504.0
288.837738 60.0
288.97644 100.0
289.068146 340.0
289.098358 160.0
289.125793 180.0
291.118744 132.0
292.169037 48.0
292.380005 48.0
301.022614 132.0
301.066437 168.0
301.103271 180.0
301.347321 84.0
302.076538 668.0
303.389252 120.0
305.396362 68.0
308.129364 116.0
314.234955 112.0
314.556091 96.0
316.061676 156.0
316.950439 68.0
317.098358 228.0
319.118317 156.0
320.111908 132.0
326.654572 72.0
326.748108 124.0
329.918182 76.0
330.21106 44.0
341.121094 52.0
351.469238 88.0
356.374329 88.0
358.293152 76.0
381.059906 124.0
390.53598 48.0
394.993256 60.0
396.96167 20.0
400.168274 88.0
429.29071 100.0
430.627869 32.0
438.636108 96.0
441.38327 56.0
454.37323 60.0
454.797577 128.0
456.764954 28.0
459.384735 40.0
461.823822 96.0
484.543488 40.0
485.187744 112.0
487.716248 36.0
494.916107 72.0
500.982971 72.0
503.043243 76.0
516.140076 84.0
552.826355 76.0
556.337036 60.0
557.553589 92.0
562.315063 72.0
573.208496 60.0
586.778137 120.0
588.713074 88.0
601.490906 76.0
602.820618 20.0
617.159485 72.0
626.549988 68.0
634.536438 116.0
639.086975 48.0
667.610413 60.0
730.032776 176.0
730.506104 88.0
740.730286 64.0
746.102783 112.0
754.186951 68.0
762.968811 252.0
801.081177 68.0
805.532043 152.0
821.717651 56.0
865.041748 72.0
870.330017 128.0
873.621277 96.0
874.515747 172.0
895.404236 220.0
911.592896 108.0
952.066528 144.0
957.189087 60.0
961.053894 140.0
978.246216 132.0
978.999573 92.0
985.249512 180.0
988.2005 180.0
999.368835 136.0
1011.910095 120.0
1012.473694 160.0
1013.753357 212.0
1015.401672 152.0
1019.439331 160.0
1020.45636 64.0
1020.825195 184.0
1038.971558 212.0
1043.473633 156.0
1046.542603 164.0
1055.214233 160.0
1072.130371 200.0
1075.136719 176.0
1078.271606 88.0
1082.464966 96.0
1090.613281 68.0
1094.231445 192.0
1097.835815 192.0
1102.384155 148.0
1102.549438 204.0
1104.241943 116.0
1105.843018 148.0
1107.797974 64.0
1111.900757 184.0
1117.775513 180.0
1128.567993 172.0
1128.855591 172.0
1130.849243 144.0
1133.574951 128.0
1137.666382 184.0
1142.572266 200.0
1142.686646 184.0
1149.309937 216.0
1155.492188 96.0
1158.538696 56.0
1159.331421 144.0
1163.034546 152.0
1166.797974 44.0
1167.654785 176.0
1172.802124 60.0
1177.824097 176.0
1180.086182 160.0
1183.767456 52.0
1184.603027 128.0
1185.836426 208.0
1193.25708 84.0
1193.53894 108.0
1194.419189 120.0
1203.619873 128.0
1205.616333 200.0
1210.687256 144.0
1216.573975 144.0
1216.629517 168.0
1217.150269 140.0
1217.455811 176.0
1221.118408 168.0
1227.874146 220.0
1228.111328 192.0
1230.25354 236.0
1233.089478 196.0
1234.585571 176.0
1238.063721 108.0
1239.471802 152.0
1239.990356 64.0
1251.130981 228.0
1251.588623 140.0
1258.089111 192.0
1258.894043 144.0
1265.194092 136.0
1269.714844 204.0
1270.090698 208.0
1271.772339 156.0
1272.382812 164.0
1273.490601 168.0
1273.959473 84.0
1275.089233 104.0
1275.451782 116.0
1279.051025 200.0
1280.873901 184.0
1284.102783 164.0
1291.724121 100.0
1292.396606 140.0
1295.410645 192.0
1310.930176 120.0
1311.189575 164.0
1314.088501 160.0
1314.218262 88.0
1314.586304 192.0
1317.286621 204.0
1318.731812 136.0
1320.626099 152.0
1321.233765 104.0
1321.819824 224.0
1325.128906 136.0
1328.362183 180.0
1330.82251 200.0
1333.757446 148.0
1335.575317 152.0
1336.113647 144.0
1336.520996 184.0
1337.248779 112.0
1339.361328 144.0
1343.201782 132.0
1343.442505 224.0
1351.391357 180.0
1351.874268 180.0
1353.213745 116.0
1353.764038 136.0
1357.387329 128.0
1357.87439 176.0
1358.67395 96.0
1371.587158 208.0
1372.014648 132.0
1374.308472 208.0
1377.623413 160.0
1380.668701 108.0
1381.31958 128.0
1381.637695 172.0
1388.726685 156.0
1389.431396 100.0
1390.581543 152.0
1391.836182 216.0
1394.057251 148.0
1399.971436 136.0
1403.525879 164.0
1410.229858 196.0
1410.842773 112.0
1418.471069 128.0
1422.934692 88.0
1423.152466 124.0
1424.496704 152.0
1424.722168 28.0
1426.104736 176.0
1428.1875 144.0
1432.719238 220.0
1436.654419 232.0
1437.341064 160.0
1437.921265 168.0
1438.41272 268.0
1438.63916 152.0
1439.356445 136.0
1439.605713 148.0
1441.192017 180.0
1441.411133 108.0
1441.479126 156.0
1441.925049 180.0
1443.036255 184.0
1448.825928 176.0
1449.394165 148.0
1450.932861 224.0
1451.47876 44.0
1452.722534 180.0
1453.974487 140.0
1454.073242 216.0
1459.634033 176.0
1460.006714 28.0
1462.806641 132.0
1463.362427 204.0
1463.560425 156.0
1463.918335 164.0
1464.093506 140.0
1464.619019 28.0
1465.441772 160.0
1468.010498 260.0
1469.902344 60.0
1470.833496 176.0
1473.246582 176.0
1474.025879 180.0
1474.38501 104.0
1475.852783 184.0
1476.648071 64.0
1480.336792 96.0
1480.964844 132.0
1481.776855 128.0
1486.615234 152.0
1486.707275 168.0
1487.77417 88.0
1488.204102 60.0
1488.715698 136.0
1488.979736 140.0
1489.509766 160.0
1494.911499 160.0
1495.769043 132.0
1495.876831 72.0
1498.333496 152.0
1499.088501 136.0
1499.196411 176.0
1499.28125 144.0
1502.473511 172.0
