>compound MLS001158377-01!(2S)-3-(1H-indol-3-yl)-2-[[(2S)-3-methyl-2-[[(2S)-3-oxo-2-propan-2-yl-2,4-dihydroquinoxaline-1-carbonyl]amino]butanoyl]amino]propanoic acid
>formula C28H33N5O5
>ionization [M+H]+
>parentmass 520.256
#inchi InChI=1S/C28H33N5O5/c1-15(2)23(25(34)31-21(27(36)37)13-17-14-29-19-10-6-5-9-18(17)19)32-28(38)33-22-12-8-7-11-20(22)30-26(35)24(33)16(3)4/h5-12,14-16,21,23-24,29H,13H2,1-4H3,(H,30,35)(H,31,34)(H,32,38)(H,36,37)/t21-,23-,24-/m0/s1
#inchikey ZPYOAQNUBHWSFW
#Ion_Source LC-ESI
#Instrument qTof
#Compound_Source NIH Natural Product Library
#PI Dorrestein
#Data_Collector VVP/LMS
#Scan -1
#Precursor_MZ 520.256
#ExactMass 519.248
#Charge 1
#CAS_Number N/A
#Pubmed_ID N/A
#Smiles CC(C)[C@H](NC(=O)N1[C@@H](C(C)C)C(=O)Nc2ccccc12)C(=O)N[C@@H](Cc3c[nH]c4ccccc34)C(=O)O
#INCHI_AUX N/A
#Library_Class 1
#SpectrumID CCMSLIB00000080331
#IonMode Positive
#UpdateWorkflowName UPDATE-SINGLE-ANNOTATED-GOLD
#LibraryQualityString Gold
#TaskID b1d8e8f6646f4e71acdff9ca3d919d08
##Scan# 1986
#SpectrumFile p2-D07_GD7_01_18019.mzXML
#LibraryName NIH_Natural_Products_Library.mgf
#MQScore -1
#Organism NIH_Natural_Products_Library
#TIC_Query 0
#RT_Query -1
#MZErrorPPM -1
#SharedPeaks 0
#MassDiff 0
#LibMZ -1
#SpecMZ 520.256
#SpecCharge 0
#internalFilename spec-00000.mgf

>collision 10
94.98069 172.0
95.047234 96.0
95.142342 168.0
95.227776 232.0
95.276337 212.0
95.377594 188.0
95.412376 168.0
95.427933 300.0
95.472649 96.0
95.571861 128.0
95.587425 112.0
95.741211 184.0
95.807434 200.0
95.844299 152.0
96.047203 216.0
96.080368 200.0
96.183792 120.0
96.297035 216.0
96.316566 140.0
96.408394 168.0
96.424026 52.0
96.523087 212.0
96.635216 144.0
96.774178 80.0
96.823135 192.0
96.84272 64.0
96.938713 160.0
97.081818 176.0
97.095543 56.0
97.213249 152.0
97.293724 124.0
97.332993 160.0
97.433159 44.0
97.456734 160.0
97.47049 140.0
97.562859 172.0
97.580559 244.0
97.619881 180.0
97.794975 188.0
97.842216 204.0
97.926888 56.0
97.946587 200.0
97.997803 200.0
98.059998 220.0
98.267914 68.0
98.471611 192.0
98.504814 128.0
98.542351 180.0
98.562111 160.0
98.810349 224.0
98.934441 172.0
99.072556 92.0
99.098312 172.0
99.14785 180.0
99.171631 188.0
99.357155 172.0
99.533615 172.0
99.576378 188.0
99.590279 132.0
99.661797 148.0
99.675705 196.0
99.747253 128.0
99.767128 232.0
99.93618 136.0
99.989906 368.0
100.06356 152.0
100.077492 172.0
100.185043 156.0
100.300613 116.0
100.320549 76.0
100.405434 200.0
100.454155 128.0
100.531967 252.0
100.663719 108.0
100.70166 144.0
100.763588 196.0
100.895493 152.0
100.99147 132.0
101.068016 152.0
101.09951 172.0
101.249657 188.0
101.309746 212.0
101.415947 152.0
101.476082 148.0
101.496132 200.0
101.630524 168.0
101.69474 92.0
101.925682 40.0
102.090515 88.0
102.138786 184.0
102.23938 124.0
102.333992 168.0
102.406487 312.0
102.436699 52.0
102.658401 136.0
102.759254 104.0
102.802505 312.0
102.858139 136.0
103.027763 128.0
103.05201 152.0
103.157097 172.0
103.250618 172.0
103.272354 124.0
103.3209 180.0
103.395767 168.0
103.447357 196.0
103.537476 148.0
103.55571 212.0
103.723877 164.0
103.760368 252.0
103.871902 108.0
103.933907 200.0
104.022064 164.0
104.042366 136.0
104.190941 148.0
104.312546 164.0
104.347099 140.0
104.404037 196.0
104.467087 204.0
104.493538 132.0
104.695045 112.0
104.731712 232.0
104.805305 220.0
104.833572 208.0
104.899811 208.0
104.951805 416.0
105.015022 160.0
105.041534 192.0
105.356316 180.0
105.429459 84.0
105.519402 184.0
105.590965 180.0
105.64006 208.0
105.807869 160.0
105.823479 192.0
105.926643 44.0
105.956421 156.0
105.9963 160.0
106.029236 548.0
106.068031 64.0
106.119278 132.0
106.150032 172.0
106.168488 44.0
106.242332 116.0
106.431152 124.0
106.613968 144.0
106.683853 88.0
106.712639 152.0
106.803116 136.0
106.903931 164.0
106.98008 148.0
107.06041 2928.0
107.083038 140.0
107.151009 28.0
107.30146 60.0
107.398384 192.0
107.542809 116.0
107.617126 100.0
107.637772 180.0
107.745476 192.0
107.850563 168.0
107.964821 212.0
108.013916 124.0
108.068314 1924.0
108.094597 148.0
108.127708 100.0
108.164963 116.0
108.293343 180.0
108.40107 100.0
108.479828 144.0
108.496834 156.0
108.571053 124.0
108.996605 124.0
109.074448 152.0
109.100525 140.0
109.177452 216.0
109.19841 160.0
109.291862 140.0
109.318916 36.0
109.34597 84.0
109.420906 180.0
109.558357 188.0
109.57502 408.0
109.620857 68.0
109.645866 228.0
109.706314 112.0
109.795975 156.0
110.000565 140.0
110.102753 128.0
110.152878 164.0
110.198837 144.0
110.253166 128.0
110.276161 144.0
110.32795 144.0
110.391144 120.0
110.418327 172.0
110.49572 252.0
110.55172 168.0
110.600693 104.0
110.629662 32.0
110.76368 204.0
110.782532 204.0
110.881004 144.0
110.908257 272.0
110.927116 188.0
111.059219 112.0
111.082291 188.0
111.187202 240.0
111.229179 148.0
111.327858 248.0
111.346756 152.0
111.553513 228.0
111.63887 84.0
111.664108 124.0
111.735626 156.0
111.779808 236.0
111.798027 116.0
111.830315 104.0
111.92012 140.0
112.028854 196.0
112.255875 176.0
112.304382 156.0
112.350792 100.0
112.474983 192.0
112.540733 64.0
112.633652 196.0
112.66745 48.0
112.730843 100.0
112.749863 216.0
112.834412 144.0
112.855553 148.0
113.062851 76.0
113.117882 148.0
113.223747 180.0
113.241508 196.0
113.284233 208.0
113.331779 176.0
113.384758 184.0
113.770798 140.0
113.787781 172.0
113.851479 124.0
113.989563 168.0
114.006561 152.0
114.055443 72.0
114.095833 212.0
114.155365 184.0
114.217041 164.0
114.242569 140.0
114.485207 156.0
114.500114 120.0
114.557625 188.0
114.698265 28.0
114.732368 36.0
114.749428 180.0
114.911514 128.0
115.035965 192.0
115.05619 132.0
115.09507 164.0
115.238174 64.0
115.253136 124.0
115.268089 200.0
115.30442 128.0
115.389923 156.0
115.432686 160.0
115.465622 160.0
115.543907 136.0
115.58242 176.0
115.721542 156.0
115.785545 192.0
115.957176 200.0
115.989326 224.0
116.038635 204.0
116.098671 48.0
116.257416 112.0
116.42701 160.0
116.590286 44.0
116.631119 136.0
116.813889 144.0
116.917168 132.0
117.00972 132.0
117.045334 452.0
117.072166 196.0
117.100166 136.0
117.227264 144.0
117.294083 144.0
117.355621 188.0
117.419136 192.0
117.477371 104.0
117.50489 180.0
117.550728 144.0
117.617355 124.0
117.64785 64.0
117.725578 188.0
117.829262 168.0
117.889755 212.0
118.02594 180.0
118.064804 476.0
118.086487 148.0
118.181671 144.0
118.324516 108.0
118.4133 144.0
118.603966 112.0
118.675499 148.0
118.705414 196.0
118.779594 164.0
118.812134 152.0
118.849022 172.0
118.868546 128.0
119.020493 200.0
119.060783 10504.0
119.092155 28.0
119.144287 72.0
119.198608 64.0
119.221146 108.0
119.272186 216.0
119.305107 152.0
119.359459 196.0
119.47908 156.0
119.594414 176.0
119.60965 140.0
119.681488 196.0
119.788208 168.0
119.925476 60.0
120.064804 860.0
120.108635 280.0
120.147896 148.0
120.283195 180.0
120.34214 184.0
120.527794 148.0
120.615211 60.0
120.667679 224.0
120.691727 92.0
120.735458 52.0
120.80764 188.0
120.828918 204.0
120.914368 180.0
121.013359 108.0
121.053467 112.0
121.074829 372.0
121.129425 192.0
121.234596 148.0
121.335419 52.0
121.365372 224.0
121.458221 180.0
121.711678 132.0
121.794052 192.0
121.877533 156.0
122.079758 148.0
122.150139 164.0
122.16774 144.0
122.19194 232.0
122.294853 260.0
122.341591 100.0
122.418648 76.0
122.524376 176.0
122.619125 188.0
122.78447 88.0
122.915474 188.0
123.047058 120.0
123.0868 232.0
123.221527 136.0
123.358543 224.0
123.497849 216.0
123.659363 136.0
123.710274 68.0
123.743477 120.0
123.787766 132.0
123.834267 64.0
123.860847 152.0
124.073586 88.0
124.12458 68.0
124.228821 172.0
124.293159 148.0
124.319786 160.0
124.42189 164.0
124.68177 164.0
124.719551 212.0
124.737595 208.0
124.921898 68.0
125.093246 168.0
125.115051 156.0
125.142227 156.0
125.229073 156.0
125.393944 148.0
125.460808 156.0
125.590141 108.0
125.605759 44.0
125.729584 184.0
125.764175 84.0
125.826683 216.0
125.871338 192.0
125.898132 56.0
126.128258 208.0
126.244514 144.0
126.513008 208.0
126.656319 160.0
126.671997 144.0
126.698883 152.0
126.80883 180.0
126.916283 128.0
127.05085 180.0
127.219154 108.0
127.275284 100.0
127.361557 232.0
127.569595 184.0
127.585335 200.0
127.747246 88.0
127.965546 156.0
127.990311 164.0
128.105179 184.0
128.295624 172.0
128.402695 72.0
128.520004 208.0
128.556107 124.0
128.612518 88.0
128.743469 172.0
128.79541 164.0
128.818008 128.0
128.897079 344.0
128.926453 132.0
128.953583 164.0
129.141235 168.0
129.261139 52.0
129.358459 112.0
129.39241 200.0
129.503372 204.0
129.716354 136.0
129.743561 52.0
129.820648 192.0
129.922714 140.0
129.961288 160.0
130.006668 140.0
130.065872 2872.0
130.132919 156.0
130.313217 120.0
130.340485 72.0
130.476273 156.0
130.667892 156.0
130.813538 196.0
130.834015 240.0
130.856781 48.0
130.95015 124.0
130.985062 172.0
131.002533 120.0
131.045822 268.0
131.070053 552.0
131.11647 44.0
131.355865 76.0
131.396927 44.0
131.433441 120.0
131.463104 172.0
131.492767 132.0
131.517868 168.0
131.654861 184.0
131.851318 216.0
131.891113 236.0
131.911896 144.0
132.079727 616.0
132.118851 168.0
132.201218 208.0
132.37291 172.0
132.393509 92.0
132.526367 132.0
132.707443 144.0
132.792282 188.0
132.874863 100.0
132.930573 200.0
132.948288 152.0
133.039856 6664.0
133.078659 476.0
133.109894 120.0
133.1474 208.0
133.20314 56.0
133.249084 168.0
133.488129 140.0
133.650528 100.0
133.681351 156.0
133.77803 132.0
133.874725 52.0
133.911575 232.0
134.009766 192.0
134.040527 408.0
134.128159 148.0
134.303391 144.0
134.39798 112.0
134.462051 220.0
134.551712 72.0
134.605713 256.0
134.688858 192.0
134.748917 48.0
134.776642 160.0
134.841354 224.0
134.866776 108.0
134.89682 136.0
134.91301 88.0
134.945374 216.0
134.991623 128.0
135.055756 13296.0
135.097214 104.0
135.137344 48.0
135.213699 124.0
135.432236 164.0
135.528641 160.0
135.59584 128.0
135.622681 220.0
135.769714 152.0
135.830017 140.0
135.897293 84.0
136.057907 1200.0
136.217667 144.0
136.247864 148.0
136.279114 184.0
136.406525 72.0
136.42215 176.0
136.489578 44.0
136.62912 92.0
136.750122 208.0
136.782715 160.0
136.931732 152.0
136.975983 160.0
137.0625 352.0
137.120438 96.0
137.316284 128.0
137.439911 188.0
137.458588 80.0
137.582291 140.0
137.602066 208.0
137.909317 208.0
137.936111 120.0
137.965408 160.0
137.998138 104.0
138.166534 116.0
138.241409 148.0
138.281189 120.0
138.346725 144.0
138.42868 176.0
138.468491 144.0
138.515335 156.0
138.534073 136.0
138.573898 44.0
138.604858 92.0
138.763733 196.0
138.796555 168.0
138.878647 144.0
138.909134 156.0
138.934937 148.0
139.076614 180.0
139.110947 128.0
139.357529 252.0
139.430374 184.0
139.460922 184.0
139.69136 196.0
139.71489 172.0
139.787827 128.0
139.83725 128.0
139.889816 192.0
139.985565 68.0
140.018524 144.0
140.071991 212.0
140.244705 104.0
140.263565 188.0
140.294205 108.0
140.367294 44.0
140.53949 28.0
140.61264 144.0
140.751923 184.0
140.803864 104.0
140.836929 56.0
140.996887 148.0
141.017166 144.0
141.082687 152.0
141.198547 192.0
141.274231 140.0
141.312088 232.0
141.328659 156.0
141.349945 204.0
141.387817 48.0
141.584305 104.0
141.634048 200.0
141.667206 192.0
141.745392 136.0
141.873367 168.0
142.065063 288.0
142.305161 188.0
142.438141 76.0
142.659134 180.0
142.699554 244.0
142.804184 160.0
142.84938 160.0
142.906479 204.0
142.967728 232.0
143.071411 400.0
143.204041 100.0
143.246902 256.0
143.315262 156.0
143.408936 248.0
143.442307 68.0
143.468521 188.0
143.642609 124.0
143.69986 36.0
143.758636 120.0
143.802475 180.0
143.845428 228.0
143.964813 100.0
143.988693 96.0
144.081024 928.0
144.151138 212.0
144.263474 108.0
144.299759 68.0
144.332809 136.0
144.392593 96.0
144.416504 144.0
144.466736 224.0
144.58876 128.0
144.651001 68.0
144.684509 144.0
144.768311 148.0
145.051025 148.0
145.077927 184.0
145.223663 160.0
145.266846 136.0
145.28363 88.0
145.334015 240.0
145.365417 188.0
145.545242 180.0
145.598068 164.0
145.783035 132.0
145.876785 128.0
146.060196 1756.0
146.097763 1216.0
146.39888 216.0
146.447052 104.0
146.473541 36.0
146.555298 196.0
146.668716 204.0
146.726578 132.0
146.745865 228.0
146.765625 208.0
146.868851 56.0
146.92276 148.0
146.953278 192.0
146.974991 92.0
146.997849 160.0
147.056122 49724.0
147.097015 252.0
147.149704 52.0
147.208572 52.0
147.26709 52.0
147.296082 92.0
147.323975 48.0
147.370972 136.0
147.409637 152.0
147.454422 88.0
147.482132 88.0
147.500183 96.0
147.547394 144.0
147.589645 168.0
147.62236 92.0
147.646545 60.0
147.673141 68.0
147.722305 292.0
147.789261 160.0
147.806198 68.0
147.827972 112.0
147.847336 52.0
147.910263 32.0
147.9272 124.0
147.985764 148.0
148.059998 6588.0
148.117447 96.0
148.133896 136.0
148.179062 140.0
148.302643 36.0
148.331741 132.0
148.35112 60.0
148.37294 48.0
148.398209 44.0
148.516022 92.0
148.554825 28.0
148.581512 56.0
148.776871 128.0
148.833923 76.0
149.006363 216.0
149.060928 1196.0
149.145859 140.0
149.169189 140.0
149.189728 124.0
149.242126 60.0
149.281036 124.0
149.324295 76.0
149.611923 64.0
149.877396 84.0
149.987061 100.0
150.074951 76.0
150.180161 140.0
150.479843 104.0
150.650787 148.0
150.68988 172.0
150.818604 240.0
150.903366 184.0
150.9832 164.0
151.012558 136.0
151.03212 44.0
151.068817 48.0
151.141449 156.0
151.186249 160.0
151.225418 188.0
151.323334 164.0
151.360062 124.0
151.389435 172.0
151.460464 72.0
151.507004 40.0
151.54866 188.0
151.592758 160.0
151.622177 212.0
151.739822 236.0
151.842819 132.0
151.975281 192.0
152.009628 168.0
152.310471 204.0
152.34108 200.0
152.365646 140.0
152.397583 244.0
152.579468 80.0
152.692566 152.0
152.909073 244.0
152.98291 108.0
153.061691 212.0
153.214401 168.0
153.433731 188.0
153.628555 60.0
153.682831 88.0
153.803757 136.0
154.065506 124.0
154.099533 156.0
154.208832 88.0
154.446182 172.0
154.542664 92.0
154.661453 116.0
154.753052 112.0
154.787704 148.0
154.866959 104.0
155.064011 152.0
155.112259 212.0
155.176712 148.0
155.461319 216.0
155.516556 192.0
155.839386 204.0
156.065399 116.0
156.376526 72.0
156.401413 40.0
156.503479 164.0
156.575699 148.0
156.755051 128.0
156.789948 184.0
156.859726 64.0
156.929535 172.0
156.965729 124.0
156.996857 212.0
157.014313 188.0
157.077347 192.0
157.116577 172.0
157.251328 212.0
157.318726 56.0
157.471039 208.0
157.491013 132.0
157.640915 76.0
157.680893 84.0
157.868393 212.0
158.059631 304.0
158.084015 1564.0
158.241226 68.0
158.441574 104.0
158.611984 256.0
158.644562 88.0
158.724792 216.0
158.955566 136.0
158.990692 172.0
159.023331 72.0
159.05545 180.0
159.092819 3012.0
159.231705 172.0
159.249283 144.0
159.422638 160.0
159.533234 176.0
159.789749 228.0
159.84761 128.0
160.036392 144.0
160.080139 128.0
160.096634 160.0
160.323547 84.0
160.366394 88.0
160.474792 72.0
160.608444 132.0
160.646286 76.0
160.689163 180.0
160.737106 128.0
160.804016 204.0
160.916321 136.0
160.959244 44.0
160.979446 112.0
161.035324 11892.0
161.072021 2428.0
161.107651 780.0
161.227005 108.0
161.26239 36.0
161.296448 152.0
161.431778 176.0
161.477295 40.0
161.502579 64.0
161.537994 108.0
161.581009 148.0
161.601242 164.0
161.618958 68.0
161.740616 208.0
161.81131 172.0
161.935394 80.0
162.038452 1332.0
162.068771 264.0
162.112732 172.0
162.173553 116.0
162.193832 44.0
162.371307 192.0
162.389053 136.0
162.406342 128.0
162.445358 144.0
162.548889 72.0
162.607254 228.0
162.653595 140.0
162.690033 152.0
162.734177 116.0
162.759567 128.0
162.802734 140.0
162.851532 184.0
162.876389 176.0
162.922104 136.0
162.974777 180.0
162.984009 132.0
163.003998 192.0
163.047623 160.0
163.078751 136.0
163.092789 188.0
163.123825 47080.0
163.17363 156.0
163.192886 88.0
163.212479 64.0
163.237381 92.0
163.314484 44.0
163.319733 104.0
163.362167 104.0
163.380737 196.0
163.449097 108.0
163.476028 144.0
163.499298 76.0
163.526123 152.0
163.546188 28.0
163.570557 124.0
163.59053 176.0
163.64183 48.0
163.680679 332.0
163.727142 104.0
163.758026 128.0
163.870956 96.0
163.944946 120.0
163.995926 184.0
164.026505 128.0
164.059647 148.0
164.09024 76.0
164.127258 6280.0
164.176941 48.0
164.209183 56.0
164.220016 36.0
164.266205 180.0
164.350388 156.0
164.388672 148.0
164.426956 44.0
164.468582 64.0
164.503525 112.0
164.523941 64.0
164.633743 60.0
164.820206 324.0
164.899429 56.0
164.945435 60.0
164.999115 60.0
165.024689 120.0
165.047699 108.0
165.128311 292.0
165.201157 44.0
165.334198 188.0
165.354675 128.0
165.393066 120.0
165.416107 212.0
165.454117 108.0
165.59021 100.0
165.657425 200.0
165.695236 176.0
165.738785 128.0
165.895126 148.0
165.96434 84.0
166.269608 72.0
166.34404 180.0
166.439026 56.0
166.500656 64.0
166.785065 224.0
167.027542 132.0
167.060989 152.0
167.086716 132.0
167.367249 120.0
167.413605 128.0
167.496017 64.0
167.720184 36.0
167.833618 80.0
167.929031 116.0
168.062424 204.0
168.11116 148.0
168.169724 180.0
168.295471 204.0
168.542572 96.0
168.600281 52.0
168.835541 184.0
168.861404 144.0
168.89502 152.0
168.920898 108.0
168.980392 128.0
169.001083 164.0
169.079056 612.0
169.285828 176.0
169.42569 120.0
169.690033 104.0
169.728928 40.0
169.757446 112.0
170.058441 844.0
170.219345 56.0
170.253754 128.0
170.401337 56.0
170.419342 104.0
170.481705 56.0
170.635071 76.0
170.689667 144.0
170.801498 76.0
171.020065 76.0
171.062912 320.0
171.092773 124.0
171.509735 204.0
171.585327 60.0
171.679199 108.0
171.872223 140.0
171.927017 88.0
171.954819 184.0
171.994888 140.0
172.062759 120.0
172.109756 240.0
172.151535 100.0
172.219437 168.0
172.368347 168.0
172.457199 252.0
172.478104 136.0
172.517319 200.0
172.546066 196.0
172.972473 128.0
173.068741 192.0
173.109299 972.0
173.181946 168.0
173.847855 220.0
173.958084 88.0
174.080215 424.0
174.110901 408.0
174.152405 52.0
174.189178 344.0
174.283752 136.0
174.317902 84.0
174.536087 172.0
174.580948 128.0
174.659683 116.0
174.830704 160.0
174.91069 212.0
174.947723 156.0
175.001801 60.0
175.048737 2096.0
175.087845 3908.0
175.278351 80.0
175.320526 144.0
175.473404 88.0
175.586792 112.0
175.60788 80.0
175.742416 216.0
175.786102 208.0
176.053848 196.0
176.091736 260.0
176.185959 148.0
176.228241 56.0
176.484619 72.0
176.511047 40.0
176.65123 192.0
176.735886 284.0
176.910553 96.0
176.929092 56.0
176.952911 40.0
177.005875 48.0
177.094864 156.0
177.199219 96.0
177.339661 192.0
177.38208 64.0
177.806458 252.0
178.071945 104.0
178.127716 120.0
178.151627 80.0
178.180847 76.0
178.22345 124.0
178.499802 208.0
178.552979 80.0
178.837662 116.0
178.885574 132.0
178.946808 156.0
178.992065 184.0
179.045792 8616.0
179.125229 112.0
179.229126 168.0
179.338394 56.0
179.378372 160.0
179.431686 180.0
179.47435 44.0
179.578354 176.0
179.682388 52.0
179.714401 116.0
179.837158 132.0
179.874527 56.0
179.978638 144.0
180.051178 808.0
180.144226 36.0
180.173615 168.0
180.296524 120.0
180.374023 84.0
180.432846 148.0
180.553162 132.0
180.614685 80.0
180.644104 64.0
180.702438 148.0
180.879578 60.0
181.008087 212.0
181.053619 348.0
181.078857 192.0
181.211655 152.0
181.329559 180.0
181.42337 72.0
181.522568 112.0
181.713013 48.0
181.75325 204.0
181.871338 144.0
181.919647 108.0
182.029724 116.0
182.060593 144.0
182.129105 184.0
182.424683 96.0
182.451553 176.0
182.497269 36.0
182.561798 172.0
182.844269 72.0
182.873871 44.0
183.040787 124.0
183.089264 112.0
183.170059 96.0
183.296677 184.0
183.40448 148.0
183.719971 136.0
183.817108 152.0
184.115128 204.0
184.535583 132.0
184.565323 200.0
184.632919 196.0
184.768173 100.0
184.889923 140.0
185.070648 1076.0
185.106491 160.0
185.225662 60.0
185.493912 116.0
185.629471 100.0
185.729828 120.0
185.90889 48.0
186.071213 492.0
186.13147 180.0
186.15863 144.0
186.199371 80.0
186.460175 152.0
186.495514 132.0
186.563461 156.0
186.606964 144.0
186.726608 148.0
186.813644 124.0
186.94696 96.0
187.068085 136.0
187.080872 152.0
187.107559 176.0
187.191956 100.0
187.851517 120.0
187.94783 172.0
187.990662 80.0
188.070999 7740.0
188.189926 36.0
188.282028 152.0
188.318268 132.0
188.375641 100.0
188.419342 96.0
188.452133 172.0
188.506775 432.0
188.549057 204.0
188.612045 200.0
188.700836 152.0
188.730911 64.0
188.766464 124.0
188.87207 188.0
188.911423 140.0
189.015381 264.0
189.103043 19888.0
189.196014 52.0
189.228867 52.0
189.25351 132.0
189.275421 76.0
189.308823 88.0
189.36615 60.0
189.464401 48.0
189.541122 52.0
189.568512 56.0
189.627762 136.0
189.650742 192.0
189.741196 116.0
189.820709 28.0
189.861847 36.0
189.903976 224.0
190.004471 60.0
190.070328 368.0
190.10556 2280.0
190.155396 56.0
190.195724 92.0
190.273422 48.0
190.320099 128.0
190.339325 88.0
190.361282 96.0
190.425415 80.0
190.471146 92.0
190.564545 132.0
190.603012 176.0
190.652481 76.0
190.671707 68.0
190.733353 140.0
190.888885 60.0
190.952133 72.0
190.982391 232.0
191.117065 2868.0
191.186905 48.0
191.263046 116.0
191.499832 64.0
191.557678 56.0
192.034531 28.0
192.095215 148.0
192.122406 312.0
192.222122 156.0
192.331543 68.0
192.387726 208.0
192.435349 164.0
192.478836 52.0
192.531296 144.0
192.5672 144.0
192.947845 124.0
193.056366 64.0
193.124832 164.0
193.255524 88.0
193.778809 136.0
194.18074 136.0
194.441528 144.0
194.574768 160.0
196.271957 104.0
196.550888 84.0
196.659729 100.0
197.053467 48.0
197.074463 128.0
197.428009 192.0
197.676987 40.0
197.735748 212.0
197.754471 128.0
197.85611 100.0
197.920517 52.0
198.075623 180.0
198.110962 160.0
198.130569 176.0
198.340729 120.0
198.388382 144.0
198.452866 104.0
198.985947 108.0
199.089996 912.0
199.123535 144.0
199.370758 132.0
199.63501 156.0
199.981049 96.0
200.05423 176.0
200.079498 168.0
200.158401 204.0
200.494858 156.0
200.541534 168.0
200.600723 108.0
200.795273 40.0
201.018143 144.0
201.145142 168.0
201.190308 164.0
201.255249 160.0
201.574432 168.0
202.068359 156.0
203.117386 108.0
203.375595 144.0
203.545929 92.0
203.594208 140.0
203.665207 264.0
203.804413 116.0
203.926605 180.0
204.293411 40.0
204.469818 160.0
204.529587 136.0
204.74028 56.0
205.059357 116.0
205.095596 168.0
205.190475 64.0
205.838165 80.0
206.100357 216.0
206.369614 152.0
206.618439 148.0
206.827332 180.0
206.861679 220.0
207.185272 180.0
207.40593 216.0
207.950882 224.0
208.101089 172.0
208.968124 176.0
209.034302 200.0
209.132156 112.0
209.293365 104.0
209.964783 120.0
210.062851 160.0
210.103241 120.0
210.134979 176.0
210.29657 244.0
210.394714 80.0
210.417816 188.0
210.487106 148.0
210.617065 80.0
210.6604 148.0
210.903122 160.0
210.955139 184.0
211.108383 160.0
211.129852 340.0
211.525009 48.0
211.661072 140.0
212.130417 76.0
212.214493 196.0
212.243484 152.0
212.693146 188.0
212.803467 72.0
213.024185 140.0
213.067749 112.0
213.133286 248.0
213.416519 108.0
213.52211 64.0
213.797577 88.0
213.899445 152.0
213.9431 132.0
214.097427 192.0
214.205185 272.0
214.412064 160.0
214.817337 136.0
214.99823 164.0
215.044937 168.0
215.076889 160.0
215.135422 200.0
215.518005 40.0
215.810287 116.0
216.288391 140.0
216.319336 132.0
216.350342 176.0
216.49501 164.0
216.587387 176.0
216.667816 132.0
216.72348 52.0
216.755707 136.0
216.835587 156.0
216.887589 216.0
216.91983 72.0
216.959824 212.0
217.001694 180.0
217.034164 224.0
217.098587 50772.0
217.17424 256.0
217.206635 84.0
217.255859 184.0
217.277603 100.0
217.301071 36.0
217.321609 56.0
217.348022 60.0
217.431519 100.0
217.468704 96.0
217.50032 76.0
217.512192 68.0
217.517426 72.0
217.602921 104.0
217.797821 92.0
217.840988 184.0
217.910583 120.0
217.938202 56.0
217.9617 52.0
217.986725 60.0
218.026352 104.0
218.101608 7028.0
218.176254 96.0
218.220352 40.0
218.242966 52.0
218.325684 76.0
218.382523 148.0
218.461502 184.0
218.502686 108.0
218.593903 52.0
218.617447 92.0
218.638046 160.0
218.692169 72.0
218.726334 56.0
218.773438 80.0
218.823486 48.0
218.85881 64.0
218.964905 156.0
219.035522 52.0
219.105103 1156.0
219.176926 36.0
219.203445 84.0
219.291183 88.0
219.356705 56.0
219.377335 120.0
219.4245 44.0
219.445145 144.0
219.483475 100.0
219.568985 112.0
219.638199 112.0
219.664581 108.0
219.745972 44.0
219.776794 84.0
219.822693 132.0
219.846298 52.0
219.934845 56.0
219.982071 72.0
220.091309 132.0
220.259644 168.0
220.289169 56.0
220.365982 168.0
220.546249 132.0
220.629013 180.0
220.685181 136.0
220.759109 72.0
220.874451 144.0
220.992783 56.0
221.137787 72.0
221.519745 96.0
221.590851 40.0
221.688629 100.0
221.715302 60.0
222.165985 168.0
222.332138 80.0
222.715134 108.0
223.121994 900.0
223.437485 32.0
223.732117 236.0
224.11853 380.0
224.563461 56.0
225.017029 208.0
225.384399 156.0
225.590622 236.0
225.922546 152.0
226.114059 68.0
226.290665 40.0
227.003784 76.0
227.255737 48.0
227.402786 216.0
227.715027 84.0
227.745941 164.0
227.889252 104.0
227.957932 120.0
228.090607 152.0
228.189804 184.0
228.228897 64.0
228.857742 124.0
229.098679 136.0
229.161942 48.0
230.006332 172.0
230.099915 148.0
230.549973 124.0
231.287918 112.0
231.369659 60.0
231.563446 176.0
232.008881 132.0
232.652008 72.0
232.84938 168.0
233.703568 100.0
234.123627 128.0
234.373413 160.0
234.75444 56.0
235.102203 144.0
235.477707 124.0
235.581558 28.0
236.180695 132.0
236.315292 68.0
237.427216 44.0
237.822983 64.0
238.157654 184.0
238.326614 84.0
238.713913 128.0
239.323166 60.0
239.646561 36.0
239.839249 180.0
240.016434 104.0
240.080048 204.0
240.15033 200.0
240.300186 52.0
240.716888 96.0
241.139954 156.0
241.180298 96.0
241.433807 116.0
241.715317 128.0
243.091141 164.0
243.137589 128.0
243.1492 124.0
243.154526 216.0
243.193558 176.0
243.258743 92.0
243.29599 180.0
243.985657 104.0
244.100693 208.0
244.452209 80.0
244.567352 176.0
245.118881 316.0
245.157303 392.0
245.26506 228.0
245.969986 124.0
246.219772 92.0
246.310349 164.0
246.616547 100.0
246.735336 156.0
246.963608 148.0
247.11377 120.0
247.4142 160.0
247.921616 116.0
248.08461 204.0
248.906601 132.0
249.151581 136.0
251.018005 144.0
251.630127 88.0
251.699585 196.0
251.92067 168.0
251.993332 80.0
252.100754 152.0
252.217697 68.0
253.109833 140.0
253.505783 44.0
253.756195 96.0
255.118134 100.0
255.194443 124.0
255.299377 156.0
255.493393 156.0
255.709763 48.0
256.11731 124.0
256.145966 140.0
256.493286 216.0
256.550659 156.0
256.579376 148.0
256.601685 52.0
256.987579 148.0
257.147156 152.0
257.389771 152.0
258.031982 48.0
258.562958 140.0
258.879883 120.0
259.036804 164.0
259.568848 152.0
259.822205 176.0
259.876923 72.0
259.982361 92.0
260.021149 188.0
260.04361 380.0
260.101379 136.0
260.176636 15920.0
260.265839 200.0
260.338989 112.0
260.493134 64.0
260.515625 68.0
260.570251 116.0
260.624847 132.0
260.660217 64.0
260.692352 44.0
260.724487 152.0
260.763031 180.0
260.84903 48.0
260.997711 88.0
261.026642 88.0
261.062866 120.0
261.179382 2404.0
261.2164 56.0
261.279724 100.0
261.377258 44.0
261.995422 140.0
262.130737 128.0
262.174469 168.0
262.218933 100.0
262.482086 52.0
262.562714 68.0
262.60141 40.0
262.920807 112.0
263.192932 244.0
263.240417 76.0
263.334045 48.0
263.388977 48.0
263.893097 172.0
264.517456 140.0
265.103668 108.0
265.178223 160.0
265.648376 164.0
265.735962 216.0
265.826813 228.0
265.946899 124.0
266.060516 56.0
266.117188 156.0
266.228485 196.0
266.827209 52.0
267.025574 84.0
267.126404 176.0
267.266296 184.0
267.956543 148.0
268.116608 160.0
268.184357 148.0
269.131805 116.0
269.581451 52.0
269.695831 68.0
270.363007 144.0
270.909821 52.0
271.073639 136.0
271.096558 104.0
271.139008 524.0
271.540497 172.0
271.712982 128.0
272.142944 148.0
272.395813 124.0
272.481201 192.0
272.54364 144.0
272.844269 188.0
273.049866 204.0
273.076202 40.0
273.270264 96.0
273.336975 188.0
273.51709 108.0
274.317535 136.0
274.924377 200.0
274.993683 208.0
275.13562 132.0
275.320526 112.0
275.485687 140.0
275.809509 208.0
277.494507 52.0
277.587341 136.0
277.852692 188.0
279.221191 200.0
280.906555 100.0
281.6409 108.0
281.724396 200.0
281.995056 144.0
282.342743 96.0
282.794403 64.0
283.156006 128.0
283.78598 236.0
283.987183 136.0
284.141449 4268.0
284.342804 48.0
284.46701 48.0
284.510651 36.0
284.540863 80.0
284.577789 36.0
284.618073 44.0
284.698669 168.0
284.912109 92.0
285.024506 32.0
285.071533 92.0
285.142609 1512.0
285.216064 28.0
285.24295 84.0
285.374054 68.0
285.54892 48.0
285.612823 36.0
285.915619 108.0
286.046906 124.0
286.144775 128.0
286.228699 136.0
286.309235 72.0
286.314667 60.0
286.327759 176.0
286.680084 28.0
286.817352 148.0
286.845215 164.0
286.986816 160.0
287.13678 136.0
287.18576 92.0
287.249847 176.0
287.280212 48.0
287.34433 140.0
287.516418 28.0
287.55014 52.0
287.590668 132.0
287.653137 212.0
287.729065 124.0
287.820099 112.0
287.850616 84.0
287.941071 244.0
287.995819 164.0
288.05661 252.0
288.090088 172.0
288.102081 156.0
288.114319 200.0
288.172424 64364.0
288.246185 228.0
288.277924 24.0
288.307953 72.0
288.33609 96.0
288.361389 88.0
288.398224 128.0
288.425262 212.0
288.471771 96.0
288.528564 92.0
288.612 96.0
288.651459 128.0
288.69339 52.0
288.75238 80.0
288.768463 88.0
288.823914 148.0
288.859711 136.0
288.888184 64.0
288.938934 56.0
288.972778 52.0
289.041687 120.0
289.103912 168.0
289.127563 204.0
289.175354 9912.0
289.255524 116.0
289.303741 80.0
289.335083 108.0
289.368927 72.0
289.422913 64.0
289.466949 32.0
289.504181 116.0
289.548218 80.0
289.586426 56.0
289.622314 68.0
289.721497 76.0
289.754852 52.0
289.802277 60.0
289.856476 80.0
289.886993 52.0
289.95816 72.0
290.065918 60.0
290.100494 60.0
290.174927 1408.0
290.306763 48.0
290.35141 112.0
290.381927 56.0
290.449768 76.0
290.628204 140.0
290.700836 84.0
290.763214 84.0
290.790955 100.0
290.843353 64.0
290.870514 96.0
290.955383 128.0
290.999512 80.0
291.036865 52.0
291.125671 52.0
291.174713 316.0
291.204498 144.0
291.224823 80.0
291.36972 44.0
291.621155 56.0
291.665344 72.0
291.706146 52.0
291.893127 92.0
291.950195 36.0
292.117584 104.0
292.246887 92.0
292.37619 88.0
292.512329 48.0
292.982269 116.0
293.104919 56.0
293.128754 132.0
293.213959 36.0
293.350311 48.0
293.681061 60.0
296.529083 60.0
297.132568 104.0
297.321289 72.0
297.671448 40.0
298.12146 40.0
298.231415 48.0
299.36673 40.0
299.414948 68.0
299.814575 64.0
300.176544 80.0
300.376556 76.0
300.490417 44.0
301.515961 40.0
302.245605 48.0
302.300964 108.0
302.328644 40.0
303.028076 56.0
303.118164 192.0
303.194397 68.0
305.907043 96.0
306.063721 156.0
306.83371 56.0
307.852539 48.0
310.291321 92.0
311.839355 60.0
312.130402 328.0
312.665833 112.0
313.12326 124.0
313.142853 232.0
314.135071 164.0
315.180084 160.0
316.167053 1284.0
316.251617 40.0
316.368439 64.0
317.168793 636.0
318.162231 52.0
319.377502 44.0
320.039429 52.0
321.575836 60.0
322.107849 96.0
327.099274 88.0
327.3909 36.0
329.118134 116.0
330.143341 316.0
330.618286 108.0
331.150055 180.0
332.020264 32.0
333.854218 84.0
336.864746 68.0
340.057617 124.0
342.101318 80.0
344.136353 324.0
346.636749 92.0
347.988251 152.0
349.879211 36.0
351.765503 56.0
353.447266 92.0
356.740143 52.0
358.923767 88.0
360.108734 164.0
360.539429 108.0
367.610413 52.0
368.351105 88.0
369.371674 100.0
375.274261 68.0
376.601746 132.0
381.204193 180.0
382.596619 40.0
385.217163 84.0
385.897156 80.0
386.714722 132.0
388.258331 64.0
392.438263 72.0
404.383575 84.0
408.596893 92.0
413.070648 72.0
416.963013 68.0
417.381714 36.0
419.140137 76.0
419.282745 112.0
420.391968 108.0
425.175873 188.0
426.617584 76.0
433.075287 164.0
435.580566 80.0
436.923279 44.0
440.128296 100.0
451.17392 40.0
454.821136 164.0
463.212738 100.0
466.744781 52.0
472.342651 72.0
476.130707 80.0
478.835785 96.0
479.040497 44.0
483.975525 68.0
484.636902 104.0
485.838165 116.0
493.417297 76.0
495.417603 120.0
499.906372 156.0
502.231934 108.0
504.142761 96.0
508.531647 60.0
516.221802 128.0
518.992981 136.0
528.292847 88.0
534.192078 96.0
539.384277 92.0
547.093872 40.0
549.022827 132.0
549.834595 64.0
552.091003 164.0
555.514771 56.0
557.500793 84.0
558.429688 68.0
562.606445 136.0
562.644226 68.0
563.324219 88.0
571.930481 88.0
574.303284 88.0
577.785583 80.0
577.953064 112.0
582.276917 72.0
589.333923 64.0
600.430664 92.0
604.847473 92.0
606.120789 116.0
606.512817 88.0
614.36084 72.0
614.839478 60.0
617.987061 72.0
622.72113 52.0
625.191956 48.0
644.417053 56.0
649.352478 92.0
659.335388 128.0
663.569214 60.0
671.539612 84.0
678.784851 84.0
684.406921 84.0
686.418213 148.0
688.667419 32.0
690.141113 72.0
693.611938 104.0
698.137573 176.0
700.458618 72.0
715.290405 56.0
724.49115 64.0
733.260742 220.0
743.926575 36.0
745.550537 192.0
746.393066 256.0
752.064148 72.0
752.255188 52.0
760.460083 48.0
763.393738 180.0
766.454224 124.0
771.443359 40.0
785.280334 200.0
786.351562 120.0
788.35083 92.0
801.723633 88.0
822.104919 180.0
827.265991 176.0
827.655273 136.0
828.840942 180.0
840.201782 52.0
847.132996 88.0
854.348694 160.0
865.999573 184.0
866.163574 60.0
878.159851 188.0
890.588989 188.0
892.009094 176.0
905.751038 84.0
908.556396 216.0
915.269714 148.0
918.132019 204.0
919.682556 144.0
921.995667 156.0
923.519165 80.0
925.243713 160.0
927.721436 172.0
929.128357 156.0
933.039368 200.0
935.27179 116.0
938.829773 44.0
941.337769 48.0
942.492249 44.0
943.580139 116.0
945.164185 84.0
949.967346 36.0
950.605469 64.0
957.779968 32.0
958.00177 176.0
958.550049 172.0
966.243164 64.0
967.326111 104.0
968.502563 196.0
970.002075 168.0
974.39563 164.0
975.831238 104.0
986.810425 164.0
992.125549 140.0
992.476685 156.0
996.374146 36.0
996.920776 120.0
999.096252 168.0
1004.501099 144.0
1006.451172 104.0
1009.623291 56.0
1014.885254 188.0
1024.762085 164.0
1025.724365 168.0
1033.221313 112.0
1037.627319 180.0
1046.074951 132.0
1047.259766 208.0
1047.704224 148.0
1049.218628 136.0
1051.2052 52.0
1055.235596 28.0
1055.921021 144.0
1066.397949 192.0
1067.613647 140.0
1070.170898 232.0
1075.751343 152.0
1080.129395 192.0
1082.629517 192.0
1083.782349 128.0
1086.621216 212.0
1090.607178 184.0
1095.120728 216.0
1098.87146 176.0
1099.003418 176.0
1102.152832 116.0
1107.286133 152.0
1112.517578 60.0
1114.941895 192.0
1115.932251 136.0
1118.939453 252.0
1119.105957 52.0
1119.225708 96.0
1119.338989 152.0
1119.651978 200.0
1120.997559 144.0
1121.823975 156.0
1126.221191 200.0
1127.310181 200.0
1129.924438 156.0
1130.238892 48.0
1132.119873 164.0
1134.417969 60.0
1140.835449 128.0
1141.702759 144.0
1142.395508 160.0
1145.721069 124.0
1155.855103 240.0
1156.349121 64.0
1157.330566 176.0
1158.332886 144.0
1160.230347 136.0
1161.369507 80.0
1161.634033 176.0
1162.488892 212.0
1162.834961 184.0
1163.004639 152.0
1163.052124 188.0
1167.821777 196.0
1173.426025 148.0
1176.161499 172.0
1176.586182 88.0
1178.128052 160.0
1180.198853 104.0
1180.410767 88.0
1180.903198 212.0
1182.456177 156.0
1183.25708 36.0
1184.523926 212.0
1189.543335 140.0
1192.455566 216.0
1193.067261 152.0
1198.635132 148.0
1199.344971 212.0
1199.834473 84.0
1200.87561 140.0
1201.944824 124.0
1202.579712 216.0
1203.145752 148.0
1207.291382 152.0
1207.664795 64.0
1208.481079 236.0
1210.557617 192.0
1211.374878 144.0
1211.665771 164.0
1213.564819 180.0
1215.610962 60.0
1216.568726 164.0
1216.638184 152.0
1217.415771 104.0
1218.08252 160.0
1218.290894 192.0
1218.499268 124.0
1220.403687 168.0
1221.293701 192.0
1223.624878 152.0
1227.024658 100.0
1229.124023 392.0
1230.40918 144.0
1230.81311 104.0
1231.378784 180.0
1231.85376 168.0
1234.083008 128.0
1236.748291 204.0
1237.231323 76.0
1238.827881 124.0
1240.797119 48.0
1242.206665 200.0
1243.750366 164.0
1245.821777 56.0
1246.046631 188.0
1246.517334 192.0
1250.793213 164.0
1252.208496 132.0
1252.307007 132.0
1254.907227 176.0
1257.13623 100.0
1257.679565 152.0
1258.138428 212.0
1259.049194 84.0
1262.080688 240.0
1264.266357 156.0
1265.490967 224.0
1265.653809 164.0
1270.019043 164.0
1270.650391 92.0
1271.814209 176.0
1273.292725 160.0
1276.126099 196.0
1276.318115 152.0
1276.552734 164.0
1277.157227 136.0
1279.754639 212.0
1282.333374 52.0
1283.02478 212.0
1283.545166 76.0
1288.841309 168.0
1290.399414 164.0
1291.49353 220.0
1292.19458 136.0
1295.920166 184.0
1296.318726 212.0
1298.935547 236.0
1299.279907 164.0
1301.375488 108.0
1301.799072 84.0
1301.928345 220.0
1307.384644 168.0
1308.543457 40.0
1309.623657 176.0
1312.066406 104.0
1312.33313 120.0
1312.542236 252.0
1312.902832 64.0
1313.414795 68.0
1314.19397 184.0
1316.222168 188.0
1316.799805 128.0
1317.175415 40.0
1317.247681 184.0
1319.560181 144.0
1321.961426 208.0
1322.23645 180.0
1322.366699 40.0
1325.618286 92.0
1328.518433 140.0
1328.960938 64.0
1329.838989 212.0
1331.901001 200.0
1332.344116 88.0
1333.18689 92.0
1333.884644 240.0
1334.168091 152.0
1334.53894 168.0
1336.073486 200.0
1337.084839 144.0
1337.164917 196.0
1338.861084 168.0
1340.441895 140.0
1344.372314 272.0
1347.600708 220.0
1348.359497 204.0
1348.469238 216.0
1348.549561 68.0
1348.761475 104.0
1350.216431 164.0
1351.430664 148.0
1351.781982 172.0
1354.41748 136.0
1355.531006 44.0
1356.036743 164.0
1356.615723 40.0
1356.843018 72.0
1357.796265 108.0
1362.78772 164.0
1364.171509 380.0
1364.294312 236.0
1364.838257 152.0
1365.198608 220.0
1365.272095 88.0
1365.536865 56.0
1366.346069 232.0
1366.463745 80.0
1366.780151 192.0
1366.949341 164.0
1367.957642 220.0
1368.944214 192.0
1369.584839 156.0
1369.805908 160.0
1371.633301 148.0
1372.643311 176.0
1374.922607 184.0
1375.048096 124.0
1375.144043 76.0
1375.948608 204.0
1380.470459 88.0
1380.603516 180.0
1381.624268 104.0
1381.764771 132.0
1382.223511 196.0
1382.371582 108.0
1383.133789 48.0
1383.489136 172.0
1384.118408 152.0
1384.747925 136.0
1384.866333 232.0
1385.896118 208.0
1389.120972 48.0
1389.721802 40.0
1391.540161 144.0
1391.985718 104.0
1392.084839 184.0
1394.637817 204.0
1394.86084 192.0
1395.373779 128.0
1396.593262 164.0
1397.270142 64.0
1397.872803 48.0
1397.991821 80.0
1398.07373 52.0
1399.078491 216.0
1399.644409 36.0
1399.770996 208.0
1399.88269 140.0
1400.180542 72.0
1400.34436 172.0
1401.774658 132.0
1403.220581 88.0
1403.7948 60.0
1403.876831 164.0
1404.040894 200.0
1406.316284 160.0
1406.667114 60.0
1407.241943 184.0
1407.704834 260.0
1408.190308 168.0
1408.638428 140.0
1409.034302 160.0
1409.333252 176.0
1410.678345 216.0
1411.246582 144.0
1411.418579 104.0
1413.445557 104.0
1413.670044 244.0
1415.069702 200.0
1415.279297 32.0
1415.451538 152.0
1416.058105 148.0
1416.754761 124.0
1417.309082 152.0
1417.871094 188.0
1418.912964 200.0
1422.341187 144.0
1423.459717 184.0
1424.789185 196.0
1425.247437 176.0
1427.276855 184.0
1429.133667 212.0
1430.331177 216.0
1431.671265 124.0
1434.353394 236.0
1434.873535 64.0
1435.861328 196.0
1436.351562 144.0
1436.436768 196.0
1437.369995 168.0
1440.170776 168.0
1441.568359 200.0
1442.951538 228.0
1443.964844 48.0
1444.713623 156.0
1445.160034 68.0
1448.354614 160.0
1448.748413 216.0
1449.309082 112.0
1449.445435 208.0
1449.991089 56.0
1450.210815 160.0
1450.543213 136.0
1450.794556 228.0
1450.893066 96.0
1450.999146 144.0
1451.112915 140.0
1451.567871 248.0
1455.422363 44.0
1455.551514 128.0
1456.158936 144.0
1456.354248 164.0
1457.9823 208.0
1459.502563 100.0
1460.156494 180.0
1460.71936 200.0
1461.419189 192.0
1462.446533 236.0
1462.735718 140.0
1463.588379 100.0
1465.503174 220.0
1466.986206 72.0
1468.114624 156.0
1468.206177 72.0
1468.587402 180.0
1469.975952 104.0
1470.281128 212.0
1470.487183 84.0
1470.601685 140.0
1471.113037 148.0
1474.359131 192.0
1474.690918 172.0
1474.924683 104.0
1477.073242 160.0
1478.243774 140.0
1478.955566 260.0
1479.973633 228.0
1480.080811 136.0
1480.279907 188.0
1480.900269 176.0
1481.536011 188.0
1481.689209 184.0
1482.010986 140.0
1482.317505 156.0
1482.953491 160.0
1483.413452 180.0
1484.072754 128.0
1485.522217 176.0
1486.50415 208.0
1487.36377 192.0
1487.471191 172.0
1487.954834 144.0
1488.945312 164.0
1489.306274 120.0
1489.828613 140.0
1490.228149 168.0
1492.287842 112.0
1493.279785 148.0
1494.079834 72.0
1495.318604 192.0
1495.411011 228.0
1497.458862 160.0
1497.790039 156.0
1499.369507 156.0
1499.52356 164.0
1499.808838 180.0
1500.101685 176.0
1500.656738 232.0
1501.042236 228.0
1503.364136 164.0
1504.174438 124.0
