>compound MLS001158620-01!(2R)-1-[(2S)-3-methyl-2-[(3-oxo-2,4-dihydroquinoxaline-1-carbonyl)amino]butanoyl]pyrrolidine-2-carboxylic acid
>formula C19H24N4O5
>ionization [M+H]+
>parentmass 389.182
#inchi InChI=1S/C19H24N4O5/c1-11(2)16(17(25)22-9-5-8-14(22)18(26)27)21-19(28)23-10-15(24)20-12-6-3-4-7-13(12)23/h3-4,6-7,11,14,16H,5,8-10H2,1-2H3,(H,20,24)(H,21,28)(H,26,27)/t14-,16+/m1/s1
#inchikey KXLLMZMKIMFEFF
#Ion_Source LC-ESI
#Instrument qTof
#Compound_Source NIH Natural Product Library
#PI Dorrestein
#Data_Collector VVP/LMS
#Scan -1
#Precursor_MZ 389.182
#ExactMass 388.175
#Charge 1
#CAS_Number N/A
#Pubmed_ID N/A
#Smiles CC(C)[C@H](NC(=O)N1CC(=O)Nc2ccccc12)C(=O)N3CCC[C@@H]3C(=O)O
#INCHI_AUX N/A
#Library_Class 1
#SpectrumID CCMSLIB00000079373
#IonMode Positive
#UpdateWorkflowName UPDATE-SINGLE-ANNOTATED-GOLD
#LibraryQualityString Gold
#TaskID b1d8e8f6646f4e71acdff9ca3d919d08
##Scan# 1670
#SpectrumFile p1-C05_GC5_01_17901.mzXML
#LibraryName NIH_Natural_Products_Library.mgf
#MQScore -1
#Organism NIH_Natural_Products_Library
#TIC_Query 0
#RT_Query -1
#MZErrorPPM -1
#SharedPeaks 0
#MassDiff 0
#LibMZ -1
#SpecMZ 389.182
#SpecCharge 0
#internalFilename spec-00000.mgf

>collision 10
95.15139 136.0
95.797028 212.0
96.497398 168.0
97.324448 148.0
97.467827 160.0
97.666389 148.0
97.752945 156.0
97.904526 432.0
97.987251 132.0
98.004982 152.0
98.064102 364.0
98.460655 136.0
99.702797 148.0
99.810143 180.0
100.040924 140.0
100.06282 140.0
100.882751 164.0
100.974724 188.0
101.722076 124.0
102.138016 56.0
102.706024 188.0
102.944168 112.0
103.615685 104.0
104.043549 184.0
104.557846 232.0
104.580452 184.0
104.953026 164.0
105.075401 108.0
105.136612 184.0
106.683014 200.0
106.78788 244.0
106.822845 56.0
106.99942 212.0
107.012489 168.0
108.044083 36.0
108.265549 96.0
108.335976 180.0
108.412636 228.0
108.99157 228.0
110.519928 124.0
111.722084 56.0
111.833603 216.0
111.852547 144.0
112.259163 208.0
112.751038 168.0
113.205864 224.0
113.960983 188.0
114.051979 112.0
114.793236 196.0
115.185928 180.0
115.322678 192.0
115.791222 140.0
116.070107 1124.0
116.097679 224.0
116.19635 164.0
117.056084 40.0
117.07547 168.0
117.374992 104.0
117.62957 160.0
118.067223 508.0
118.362465 168.0
118.837135 144.0
118.936958 148.0
119.02597 216.0
119.060486 4020.0
119.565071 152.0
119.608604 112.0
119.81765 240.0
120.000725 36.0
120.066925 244.0
120.131569 208.0
120.452454 100.0
120.476479 104.0
120.642563 216.0
120.839386 100.0
120.948807 172.0
121.01667 44.0
121.076988 3048.0
121.137115 96.0
121.213799 28.0
121.279541 60.0
121.560257 208.0
122.039139 188.0
122.079056 312.0
122.977524 52.0
123.032295 172.0
123.07589 228.0
123.154152 68.0
123.229263 120.0
123.824295 60.0
124.061378 36.0
124.123459 72.0
124.338638 144.0
125.319267 228.0
125.412857 160.0
125.535477 204.0
125.684929 200.0
125.885818 148.0
126.720123 132.0
126.841141 172.0
127.020523 204.0
127.148407 104.0
128.834885 224.0
129.043716 228.0
129.072189 144.0
129.375275 96.0
130.069016 144.0
130.671219 60.0
131.074219 456.0
131.423065 84.0
131.534897 68.0
131.774673 72.0
132.042068 388.0
132.071854 180.0
132.454102 252.0
133.077789 168.0
133.516754 216.0
133.716904 168.0
134.544403 192.0
134.611359 176.0
134.652924 32.0
135.036575 160.0
135.193893 176.0
135.353622 172.0
136.049164 196.0
136.116486 204.0
137.123779 164.0
137.62764 136.0
138.17923 108.0
138.4086 164.0
138.640503 180.0
139.21994 148.0
140.81665 144.0
141.135681 216.0
141.381683 132.0
141.879089 108.0
141.969193 120.0
142.042511 200.0
142.10202 84.0
142.355988 128.0
142.66011 176.0
143.381302 196.0
144.079559 188.0
144.302673 156.0
144.496399 44.0
144.824341 208.0
145.08313 152.0
145.243805 200.0
145.39975 136.0
145.702286 156.0
145.983505 96.0
146.095963 204.0
146.123016 80.0
146.243332 148.0
146.508209 52.0
146.529892 104.0
146.587708 120.0
146.820099 100.0
146.874603 60.0
146.927673 100.0
146.980621 148.0
147.056274 23044.0
147.098007 232.0
147.126175 172.0
147.182632 64.0
147.21048 136.0
147.229385 72.0
147.246918 76.0
147.299423 144.0
147.429886 40.0
147.448303 84.0
147.518799 240.0
147.550751 72.0
147.579758 164.0
147.652298 72.0
147.770828 52.0
148.029816 136.0
148.057007 1788.0
148.097626 176.0
148.71347 116.0
148.89798 80.0
148.965988 140.0
149.020538 324.0
149.066574 480.0
149.165237 40.0
149.215378 128.0
149.260056 64.0
149.296539 128.0
149.498444 124.0
150.032272 1012.0
150.068298 152.0
150.275726 44.0
150.558884 60.0
150.834961 48.0
150.878967 44.0
150.930313 36.0
150.998779 48.0
151.034409 192.0
151.177368 36.0
152.022797 136.0
153.035507 144.0
154.066391 144.0
154.217117 164.0
154.239365 212.0
154.680298 76.0
155.671356 136.0
155.974457 252.0
158.540146 100.0
158.637894 144.0
159.064331 56.0
159.297852 72.0
160.891891 156.0
161.212677 100.0
161.318817 164.0
161.698227 180.0
162.0578 88.0
162.902603 192.0
163.08046 196.0
163.123657 352.0
164.994812 64.0
165.053665 4580.0
165.12265 60.0
165.140564 52.0
165.181488 128.0
165.212173 112.0
165.255676 36.0
165.350342 44.0
165.375946 192.0
166.056625 956.0
166.085663 104.0
167.030899 256.0
167.059036 184.0
167.718399 60.0
168.046707 192.0
168.996689 72.0
169.043259 196.0
169.434219 64.0
169.877518 228.0
170.651413 120.0
170.682617 196.0
170.773636 156.0
171.091095 180.0
172.096771 316.0
172.889465 252.0
173.101501 172.0
173.371307 160.0
173.581024 56.0
174.849838 84.0
174.91037 176.0
174.976181 88.0
175.049469 5952.0
175.121582 484.0
175.301743 80.0
175.590134 32.0
175.656082 156.0
175.978043 56.0
176.052444 476.0
176.876862 112.0
177.0569 176.0
177.083374 180.0
177.170792 84.0
177.53125 104.0
179.315094 108.0
179.39772 60.0
181.890793 136.0
182.073975 124.0
188.125031 228.0
189.139282 172.0
190.194427 148.0
192.079254 112.0
195.113007 508.0
196.116409 156.0
199.568069 224.0
201.102081 452.0
202.123505 144.0
203.066132 144.0
203.121017 240.0
204.069244 144.0
204.123581 36.0
205.028503 148.0
205.074966 668.0
205.122559 168.0
206.075714 192.0
207.082642 176.0
209.077942 184.0
212.177246 120.0
214.00177 40.0
216.109039 200.0
217.527451 192.0
218.126526 624.0
219.000565 88.0
219.136063 152.0
221.783844 80.0
223.464615 32.0
224.52504 76.0
225.184601 100.0
225.713531 68.0
227.118088 144.0
228.117981 96.0
229.09903 400.0
230.094177 124.0
236.826767 200.0
240.66153 84.0
241.112534 164.0
241.765045 132.0
245.892166 152.0
246.122696 6176.0
246.178604 196.0
246.29689 76.0
246.323029 72.0
246.376144 68.0
246.438629 44.0
246.50737 44.0
246.710526 48.0
247.004456 204.0
247.1259 592.0
247.232849 96.0
247.624191 84.0
247.652374 68.0
247.896729 72.0
248.120056 400.0
248.145981 92.0
248.213333 76.0
248.473648 100.0
248.787476 152.0
249.136047 168.0
249.384293 48.0
249.682968 80.0
250.121689 176.0
250.472946 60.0
251.100159 52.0
254.079819 148.0
256.656006 96.0
257.217468 120.0
260.043732 36.0
260.10791 44.0
263.117798 64.0
264.210114 60.0
266.937805 100.0
268.957703 76.0
272.198761 52.0
273.201202 80.0
286.996826 236.0
292.046051 156.0
300.579926 84.0
306.568604 188.0
310.105316 156.0
315.455505 128.0
318.6698 108.0
331.222534 200.0
340.920258 20.0
359.934479 80.0
367.155884 124.0
386.111572 100.0
427.134827 172.0
443.524353 112.0
445.147949 108.0
451.041016 92.0
465.085541 144.0
502.967041 140.0
629.327881 192.0
647.045593 96.0
757.974609 204.0
802.63562 96.0
867.457581 96.0
980.299927 44.0
1015.189453 172.0
1022.386902 120.0
1022.495117 68.0
1040.276733 176.0
1104.949951 124.0
1110.447876 152.0
1110.839233 104.0
1112.31897 108.0
1122.197876 160.0
1122.564575 240.0
1133.862305 120.0
1147.885254 176.0
1160.590454 160.0
1163.249878 168.0
1171.689087 136.0
1172.649902 200.0
1173.63147 80.0
1181.389893 220.0
1183.05957 172.0
1190.279053 156.0
1203.27124 136.0
1230.305054 176.0
1231.233643 196.0
1235.462402 104.0
1240.322021 132.0
1245.732178 216.0
1260.704102 124.0
1261.729004 200.0
1265.337036 224.0
1274.159424 156.0
1279.713989 136.0
1294.250854 104.0
1297.302856 184.0
1300.602417 192.0
1301.930664 56.0
1313.777832 216.0
1314.189087 208.0
1325.091919 112.0
1326.454224 100.0
1329.153076 64.0
1330.335083 80.0
1331.046631 108.0
1331.816406 56.0
1336.541748 172.0
1339.919922 176.0
1353.402344 184.0
1354.903809 184.0
1359.574463 176.0
1361.608032 104.0
1365.179565 72.0
1369.529053 144.0
1369.926758 188.0
1373.192017 200.0
1376.852539 120.0
1377.539429 184.0
1385.365845 148.0
1388.671753 164.0
1398.441772 124.0
1400.347778 200.0
1401.129883 80.0
1403.820557 208.0
1407.014038 116.0
1407.588867 144.0
1417.717407 228.0
1423.065552 220.0
1435.186523 176.0
1436.02356 124.0
1437.07959 220.0
1439.08728 160.0
1441.14917 152.0
1448.737305 152.0
1452.952271 164.0
1453.771729 176.0
1461.621216 140.0
1466.403564 180.0
1474.416992 140.0
1476.205811 160.0
1484.966797 176.0
1487.598511 92.0
1488.135986 104.0
1489.410645 128.0
1489.479858 32.0
1489.664185 196.0
1497.409668 148.0
