>compound 26807-65-8
>formula C16H16ClN3O3S 
>ionization [M+H]+
>parentmass 366.067902
#inchi InChI=1S/C16H16ClN3O3S/c1-10-8-11-4-2-3-5-14(11)20(10)19-16(21)12-6-7-13(17)15(9-12)24(18,22)23/h2-7,9-10H,8H2,1H3,(H,19,21)(H2,18,22,23)
#inchikey NDDAHWYSQHTHNT
#Ion_Source LC-ESI
#Instrument qTof
#Compound_Source Commercial
#PI Dorrestein
#Data_Collector Garg_Neha
#Scan -1
#Precursor_MZ 366.069
#ExactMass 365.06
#Charge 1
#CAS_Number N/A
#Pubmed_ID N/A
#Smiles N/A
#INCHI_AUX N/A
#Library_Class 1
#SpectrumID CCMSLIB00000077036
#IonMode Positive
#UpdateWorkflowName UPDATE-SINGLE-ANNOTATED-GOLD
#LibraryQualityString Gold
#TaskID 48f7f52fc6d249b5abbcc6e7b3df5969
##Scan# 1290
#SpectrumFile NCP003017_A2_B11_BA6_01_15701.mzXML
#LibraryName NIH_Clinical_Collection_2.mgf
#MQScore -1
#Organism NIHcollection2_04212014_2_mgf
#TIC_Query 0
#RT_Query -1
#MZErrorPPM -1
#SharedPeaks 0
#MassDiff 0
#LibMZ -1
#SpecMZ 366.069
#SpecCharge 0
#internalFilename spec-00000.mgf

>collision 10
45.079433 228.0
45.1436 148.0
45.967083 248.0
46.932896 236.0
47.357914 176.0
48.347843 148.0
48.630577 184.0
48.69722 148.0
49.170601 172.0
50.365479 212.0
50.700802 188.0
51.384769 200.0
52.224236 152.0
53.793575 208.0
54.628876 148.0
54.851234 176.0
55.751133 212.0
58.222588 192.0
58.52977 192.0
61.935467 144.0
62.584068 172.0
64.422272 192.0
64.606117 164.0
64.714951 148.0
67.151978 140.0
70.071541 156.0
70.395126 184.0
71.301453 168.0
72.196663 244.0
75.126114 168.0
75.28318 216.0
75.41449 208.0
76.911751 196.0
78.656563 268.0
82.094856 208.0
82.844948 232.0
83.213112 140.0
83.667625 172.0
83.745926 176.0
85.899742 232.0
86.801155 116.0
87.763641 160.0
87.991264 192.0
88.932869 144.0
90.050369 232.0
90.886131 184.0
91.05452 1412.0
92.059021 152.0
96.585457 196.0
97.442139 168.0
100.527176 212.0
100.557114 184.0
103.053261 168.0
103.126007 160.0
103.508369 152.0
103.644081 176.0
105.070732 616.0
105.641373 176.0
106.066063 192.0
106.249817 164.0
108.508156 172.0
110.279671 192.0
110.515984 148.0
110.813293 176.0
111.488968 180.0
111.505775 192.0
113.963448 144.0
115.052902 424.0
116.050911 152.0
116.065926 244.0
117.057007 7796.0
117.781174 192.0
118.063293 1108.0
118.631599 172.0
118.924431 144.0
119.241539 208.0
119.395897 144.0
119.97509 192.0
120.195374 156.0
122.200249 184.0
122.66713 168.0
123.982239 156.0
125.603088 176.0
126.434242 180.0
126.490196 244.0
127.025757 172.0
127.542213 204.0
128.404556 180.0
128.614395 204.0
130.065842 504.0
131.011292 140.0
131.073181 708.0
131.633957 156.0
131.723022 180.0
131.743591 168.0
131.853897 132.0
131.937836 148.0
131.981079 224.0
132.08136 63604.0
132.144577 176.0
132.20372 176.0
132.251907 136.0
132.327713 204.0
132.360138 176.0
132.45842 116.0
132.525482 164.0
133.050598 168.0
133.084625 6212.0
133.220322 116.0
133.802948 104.0
133.933914 148.0
134.090118 320.0
134.14859 156.0
134.790222 160.0
136.985809 168.0
138.431549 112.0
140.928864 164.0
145.062881 192.0
145.098846 176.0
147.094269 360.0
148.101349 176.0
149.105927 156.0
150.089401 140.0
154.001373 132.0
154.023529 164.0
187.064606 220.0
200.942825 148.0
202.935226 308.0
217.967819 500.0
218.970123 364.0
219.963089 120.0
234.995972 880.0
235.993973 332.0
236.995956 404.0
244.053833 144.0
252.994644 164.0
268.069611 172.0
305.86499 144.0
317.030701 152.0
320.23172 164.0
348.061707 152.0
350.052429 140.0
352.049896 180.0
358.668213 152.0
364.05481 140.0
365.049622 364.0
365.152771 132.0
366.067902 3288.0
367.06839 436.0
367.264221 172.0
368.06427 1400.0
368.116516 148.0
369.071442 412.0
1097.737549 180.0
1125.30127 200.0
1159.677246 280.0
1194.721802 184.0
1221.034546 200.0
1252.228882 148.0
1252.573975 164.0
1255.195679 164.0
1258.533325 156.0
1270.274414 192.0
1286.620728 152.0
1300.457764 196.0
1301.907959 208.0
1308.27124 184.0
1310.251709 164.0
1334.330444 156.0
1340.597534 152.0
1366.173096 140.0
1367.262085 252.0
1372.167847 140.0
1405.731934 160.0
1431.519409 144.0
1435.475586 220.0
1436.938965 188.0
1475.704956 160.0
1488.59314 188.0
1492.127563 148.0
1498.184326 260.0
1508.780273 192.0
1516.699341 252.0
1520.453369 152.0
1538.012085 232.0
1570.898926 176.0
1577.026367 160.0
1578.030396 188.0
1582.944092 232.0
1610.820801 156.0
1630.45105 264.0
1634.09375 152.0
1662.975342 160.0
1686.473511 188.0
1697.657104 176.0
1700.512085 180.0
1705.38269 148.0
1707.026855 200.0
1744.323364 160.0
1754.029297 212.0
1764.439209 168.0
1768.72229 212.0
1800.343872 184.0
1800.884399 192.0
1802.988037 160.0
1803.799438 160.0
1819.276367 176.0
1833.617432 212.0
1838.060425 152.0
1842.765137 196.0
1851.8927 192.0
1857.061035 156.0
1862.451294 200.0
1863.997681 220.0
1877.42688 216.0
1878.67749 180.0
1884.436035 156.0
1886.527466 152.0
1893.085815 156.0
1897.010742 168.0
1897.765015 164.0
1917.088379 156.0
1927.070801 168.0
1934.285645 168.0
1973.991943 160.0
1975.442383 220.0
1993.769653 180.0
1997.539551 172.0
