>compound MLS002207102-01!(+)-Dehydroabietylamine1446-61-3
>formula C20H31N
>ionization [M+H]+
>parentmass 286.251923
#inchi InChI=1S/C20H31N/c1-14(2)15-6-8-17-16(12-15)7-9-18-19(3,13-21)10-5-11-20(17,18)4/h6,8,12,14,18H,5,7,9-11,13,21H2,1-4H3/t18-,19-,20+/m0/s1
#inchikey JVVXZOOGOGPDRZ
#Ion_Source LC-ESI
#Instrument qTof
#Compound_Source NIH Pharmacologically Active Library
#PI Dorrestein
#Data_Collector VP/LMS
#Scan -1
#Precursor_MZ 286.253
#ExactMass 285.246
#Charge 1
#CAS_Number N/A
#Pubmed_ID N/A
#Smiles CC(C)c1ccc2c(CC[C@H]3[C@](C)(CN)CCC[C@@]32C)c1
#INCHI_AUX N/A
#Library_Class 1
#SpectrumID CCMSLIB00000085927
#IonMode Positive
#UpdateWorkflowName UPDATE-SINGLE-ANNOTATED-GOLD
#LibraryQualityString Gold
#TaskID d252d724072548979f1f6f1ced849daf
##Scan# 1982
#SpectrumFile p4-H02_GH2_01_18410.mzXML
#LibraryName Pharm_Active_Library.mgf
#MQScore -1
#Organism Pharm_Active_Library
#TIC_Query 0
#RT_Query -1
#MZErrorPPM -1
#SharedPeaks 0
#MassDiff 0
#LibMZ -1
#SpecMZ 286.253
#SpecCharge 0
#internalFilename spec-00000.mgf

>collision 10
44.890266 100.0
44.936779 152.0
44.952297 184.0
45.002876 180.0
45.017899 176.0
45.054966 140.0
45.128475 204.0
45.194019 188.0
45.203384 220.0
45.234169 184.0
45.271164 108.0
45.311844 140.0
45.380527 180.0
45.393608 160.0
45.420433 152.0
45.539898 196.0
45.565422 208.0
45.58289 144.0
45.596329 132.0
45.791763 228.0
45.821053 160.0
45.833179 112.0
45.887096 136.0
45.926205 260.0
45.936996 132.0
45.953186 188.0
45.981525 120.0
46.069294 76.0
46.089561 172.0
46.108482 120.0
46.170429 156.0
46.228596 152.0
46.296535 184.0
46.440201 200.0
46.495831 280.0
46.590881 116.0
46.605827 204.0
46.649319 160.0
46.710514 140.0
46.770386 136.0
46.795261 148.0
46.880711 172.0
46.898426 156.0
46.908627 176.0
46.94342 180.0
47.022549 136.0
47.034832 324.0
47.062138 116.0
47.085354 160.0
47.115406 164.0
47.142731 160.0
47.19331 76.0
47.224766 208.0
47.246651 164.0
47.298042 152.0
47.309605 144.0
47.376713 140.0
47.404118 176.0
47.420872 248.0
47.47646 192.0
47.502834 80.0
47.522041 140.0
47.589298 192.0
47.623631 188.0
47.717079 168.0
47.767963 140.0
47.809242 188.0
47.832569 156.0
47.835766 148.0
47.839863 196.0
47.951099 96.0
47.992382 144.0
48.093166 148.0
48.111446 132.0
48.143162 184.0
48.243351 200.0
48.327332 168.0
48.343533 136.0
48.379314 80.0
48.429169 168.0
48.449947 228.0
48.499836 132.0
48.517857 60.0
48.635773 152.0
48.65382 176.0
48.74966 148.0
48.773029 192.0
48.872032 68.0
48.891514 160.0
48.984802 108.0
49.043327 124.0
49.053085 196.0
49.138157 196.0
49.158447 248.0
49.192589 180.0
49.203754 128.0
49.227493 100.0
49.35326 64.0
49.377033 148.0
49.388222 52.0
49.424595 184.0
49.449787 156.0
49.501587 88.0
49.587048 196.0
49.616486 128.0
49.650139 192.0
49.659958 84.0
49.738533 132.0
49.783463 224.0
49.826565 192.0
49.908531 136.0
49.939404 184.0
49.949543 172.0
49.997154 64.0
50.054874 200.0
50.08445 180.0
50.115444 216.0
50.143627 140.0
50.159134 132.0
50.201431 100.0
50.236694 212.0
50.255035 184.0
50.300198 60.0
50.366566 176.0
50.533386 196.0
50.570179 136.0
50.636726 180.0
50.663639 148.0
50.730247 168.0
50.772785 180.0
50.994274 116.0
51.108044 68.0
51.152164 48.0
51.206272 192.0
51.301743 168.0
51.338818 168.0
51.382687 172.0
51.415855 196.0
51.427277 176.0
51.437267 180.0
51.452 376.0
51.527237 116.0
51.612999 196.0
51.658768 132.0
51.799057 352.0
51.861134 244.0
51.916588 40.0
51.928062 172.0
51.969666 96.0
51.996933 204.0
52.008415 164.0
52.03569 208.0
52.186554 56.0
52.229702 88.0
52.282936 172.0
52.366444 176.0
52.402458 144.0
52.520672 140.0
52.539425 100.0
52.582714 176.0
52.610371 152.0
52.667904 104.0
52.698242 164.0
52.738865 148.0
52.784969 184.0
52.835594 200.0
53.041237 124.0
53.068783 176.0
53.087635 32.0
53.122444 216.0
53.14711 208.0
53.157265 104.0
53.192101 144.0
53.357716 188.0
53.412762 216.0
53.472637 228.0
53.495926 192.0
53.525043 148.0
53.538151 88.0
53.602249 100.0
53.632858 156.0
53.742237 136.0
53.756828 148.0
53.792965 200.0
53.82365 208.0
53.859028 156.0
53.91309 176.0
53.926243 192.0
54.052849 180.0
54.110329 224.0
54.153034 176.0
54.174694 132.0
54.19112 144.0
54.217499 144.0
54.284935 176.0
54.336273 144.0
54.35535 204.0
54.368969 156.0
54.432579 144.0
54.474274 168.0
54.487499 172.0
54.513947 164.0
54.53746 108.0
54.552162 168.0
54.580097 120.0
54.590389 168.0
54.634518 136.0
54.647758 148.0
54.662476 160.0
54.706631 156.0
54.764057 148.0
54.806782 180.0
54.831837 144.0
54.855419 308.0
54.887856 132.0
54.904076 188.0
54.936527 180.0
55.04575 72.0
55.066425 212.0
55.103359 224.0
55.163322 156.0
55.190563 164.0
55.212746 156.0
55.228516 228.0
55.28672 180.0
55.308922 268.0
55.393326 152.0
55.412586 108.0
55.470383 196.0
55.494106 148.0
55.508934 212.0
55.547497 120.0
55.563816 160.0
55.596458 180.0
55.695938 148.0
55.835892 276.0
55.869164 220.0
55.918972 176.0
55.989738 128.0
56.020229 144.0
56.073872 204.0
56.111137 140.0
56.123066 172.0
56.137978 168.0
56.24242 196.0
56.252869 124.0
56.307655 224.0
56.357834 200.0
56.439972 156.0
56.474621 160.0
56.514416 124.0
56.590752 132.0
56.607224 144.0
56.621449 144.0
56.642464 212.0
56.674629 160.0
56.7061 144.0
56.829071 44.0
56.863586 68.0
56.882462 140.0
56.905621 84.0
56.95668 120.0
57.031921 164.0
57.052856 156.0
57.093456 196.0
57.143097 400.0
57.197277 212.0
57.253201 140.0
57.285065 228.0
57.300095 88.0
57.450447 156.0
57.525902 196.0
57.615005 200.0
57.704174 204.0
57.754082 212.0
57.770363 204.0
57.841843 152.0
57.89938 168.0
57.911499 116.0
57.937252 108.0
57.981194 132.0
58.097954 176.0
58.149544 72.0
58.214828 140.0
58.2528 200.0
58.27103 144.0
58.290783 156.0
58.311386 252.0
58.409374 196.0
58.423065 168.0
58.441322 172.0
58.518951 116.0
58.576824 204.0
58.657589 200.0
58.67131 128.0
58.730782 148.0
58.823864 112.0
58.84066 128.0
58.854401 164.0
58.866615 164.0
58.898689 272.0
58.932301 180.0
58.949108 228.0
58.98579 156.0
59.120388 180.0
59.134163 148.0
59.154064 192.0
59.219906 172.0
59.263256 188.0
59.29958 160.0
59.340973 136.0
59.359371 64.0
59.388512 208.0
59.406918 156.0
59.462158 224.0
59.528175 92.0
59.546604 160.0
59.57579 176.0
59.600502 236.0
59.632874 188.0
59.709522 60.0
59.749516 48.0
59.760284 176.0
59.792603 212.0
59.81913 188.0
59.863861 224.0
59.921955 180.0
60.012894 148.0
60.046818 76.0
60.097729 164.0
60.110073 80.0
60.170269 144.0
60.24131 104.0
60.313942 116.0
60.328903 200.0
60.374477 208.0
60.400536 116.0
60.477901 68.0
60.576122 112.0
60.721821 188.0
60.755661 116.0
60.802467 176.0
60.814255 200.0
60.828869 192.0
60.847599 240.0
60.929169 108.0
60.98045 76.0
61.046486 160.0
61.061302 76.0
61.120419 236.0
61.157944 176.0
61.467911 220.0
61.494087 228.0
61.553638 240.0
61.617809 52.0
61.652187 96.0
61.724098 156.0
61.741299 200.0
61.789791 208.0
61.813263 124.0
61.844563 200.0
61.866478 100.0
61.91502 152.0
61.941647 108.0
61.966713 160.0
61.982384 148.0
62.009026 216.0
62.027836 52.0
62.046982 112.0
62.0686 128.0
62.101532 172.0
62.121925 284.0
62.184452 220.0
62.239639 100.0
62.252201 84.0
62.304035 204.0
62.330746 88.0
62.368103 156.0
62.431355 180.0
62.481689 192.0
62.500572 168.0
62.529636 200.0
62.569828 48.0
62.580849 200.0
62.598171 160.0
62.653297 108.0
62.746284 56.0
62.796745 124.0
62.859852 204.0
62.883526 192.0
62.940361 152.0
62.959904 192.0
63.044621 136.0
63.077812 220.0
63.092041 136.0
63.125198 136.0
63.175861 272.0
63.224327 184.0
63.259735 108.0
63.280315 152.0
63.294567 168.0
63.342079 144.0
63.380104 124.0
63.465702 184.0
63.496559 180.0
63.519623 112.0
63.587551 168.0
63.630714 124.0
63.665649 148.0
63.695412 184.0
63.845234 156.0
63.993225 160.0
64.06649 160.0
64.139793 208.0
64.164543 192.0
64.221069 140.0
64.296104 136.0
64.339203 152.0
64.364594 168.0
64.377525 136.0
64.400787 280.0
64.489365 136.0
64.505348 144.0
64.588608 176.0
64.724976 176.0
64.76297 220.0
64.779503 240.0
64.814484 320.0
64.828659 188.0
64.937622 200.0
64.958534 172.0
64.974579 168.0
65.027634 132.0
65.059639 136.0
65.143951 140.0
65.15921 152.0
65.225105 104.0
65.247612 156.0
65.303894 240.0
65.358589 196.0
65.405266 136.0
65.426193 72.0
65.642097 124.0
65.66468 244.0
65.687263 140.0
65.716301 136.0
65.735664 312.0
65.761711 212.0
65.805077 176.0
65.876137 192.0
65.916527 140.0
66.067863 208.0
66.155029 228.0
66.217438 84.0
66.269279 140.0
66.288727 128.0
66.327621 148.0
66.347076 136.0
66.371399 172.0
66.402206 140.0
66.444389 232.0
66.491447 176.0
66.512543 108.0
66.558006 164.0
66.600227 220.0
66.624596 180.0
66.657097 160.0
66.681473 108.0
66.703598 72.0
66.738373 140.0
66.779022 160.0
66.813187 160.0
66.835136 172.0
66.904327 140.0
67.026482 200.0
67.121025 200.0
67.132446 168.0
67.145493 172.0
67.184639 140.0
67.200951 128.0
67.236053 260.0
67.419769 64.0
67.530945 188.0
67.562027 212.0
67.586571 152.0
67.62635 236.0
67.674957 140.0
67.714264 164.0
67.789627 132.0
67.820763 56.0
67.881424 200.0
67.994629 144.0
68.043869 172.0
68.055367 200.0
68.082733 156.0
68.114487 120.0
68.125992 196.0
68.158943 136.0
68.204865 132.0
68.232391 272.0
68.372635 168.0
68.435188 56.0
68.454948 152.0
68.73764 428.0
68.759941 176.0
68.781403 172.0
68.887085 156.0
68.964752 172.0
68.978859 224.0
69.045769 180.0
69.083809 84.0
69.09539 172.0
69.116905 104.0
69.133453 192.0
69.183884 204.0
69.290756 120.0
69.345444 84.0
69.383041 88.0
69.396286 180.0
69.534523 240.0
69.635803 136.0
69.680397 152.0
69.71389 232.0
69.770401 264.0
69.831932 72.0
69.850227 52.0
69.865204 212.0
69.958397 168.0
69.978378 224.0
70.052055 176.0
70.081337 196.0
70.169983 44.0
70.21167 192.0
70.274773 188.0
70.400253 216.0
70.438675 264.0
70.478767 132.0
70.523895 168.0
70.595787 148.0
70.624214 128.0
70.687279 208.0
70.699509 180.0
70.748047 140.0
70.878693 136.0
70.893776 96.0
70.945732 120.0
70.960823 196.0
71.110046 176.0
71.159569 204.0
71.210869 196.0
71.225983 160.0
71.267982 36.0
71.357063 208.0
71.394058 140.0
71.455467 172.0
71.491676 360.0
71.5354 140.0
71.585915 132.0
71.612854 136.0
71.626335 132.0
71.668449 48.0
71.803314 160.0
71.821304 144.0
71.924797 216.0
71.948433 160.0
71.963631 192.0
72.037941 168.0
72.115669 156.0
72.288361 184.0
72.369431 124.0
72.438866 128.0
72.467667 72.0
72.497215 192.0
72.600548 216.0
72.657562 172.0
72.691498 152.0
72.732231 196.0
72.868095 176.0
72.901405 152.0
72.929268 144.0
72.981972 168.0
73.038094 256.0
73.068718 108.0
73.111259 196.0
73.143593 176.0
73.15551 172.0
73.175941 152.0
73.252388 144.0
73.32074 116.0
73.423027 108.0
73.522644 240.0
73.588554 136.0
73.641495 148.0
73.689331 140.0
73.872261 216.0
73.920166 212.0
74.038292 164.0
74.069122 168.0
74.096535 128.0
74.137657 108.0
74.266251 184.0
74.321144 160.0
74.408684 188.0
74.42585 84.0
74.523758 120.0
74.548866 196.0
74.565002 208.0
74.594223 76.0
74.606255 168.0
74.675041 160.0
74.688805 152.0
74.750137 172.0
74.807541 136.0
74.824753 152.0
74.881577 192.0
74.936707 108.0
74.988403 100.0
75.005638 108.0
75.026329 148.0
75.079781 176.0
75.102203 152.0
75.117729 236.0
75.155685 196.0
75.262703 176.0
75.34388 212.0
75.426834 132.0
75.445847 184.0
75.473511 160.0
75.516747 136.0
75.695007 204.0
75.760826 216.0
75.833824 156.0
75.854401 184.0
75.911621 152.0
75.927231 92.0
75.951508 204.0
76.003555 156.0
76.033058 332.0
76.045212 56.0
76.06501 128.0
76.109444 184.0
76.185867 216.0
76.295349 268.0
76.559837 124.0
76.575516 144.0
76.627777 76.0
76.67308 168.0
76.810829 160.0
76.892838 208.0
76.932983 128.0
76.981873 180.0
77.000481 196.0
77.055191 168.0
77.112648 136.0
77.240547 160.0
77.349037 264.0
77.389305 224.0
77.417046 152.0
77.461113 204.0
77.475128 40.0
77.515427 244.0
77.527695 160.0
77.554764 216.0
77.592552 136.0
77.618851 208.0
77.814232 184.0
77.890892 180.0
77.938324 60.0
77.955902 236.0
77.984016 224.0
77.996323 136.0
78.015663 112.0
78.09655 44.0
78.214638 108.0
78.313858 200.0
78.346519 128.0
78.385284 100.0
78.401146 172.0
78.492813 144.0
78.524559 176.0
78.660423 236.0
78.706329 224.0
78.743416 208.0
78.76638 196.0
78.782272 204.0
78.840584 136.0
78.946663 148.0
78.962578 128.0
79.02095 136.0
79.100594 140.0
79.112984 108.0
79.128922 136.0
79.160789 132.0
79.172668 116.0
79.2033 152.0
79.215698 192.0
79.245819 148.0
79.267082 208.0
79.311386 72.0
79.330887 204.0
79.378761 120.0
79.407135 140.0
79.446159 204.0
79.461548 256.0
79.51004 204.0
79.526016 164.0
79.550865 124.0
79.66452 44.0
79.685837 156.0
79.70005 60.0
79.730263 148.0
79.774704 172.0
79.838715 140.0
79.904526 140.0
79.933968 176.0
79.979271 188.0
80.052269 156.0
80.108391 208.0
80.146683 132.0
80.185562 176.0
80.201927 144.0
80.228668 56.0
80.265541 300.0
80.35173 172.0
80.424896 208.0
80.471306 136.0
80.496307 136.0
80.53299 232.0
80.550293 152.0
80.58741 72.0
80.605278 344.0
80.636871 212.0
80.739357 148.0
80.775124 168.0
80.827011 212.0
80.841331 32.0
80.887863 172.0
81.034721 184.0
81.090271 236.0
81.187088 228.0
81.235512 172.0
81.273193 124.0
81.336006 276.0
81.416801 264.0
81.449135 176.0
81.51561 136.0
81.538971 164.0
81.587509 132.0
81.686417 172.0
81.738594 128.0
81.806992 136.0
81.844795 160.0
81.999725 168.0
82.017754 180.0
82.042992 188.0
82.120529 64.0
82.171043 176.0
82.243225 148.0
82.281136 100.0
82.302002 200.0
82.315445 48.0
82.328087 160.0
82.353371 196.0
82.369629 132.0
82.396721 220.0
82.441902 156.0
82.481659 128.0
82.544945 124.0
82.642624 128.0
82.696915 164.0
82.827286 168.0
82.928757 92.0
82.948692 148.0
82.975883 172.0
83.019409 76.0
83.05024 156.0
83.219017 104.0
83.24807 172.0
83.333443 144.0
83.387962 68.0
83.482498 212.0
83.553207 156.0
83.575272 144.0
83.614799 200.0
83.781013 72.0
83.808342 148.0
83.824066 216.0
83.859367 184.0
83.959648 124.0
84.007072 60.0
84.041298 100.0
84.101959 96.0
84.171333 308.0
84.255356 188.0
84.282761 52.0
84.301041 120.0
84.337593 132.0
84.403404 180.0
84.425102 208.0
84.494858 140.0
84.562309 168.0
84.701729 56.0
84.747528 192.0
84.773186 108.0
84.87767 140.0
84.910683 124.0
84.933228 180.0
85.039116 196.0
85.062981 200.0
85.266869 196.0
85.395569 196.0
85.423157 80.0
85.491241 168.0
85.62011 128.0
85.699318 164.0
85.778572 216.0
85.830193 164.0
85.843643 164.0
85.874451 116.0
86.053459 112.0
86.081154 236.0
86.101471 212.0
86.159645 164.0
86.173515 384.0
86.204926 116.0
86.284409 144.0
86.319542 112.0
86.391678 180.0
86.415726 184.0
86.436081 216.0
86.460136 244.0
86.489754 104.0
86.548996 112.0
86.580475 200.0
86.597145 172.0
86.611969 180.0
86.682365 200.0
86.828827 168.0
86.84935 120.0
86.867775 152.0
86.899315 108.0
86.918999 132.0
86.964272 128.0
87.006966 164.0
87.02739 108.0
87.045959 180.0
87.170418 132.0
87.183426 212.0
87.22287 128.0
87.251846 228.0
87.47731 88.0
87.609535 188.0
87.700844 96.0
87.734398 164.0
87.751175 68.0
87.782875 152.0
87.94519 64.0
88.038544 164.0
88.116997 172.0
88.143158 148.0
88.288971 140.0
88.318901 156.0
88.36319 172.0
88.431168 236.0
88.491989 128.0
88.541626 176.0
88.560356 140.0
88.575348 148.0
88.614685 172.0
88.691521 180.0
88.732765 204.0
88.794647 164.0
88.822784 132.0
88.88282 156.0
88.974792 148.0
89.044273 192.0
89.15136 88.0
89.196465 204.0
89.250992 52.0
89.294243 164.0
89.38266 192.0
89.4487 184.0
89.491837 172.0
89.557755 28.0
89.651955 176.0
89.744324 164.0
89.761292 200.0
89.774498 188.0
89.815987 100.0
89.870697 96.0
89.923538 48.0
89.948082 208.0
89.98584 168.0
90.009071 196.0
90.023155 156.0
90.300583 204.0
90.326012 156.0
90.411682 188.0
90.484978 232.0
90.505806 64.0
90.52285 196.0
90.5383 228.0
90.566414 212.0
90.602097 172.0
90.604774 144.0
90.612457 208.0
90.627037 208.0
90.687675 160.0
90.732643 156.0
90.867218 184.0
90.935478 324.0
90.958931 212.0
90.979813 148.0
91.018585 212.0
91.034874 188.0
91.055077 3592.0
91.088058 172.0
91.164055 208.0
91.183334 168.0
91.266708 160.0
91.289528 216.0
91.306641 148.0
91.329468 192.0
91.344681 172.0
91.426498 160.0
91.445534 160.0
91.474083 164.0
91.515968 116.0
91.531204 44.0
91.592148 220.0
91.616913 120.0
91.643585 40.0
91.752228 112.0
91.859024 32.0
91.92691 244.0
91.941071 112.0
91.964676 184.0
92.020447 212.0
92.055611 280.0
92.074715 392.0
92.089989 60.0
92.149208 32.0
92.172142 144.0
92.193161 144.0
92.216255 188.0
92.28109 184.0
92.315514 168.0
92.350533 244.0
92.42646 128.0
92.447289 204.0
92.464737 168.0
92.524078 124.0
92.564285 192.0
92.600677 52.0
92.63707 196.0
92.650482 100.0
92.66581 72.0
92.69455 160.0
92.709877 128.0
92.749931 152.0
92.8134 128.0
92.842163 152.0
92.955345 224.0
93.076286 112.0
93.099327 248.0
93.16848 160.0
93.314545 132.0
93.328003 148.0
93.349159 80.0
93.435715 168.0
93.462646 216.0
93.526161 168.0
93.558884 144.0
93.644287 264.0
93.956886 184.0
94.009926 128.0
94.100647 216.0
94.125748 148.0
94.181755 72.0
94.2146 156.0
94.231987 32.0
94.295761 192.0
94.336937 212.0
94.35955 140.0
94.380821 136.0
94.429169 216.0
94.458183 132.0
94.551056 108.0
94.593636 192.0
94.627533 156.0
94.649788 224.0
94.713699 172.0
94.762131 68.0
94.872604 160.0
94.930771 136.0
95.076187 180.0
95.16082 104.0
95.202461 192.0
95.34623 212.0
95.359833 196.0
95.445374 284.0
95.624352 40.0
95.65744 216.0
95.676514 176.0
95.733376 216.0
95.881439 216.0
95.980865 212.0
96.025864 160.0
96.047173 96.0
96.092041 140.0
96.148636 164.0
96.211487 200.0
96.238815 184.0
96.279762 220.0
96.336082 220.0
96.408379 152.0
96.451744 184.0
96.560875 128.0
96.592171 212.0
96.676308 60.0
96.691193 192.0
96.705666 140.0
96.71936 148.0
96.780052 348.0
96.803551 156.0
96.817261 176.0
96.841599 216.0
96.926964 192.0
97.088928 176.0
97.121056 200.0
97.242706 184.0
97.266266 92.0
97.302315 208.0
97.350693 228.0
97.372292 128.0
97.401756 48.0
97.428062 204.0
97.516464 212.0
97.688759 164.0
97.797897 252.0
97.82061 152.0
97.982101 96.0
97.995888 100.0
98.05368 208.0
98.074722 140.0
98.127945 48.0
98.196968 72.0
98.323235 156.0
98.469337 108.0
98.50489 200.0
98.518723 44.0
98.564163 52.0
98.751976 164.0
98.805389 188.0
98.915367 112.0
99.02314 88.0
99.128136 136.0
99.257828 208.0
99.292686 124.0
99.339195 196.0
99.405769 120.0
99.452408 168.0
99.522881 184.0
99.701668 96.0
99.721542 136.0
99.920403 120.0
99.992043 152.0
100.019905 128.0
100.043793 84.0
100.057732 156.0
100.151237 92.0
100.164299 180.0
100.183197 144.0
100.208733 196.0
100.325455 136.0
100.394485 192.0
100.488235 108.0
100.528145 180.0
100.58004 204.0
100.603996 144.0
100.650932 200.0
100.759773 48.0
100.841705 116.0
100.863693 52.0
100.899673 164.0
101.029007 180.0
101.163033 232.0
101.229828 160.0
101.335991 68.0
101.350021 128.0
101.472282 212.0
101.514618 144.0
101.550491 232.0
101.588608 164.0
101.608665 224.0
101.654915 164.0
101.751167 176.0
101.825462 112.0
101.946007 136.0
102.127655 184.0
102.281898 116.0
102.339645 216.0
102.359665 208.0
102.399513 176.0
102.459114 188.0
102.618332 100.0
102.779701 196.0
102.831749 192.0
102.894745 160.0
102.944122 204.0
103.026024 144.0
103.055061 1368.0
103.114937 124.0
103.131104 200.0
103.155357 200.0
103.19175 164.0
103.213989 84.0
103.268593 176.0
103.310539 196.0
103.347496 156.0
103.379875 204.0
103.410233 100.0
103.488388 204.0
103.494278 264.0
103.537781 216.0
103.562706 220.0
103.588417 32.0
103.614754 192.0
103.635017 148.0
103.714058 164.0
103.731056 248.0
103.801231 36.0
103.833687 136.0
103.862076 176.0
103.90181 212.0
103.945259 168.0
104.058777 332.0
104.095482 176.0
104.159706 148.0
104.377945 128.0
104.424721 164.0
104.461334 140.0
104.499985 180.0
104.64653 48.0
104.673004 204.0
104.807449 104.0
104.84005 120.0
104.893044 72.0
104.923622 184.0
105.015388 196.0
105.035789 152.0
105.071373 1920.0
105.111275 176.0
105.125877 208.0
105.22197 208.0
105.254166 172.0
105.286461 216.0
105.305222 160.0
105.347565 176.0
105.415543 128.0
105.554092 196.0
105.583183 204.0
105.718208 92.0
105.744812 232.0
105.77552 196.0
105.834892 172.0
105.922958 180.0
105.974174 148.0
106.021301 112.0
106.074593 168.0
106.12175 80.0
106.138153 100.0
106.196877 252.0
106.330994 148.0
106.347412 140.0
106.364967 152.0
106.390518 204.0
106.435692 168.0
106.526062 216.0
106.575371 140.0
106.686356 144.0
106.721306 132.0
106.776833 148.0
106.813858 180.0
106.830315 40.0
106.850883 76.0
106.900269 64.0
107.088089 212.0
107.109566 248.0
107.172081 80.0
107.365227 196.0
107.407112 144.0
107.435989 160.0
107.561378 184.0
107.640327 76.0
107.764267 152.0
108.018555 100.0
108.033035 168.0
108.138573 168.0
108.198601 180.0
108.248299 136.0
108.279366 172.0
108.362221 192.0
108.434753 144.0
108.47448 192.0
108.650665 196.0
108.706436 116.0
108.725113 160.0
108.959755 164.0
109.00547 108.0
109.059456 160.0
109.099472 212.0
109.155144 228.0
109.215454 172.0
109.236259 204.0
109.275787 140.0
109.313576 172.0
109.423561 156.0
109.477699 132.0
109.517273 164.0
109.598518 176.0
109.685661 256.0
109.717323 44.0
109.738174 172.0
109.815094 172.0
109.907127 200.0
110.013977 224.0
110.097229 184.0
110.122154 196.0
110.205719 200.0
110.226616 124.0
110.291405 148.0
110.544472 148.0
110.590004 232.0
110.818779 212.0
110.911125 124.0
110.975983 204.0
111.094505 188.0
111.116508 232.0
111.141685 144.0
111.282639 184.0
111.336922 180.0
111.378929 192.0
111.428223 160.0
111.580673 220.0
111.637444 148.0
111.68161 212.0
111.767868 84.0
111.900703 164.0
111.983391 324.0
112.041588 164.0
112.094261 52.0
112.132195 168.0
112.17646 76.0
112.208084 172.0
112.229172 188.0
112.290321 124.0
112.326538 168.0
112.442238 116.0
112.482338 212.0
112.593636 152.0
112.685081 148.0
112.742134 132.0
112.828796 164.0
112.904922 64.0
112.964149 128.0
113.004341 168.0
113.05513 176.0
113.11705 172.0
113.216026 232.0
113.26474 192.0
113.313469 224.0
113.33889 256.0
113.443069 212.0
113.591187 180.0
113.700951 148.0
113.763084 124.0
113.854385 100.0
113.909615 160.0
113.955788 76.0
113.98185 116.0
114.018944 192.0
114.049858 76.0
114.260391 328.0
114.285919 164.0
114.319969 124.0
114.439171 104.0
114.465607 212.0
114.664986 136.0
114.771576 76.0
114.960342 252.0
114.982765 120.0
115.054581 5264.0
115.131744 216.0
115.184502 100.0
115.239021 128.0
115.343742 96.0
115.43354 140.0
115.4608 188.0
115.469101 140.0
115.478073 136.0
115.50412 140.0
115.554024 164.0
115.621803 152.0
115.656044 292.0
115.69886 88.0
115.752388 148.0
115.812355 44.0
115.838066 120.0
115.95163 132.0
116.003067 124.0
116.02549 156.0
116.061089 3724.0
116.142456 196.0
116.258316 180.0
116.278336 228.0
116.2948 156.0
116.314171 176.0
116.333694 204.0
116.464157 220.0
116.490204 136.0
116.562523 200.0
116.591194 188.0
116.65448 172.0
116.700829 156.0
116.752434 72.0
116.801903 180.0
116.883659 136.0
116.907333 208.0
116.924553 264.0
116.95211 144.0
116.984818 172.0
117.005318 228.0
117.024422 112.0
117.03167 100.0
117.070061 20808.0
117.136757 72.0
117.185493 180.0
117.277779 56.0
117.29287 228.0
117.325935 204.0
117.392044 164.0
117.41761 136.0
117.435181 176.0
117.458908 36.0
117.503197 68.0
117.536308 128.0
117.541435 112.0
117.605637 124.0
117.726547 112.0
117.76326 80.0
117.815109 68.0
117.858315 204.0
117.884247 60.0
117.915009 120.0
117.951828 120.0
118.005295 80.0
118.074394 1760.0
118.14666 100.0
118.180496 60.0
118.238922 92.0
118.381432 208.0
118.481445 176.0
118.57679 252.0
118.657997 112.0
118.713379 112.0
118.732895 68.0
118.808815 112.0
118.871742 96.0
118.902122 56.0
118.919487 168.0
118.965073 68.0
119.000397 128.0
119.015007 92.0
119.032379 256.0
119.084297 472.0
119.225723 232.0
119.375725 168.0
119.401825 136.0
119.444191 196.0
119.464905 188.0
119.488838 172.0
119.541061 168.0
119.597649 140.0
119.645538 192.0
119.686905 200.0
119.741348 224.0
119.789268 188.0
119.872063 436.0
119.887321 88.0
119.996307 72.0
120.066093 140.0
120.087433 240.0
120.157707 108.0
120.259087 184.0
120.341049 140.0
120.415291 224.0
120.544189 52.0
120.579155 144.0
120.640366 96.0
120.702576 132.0
120.773758 200.0
120.830635 192.0
120.891899 104.0
120.977951 140.0
121.014458 176.0
121.049522 168.0
121.128365 144.0
121.1437 172.0
121.316826 108.0
121.345329 160.0
121.369446 140.0
121.39357 200.0
121.531769 316.0
121.571266 180.0
121.591019 120.0
121.630524 100.0
121.661263 168.0
121.852333 116.0
121.874306 156.0
121.90287 164.0
122.309761 160.0
122.36039 160.0
122.404427 132.0
122.42865 160.0
122.556419 172.0
122.621628 156.0
122.686676 204.0
122.719528 84.0
122.748192 180.0
122.767853 188.0
122.79892 36.0
122.849655 188.0
122.869507 28.0
123.083611 104.0
123.116814 172.0
123.178284 288.0
123.24707 140.0
123.364204 120.0
123.459282 228.0
123.527847 188.0
123.640694 244.0
123.853249 92.0
123.967323 148.0
124.068207 96.0
124.11808 184.0
124.156601 148.0
124.179085 160.0
124.219009 136.0
124.469803 88.0
124.487572 176.0
124.587524 96.0
124.660851 156.0
124.694183 136.0
124.760872 144.0
124.783104 132.0
125.038925 160.0
125.094574 112.0
125.121284 140.0
125.172501 152.0
125.301689 112.0
125.388596 140.0
125.442093 140.0
125.457695 236.0
125.515663 160.0
125.553574 128.0
125.5783 184.0
125.620491 164.0
125.638336 128.0
125.711975 224.0
125.787857 120.0
125.850372 120.0
125.865997 116.0
125.924065 156.0
125.950867 248.0
125.994919 184.0
126.022362 132.0
126.172104 196.0
126.228004 136.0
126.281677 112.0
126.299576 100.0
126.339844 196.0
126.375641 124.0
126.413681 180.0
126.521118 236.0
126.59053 176.0
126.631592 252.0
126.722694 176.0
126.751823 268.0
126.897514 168.0
126.94043 172.0
126.96479 96.0
127.008026 204.0
127.054787 564.0
127.125542 116.0
127.263245 152.0
127.312645 156.0
127.341843 128.0
127.389015 128.0
127.457916 228.0
127.553116 164.0
127.647491 156.0
127.681221 64.0
127.723961 112.0
127.748703 152.0
127.782387 132.0
127.840958 188.0
127.897224 148.0
127.976021 68.0
128.062225 13184.0
128.117905 56.0
128.145813 188.0
128.273407 68.0
128.293701 180.0
128.322998 92.0
128.338791 56.0
128.374863 164.0
128.395172 52.0
128.41095 72.0
128.433502 48.0
128.510834 44.0
128.577911 40.0
128.661438 80.0
128.677231 136.0
128.726913 124.0
128.75853 96.0
128.778854 80.0
128.821777 188.0
128.855667 240.0
128.871475 88.0
128.898849 176.0
128.952835 176.0
128.97995 176.0
129.011612 432.0
129.041 196.0
129.070297 20436.0
129.125 216.0
129.154068 236.0
129.323776 32.0
129.366791 84.0
129.423386 180.0
129.440872 108.0
129.457718 128.0
129.49585 196.0
129.545685 96.0
129.564941 184.0
129.620453 80.0
129.647644 60.0
129.742859 108.0
129.776855 108.0
129.849426 212.0
129.865311 40.0
129.883453 40.0
129.958313 148.0
129.981003 160.0
130.044434 144.0
130.0755 3056.0
130.123108 132.0
130.162994 48.0
130.198944 188.0
130.226196 108.0
130.272156 140.0
130.328094 240.0
130.348877 32.0
130.371613 48.0
130.401154 192.0
130.440292 220.0
130.606033 224.0
130.719543 168.0
130.735474 296.0
130.753677 152.0
130.777939 208.0
130.808319 188.0
130.824707 216.0
130.849976 184.0
130.906616 136.0
130.935822 128.0
130.954819 188.0
130.989441 176.0
131.017105 292.0
131.043045 224.0
131.059555 484.0
131.086243 87072.0
131.140823 212.0
131.17598 120.0
131.192108 52.0
131.218109 88.0
131.244583 112.0
131.265625 132.0
131.319031 244.0
131.353088 184.0
131.384659 124.0
131.408081 72.0
131.42395 160.0
131.439529 144.0
131.460403 1552.0
131.487564 48.0
131.525391 196.0
131.572021 32.0
131.590286 80.0
131.608551 88.0
131.624954 44.0
131.679352 64.0
131.738739 180.0
131.76059 64.0
131.807281 100.0
131.842606 44.0
131.865433 172.0
131.914703 64.0
131.93071 96.0
131.951859 48.0
131.973434 176.0
131.999268 244.0
132.006256 176.0
132.016052 208.0
132.024796 288.0
132.088638 12600.0
132.138824 152.0
132.157135 44.0
132.202026 136.0
132.264694 48.0
132.283005 88.0
132.32193 96.0
132.349411 144.0
132.422684 180.0
132.451065 108.0
132.515854 60.0
132.529785 160.0
132.55098 60.0
132.593399 164.0
132.611862 228.0
132.631195 52.0
132.663818 104.0
132.695389 144.0
132.755005 88.0
132.804459 136.0
132.831345 84.0
132.867966 164.0
132.892639 176.0
132.917877 152.0
132.941147 88.0
132.984436 44.0
133.007385 92.0
133.038208 128.0
133.063629 152.0
133.09967 2732.0
133.148407 96.0
133.156174 92.0
133.164047 88.0
133.201111 124.0
133.235733 120.0
133.254654 304.0
133.386414 56.0
133.421814 120.0
133.459976 48.0
133.524979 152.0
133.547363 88.0
133.600281 32.0
133.715332 104.0
133.81662 72.0
133.832733 92.0
133.855759 156.0
133.881088 76.0
133.929459 208.0
133.950195 48.0
134.070496 152.0
134.103714 516.0
134.190704 224.0
134.21524 44.0
134.235992 84.0
134.286728 112.0
134.361572 136.0
134.378998 120.0
134.436691 236.0
134.459778 92.0
134.538254 60.0
134.833923 132.0
134.928696 72.0
134.969437 148.0
135.106781 136.0
135.157684 48.0
135.240021 124.0
135.264145 60.0
135.368332 224.0
135.491089 240.0
135.618546 132.0
135.65332 188.0
135.885239 120.0
135.966461 120.0
136.015198 176.0
136.119293 96.0
136.15683 68.0
136.568222 116.0
136.584503 136.0
136.64267 60.0
136.928986 60.0
137.001205 40.0
137.033813 184.0
137.134018 184.0
137.347687 120.0
137.471832 180.0
137.581909 212.0
137.647278 200.0
137.743042 148.0
138.04454 192.0
138.198929 176.0
138.219986 112.0
138.248077 48.0
138.55481 60.0
138.596985 176.0
138.711823 156.0
138.761063 132.0
138.913498 172.0
139.162277 76.0
139.199844 52.0
139.284393 184.0
139.347824 148.0
139.434769 148.0
139.474731 204.0
139.552307 244.0
139.571121 84.0
139.627563 116.0
139.855789 180.0
139.945251 188.0
140.341095 260.0
140.591156 132.0
140.617111 176.0
140.654877 176.0
140.8367 124.0
140.975357 192.0
141.069183 1572.0
141.162857 144.0
141.214874 104.0
141.259827 84.0
141.283478 84.0
141.318253 92.0
141.429688 224.0
141.482285 48.0
141.541473 76.0
141.57225 112.0
141.681213 140.0
141.778793 132.0
141.908737 80.0
141.964432 132.0
141.989365 136.0
142.07692 4556.0
142.100861 56.0
142.342972 128.0
142.428467 196.0
142.523499 156.0
142.553009 192.0
142.599548 196.0
142.649475 124.0
142.680374 64.0
142.815918 204.0
142.868256 216.0
142.889664 36.0
142.951538 136.0
142.970581 200.0
143.034836 232.0
143.057358 296.0
143.086121 24380.0
143.139603 140.0
143.189606 100.0
143.375854 152.0
143.474762 48.0
143.501083 80.0
143.63533 48.0
143.680664 176.0
143.714066 56.0
143.790054 204.0
143.93605 124.0
144.02681 36.0
144.05069 68.0
144.088821 3084.0
144.116974 184.0
144.146271 104.0
144.249039 88.0
144.325546 56.0
144.392502 36.0
144.445129 148.0
144.543228 176.0
144.559967 32.0
144.638962 204.0
144.700134 120.0
144.76825 92.0
144.866455 128.0
145.063705 524.0
145.100876 6908.0
145.154068 132.0
145.224884 144.0
145.24678 176.0
145.281189 92.0
145.347549 100.0
145.465973 156.0
145.498047 56.0
145.607635 108.0
145.672501 52.0
145.694122 148.0
145.802246 156.0
145.982559 48.0
146.065872 56.0
146.105576 1236.0
146.319427 72.0
146.367584 160.0
146.432602 224.0
146.755524 60.0
146.806168 172.0
146.847168 108.0
146.909882 144.0
146.926773 116.0
146.999161 144.0
147.116562 696.0
147.180191 60.0
147.201935 40.0
147.310623 128.0
147.342026 136.0
147.412094 72.0
147.460434 168.0
147.479767 220.0
147.743347 212.0
147.818359 172.0
147.849823 160.0
147.907913 112.0
147.958008 236.0
148.11232 164.0
148.278503 56.0
148.295471 228.0
148.438507 164.0
148.581619 144.0
148.758774 220.0
148.848602 124.0
148.906891 160.0
148.994339 128.0
149.765488 120.0
149.853195 152.0
150.001862 152.0
150.106689 44.0
150.135956 124.0
150.729172 164.0
150.812271 144.0
151.228088 120.0
151.313766 132.0
151.583206 148.0
151.852875 208.0
151.894577 48.0
151.941193 28.0
152.019699 88.0
152.0737 160.0
152.279953 156.0
152.309418 160.0
152.569656 196.0
152.626465 136.0
152.675644 36.0
152.837997 64.0
152.962738 212.0
153.07045 404.0
153.140808 136.0
153.22908 236.0
153.286163 140.0
153.438995 172.0
153.653564 44.0
153.868286 88.0
153.972 160.0
154.07666 560.0
154.253052 176.0
154.444077 132.0
154.627182 40.0
154.646973 96.0
154.750946 136.0
154.790573 136.0
154.840103 200.0
154.921844 148.0
155.001129 224.0
155.025909 92.0
155.061111 1116.0
155.084442 1516.0
155.184555 108.0
155.204391 156.0
155.422668 92.0
155.587753 220.0
155.6436 68.0
155.867157 160.0
155.949173 180.0
156.058945 168.0
156.092316 1684.0
156.133148 176.0
156.220215 80.0
156.369507 136.0
156.401276 152.0
156.444763 192.0
156.830292 108.0
156.867691 184.0
157.004822 132.0
157.101013 5464.0
157.166306 148.0
157.189438 176.0
157.42659 64.0
157.576157 164.0
157.883926 116.0
157.954712 176.0
157.991486 64.0
158.024017 148.0
158.106186 1296.0
158.472198 40.0
158.504776 136.0
158.559906 212.0
158.655151 64.0
158.89592 204.0
158.931046 148.0
158.961166 200.0
159.076614 184.0
159.116562 8040.0
159.247375 96.0
159.317703 80.0
159.345337 120.0
159.381439 76.0
159.40564 84.0
159.431534 176.0
159.566513 32.0
159.619324 48.0
159.667099 104.0
159.807968 60.0
159.883469 176.0
159.986664 52.0
160.044571 140.0
160.076828 120.0
160.121796 1072.0
160.228439 60.0
160.422501 116.0
160.752914 84.0
160.96022 192.0
161.035934 120.0
161.13324 892.0
161.245377 28.0
161.386948 160.0
161.48558 32.0
161.531113 212.0
161.604477 72.0
161.981705 72.0
162.062775 232.0
162.137985 112.0
162.988937 204.0
163.199905 188.0
163.477173 100.0
163.601898 264.0
163.698654 36.0
163.719025 208.0
163.744492 160.0
164.159912 108.0
164.187958 104.0
164.277237 172.0
164.465759 160.0
164.598831 140.0
164.703537 144.0
165.05368 140.0
165.099701 108.0
165.189224 144.0
165.240402 208.0
165.299255 180.0
165.399063 52.0
165.422104 180.0
165.486115 184.0
165.544998 244.0
165.960129 92.0
166.045074 168.0
166.076813 140.0
166.101181 160.0
166.185852 48.0
166.321869 88.0
166.463074 196.0
166.519577 204.0
166.614624 176.0
167.080338 164.0
167.452927 220.0
167.667053 72.0
167.710876 112.0
167.857834 184.0
168.087418 40.0
168.252609 148.0
168.348145 96.0
168.503128 212.0
168.73056 128.0
168.978851 148.0
169.020264 212.0
169.100159 1468.0
169.530411 120.0
169.798508 176.0
170.109131 1852.0
170.532211 240.0
170.558212 200.0
170.594604 168.0
170.745407 192.0
170.83905 140.0
171.002991 64.0
171.039429 364.0
171.078476 172.0
171.116852 5644.0
171.20607 100.0
171.245132 164.0
171.49527 156.0
171.886459 104.0
172.119308 760.0
172.150131 96.0
172.267654 168.0
172.338852 160.0
172.41922 116.0
172.508087 52.0
172.536835 180.0
172.607437 140.0
172.646667 104.0
172.692947 132.0
172.722519 224.0
172.779129 144.0
172.820007 180.0
172.869781 196.0
172.895203 132.0
172.918762 176.0
172.94696 88.0
172.968491 124.0
172.997284 176.0
173.029144 264.0
173.077225 408.0
173.132874 80720.0
173.199966 180.0
173.233978 68.0
173.263443 76.0
173.28537 152.0
173.338654 140.0
173.384827 88.0
173.409698 116.0
173.442612 244.0
173.482513 72.0
173.534363 48.0
173.563034 116.0
173.605164 48.0
173.634964 148.0
173.684311 160.0
173.755234 172.0
173.783981 204.0
173.805878 76.0
173.843903 60.0
173.906891 196.0
174.004013 128.0
174.030273 64.0
174.089478 176.0
174.135254 9960.0
174.187469 56.0
174.27597 80.0
174.339218 72.0
174.400223 192.0
174.50322 76.0
174.550934 152.0
174.597885 80.0
174.609726 56.0
174.803085 60.0
174.920517 52.0
174.945221 124.0
174.966278 148.0
174.997879 52.0
175.018936 80.0
175.058441 120.0
175.139679 1020.0
175.182922 76.0
175.237564 148.0
175.26918 108.0
175.286667 84.0
175.316605 44.0
175.337418 132.0
175.361633 144.0
175.420441 144.0
175.456573 160.0
175.487961 92.0
175.516266 56.0
175.542877 336.0
175.572647 100.0
175.60112 152.0
175.637024 84.0
175.672577 88.0
175.69368 76.0
175.807739 52.0
175.865204 80.0
176.140656 204.0
176.222351 100.0
176.274567 48.0
176.412933 68.0
176.615616 84.0
176.702927 32.0
176.73996 44.0
176.758484 40.0
177.076172 200.0
177.14769 136.0
177.441864 160.0
178.139847 164.0
178.716782 56.0
178.980301 40.0
179.084167 68.0
179.233353 64.0
179.507919 100.0
179.707977 76.0
179.993591 156.0
180.087051 120.0
180.87587 116.0
180.996338 100.0
181.060623 140.0
181.642258 72.0
181.805923 72.0
181.843506 56.0
182.100677 148.0
182.399506 144.0
182.542007 60.0
182.560837 172.0
182.851395 60.0
183.066772 76.0
183.117599 608.0
183.77301 96.0
183.879303 156.0
184.125 1196.0
184.367096 152.0
184.467102 200.0
184.521179 112.0
184.862 128.0
184.905304 120.0
185.000046 240.0
185.043365 156.0
185.062317 152.0
185.132019 20112.0
185.181473 60.0
185.221481 140.0
185.257309 60.0
185.298218 92.0
185.319626 28.0
185.371109 56.0
185.400925 184.0
185.422882 40.0
185.446365 68.0
185.474106 72.0
185.514771 48.0
185.558136 92.0
185.585114 80.0
185.595108 76.0
185.616257 92.0
185.663895 100.0
185.756119 72.0
185.777817 120.0
185.864639 72.0
185.894485 68.0
185.978622 48.0
186.136124 2216.0
186.175644 64.0
186.247696 44.0
186.316589 88.0
186.407745 48.0
186.432205 76.0
186.486557 100.0
186.559952 72.0
186.596527 168.0
186.69046 196.0
186.758453 100.0
186.845505 52.0
186.943466 56.0
187.033478 56.0
187.146957 2596.0
187.221146 52.0
187.251114 92.0
187.319199 80.0
187.349167 140.0
187.455429 160.0
187.483627 128.0
187.520844 136.0
187.605347 112.0
187.979019 76.0
188.150543 472.0
188.476013 92.0
188.516998 64.0
188.604462 64.0
189.147354 256.0
189.792633 80.0
189.916046 28.0
190.786545 40.0
191.036804 100.0
191.276215 60.0
191.554352 112.0
192.052017 180.0
192.873367 56.0
193.06102 192.0
194.063812 120.0
194.863174 184.0
195.043808 104.0
195.103302 156.0
196.623093 104.0
197.083862 272.0
197.133606 232.0
197.550781 256.0
197.780243 84.0
198.095169 188.0
198.144348 184.0
198.211548 64.0
198.514618 68.0
198.733093 144.0
198.752731 100.0
199.03624 192.0
199.14743 4212.0
199.218811 64.0
199.359299 144.0
199.693863 60.0
199.964493 120.0
200.11879 220.0
200.152466 864.0
200.296219 60.0
200.318756 52.0
201.159927 124.0
202.165344 108.0
203.086136 168.0
203.929428 72.0
206.338257 40.0
207.406067 112.0
209.074814 84.0
209.55571 112.0
211.14505 176.0
211.21283 72.0
211.235962 60.0
211.484818 104.0
212.101791 44.0
212.145065 164.0
213.105942 172.0
213.163589 1184.0
213.536179 116.0
213.562347 128.0
214.161713 296.0
215.170959 132.0
215.96582 136.0
216.958542 108.0
217.289948 32.0
217.997604 144.0
218.091156 164.0
218.476883 52.0
218.582047 420.0
218.750565 56.0
218.912506 72.0
219.089233 224.0
220.050705 60.0
220.095001 60.0
220.644577 80.0
220.878189 64.0
221.079391 184.0
223.02504 160.0
225.092667 48.0
225.167938 212.0
226.082687 160.0
226.16597 180.0
227.08284 136.0
227.173798 400.0
228.031631 76.0
228.178116 180.0
229.503723 76.0
234.146393 132.0
235.998734 48.0
237.98732 136.0
239.629791 96.0
240.555008 112.0
245.975159 56.0
246.203079 60.0
247.1315 180.0
247.55722 100.0
250.865814 108.0
253.086914 32.0
255.546829 108.0
256.088013 188.0
258.389648 104.0
260.036774 112.0
260.839783 156.0
267.396362 32.0
268.165039 148.0
268.65741 72.0
269.211121 120.0
269.235413 168.0
270.297638 168.0
270.706818 44.0
271.686859 72.0
272.225159 88.0
276.524292 116.0
278.204895 48.0
278.816071 40.0
283.113129 128.0
284.230743 244.0
285.237 128.0
286.251923 256.0
286.310333 140.0
286.839355 88.0
287.264038 132.0
288.000122 68.0
296.811554 40.0
298.263794 108.0
299.33725 88.0
301.7146 72.0
303.116394 84.0
306.274536 40.0
306.305878 116.0
310.980957 60.0
313.689484 84.0
317.316772 124.0
328.276825 76.0
329.771484 68.0
330.288574 80.0
334.272247 188.0
338.137085 80.0
338.671661 76.0
342.064606 104.0
343.191986 64.0
344.749756 148.0
347.397186 76.0
347.745972 108.0
351.680237 120.0
356.669586 68.0
378.142517 104.0
380.712982 80.0
386.192871 96.0
399.41922 60.0
403.886841 104.0
408.162109 100.0
409.280762 52.0
409.929321 64.0
411.018097 44.0
413.102875 124.0
418.140472 132.0
419.099548 92.0
419.690582 76.0
424.007507 92.0
451.108185 96.0
456.182587 88.0
460.516205 120.0
462.423157 52.0
467.151855 100.0
475.196381 116.0
496.339508 60.0
520.010437 112.0
536.409302 32.0
537.410095 48.0
541.228088 76.0
556.489624 100.0
561.543823 28.0
597.124878 112.0
607.558899 184.0
619.875916 52.0
622.475281 192.0
628.194153 40.0
632.922241 188.0
644.8302 168.0
665.739624 108.0
674.767456 116.0
675.589783 156.0
679.055237 212.0
688.277039 196.0
693.975281 48.0
695.664673 184.0
699.939209 104.0
710.197449 188.0
713.282532 204.0
714.244995 44.0
717.029724 172.0
719.611633 176.0
724.285767 144.0
725.743469 128.0
732.914001 84.0
746.180481 128.0
749.342651 64.0
749.96936 160.0
750.154724 108.0
751.070068 176.0
751.954773 80.0
754.877625 68.0
764.169739 160.0
771.162354 208.0
772.312439 216.0
772.594543 212.0
772.633301 208.0
783.971924 192.0
784.484741 136.0
785.282104 176.0
786.470581 152.0
786.973022 180.0
787.743774 132.0
794.001648 192.0
796.454468 92.0
798.157349 204.0
802.667847 148.0
804.106445 248.0
805.631042 76.0
806.704773 196.0
817.401855 124.0
820.32373 80.0
825.199341 112.0
827.218872 108.0
827.396362 88.0
828.994446 144.0
829.309692 132.0
830.378967 184.0
832.740845 136.0
835.839539 192.0
836.512939 176.0
841.752197 248.0
843.972839 212.0
844.846191 152.0
846.646362 172.0
863.641785 124.0
867.875977 168.0
868.814392 160.0
872.667236 228.0
872.873047 128.0
890.936157 228.0
892.987 136.0
893.98053 128.0
894.516235 132.0
895.951477 212.0
897.76947 164.0
897.954346 188.0
899.195374 148.0
904.658813 156.0
906.623474 108.0
908.056335 200.0
909.856567 128.0
911.045715 212.0
911.670593 268.0
913.089478 156.0
914.593689 116.0
918.679321 92.0
922.683411 136.0
922.840637 232.0
926.732544 80.0
937.03125 188.0
941.655212 192.0
942.725159 164.0
944.069336 144.0
948.545105 128.0
950.753174 236.0
952.146851 188.0
953.69519 240.0
954.039429 160.0
955.58313 244.0
956.610901 216.0
958.631165 152.0
960.209412 212.0
962.838623 180.0
963.005371 80.0
964.902527 120.0
964.97052 196.0
966.046692 92.0
968.603333 216.0
970.499756 136.0
971.17572 216.0
971.665833 172.0
974.764221 164.0
981.512024 80.0
983.065369 176.0
983.627075 148.0
984.126526 156.0
985.525696 192.0
986.900818 120.0
987.826416 96.0
987.895264 200.0
989.44104 176.0
990.756226 292.0
991.802795 156.0
992.799683 116.0
994.769897 192.0
994.939392 204.0
995.253296 164.0
996.157715 212.0
996.453003 144.0
996.547241 112.0
996.949402 112.0
999.194214 132.0
1000.862183 204.0
1001.914062 172.0
1002.74585 212.0
1003.344666 164.0
1003.60321 136.0
1004.240173 172.0
1004.757446 124.0
1006.404785 216.0
1010.873901 92.0
1011.051086 136.0
1014.275024 160.0
1015.492432 80.0
1016.831177 140.0
1017.631042 40.0
1018.1073 132.0
1022.965149 156.0
1023.990295 208.0
1026.571411 144.0
1026.628784 184.0
1027.87915 152.0
1028.332275 60.0
1028.657837 164.0
1030.164917 104.0
1032.459595 160.0
1032.542725 120.0
1032.996948 224.0
1037.460571 256.0
1041.97229 160.0
1042.582764 164.0
1043.161255 144.0
1043.553345 144.0
1044.030273 96.0
1044.202881 60.0
1046.088257 184.0
1046.661255 236.0
1048.368408 188.0
1048.877563 264.0
1051.664062 148.0
1052.08374 60.0
1056.426514 128.0
1057.144775 180.0
1058.607788 184.0
1060.376465 172.0
1062.65271 216.0
1063.437866 140.0
1067.004272 252.0
1070.381226 156.0
1071.395264 164.0
1071.618896 176.0
1071.788208 112.0
1073.626587 76.0
1074.174438 124.0
1075.479614 116.0
1075.688477 136.0
1078.699951 164.0
1079.327637 96.0
1081.002197 204.0
1081.532349 116.0
1081.978516 128.0
1082.206665 164.0
1083.025269 100.0
1083.365967 92.0
1085.79126 76.0
1087.418335 136.0
1087.818726 52.0
1088.665771 140.0
1088.744629 112.0
1089.493408 116.0
1092.464966 224.0
1093.287476 208.0
1093.656006 148.0
1093.708618 120.0
1094.198242 172.0
1095.55249 132.0
1095.756714 136.0
1096.758423 72.0
1097.338623 132.0
1097.602295 136.0
1097.932129 244.0
1098.519165 184.0
1099.660645 172.0
1100.81604 232.0
1100.974487 120.0
1102.467651 144.0
1102.9104 152.0
1104.537109 52.0
1105.006836 68.0
1105.238403 172.0
1105.324463 180.0
1105.84729 276.0
1105.999512 156.0
1106.19812 152.0
1109.934814 196.0
1110.034302 176.0
1110.153687 40.0
1110.359253 104.0
1110.757202 304.0
1110.8302 120.0
1111.905151 120.0
1113.33252 124.0
1115.678101 132.0
1115.837646 168.0
1115.977295 264.0
1118.145142 156.0
1119.643921 60.0
1120.416626 132.0
1120.956421 224.0
1121.142944 116.0
1121.256226 200.0
1121.7229 216.0
1121.782837 264.0
1121.896118 204.0
1124.53772 124.0
1125.392212 180.0
1125.879761 128.0
1126.754761 164.0
1127.904175 212.0
1128.098145 120.0
1128.48584 184.0
1128.780029 72.0
1128.853638 176.0
1129.09436 52.0
1129.20813 160.0
1131.30249 144.0
1132.668579 36.0
1134.779663 116.0
1135.416748 172.0
1135.463745 200.0
1136.121094 192.0
1137.006836 128.0
1142.611084 168.0
1144.206177 64.0
1146.260498 160.0
1147.096313 132.0
1147.682861 120.0
1149.632324 164.0
1150.179077 224.0
1150.854126 32.0
1151.225586 176.0
1151.84021 172.0
1152.130615 72.0
1152.48877 164.0
1152.81311 312.0
1154.104248 180.0
1155.111938 180.0
1155.998291 80.0
1156.126831 148.0
1156.302856 160.0
1157.101685 220.0
1157.182861 172.0
1158.015869 180.0
1160.706299 144.0
1161.377808 196.0
1161.839111 176.0
1162.218994 160.0
1164.445679 128.0
1164.805664 192.0
1165.744507 160.0
1166.620117 188.0
1166.837646 236.0
1167.143677 160.0
1167.381714 152.0
1169.470337 132.0
1170.573242 128.0
1172.017456 136.0
1172.821655 180.0
1173.128296 248.0
1173.272217 220.0
1173.735107 252.0
1175.304077 120.0
1176.491699 176.0
1180.249512 160.0
1180.858154 152.0
1180.960693 156.0
1181.508057 140.0
1181.918579 148.0
1182.199097 108.0
1182.664551 172.0
1183.746216 100.0
1183.896851 160.0
1184.342041 64.0
1184.725708 144.0
1185.397217 172.0
1185.547974 180.0
1187.5979 108.0
1187.87915 160.0
1188.476074 172.0
1188.688843 144.0
1189.41626 136.0
1190.350098 196.0
1190.411865 124.0
1191.256714 44.0
1191.318481 140.0
1191.524658 240.0
1191.627686 172.0
1192.149902 192.0
1192.569092 172.0
1193.139771 164.0
1193.277222 112.0
1193.332275 148.0
1194.577026 100.0
1195.457764 152.0
1195.526611 132.0
1195.967041 124.0
1196.641724 176.0
1198.012207 116.0
1198.232788 192.0
1198.604858 184.0
1199.500732 56.0
1199.59729 216.0
1200.328125 176.0
1200.528076 140.0
1201.010864 136.0
1201.887085 164.0
1201.976807 140.0
1202.618652 224.0
1202.784302 196.0
1203.074219 148.0
1203.246826 128.0
1204.538208 144.0
1205.180786 148.0
1205.851074 164.0
1206.258911 144.0
1208.582764 112.0
1209.032593 144.0
1209.447876 204.0
1209.724731 164.0
1210.327148 104.0
1210.61792 212.0
1210.964233 128.0
1211.255127 152.0
1211.74707 160.0
1211.947998 164.0
1212.301392 100.0
1213.029175 196.0
1214.034546 200.0
1215.061157 184.0
1215.532959 140.0
1217.400391 172.0
1218.803589 120.0
1219.540283 172.0
1221.591553 196.0
1223.575073 184.0
1223.623779 168.0
1223.693359 144.0
1224.222656 220.0
1224.480347 140.0
1225.117065 212.0
1225.762207 148.0
1226.591553 188.0
1226.703125 128.0
1227.100464 160.0
1227.88147 304.0
1227.97876 160.0
1228.558105 212.0
1228.636475 228.0
1230.06543 140.0
1230.491333 132.0
1230.624023 144.0
1231.594727 80.0
1232.223511 144.0
1232.985107 132.0
1233.16687 72.0
1233.292725 88.0
1234.607178 64.0
1235.040771 100.0
1235.187622 52.0
1236.153198 180.0
1236.968872 184.0
1237.217163 152.0
1237.826294 92.0
1238.30249 184.0
1238.470581 144.0
1238.701782 136.0
1238.820801 156.0
1239.37439 140.0
1239.899902 164.0
1240.012085 180.0
1242.269897 172.0
1242.838257 120.0
1243.259277 152.0
1244.298218 120.0
1244.817749 80.0
1245.344482 92.0
1245.794067 164.0
1246.482666 176.0
1247.361206 180.0
1247.431519 164.0
1247.811157 224.0
1248.015015 52.0
1248.106445 208.0
1248.268188 36.0
1248.556519 152.0
1248.908203 152.0
1249.200928 248.0
1249.998657 132.0
1250.195801 160.0
1250.442139 192.0
1250.969971 144.0
1251.251587 184.0
1251.554321 200.0
1251.737427 164.0
1252.0896 32.0
1252.42981 208.0
1252.744629 160.0
1253.244873 148.0
1253.688843 84.0
1253.858032 180.0
1254.175171 56.0
1256.276611 172.0
1256.798706 168.0
1257.017456 136.0
1258.994141 168.0
1259.121216 216.0
1259.34021 60.0
1260.180786 156.0
1261.226807 152.0
1262.068115 200.0
1262.908691 144.0
1263.609985 244.0
1264.133667 224.0
1264.459229 144.0
1264.539673 184.0
1264.79895 136.0
1264.848511 196.0
1264.991699 168.0
1265.549316 160.0
1265.924683 140.0
1268.730591 140.0
1269.255249 160.0
1269.52478 116.0
1269.999878 140.0
1270.907959 192.0
1271.035767 136.0
1271.149292 208.0
1271.667358 188.0
1271.993896 164.0
1272.263428 164.0
1272.384277 176.0
1272.654175 148.0
1273.144165 192.0
1273.23645 40.0
1274.593262 72.0
1274.671509 184.0
1274.756714 120.0
1274.913086 120.0
1274.962891 152.0
1275.858521 60.0
1276.064697 140.0
1276.526855 120.0
1278.134521 124.0
1279.686279 140.0
1280.775879 188.0
1281.010864 80.0
1281.124878 320.0
1281.409912 180.0
1281.766113 176.0
1281.873047 180.0
1282.343384 164.0
1282.970703 112.0
1283.498291 164.0
1283.548218 164.0
1284.582397 100.0
1285.538574 132.0
1285.909668 152.0
1286.573486 124.0
1286.873413 184.0
1288.466064 192.0
1288.909058 172.0
1289.080566 112.0
1289.409302 200.0
1290.939331 148.0
1291.411255 48.0
1291.561523 128.0
1291.625854 184.0
1291.726074 184.0
1292.047974 228.0
1293.550903 188.0
1293.715454 136.0
1294.187988 128.0
1295.204956 196.0
1295.842651 220.0
1297.598633 212.0
1298.258301 44.0
1298.43042 40.0
1298.695801 200.0
1299.08313 144.0
1299.391235 144.0
1299.542358 220.0
1299.786255 216.0
1300.582886 216.0
1300.709473 160.0
1300.949097 128.0
1301.178833 64.0
1301.45166 196.0
1301.882446 156.0
1301.997437 196.0
1303.764771 52.0
1304.102539 148.0
1304.627319 128.0
1304.893311 152.0
1304.950806 180.0
1306.007935 160.0
1306.835327 232.0
1307.295898 140.0
1308.209961 112.0
1308.54834 104.0
1308.735596 260.0
1308.946289 176.0
1309.304443 152.0
1310.046387 112.0
1310.738037 104.0
1310.954224 132.0
1311.36499 152.0
1311.61731 224.0
1311.790283 152.0
1311.862427 156.0
1312.12915 272.0
1312.446411 96.0
1312.907959 124.0
1313.730225 140.0
1314.646606 184.0
1315.296143 136.0
1316.140869 136.0
1316.653564 152.0
1316.740234 240.0
1316.805298 220.0
1316.978638 152.0
1317.325317 108.0
1317.397583 148.0
1317.804199 204.0
1317.982788 216.0
1318.394775 104.0
1318.813965 80.0
1319.13916 148.0
1319.319946 176.0
1319.666992 132.0
1319.833252 156.0
1320.368408 164.0
1320.419067 176.0
1321.50415 136.0
1322.032471 164.0
1322.148193 196.0
1322.235107 164.0
1323.060303 88.0
1323.13269 96.0
1323.277466 176.0
1323.682983 188.0
1324.305786 220.0
1324.994019 52.0
1325.07373 144.0
1325.883179 68.0
1325.98291 144.0
1326.080933 160.0
1326.592773 176.0
1327.314941 172.0
1327.509155 180.0
1327.864624 232.0
1328.074951 88.0
1328.212769 208.0
1328.814941 144.0
1329.293823 188.0
1329.578735 196.0
1329.740845 208.0
1330.643921 180.0
1331.515259 68.0
1333.360718 148.0
1333.58606 128.0
1334.283936 136.0
1334.516602 208.0
1334.77832 200.0
1335.156494 60.0
1335.432861 168.0
1335.990234 200.0
1336.03833 160.0
1336.531372 256.0
1337.339233 240.0
1337.579468 200.0
1338.722534 156.0
1339.734985 160.0
1339.822388 120.0
1340.339722 176.0
1341.60791 140.0
1342.162109 56.0
1342.366211 176.0
1345.13147 132.0
1345.642578 240.0
1345.744751 192.0
1346.489624 208.0
1346.957031 160.0
1347.307739 136.0
1347.804565 132.0
1347.950684 168.0
1348.557373 204.0
1349.515015 136.0
1349.749023 216.0
1350.151245 188.0
1350.246338 152.0
1351.226562 40.0
1351.307007 136.0
1351.570435 320.0
1351.665527 144.0
1351.937866 164.0
1352.016846 184.0
1352.133911 188.0
1352.30957 144.0
1352.90979 72.0
1353.166016 224.0
1353.305176 192.0
1354.18396 192.0
1354.249878 188.0
1355.077637 124.0
1356.206299 140.0
1357.034668 144.0
1357.232666 136.0
1358.244751 204.0
1358.787598 44.0
1358.838989 132.0
1359.734253 148.0
1359.807617 184.0
1360.48291 40.0
1361.121704 204.0
1361.430176 156.0
1361.569702 136.0
1362.113281 72.0
1362.216064 188.0
1362.719238 164.0
1362.928711 196.0
1363.112427 172.0
1363.391724 52.0
1363.700439 172.0
1364.288452 96.0
1364.810547 172.0
1365.34729 176.0
1365.612061 136.0
1366.237427 196.0
1366.369751 180.0
1366.95105 132.0
1367.591431 144.0
1368.548462 208.0
1369.679077 260.0
1370.308838 392.0
1370.552002 172.0
1371.768066 108.0
1372.146851 160.0
1373.124756 140.0
1373.242798 104.0
1374.821655 228.0
1374.902832 152.0
1375.654907 236.0
1375.796021 184.0
1376.039673 124.0
1376.32019 128.0
1377.30249 184.0
1377.442871 160.0
1377.538818 160.0
1377.900513 176.0
1378.093018 176.0
1378.617676 164.0
1378.972412 124.0
1379.312378 180.0
1379.682007 116.0
1379.733765 160.0
1379.785522 144.0
1380.606323 156.0
1381.442139 160.0
1381.619751 116.0
1381.708496 96.0
1382.056274 160.0
1382.322632 72.0
1384.439819 180.0
1385.276855 140.0
1385.988159 168.0
1386.662476 148.0
1387.248047 120.0
1387.426025 120.0
1387.81897 192.0
1388.123047 156.0
1388.323242 52.0
1388.612427 120.0
1388.805298 144.0
1389.302368 140.0
1389.517456 136.0
1389.791992 120.0
1391.038818 176.0
1391.469482 96.0
1391.558594 200.0
1391.946655 228.0
1392.47937 260.0
1392.76001 188.0
1392.954834 256.0
1393.348511 200.0
1393.630859 104.0
1393.774536 212.0
1393.831543 232.0
1393.957764 232.0
1394.17334 252.0
1395.176758 168.0
1395.444458 100.0
1395.736084 204.0
1397.497314 128.0
1397.56189 172.0
1397.582764 116.0
1397.861938 228.0
1398.174438 172.0
1398.457275 212.0
1398.539185 184.0
1398.755127 168.0
1398.859253 100.0
1399.268799 180.0
1400.082397 196.0
1400.758179 164.0
1401.49585 156.0
1401.756592 236.0
1402.308105 44.0
1402.993896 200.0
1403.135742 204.0
1403.873779 104.0
1404.380981 164.0
1404.776245 184.0
1404.985229 172.0
1405.395508 184.0
1405.522339 192.0
1405.791016 40.0
1405.854736 188.0
1406.164185 204.0
1406.65686 128.0
1407.336182 152.0
1407.642334 172.0
1407.724487 172.0
1407.926147 132.0
1408.120361 108.0
1408.202515 184.0
1408.374268 148.0
1408.531128 140.0
1408.852417 132.0
1410.219849 188.0
1411.034668 96.0
1411.535645 168.0
1412.904541 320.0
1413.158813 152.0
1413.233643 204.0
1413.450684 216.0
1414.19165 184.0
1414.654419 144.0
1414.80542 216.0
1415.030029 96.0
1415.104858 160.0
1415.396973 172.0
1415.72644 68.0
1416.355591 128.0
1416.924927 176.0
1417.530151 204.0
1417.719238 140.0
1417.839111 104.0
1418.138916 52.0
1418.378784 104.0
1418.566162 164.0
1419.173462 140.0
1419.390991 164.0
1419.998535 180.0
1420.148438 200.0
1420.298462 172.0
1420.748535 212.0
1422.49707 128.0
1423.030151 156.0
1423.88623 112.0
1425.170776 52.0
1425.854614 212.0
1426.538696 160.0
1426.869507 168.0
1427.553711 120.0
1428.614258 140.0
1429.046143 212.0
1429.532227 120.0
1429.675171 132.0
1429.810669 136.0
1430.209595 180.0
1430.314941 256.0
1430.623657 36.0
1431.075317 128.0
1431.474487 208.0
1432.069458 172.0
1432.43103 136.0
1432.529785 180.0
1432.702148 140.0
1433.229614 184.0
1433.463257 224.0
1435.295044 152.0
1435.528809 172.0
1435.747437 140.0
1435.868164 208.0
1436.546997 140.0
1437.422241 132.0
1437.724121 132.0
1437.784424 132.0
1437.91272 136.0
1438.803467 156.0
1440.162842 156.0
1440.502686 120.0
1440.570679 136.0
1440.918213 200.0
1441.075806 144.0
1441.160034 164.0
1441.598267 176.0
1442.183838 232.0
1442.452393 148.0
1442.505249 180.0
1442.913574 152.0
1443.102539 204.0
1444.040283 172.0
1444.547119 56.0
1445.053955 140.0
1445.296143 152.0
1445.394531 156.0
1446.004517 236.0
1446.189087 224.0
1447.180908 192.0
1447.589722 148.0
1448.165405 172.0
1448.453247 196.0
1448.725952 168.0
1449.150146 212.0
1449.430542 136.0
1449.809448 208.0
1450.302124 188.0
1451.151245 216.0
1451.636475 192.0
1451.864014 144.0
1451.977783 172.0
1452.387329 168.0
1452.834961 128.0
1453.123169 100.0
1453.328125 108.0
1453.396362 160.0
1453.570923 168.0
1453.627441 200.0
1453.737793 176.0
1454.208374 64.0
1454.420898 124.0
1454.77771 192.0
1455.795166 132.0
1456.338623 216.0
1456.493896 164.0
1456.850952 120.0
1457.048462 44.0
1457.436035 196.0
1457.53479 140.0
1457.686768 84.0
1457.762695 160.0
1458.241577 188.0
1460.62915 196.0
1461.199707 260.0
1462.287842 148.0
1462.554321 160.0
1462.775024 160.0
1463.087158 164.0
1463.833374 124.0
1464.457886 196.0
1465.417725 128.0
1465.547241 216.0
1466.37793 132.0
1466.774292 132.0
1466.980103 124.0
1467.033447 236.0
1467.246948 44.0
1467.795776 204.0
1468.306885 132.0
1468.825562 96.0
1469.000977 152.0
1469.134033 264.0
1469.731934 184.0
1469.74646 148.0
1470.458496 124.0
1471.023315 172.0
1471.183594 184.0
1471.550049 116.0
1471.69519 168.0
1471.763916 160.0
1471.8479 136.0
1472.298462 136.0
1472.454102 248.0
1473.207397 240.0
1473.604736 168.0
1474.009644 108.0
1474.307739 148.0
1474.506348 108.0
1474.613403 180.0
1474.850342 156.0
1474.949707 136.0
1475.125488 88.0
1475.247803 160.0
1475.752441 208.0
1476.006592 140.0
1476.119507 88.0
1476.647217 200.0
1476.754272 124.0
1477.458008 100.0
1478.230835 60.0
1478.559937 140.0
1478.980835 236.0
1479.22583 96.0
1479.287109 128.0
1479.424927 140.0
1480.427979 160.0
1480.512207 224.0
1480.887451 144.0
1481.906372 172.0
1482.082642 168.0
1482.48877 176.0
1482.910278 64.0
1483.193848 152.0
1484.650635 132.0
1484.842407 148.0
1485.07251 204.0
1485.202881 120.0
1487.121094 168.0
1488.280396 84.0
1488.787231 36.0
1488.894653 128.0
1489.063721 188.0
1489.593628 96.0
1489.655151 164.0
1490.200562 180.0
1490.423462 172.0
1490.661621 216.0
1491.976074 148.0
1492.160522 180.0
1492.591187 152.0
1493.720703 156.0
1494.629639 76.0
1494.829712 112.0
1494.910645 184.0
1495.168335 144.0
1495.391479 188.0
1495.453003 184.0
1496.376831 72.0
1496.991333 268.0
1497.963379 116.0
1498.078857 148.0
1498.44873 76.0
1498.587402 192.0
1498.649048 112.0
1498.849365 188.0
1499.304077 128.0
1499.427368 192.0
1499.489014 168.0
1499.643188 368.0
1499.820435 132.0
1500.128784 224.0
1500.645386 148.0
1500.830444 204.0
1502.164673 308.0
1503.22937 128.0
1503.545776 240.0
1504.4104 192.0
1504.57251 200.0
1504.973999 280.0
1505.269897 112.0
