>compound NCGC00160336-01!7'-Hydroxy-[3,4']bichromenyl-2,2'-dione
>formula C18H10O5
>ionization [M+H]+
>parentmass 307.0600998720905
#inchi InChI=1S/C18H10O5/c19-11-5-6-12-13(9-17(20)22-16(12)8-11)14-7-10-3-1-2-4-15(10)23-18(14)21/h1-9,19H
#inchikey AAFQUFFWQFQGDH
#Ion_Source LC-ESI
#Instrument qTOF
#Compound_Source Prestwick Phytochem Lib
#PI Dorrestein
#Data_Collector VVP/LMS
#Scan -1
#Precursor_MZ 307.061
#ExactMass 306.053
#Charge 1
#CAS_Number N/A
#Pubmed_ID N/A
#Smiles OC1=CC2=C(C=C1)C(=CC(=O)O2)C3=CC4=C(OC3=O)C=CC=C4
#INCHI_AUX N/A
#Library_Class 1
#SpectrumID CCMSLIB00000078780
#IonMode Positive
#UpdateWorkflowName UPDATE-SINGLE-ANNOTATED-GOLD
#LibraryQualityString Gold
#TaskID 67c915c6594c435cadc1fe2b5358144d
##Scan# 1946
#SpectrumFile p1-H03_GH3_01_17959.mzXML
#LibraryName phytochem_lib.mgf
#MQScore -1
#Organism phytochem_lib
#TIC_Query 0
#RT_Query -1
#MZErrorPPM -1
#SharedPeaks 0
#MassDiff 0
#LibMZ -1
#SpecMZ 307.061
#SpecCharge 0
#internalFilename spec-00000.mgf

>collision 10
95.013435 160.0
95.081345 176.0
95.718979 172.0
96.436905 140.0
96.503372 184.0
97.010437 228.0
97.214424 100.0
97.416656 184.0
97.493279 212.0
98.747162 180.0
98.96286 168.0
99.063866 80.0
99.190689 120.0
99.841934 164.0
100.218155 96.0
100.589104 128.0
101.196854 248.0
101.262939 112.0
101.599693 152.0
101.846603 200.0
102.049576 180.0
102.33931 152.0
102.484329 148.0
103.265572 60.0
104.021362 192.0
104.43792 108.0
105.02906 184.0
105.997681 152.0
106.06736 88.0
106.153473 136.0
107.785858 184.0
107.808586 168.0
108.526878 268.0
108.883804 216.0
109.027321 176.0
109.097824 80.0
109.743225 164.0
109.818298 176.0
110.032341 192.0
110.095879 176.0
110.589287 188.0
111.127853 152.0
111.987648 100.0
113.042076 196.0
113.647148 88.0
113.908279 188.0
114.040016 168.0
115.053337 328.0
115.122299 112.0
115.682487 232.0
116.224716 160.0
116.415764 240.0
116.510269 188.0
116.557541 116.0
116.656403 156.0
116.746712 172.0
116.862869 152.0
117.030754 252.0
117.147049 144.0
117.310829 164.0
118.436646 156.0
118.583977 204.0
119.043907 212.0
119.300293 180.0
119.752899 32.0
119.822609 96.0
119.938103 152.0
120.311127 216.0
120.348244 180.0
120.474915 152.0
121.027458 500.0
121.063286 84.0
121.194717 116.0
122.096939 136.0
122.552605 136.0
123.00029 172.0
123.453224 144.0
124.363792 188.0
124.603622 228.0
124.988274 160.0
125.037231 196.0
125.057266 200.0
125.151894 244.0
125.594246 44.0
125.841957 132.0
126.040749 208.0
126.266533 140.0
126.333633 88.0
126.391808 224.0
126.463417 44.0
127.306389 156.0
127.355804 148.0
127.598495 132.0
127.652458 148.0
128.476822 60.0
129.042618 180.0
129.075348 176.0
129.213318 196.0
129.272156 252.0
129.430603 188.0
129.450989 176.0
129.577835 120.0
130.040436 168.0
130.133499 244.0
130.522049 164.0
130.963547 140.0
130.993164 88.0
131.046799 168.0
131.218781 176.0
131.300858 104.0
131.494797 136.0
131.618057 72.0
132.061417 248.0
132.120895 160.0
133.02623 208.0
133.957428 116.0
133.998901 148.0
134.058807 72.0
134.989105 196.0
135.118637 144.0
135.354721 112.0
135.530762 124.0
135.713882 212.0
135.936554 152.0
136.326691 212.0
136.428955 116.0
137.023758 1368.0
137.159622 196.0
137.337112 120.0
137.766632 88.0
138.723755 64.0
139.052139 208.0
139.350372 48.0
139.724182 184.0
139.752426 192.0
139.815964 84.0
140.117355 164.0
140.555908 128.0
140.957336 204.0
141.06604 268.0
142.072098 208.0
142.200653 72.0
142.309845 192.0
142.697128 108.0
142.875488 104.0
143.054626 220.0
143.077789 200.0
143.208755 136.0
144.366257 208.0
144.42366 244.0
144.866501 148.0
144.902435 172.0
145.022247 344.0
145.823898 164.0
145.982574 212.0
146.49765 136.0
147.032928 112.0
147.540192 204.0
148.326935 168.0
148.600983 128.0
149.021011 120.0
149.191132 128.0
149.417313 48.0
149.524384 156.0
150.580048 176.0
151.051544 420.0
151.100723 120.0
151.838028 192.0
151.931244 100.0
151.970505 60.0
152.062759 1264.0
152.439499 140.0
152.828003 120.0
153.037216 148.0
153.06694 728.0
153.959473 132.0
154.075577 228.0
154.421631 204.0
154.743317 32.0
155.047501 700.0
155.087204 328.0
155.157074 84.0
157.049454 136.0
157.096848 80.0
157.406342 40.0
158.037415 288.0
158.061264 112.0
158.394241 168.0
159.045624 152.0
160.041718 156.0
160.618835 44.0
160.979752 72.0
161.023956 164.0
161.492783 92.0
162.409927 128.0
163.062515 168.0
163.29866 168.0
164.062149 168.0
164.933044 168.0
164.9944 240.0
165.069702 2860.0
165.375549 48.0
165.460022 124.0
165.605988 60.0
165.744324 208.0
165.836578 84.0
166.077362 952.0
166.716888 224.0
166.822266 68.0
167.042526 184.0
167.084366 1000.0
167.213242 60.0
167.416626 108.0
168.053116 320.0
168.086502 440.0
168.792053 60.0
169.027603 128.0
169.061081 180.0
169.195679 164.0
169.288895 128.0
169.514267 52.0
171.335663 124.0
171.465958 272.0
172.039795 196.0
172.761078 136.0
173.021286 316.0
173.444534 76.0
173.489105 144.0
173.572998 144.0
174.286972 108.0
174.502487 96.0
174.607681 144.0
174.78656 196.0
174.849716 152.0
175.055069 136.0
175.358032 200.0
175.37912 104.0
175.909302 188.0
175.970032 156.0
176.022842 208.0
176.061371 1004.0
176.094147 136.0
176.331924 156.0
176.921799 120.0
177.068344 1452.0
177.123047 72.0
177.153214 72.0
177.401291 96.0
177.714233 136.0
177.9133 156.0
177.936035 120.0
178.076706 5168.0
178.136368 40.0
178.447296 64.0
178.862305 48.0
179.017151 124.0
179.051346 188.0
179.081635 2320.0
179.128586 108.0
179.205856 48.0
179.237823 32.0
179.315109 48.0
179.653748 176.0
180.082962 212.0
180.41217 60.0
180.516449 124.0
180.56459 192.0
180.757202 108.0
181.064682 2124.0
181.15535 68.0
182.069565 220.0
182.172836 44.0
182.366318 172.0
182.393188 60.0
182.495346 108.0
182.869278 168.0
183.044388 328.0
183.076385 996.0
183.1035 100.0
183.157379 60.0
183.696487 60.0
183.888077 120.0
184.044647 120.0
184.084045 360.0
184.120255 60.0
184.355286 160.0
184.663498 72.0
185.196701 92.0
185.30777 108.0
186.064453 128.0
186.151337 184.0
186.629578 208.0
187.047073 160.0
187.710587 48.0
188.089813 120.0
188.669403 100.0
189.002625 224.0
189.068619 3696.0
189.248962 44.0
189.333847 80.0
189.799713 116.0
190.075302 1508.0
190.639694 80.0
190.848602 200.0
191.002609 128.0
191.084915 452.0
191.178696 128.0
191.225479 88.0
191.482117 56.0
191.988632 136.0
192.058319 308.0
192.084427 164.0
192.220352 60.0
192.565445 52.0
192.631729 80.0
193.072968 464.0
193.289749 160.0
194.072372 788.0
194.523071 80.0
194.559158 148.0
195.07959 1016.0
195.178741 104.0
195.89122 84.0
196.050034 144.0
196.083023 336.0
196.201523 160.0
196.234009 32.0
196.563141 48.0
197.023483 556.0
197.06015 120.0
197.14119 64.0
197.401169 68.0
197.574585 84.0
198.018082 180.0
200.057816 376.0
201.066025 392.0
201.858322 188.0
201.929016 44.0
202.075439 288.0
202.121384 36.0
202.175156 248.0
202.849258 172.0
203.081772 256.0
203.16687 200.0
204.05011 124.0
205.062912 1964.0
205.111969 32.0
205.879456 40.0
206.069992 884.0
206.104614 156.0
206.639801 80.0
206.725647 140.0
206.822952 120.0
206.877335 216.0
207.04628 152.0
207.079712 3540.0
207.14653 100.0
207.182678 84.0
207.285049 68.0
207.34996 48.0
207.447418 76.0
208.082916 1304.0
208.638779 184.0
208.664658 56.0
208.886093 204.0
209.057755 716.0
209.381165 60.0
209.758606 128.0
210.0616 172.0
210.300888 52.0
210.425018 56.0
210.471207 60.0
210.589615 192.0
211.074615 488.0
212.065216 204.0
213.598328 184.0
214.011581 172.0
215.03772 64.0
216.048752 124.0
217.065231 404.0
218.071915 1768.0
218.11908 140.0
218.327835 44.0
218.354309 40.0
218.680878 88.0
218.831009 148.0
219.069839 452.0
219.175629 168.0
219.532303 84.0
219.679779 180.0
220.05336 172.0
220.063019 140.0
220.073105 192.0
220.577484 84.0
220.828827 72.0
221.060364 848.0
221.52739 52.0
221.850403 52.0
222.066406 816.0
222.123215 116.0
223.0746 2780.0
223.34108 144.0
223.406509 44.0
223.5047 28.0
224.077744 444.0
224.980011 152.0
225.039734 84.0
225.080078 148.0
225.520691 92.0
225.978226 84.0
227.29361 156.0
227.566742 136.0
227.816025 156.0
228.002304 116.0
228.062424 76.0
228.257828 220.0
229.079819 148.0
230.074661 168.0
232.51741 232.0
233.05722 872.0
233.118713 132.0
233.589981 100.0
233.827301 172.0
234.066605 1664.0
234.137848 28.0
234.192673 72.0
234.326706 64.0
234.372406 124.0
234.42421 124.0
235.073837 1180.0
235.107315 76.0
235.281296 84.0
235.901459 68.0
235.983994 216.0
236.042099 104.0
236.073822 360.0
236.109375 48.0
236.234772 32.0
237.015488 92.0
237.051788 708.0
237.364929 56.0
237.478409 220.0
238.038788 188.0
238.740677 60.0
238.974457 52.0
239.070038 668.0
239.389999 56.0
239.436188 204.0
239.728867 68.0
239.908478 232.0
240.064529 208.0
240.441254 64.0
240.552368 200.0
241.071243 180.0
241.748489 100.0
245.058929 144.0
246.071671 132.0
248.058792 144.0
248.626511 148.0
249.04538 180.0
249.694672 124.0
250.058548 304.0
250.125732 92.0
251.070496 1260.0
251.22551 32.0
251.560013 36.0
251.945282 32.0
252.073074 232.0
252.115906 140.0
253.023727 60.0
253.076416 124.0
253.742905 188.0
257.913177 160.0
261.052734 272.0
261.077637 124.0
261.563477 172.0
262.058289 504.0
263.070374 5504.0
263.139893 152.0
263.188324 136.0
263.256134 60.0
263.285217 32.0
263.356262 132.0
263.448914 124.0
263.485474 52.0
264.071625 816.0
264.601257 144.0
264.678955 48.0
264.717834 72.0
265.048126 3004.0
265.113037 212.0
265.232971 88.0
265.411255 48.0
266.054932 776.0
266.326447 80.0
266.758606 48.0
266.891907 56.0
267.044769 140.0
267.376617 76.0
268.005096 56.0
268.053986 76.0
269.094482 60.0
270.251526 48.0
271.647156 184.0
274.469025 44.0
274.518494 228.0
274.891235 108.0
276.404694 136.0
276.573456 72.0
277.126526 192.0
278.05545 152.0
278.430176 104.0
279.021637 188.0
279.062714 1080.0
280.058136 148.0
281.071777 92.0
281.871429 52.0
281.944946 164.0
286.04364 96.0
286.99707 108.0
287.293854 56.0
289.043671 548.0
291.152557 52.0
293.039673 124.0
301.792969 112.0
302.367218 48.0
306.464874 136.0
306.764587 96.0
307.057159 2992.0
307.434265 72.0
307.685577 36.0
308.059265 524.0
308.286377 44.0
309.059601 156.0
309.615753 92.0
310.074707 108.0
310.218414 212.0
310.825165 164.0
311.292023 120.0
316.379913 84.0
320.845581 52.0
321.023865 148.0
333.255737 132.0
344.991364 68.0
368.800415 108.0
371.407959 72.0
378.237885 20.0
418.085114 64.0
434.032654 28.0
435.281647 64.0
435.962921 48.0
448.325348 88.0
503.278229 68.0
511.698517 48.0
514.520813 20.0
515.948425 56.0
520.574585 92.0
530.443359 20.0
541.696472 172.0
563.621094 80.0
567.568726 88.0
707.903809 72.0
771.781067 76.0
802.232361 188.0
821.793274 100.0
878.647705 60.0
1025.829956 20.0
1057.038452 192.0
1059.991211 60.0
1079.991089 32.0
1085.64978 180.0
1108.783447 152.0
1131.786133 232.0
1152.874878 104.0
1192.287109 84.0
1208.021606 144.0
1217.336792 208.0
1249.975586 36.0
1268.139648 188.0
1300.249146 108.0
1314.029175 40.0
1353.849121 272.0
1354.068848 116.0
1362.577881 168.0
1363.489014 128.0
1375.324951 144.0
1384.004028 156.0
1388.309326 168.0
1393.148804 144.0
1403.762451 124.0
1414.034668 144.0
1419.975952 168.0
1420.651001 60.0
1448.565918 140.0
1469.213135 36.0
1472.067749 100.0
1480.525635 172.0
1485.868286 148.0
1486.346924 52.0
1493.35791 184.0
1495.835571 108.0
1497.452515 168.0
