>compound MLS001140927-01!4-[[[2-(4-ethyl-2-oxochromen-7-yl)oxyacetyl]amino]methyl]cyclohexane-1-carboxylic acid
>formula C21H25NO6
>ionization [M+H]+
>parentmass 388.176
#inchi InChI=1S/C21H25NO6/c1-2-14-9-20(24)28-18-10-16(7-8-17(14)18)27-12-19(23)22-11-13-3-5-15(6-4-13)21(25)26/h7-10,13,15H,2-6,11-12H2,1H3,(H,22,23)(H,25,26)/t13-,15-
#inchikey VAINHEDGSJOOKU
#Ion_Source LC-ESI
#Instrument qTof
#Compound_Source NIH Natural Product Library
#PI Dorrestein
#Data_Collector VVP/LMS
#Scan -1
#Precursor_MZ 388.176
#ExactMass 387.168
#Charge 1
#CAS_Number N/A
#Pubmed_ID N/A
#Smiles CCc1cc(=O)oc2cc(OCC(=O)NC[C@H]3CC[C@@H](CC3)C(=O)O)ccc12
#INCHI_AUX N/A
#Library_Class 1
#SpectrumID CCMSLIB00000079519
#IonMode Positive
#UpdateWorkflowName UPDATE-SINGLE-ANNOTATED-GOLD
#LibraryQualityString Gold
#TaskID b1d8e8f6646f4e71acdff9ca3d919d08
##Scan# 1883
#SpectrumFile p1-E07_GE7_01_17927.mzXML
#LibraryName NIH_Natural_Products_Library.mgf
#MQScore -1
#Organism NIH_Natural_Products_Library
#TIC_Query 0
#RT_Query -1
#MZErrorPPM -1
#SharedPeaks 0
#MassDiff 0
#LibMZ -1
#SpecMZ 388.176
#SpecCharge 0
#internalFilename spec-00000.mgf

>collision 10
95.048195 112.0
95.085342 3016.0
95.111801 232.0
95.135529 76.0
95.259811 60.0
95.273407 56.0
95.314209 188.0
95.648712 136.0
96.046211 132.0
96.089088 412.0
96.108635 196.0
96.266747 52.0
96.297997 132.0
96.391762 156.0
96.483627 124.0
96.532509 160.0
96.739899 52.0
96.847961 192.0
96.998466 220.0
97.084991 124.0
97.337875 196.0
97.418404 152.0
97.75264 192.0
97.884521 176.0
97.931786 236.0
98.063797 176.0
98.199837 184.0
98.225479 224.0
98.245201 104.0
98.322151 104.0
98.409004 56.0
98.52948 116.0
98.572952 176.0
98.820107 128.0
98.865616 140.0
99.132957 112.0
99.267754 244.0
99.287582 104.0
99.420502 204.0
99.625008 132.0
99.644875 196.0
99.803879 140.0
100.014755 172.0
100.178032 156.0
100.219872 240.0
100.267693 104.0
100.32151 132.0
100.481056 136.0
100.774544 56.0
101.132492 168.0
101.180534 52.0
101.40889 216.0
101.59938 104.0
101.86068 216.0
102.057297 220.0
102.079414 196.0
102.157852 144.0
102.320862 112.0
102.443703 136.0
102.738022 260.0
102.765831 184.0
102.919662 148.0
103.061501 216.0
103.18232 284.0
103.196472 156.0
103.283432 56.0
103.463524 96.0
103.491867 92.0
103.730927 84.0
103.805939 64.0
103.939819 132.0
104.016937 204.0
104.189545 148.0
104.333839 144.0
104.474159 180.0
104.704163 148.0
104.826393 252.0
104.840652 56.0
104.867149 180.0
105.070839 536.0
105.199631 136.0
105.53672 172.0
105.608299 136.0
106.071335 172.0
106.559456 164.0
106.880203 72.0
106.995461 164.0
107.050468 872.0
107.085976 556.0
107.281815 204.0
107.324883 184.0
107.362228 192.0
107.55616 88.0
107.632545 148.0
107.672028 136.0
107.8536 36.0
107.878403 160.0
107.990059 92.0
108.08522 208.0
108.383385 132.0
108.426903 92.0
108.493553 128.0
108.735916 88.0
108.808571 144.0
109.084862 168.0
110.055656 196.0
110.072403 144.0
110.095238 404.0
110.116257 208.0
110.193542 48.0
110.300117 140.0
110.358658 160.0
110.490417 176.0
111.114731 196.0
111.244843 140.0
111.393936 260.0
111.492683 304.0
111.538925 168.0
112.040581 496.0
112.112053 664.0
112.151436 140.0
112.292702 216.0
112.324341 148.0
112.425613 228.0
112.484703 232.0
112.771965 100.0
112.862869 216.0
112.987656 176.0
113.114624 84.0
113.952293 156.0
113.999039 84.0
114.573517 104.0
115.054558 832.0
115.076836 176.0
115.145164 36.0
115.247704 32.0
115.36097 140.0
115.60907 284.0
115.660439 168.0
115.990303 96.0
116.046043 116.0
116.062195 192.0
116.363571 32.0
116.451851 180.0
116.730988 120.0
116.817017 160.0
116.872955 196.0
117.069633 2536.0
117.129143 68.0
117.262726 180.0
117.320923 44.0
117.388412 160.0
117.478348 172.0
117.627243 68.0
117.670418 192.0
118.074821 288.0
118.377464 192.0
118.665642 136.0
118.682983 180.0
118.834808 56.0
119.045357 56.0
119.088593 228.0
119.164825 96.0
119.273483 112.0
119.327827 128.0
119.364792 64.0
119.701057 112.0
120.083443 164.0
120.205605 176.0
120.386787 56.0
120.406441 28.0
120.548439 140.0
120.638054 208.0
120.727692 156.0
121.062767 276.0
121.090981 156.0
121.233383 136.0
121.832375 156.0
122.005989 128.0
122.131325 120.0
122.313957 132.0
122.739151 120.0
122.873688 96.0
122.931053 140.0
123.047379 188.0
123.087784 160.0
123.190712 212.0
123.255554 88.0
123.538651 68.0
123.558556 124.0
123.69355 144.0
123.768822 152.0
124.061264 180.0
124.081223 124.0
124.11174 608.0
124.487259 164.0
124.59832 152.0
124.704979 148.0
125.114075 180.0
125.21669 176.0
125.234512 132.0
125.878822 200.0
125.96389 188.0
125.995163 132.0
126.236557 56.0
126.475937 212.0
126.720032 228.0
126.784569 200.0
126.908302 156.0
127.036133 124.0
127.051834 140.0
127.33017 60.0
127.455963 152.0
127.838234 144.0
127.995346 176.0
128.044922 172.0
128.843842 172.0
128.882248 52.0
129.069672 296.0
129.108307 176.0
129.268921 168.0
129.570053 136.0
129.721481 112.0
129.842056 192.0
130.071213 140.0
130.257416 184.0
130.405106 120.0
130.864609 300.0
131.049088 164.0
131.074158 156.0
131.179001 176.0
131.297562 128.0
131.742645 40.0
131.957184 160.0
132.057571 708.0
132.108398 172.0
132.337265 160.0
132.43573 160.0
132.454056 72.0
133.00415 132.0
133.064026 308.0
133.859604 56.0
134.03006 144.0
134.094269 152.0
134.15451 88.0
134.288239 100.0
134.70372 116.0
134.994934 184.0
135.018051 164.0
135.05098 200.0
135.080505 840.0
135.115204 236.0
135.309601 204.0
135.545853 64.0
136.08287 144.0
136.109512 212.0
136.376663 60.0
136.392929 156.0
136.485931 232.0
136.523132 76.0
136.583603 188.0
136.921082 152.0
137.079498 136.0
137.210022 144.0
137.466583 92.0
137.618301 144.0
137.999146 152.0
138.268143 212.0
138.464798 152.0
138.631134 164.0
138.935944 160.0
138.964096 188.0
139.015717 168.0
139.215256 364.0
139.515991 108.0
140.050156 56.0
140.104782 556.0
140.177368 84.0
140.215073 204.0
140.285782 196.0
140.415466 108.0
140.490952 240.0
140.582962 108.0
140.646683 48.0
140.953705 260.0
141.114426 376.0
141.138062 164.0
141.242126 64.0
141.341492 64.0
141.682419 120.0
142.079453 76.0
142.163742 64.0
142.28479 148.0
142.5952 212.0
142.643509 176.0
143.333679 108.0
143.555374 148.0
144.05658 108.0
144.525162 176.0
144.65918 236.0
144.841171 164.0
145.065826 1904.0
145.102371 156.0
145.241455 100.0
145.276245 140.0
145.347015 112.0
145.471817 144.0
145.503021 140.0
146.064941 632.0
146.402298 144.0
146.460098 148.0
146.573334 276.0
146.720352 64.0
147.043411 552.0
147.079346 968.0
147.248779 148.0
147.297089 56.0
147.313995 108.0
147.420303 140.0
147.455994 224.0
147.616119 36.0
148.052032 148.0
148.087479 160.0
148.240646 184.0
148.398209 104.0
148.420029 140.0
148.439423 132.0
148.866501 124.0
149.018784 348.0
149.059479 712.0
149.119156 108.0
149.556961 144.0
149.622681 88.0
150.067245 192.0
150.197769 60.0
150.268524 220.0
150.483292 172.0
151.219086 212.0
151.554581 164.0
151.664856 148.0
151.802139 68.0
151.843826 196.0
152.035187 156.0
152.109879 224.0
152.197205 52.0
152.253677 164.0
152.342102 52.0
152.614899 148.0
152.668991 204.0
153.089798 248.0
153.113419 480.0
153.180939 188.0
153.346024 152.0
153.373123 204.0
153.427368 120.0
153.452011 168.0
153.488998 144.0
153.63205 192.0
153.861557 300.0
154.00972 260.0
154.150528 132.0
154.167831 44.0
154.244446 44.0
154.424942 212.0
154.551102 236.0
154.60643 168.0
154.684753 172.0
155.057785 216.0
155.467941 112.0
155.51532 180.0
155.624329 140.0
155.678955 156.0
156.10141 160.0
156.365097 212.0
157.066589 400.0
157.15004 120.0
157.29895 180.0
157.337219 68.0
157.861923 140.0
158.284821 168.0
158.638077 172.0
158.704056 188.0
158.928986 172.0
159.076553 220.0
159.137314 52.0
159.707764 108.0
160.053513 136.0
160.357346 172.0
160.395157 168.0
160.569122 188.0
160.591827 164.0
160.664978 116.0
160.758331 180.0
161.05809 288.0
161.169922 68.0
161.372116 100.0
161.566849 144.0
161.58963 156.0
162.065765 584.0
162.172043 140.0
162.542297 152.0
162.575287 56.0
162.735199 76.0
162.915527 92.0
163.038406 192.0
163.075516 952.0
163.263733 172.0
163.52832 252.0
163.782928 208.0
164.029434 216.0
164.074585 176.0
164.519882 128.0
164.821243 196.0
164.849289 144.0
165.084534 100.0
165.24823 160.0
165.496506 136.0
165.588684 120.0
165.632233 144.0
165.821838 72.0
165.883347 60.0
167.221558 204.0
167.280762 216.0
168.069382 180.0
168.151962 120.0
168.293945 204.0
168.361069 184.0
169.082352 116.0
169.955627 176.0
170.116104 192.0
170.2957 100.0
170.682907 152.0
171.179916 152.0
171.458649 88.0
171.573334 100.0
171.659378 144.0
171.698502 224.0
171.802826 240.0
171.943726 156.0
172.00116 108.0
172.022415 136.0
172.095139 176.0
172.761566 96.0
172.8479 156.0
173.059677 5548.0
173.203949 48.0
173.290405 40.0
173.308746 88.0
173.355911 36.0
173.392593 128.0
173.576096 176.0
173.806931 96.0
173.856781 60.0
174.060806 948.0
174.242767 228.0
174.297943 128.0
174.329468 240.0
174.413574 160.0
174.465439 140.0
174.626541 172.0
174.834381 60.0
174.910706 156.0
174.939667 60.0
175.000214 140.0
175.037537 324.0
175.073807 3764.0
175.208282 168.0
175.234619 108.0
175.26796 172.0
175.318939 36.0
175.413818 152.0
175.485001 60.0
175.595749 72.0
175.777786 60.0
175.95462 116.0
175.983658 232.0
176.044128 396.0
176.076233 448.0
176.302902 56.0
176.406357 168.0
176.448654 68.0
176.477737 60.0
177.059891 148.0
177.07843 136.0
177.099625 172.0
177.194977 236.0
177.26387 56.0
177.330124 52.0
177.582001 164.0
177.674835 44.0
177.918991 56.0
178.679062 196.0
178.761551 120.0
178.93988 168.0
179.339462 156.0
179.422089 128.0
180.001068 148.0
180.067825 176.0
180.102432 812.0
180.217163 192.0
180.56369 180.0
180.789658 168.0
180.829788 108.0
181.108246 148.0
181.247543 180.0
181.408356 140.0
182.106003 108.0
182.350479 52.0
182.700043 104.0
182.804977 124.0
182.826508 228.0
183.049927 152.0
183.475632 156.0
185.057388 120.0
186.330826 128.0
186.352554 212.0
186.637955 44.0
186.795685 124.0
187.239334 152.0
187.476349 112.0
187.882614 188.0
188.046326 212.0
188.173096 164.0
188.275665 84.0
188.390381 160.0
188.439545 132.0
189.049301 108.0
189.298416 164.0
189.331268 168.0
189.361404 72.0
189.446304 136.0
189.684708 76.0
189.731308 68.0
190.059372 932.0
190.09108 140.0
190.318436 160.0
190.378845 184.0
190.523438 212.0
190.557388 96.0
190.587616 100.0
190.63826 84.0
190.664551 124.0
190.771759 92.0
190.818481 120.0
190.898575 180.0
190.94223 108.0
190.990479 128.0
191.021729 208.0
191.070129 47328.0
191.124863 172.0
191.153183 152.0
191.178864 288.0
191.258636 100.0
191.286148 76.0
191.315063 68.0
191.38913 148.0
191.405411 88.0
191.428467 144.0
191.524567 28.0
191.547424 68.0
191.63591 48.0
191.680984 144.0
191.764648 72.0
191.816895 136.0
191.889755 76.0
191.9198 72.0
191.958405 52.0
192.035675 172.0
192.073807 4572.0
192.167496 84.0
192.253571 108.0
192.289886 100.0
192.373245 100.0
192.424698 60.0
192.462631 76.0
192.504776 36.0
192.579346 68.0
192.651154 44.0
192.841812 52.0
192.872223 64.0
192.974503 60.0
193.002396 44.0
193.07579 892.0
193.110001 136.0
193.199432 104.0
193.263885 108.0
193.316498 236.0
193.397049 96.0
193.514847 112.0
193.550003 40.0
193.696793 120.0
193.716171 68.0
193.779892 80.0
193.918442 64.0
193.955276 28.0
194.049438 140.0
194.276138 224.0
194.617508 112.0
194.898041 100.0
195.009201 44.0
195.064789 84.0
195.331726 124.0
195.507019 100.0
195.548767 72.0
195.802109 168.0
195.916306 160.0
196.008255 124.0
196.373444 52.0
196.817154 84.0
197.152359 120.0
197.278137 112.0
197.647308 176.0
198.00563 164.0
198.117661 288.0
198.165283 88.0
198.397903 140.0
198.919678 168.0
199.624863 88.0
199.72049 132.0
199.76268 224.0
200.458099 100.0
200.511642 172.0
200.615936 240.0
200.69487 80.0
201.067917 484.0
201.315659 144.0
201.383438 112.0
201.544449 96.0
201.567062 140.0
201.696381 132.0
201.770554 52.0
201.796005 132.0
201.838425 92.0
201.917603 64.0
202.104294 268.0
202.197678 140.0
202.370346 48.0
202.409988 120.0
202.72464 252.0
202.908661 52.0
202.994751 208.0
203.069717 14472.0
203.116974 152.0
203.170883 60.0
203.237656 36.0
203.279953 84.0
203.32988 72.0
203.337845 104.0
203.385223 40.0
203.419296 68.0
203.447678 40.0
203.493103 64.0
203.62941 204.0
203.67485 108.0
203.809113 76.0
203.907822 124.0
203.964676 44.0
204.02153 180.0
204.074493 2152.0
204.109665 168.0
204.21489 48.0
204.337204 64.0
204.357117 72.0
204.436783 180.0
204.650269 96.0
204.684448 52.0
204.8069 144.0
204.875259 60.0
204.917999 56.0
204.949341 88.0
205.012436 168.0
205.078323 536.0
205.1745 92.0
205.231522 140.0
205.279999 128.0
205.319916 148.0
205.381989 204.0
205.4664 112.0
205.516739 164.0
205.61377 144.0
205.65657 100.0
205.742203 136.0
205.767899 72.0
206.051178 324.0
206.262115 40.0
206.447952 108.0
206.585236 164.0
206.831329 240.0
206.945831 168.0
207.060379 156.0
207.10907 84.0
207.524582 76.0
208.204651 132.0
208.629898 52.0
208.845566 56.0
209.139038 204.0
210.469254 152.0
210.719315 184.0
212.485352 132.0
213.109573 48.0
213.507797 44.0
213.842377 160.0
214.617249 96.0
214.681412 152.0
215.057755 116.0
217.070511 144.0
217.443085 144.0
217.492966 112.0
217.563416 140.0
217.639755 48.0
218.509735 176.0
218.771652 172.0
219.021942 132.0
220.113129 168.0
221.083389 204.0
221.19519 128.0
221.78804 132.0
223.382141 84.0
223.905975 168.0
224.257538 260.0
225.021194 88.0
226.157135 168.0
226.807098 140.0
227.500015 252.0
227.700821 160.0
227.758255 212.0
228.157928 184.0
228.239105 68.0
229.663544 168.0
230.085999 112.0
230.629745 92.0
230.768799 72.0
231.064789 8576.0
231.135895 76.0
231.174118 44.0
231.255829 56.0
231.570709 48.0
231.625229 152.0
231.867615 52.0
231.982788 28.0
232.069824 884.0
232.122253 56.0
232.213226 68.0
232.753403 76.0
232.902206 80.0
233.015579 76.0
233.07338 404.0
233.123993 88.0
233.625671 120.0
233.716934 100.0
233.738235 112.0
233.817352 64.0
234.024353 44.0
234.648926 132.0
236.647049 156.0
237.652359 92.0
238.103592 44.0
238.844315 104.0
242.199493 72.0
243.173065 120.0
243.781754 60.0
243.996216 196.0
244.077057 184.0
244.328979 76.0
244.633957 44.0
245.556259 152.0
245.902573 104.0
246.155441 116.0
246.61467 164.0
246.714706 152.0
247.052444 112.0
247.18071 136.0
247.237762 88.0
247.3685 96.0
247.44989 236.0
247.509384 48.0
247.580124 140.0
247.625244 104.0
247.665878 156.0
247.734879 100.0
247.769333 124.0
247.857071 64.0
247.93541 124.0
247.973007 192.0
248.013763 208.0
248.09111 26404.0
248.167374 44.0
248.213745 152.0
248.272156 124.0
248.3367 172.0
248.493713 80.0
248.531845 116.0
248.629562 104.0
248.747742 60.0
248.779129 52.0
248.883224 88.0
248.917282 60.0
248.958099 116.0
248.998932 64.0
249.044281 128.0
249.093948 3748.0
249.196823 180.0
249.306808 116.0
249.397949 72.0
249.495392 100.0
249.548843 76.0
249.58342 56.0
249.64003 48.0
249.662033 100.0
249.696625 68.0
249.74968 60.0
249.967178 80.0
249.989197 72.0
250.088806 276.0
250.310272 40.0
250.37326 108.0
250.48822 128.0
250.666229 36.0
250.74501 60.0
250.767075 64.0
250.817505 72.0
250.975128 116.0
251.094467 128.0
251.199036 40.0
251.457779 40.0
251.505112 220.0
251.921936 104.0
251.95668 68.0
252.004074 36.0
252.269531 92.0
252.418137 88.0
252.516159 88.0
252.718613 32.0
253.408829 192.0
253.960419 88.0
254.836563 60.0
255.128952 148.0
256.083557 136.0
259.047729 100.0
259.272003 148.0
259.874847 128.0
259.990356 176.0
260.09137 1456.0
260.298523 68.0
260.725769 44.0
260.902557 160.0
261.018311 76.0
261.095367 492.0
261.191956 88.0
261.539459 60.0
261.636047 56.0
262.08371 176.0
262.251282 92.0
265.403229 52.0
265.756744 60.0
268.097961 60.0
269.533752 116.0
269.595856 112.0
274.025574 212.0
274.103546 192.0
276.667633 132.0
279.146088 92.0
283.030121 204.0
283.365082 84.0
288.027618 168.0
295.127014 220.0
300.250427 56.0
302.821716 152.0
307.194397 140.0
308.350128 120.0
313.140808 180.0
314.129578 144.0
314.173737 308.0
317.351349 36.0
319.588959 48.0
321.006622 124.0
322.00943 76.0
322.817078 164.0
322.917206 100.0
324.077057 60.0
325.034393 176.0
326.097382 220.0
327.691498 156.0
328.315063 124.0
328.664978 68.0
329.466492 104.0
329.784454 140.0
332.01828 108.0
334.863953 72.0
339.047089 84.0
340.240509 84.0
340.624756 84.0
341.830658 184.0
341.966797 64.0
342.111755 212.0
342.169067 6968.0
342.246582 88.0
342.287079 44.0
342.39389 44.0
342.42334 52.0
342.478577 96.0
342.704041 60.0
342.835114 52.0
343.119781 44.0
343.173309 1644.0
343.440582 48.0
343.661926 48.0
344.182495 268.0
344.215576 68.0
344.662537 112.0
344.751221 52.0
344.865784 168.0
344.94342 92.0
345.059692 48.0
345.172638 80.0
345.738617 52.0
345.979187 100.0
346.916443 48.0
355.937927 64.0
358.431793 112.0
362.406738 92.0
374.840607 56.0
376.773621 44.0
377.221893 104.0
379.440094 88.0
385.934326 108.0
393.87674 92.0
399.664795 100.0
405.170502 80.0
407.634033 56.0
409.826996 108.0
411.981384 64.0
415.389862 44.0
425.100189 76.0
425.695404 116.0
426.107758 152.0
437.017151 32.0
441.84848 72.0
444.135681 148.0
446.336243 84.0
460.802551 56.0
460.994812 104.0
462.598694 44.0
463.712341 40.0
487.535767 52.0
510.28656 92.0
524.651855 32.0
528.456177 68.0
530.022095 96.0
543.448975 28.0
560.303894 88.0
563.932617 112.0
569.846558 80.0
609.058533 72.0
623.361267 100.0
643.532654 112.0
674.394531 72.0
683.313782 84.0
692.464417 72.0
832.410278 76.0
836.382935 108.0
850.596619 128.0
851.839233 108.0
855.101135 212.0
880.859436 112.0
880.936218 68.0
926.29425 168.0
932.312927 172.0
955.130432 132.0
956.865845 48.0
987.965027 164.0
1007.630066 172.0
1007.75647 172.0
1008.236694 240.0
1016.817993 172.0
1036.677002 160.0
1037.099976 216.0
1051.24231 148.0
1052.681885 132.0
1069.792114 192.0
1082.150391 164.0
1085.826538 184.0
1093.184326 152.0
1101.346191 120.0
1103.956665 148.0
1104.168335 164.0
1105.359009 244.0
1106.874878 180.0
1108.537476 72.0
1108.583862 188.0
1111.130005 236.0
1120.850464 216.0
1127.243042 200.0
1128.185425 128.0
1136.530273 120.0
1139.565063 152.0
1151.819092 196.0
1166.720581 108.0
1171.838379 204.0
1183.421997 152.0
1183.983521 140.0
1186.09375 108.0
1187.259277 172.0
1196.156738 168.0
1205.83374 200.0
1209.10498 104.0
1212.540039 160.0
1225.750488 252.0
1234.343262 212.0
1243.078247 172.0
1244.250366 48.0
1245.317749 208.0
1250.196777 204.0
1259.291382 160.0
1263.525513 184.0
1265.416382 212.0
1266.229492 176.0
1267.001465 148.0
1267.717163 156.0
1271.30542 176.0
1272.121582 212.0
1277.187988 172.0
1293.921997 220.0
1295.490234 260.0
1298.543823 132.0
1299.612671 144.0
1300.387573 136.0
1305.0354 200.0
1312.833618 224.0
1315.077393 160.0
1315.893066 228.0
1316.26123 136.0
1320.127197 64.0
1322.565308 140.0
1324.527588 160.0
1330.858643 156.0
1332.623535 220.0
1332.863281 180.0
1333.640869 100.0
1338.267578 172.0
1339.840698 100.0
1344.142334 80.0
1346.383423 156.0
1350.806274 148.0
1352.034546 176.0
1355.967285 64.0
1359.039795 32.0
1359.421387 56.0
1360.221313 164.0
1361.667725 200.0
1364.48938 140.0
1366.651733 152.0
1369.729004 156.0
1377.245239 148.0
1379.218018 176.0
1381.391968 176.0
1390.609497 140.0
1390.795044 156.0
1392.279907 212.0
1397.795654 140.0
1398.435669 204.0
1401.429321 204.0
1402.957153 88.0
1403.717529 188.0
1403.784668 60.0
1404.083008 44.0
1412.276123 128.0
1414.348633 188.0
1414.453491 180.0
1422.789307 152.0
1423.705322 56.0
1426.019287 212.0
1427.921387 160.0
1429.832275 216.0
1431.90271 144.0
1432.452515 84.0
1442.964844 156.0
1445.074951 216.0
1447.746948 180.0
1448.042236 108.0
1450.625977 156.0
1453.788818 76.0
1454.130249 260.0
1455.952271 80.0
1457.653931 200.0
1458.033936 168.0
1458.634399 164.0
1461.772949 212.0
1464.295166 184.0
1464.45813 204.0
1465.521606 152.0
1465.818726 192.0
1469.127686 144.0
1470.707275 120.0
1471.050659 116.0
1471.737793 168.0
1475.955566 84.0
1476.766113 148.0
1479.467285 156.0
1487.946167 128.0
1489.420532 156.0
1495.62561 236.0
1500.455566 128.0
1501.982422 132.0
1502.445312 212.0
