>compound MLS000697754-01!
>formula C21H18FN3O2
>ionization [M+H]+
>parentmass 364.146
#inchi InChI=1S/C21H18FN3O2/c1-2-17-19-15(14-5-3-4-6-16(14)23-19)11-18-20(26)24(21(27)25(17)18)13-9-7-12(22)8-10-13/h3-10,17-18,23H,2,11H2,1H3/t17-,18+/m0/s1
#inchikey SBUXRMKDJWEXRL
#Ion_Source LC-ESI
#Instrument qTof
#Compound_Source NIH Natural Product Library
#PI Dorrestein
#Data_Collector VVP/LMS
#Scan -1
#Precursor_MZ 364.146
#ExactMass 363.138
#Charge 1
#CAS_Number N/A
#Pubmed_ID N/A
#Smiles CC[C@@H]1N2[C@H](Cc3c1[nH]c4ccccc34)C(=O)N(C2=O)c5ccc(F)cc5
#INCHI_AUX N/A
#Library_Class 1
#SpectrumID CCMSLIB00000080362
#IonMode Positive
#UpdateWorkflowName UPDATE-SINGLE-ANNOTATED-GOLD
#LibraryQualityString Gold
#TaskID b1d8e8f6646f4e71acdff9ca3d919d08
##Scan# 2348
#SpectrumFile p2-G07_GG7_01_18055.mzXML
#LibraryName NIH_Natural_Products_Library.mgf
#MQScore -1
#Organism NIH_Natural_Products_Library
#TIC_Query 0
#RT_Query -1
#MZErrorPPM -1
#SharedPeaks 0
#MassDiff 0
#LibMZ -1
#SpecMZ 364.146
#SpecCharge 0
#internalFilename spec-00000.mgf

>collision 10
95.097832 180.0
95.395027 208.0
95.441689 152.0
95.698532 184.0
95.747215 204.0
95.938171 48.0
96.412483 112.0
96.768501 168.0
96.793686 128.0
96.815491 120.0
97.042801 168.0
97.641731 132.0
97.751274 212.0
97.844414 164.0
97.992126 212.0
98.295784 48.0
98.351044 176.0
98.576195 172.0
98.730392 168.0
99.025284 196.0
99.088676 124.0
99.120377 184.0
99.431725 152.0
99.513115 176.0
99.608444 176.0
99.733627 252.0
99.749527 120.0
99.848946 152.0
100.063858 180.0
100.438515 172.0
100.560226 156.0
100.580185 232.0
101.019814 128.0
101.055824 192.0
101.137871 116.0
101.666992 96.0
102.043518 176.0
102.133118 44.0
102.485428 136.0
102.691055 200.0
102.723328 156.0
103.026138 116.0
103.053131 296.0
103.402245 112.0
103.882477 48.0
104.132141 160.0
104.677177 116.0
104.781059 44.0
104.999168 136.0
105.229759 56.0
105.283249 184.0
105.595543 192.0
106.127937 176.0
106.499435 200.0
106.624763 136.0
106.7304 96.0
107.143311 164.0
107.252525 144.0
107.524788 152.0
108.11586 180.0
108.256638 68.0
108.395432 164.0
108.482483 176.0
109.23214 48.0
109.452751 120.0
109.492317 172.0
109.660942 300.0
109.894646 148.0
110.00943 36.0
110.036568 136.0
110.072777 224.0
110.118011 212.0
110.160515 160.0
110.469177 152.0
110.500557 128.0
110.601006 136.0
110.642876 180.0
110.814613 96.0
110.862808 228.0
110.87748 148.0
110.929886 92.0
111.041016 192.0
111.120728 196.0
111.385246 112.0
111.694244 152.0
111.872162 132.0
112.026848 144.0
112.060951 188.0
112.195442 224.0
112.254478 192.0
112.429573 184.0
112.687195 56.0
112.936646 132.0
113.432137 144.0
114.115746 140.0
114.260368 152.0
114.829124 228.0
115.05204 364.0
115.482697 116.0
115.83374 184.0
116.060913 228.0
116.103806 152.0
116.189606 128.0
116.284027 108.0
116.301193 116.0
116.41069 228.0
116.503052 160.0
116.730881 204.0
116.857788 100.0
117.056862 252.0
117.273415 68.0
117.420029 132.0
117.439438 188.0
117.517532 200.0
117.737282 164.0
117.804237 132.0
117.89283 144.0
117.968475 224.0
118.066277 328.0
118.089569 204.0
118.126343 168.0
118.173935 156.0
118.21505 128.0
118.47271 148.0
118.704628 160.0
118.856468 64.0
119.030128 116.0
119.184349 168.0
119.331627 132.0
119.651985 224.0
119.773933 164.0
119.80661 228.0
119.824036 60.0
119.946075 68.0
120.05291 104.0
120.356232 204.0
120.489464 92.0
120.589989 240.0
120.959648 124.0
121.300369 188.0
121.349602 140.0
121.441711 152.0
121.505325 116.0
121.561302 168.0
121.615044 200.0
121.751167 208.0
121.959892 148.0
122.038788 468.0
122.074219 96.0
122.355865 64.0
122.499008 176.0
122.587143 184.0
122.990753 172.0
123.068016 212.0
123.25798 164.0
123.30439 132.0
123.434822 48.0
123.822098 112.0
123.935081 164.0
124.02816 52.0
124.050987 188.0
124.282005 204.0
124.667366 64.0
124.778503 80.0
124.849655 164.0
125.210197 100.0
125.371895 152.0
125.433006 140.0
125.577942 68.0
126.011017 144.0
126.042297 124.0
126.093697 132.0
126.198761 220.0
126.265846 192.0
126.391129 104.0
126.955635 64.0
127.057869 272.0
127.184486 104.0
127.413536 152.0
127.575348 204.0
127.613571 80.0
127.672035 156.0
127.737259 36.0
127.753006 112.0
127.975822 144.0
128.011856 136.0
128.061584 6112.0
128.092575 220.0
128.09964 204.0
128.107162 216.0
128.234879 76.0
128.304764 104.0
128.697342 76.0
128.779739 124.0
128.832855 60.0
128.922485 180.0
128.939697 200.0
128.970703 152.0
129.068695 6868.0
129.091339 376.0
129.131241 36.0
129.147064 144.0
129.219467 84.0
129.261368 92.0
129.287338 100.0
129.36264 56.0
129.46167 224.0
129.484314 168.0
129.563599 176.0
129.899109 56.0
130.01709 156.0
130.065643 5580.0
130.09375 52.0
130.189636 200.0
130.210068 28.0
130.362289 184.0
130.635132 68.0
130.796692 100.0
130.928757 64.0
130.969742 92.0
130.994812 44.0
131.017593 160.0
131.066803 588.0
131.129242 60.0
131.860352 96.0
131.932739 152.0
132.079086 80.0
132.108826 176.0
132.138565 120.0
132.349152 144.0
132.378922 152.0
132.578217 64.0
132.940567 108.0
132.958923 60.0
133.0186 128.0
133.154068 124.0
133.641418 152.0
133.838837 88.0
134.282379 156.0
134.454865 204.0
134.579529 128.0
134.634949 116.0
134.658035 132.0
134.694992 128.0
134.93251 160.0
135.007019 232.0
135.074097 208.0
135.428253 172.0
135.55336 144.0
135.750397 108.0
135.961502 156.0
136.026489 32.0
136.133301 132.0
136.182068 200.0
136.514603 144.0
136.637695 160.0
136.781982 148.0
137.313232 116.0
137.495209 240.0
137.623596 52.0
137.707672 140.0
137.906265 152.0
138.035049 296.0
138.123734 148.0
138.147125 104.0
138.207947 140.0
138.552124 64.0
138.608353 416.0
138.68335 100.0
138.845123 88.0
138.943649 88.0
139.063324 72.0
139.262909 120.0
139.291092 208.0
139.385071 188.0
139.453217 152.0
139.895447 112.0
139.933121 104.0
140.006119 132.0
140.051102 160.0
140.152161 44.0
140.19693 84.0
140.482239 112.0
140.694626 188.0
140.933182 160.0
141.048767 180.0
141.069168 508.0
141.153015 44.0
141.460587 120.0
141.650024 168.0
142.075378 740.0
142.276093 56.0
142.347321 112.0
142.413818 128.0
142.54924 216.0
142.718018 156.0
142.796494 128.0
142.922577 144.0
143.084885 5956.0
143.122513 140.0
143.198715 124.0
143.31546 164.0
143.353577 156.0
143.382172 180.0
143.529984 196.0
143.682632 164.0
143.725571 144.0
143.790009 164.0
144.08429 664.0
144.155396 48.0
144.341858 256.0
144.566727 56.0
144.806137 188.0
145.088226 176.0
145.134445 160.0
145.297546 124.0
145.648026 160.0
145.777771 128.0
145.977295 92.0
146.062378 384.0
146.126419 100.0
146.347855 52.0
146.410461 248.0
146.576691 188.0
146.733353 156.0
146.950424 228.0
146.998688 120.0
147.05661 136.0
147.182144 40.0
147.336716 52.0
147.479294 192.0
148.43074 184.0
148.901535 128.0
148.962265 180.0
149.059448 124.0
149.380386 144.0
149.525375 196.0
149.652954 100.0
149.8405 188.0
149.962341 252.0
150.037918 56.0
150.064728 320.0
150.115936 140.0
150.342819 260.0
150.428238 128.0
150.574738 180.0
150.674896 96.0
150.860626 132.0
150.915329 128.0
150.955994 196.0
151.036697 184.0
151.271606 212.0
151.298538 204.0
151.38179 152.0
151.460159 136.0
151.822906 168.0
151.884216 196.0
152.009354 124.0
152.036346 104.0
152.061417 988.0
152.208176 248.0
152.431717 136.0
152.613617 160.0
152.898972 132.0
152.918655 192.0
152.943268 112.0
153.06929 4240.0
153.103302 64.0
153.157501 188.0
153.2659 44.0
153.307785 136.0
153.406372 48.0
153.434601 196.0
153.453217 64.0
153.480347 232.0
153.56665 36.0
153.625854 104.0
153.657928 136.0
153.862778 84.0
153.880051 168.0
154.064987 7656.0
154.12793 124.0
154.220963 44.0
154.260513 64.0
154.393433 164.0
154.579575 128.0
154.640244 116.0
154.66124 40.0
154.745422 64.0
154.80484 124.0
154.886581 456.0
154.921249 144.0
155.072525 18740.0
155.160461 92.0
155.18396 44.0
155.207474 124.0
155.24968 56.0
155.352615 144.0
155.461777 52.0
155.645477 224.0
155.814377 48.0
156.075974 3256.0
156.132553 64.0
156.149963 164.0
156.17981 68.0
156.239502 48.0
156.319122 108.0
156.346725 92.0
156.488388 80.0
156.896988 36.0
157.016678 140.0
157.088211 352.0
157.156372 76.0
157.233734 140.0
157.309494 68.0
157.346069 156.0
157.425964 40.0
157.578613 180.0
157.720779 176.0
157.793274 100.0
157.880798 232.0
158.015869 44.0
158.096588 1372.0
158.230423 144.0
158.328766 64.0
158.42897 60.0
159.058395 104.0
159.080994 208.0
159.098557 120.0
159.244675 212.0
159.284393 104.0
159.57843 84.0
159.774002 200.0
160.099304 72.0
160.260529 144.0
160.875916 52.0
160.901154 48.0
161.315475 224.0
161.439362 248.0
161.520294 76.0
161.818924 196.0
161.955673 76.0
161.981003 200.0
162.064606 136.0
162.135559 224.0
162.186249 176.0
163.079712 148.0
163.397583 44.0
163.529907 140.0
164.13623 200.0
164.718124 176.0
164.781998 120.0
164.866318 192.0
164.950668 152.0
165.069 156.0
166.061951 176.0
166.16713 120.0
166.303131 124.0
166.449463 196.0
166.516235 48.0
167.017441 144.0
167.071457 2600.0
167.375168 88.0
167.496216 68.0
167.653381 92.0
167.761642 124.0
167.93956 164.0
168.079025 2116.0
168.145981 240.0
168.228577 32.0
168.264725 84.0
168.337021 200.0
168.641876 112.0
169.014267 108.0
169.082657 1044.0
169.174744 56.0
169.219955 180.0
169.265366 152.0
169.420761 100.0
169.444077 92.0
169.480362 76.0
169.55809 108.0
169.664368 136.0
169.861465 132.0
169.882217 224.0
169.926315 60.0
169.966797 152.0
169.983871 176.0
170.056076 276.0
170.096664 41636.0
170.136047 220.0
170.174622 60.0
170.195786 44.0
170.202805 92.0
170.230011 28.0
170.248199 124.0
170.297699 124.0
170.336151 60.0
170.359879 80.0
170.435226 36.0
170.474197 84.0
170.518021 28.0
170.559967 44.0
170.60936 116.0
170.653168 156.0
170.757584 60.0
170.827805 48.0
170.890244 104.0
170.988098 80.0
171.017761 56.0
171.100159 5608.0
171.156616 112.0
171.236481 64.0
171.379745 108.0
171.510056 228.0
171.648239 100.0
171.77446 60.0
171.97435 28.0
171.997833 72.0
172.042206 68.0
172.073547 68.0
172.104706 392.0
172.164612 164.0
172.232834 96.0
172.285919 76.0
172.368698 68.0
172.392212 72.0
172.501984 128.0
172.889099 80.0
173.035675 44.0
173.074951 56.0
173.271393 72.0
173.96637 92.0
174.118668 64.0
175.888031 72.0
176.046448 184.0
178.242508 120.0
179.056549 100.0
179.333649 88.0
180.081192 544.0
180.214294 124.0
180.26506 108.0
180.406723 140.0
181.075394 208.0
181.1194 136.0
181.606369 48.0
181.772705 184.0
182.035767 164.0
182.094894 2168.0
182.387726 72.0
182.67276 52.0
182.783081 88.0
183.060333 128.0
183.097717 472.0
183.294693 128.0
183.372849 132.0
184.036484 124.0
184.06662 448.0
184.1082 316.0
184.160706 36.0
184.239044 192.0
184.45253 56.0
184.520111 100.0
184.56337 68.0
184.609344 64.0
185.069382 1228.0
185.111084 384.0
185.199356 20.0
186.085022 268.0
186.12413 48.0
187.092056 164.0
188.206131 52.0
192.079666 140.0
193.871307 80.0
194.037628 100.0
194.165176 164.0
195.056015 544.0
196.044525 212.0
196.172745 128.0
196.644135 124.0
197.069565 184.0
197.105331 444.0
197.879715 80.0
198.072952 120.0
198.100967 288.0
199.128464 272.0
199.883835 64.0
200.12027 140.0
201.281982 56.0
202.328125 52.0
203.797302 52.0
205.069366 104.0
206.025299 136.0
206.082443 164.0
207.092285 144.0
207.341537 220.0
208.050034 124.0
209.07135 296.0
209.868378 120.0
210.041412 124.0
210.087067 456.0
211.093185 572.0
214.163269 140.0
217.10643 128.0
218.763611 108.0
219.485443 36.0
225.102234 640.0
226.116257 124.0
227.072006 188.0
227.118652 448.0
228.113922 340.0
229.601349 108.0
230.017731 76.0
235.088104 252.0
244.000961 112.0
247.000992 168.0
253.027542 144.0
253.106705 148.0
254.898926 68.0
262.089172 164.0
263.098846 268.0
263.796478 84.0
264.093964 112.0
267.963562 72.0
269.147552 100.0
276.104553 180.0
278.520752 56.0
284.135803 68.0
288.101715 180.0
290.098358 144.0
293.157379 48.0
298.07486 88.0
298.948303 64.0
303.12677 104.0
303.157959 52.0
304.09436 112.0
319.760468 88.0
320.134277 156.0
321.100067 220.0
321.139313 308.0
322.095917 144.0
334.105347 328.0
334.158875 164.0
335.094574 260.0
335.123718 140.0
339.81839 48.0
347.12558 72.0
353.622864 20.0
363.136536 168.0
364.134735 160.0
366.337097 128.0
370.497375 96.0
370.54718 96.0
378.501038 56.0
384.846863 52.0
385.233521 120.0
388.95752 56.0
401.161407 44.0
409.338959 96.0
411.060242 40.0
412.671906 40.0
412.785126 44.0
422.191345 124.0
426.656647 84.0
439.596527 68.0
442.824036 88.0
532.106995 108.0
575.031128 76.0
575.881042 48.0
579.612549 124.0
645.888123 88.0
662.21698 176.0
665.966309 120.0
694.735718 116.0
717.295532 116.0
747.64209 152.0
748.856201 116.0
794.974792 68.0
806.582642 168.0
810.640625 84.0
812.273499 216.0
832.713623 176.0
843.956665 76.0
845.4375 148.0
845.622742 56.0
866.399475 64.0
899.206787 84.0
923.238403 52.0
954.276855 192.0
965.864502 176.0
989.224609 156.0
989.856995 48.0
990.97821 156.0
1021.865723 132.0
1025.412598 96.0
1026.349731 168.0
1054.416138 176.0
1057.313477 200.0
1063.730225 212.0
1077.686646 220.0
1077.974121 164.0
1087.450562 200.0
1090.491577 168.0
1093.977783 188.0
1113.895508 196.0
1115.816162 108.0
1125.997925 188.0
1128.94519 56.0
1134.262329 112.0
1134.314819 96.0
1146.311646 128.0
1152.343872 160.0
1162.683838 168.0
1170.161133 164.0
1170.385742 156.0
1184.535278 112.0
1189.343262 196.0
1190.331909 124.0
1216.200806 176.0
1222.260864 220.0
1222.908081 224.0
1223.994019 148.0
1225.665771 144.0
1237.091797 152.0
1240.22998 156.0
1240.433228 164.0
1241.337646 132.0
1244.361816 180.0
1245.59082 180.0
1248.310669 180.0
1249.077271 200.0
1249.583862 108.0
1252.603882 140.0
1253.392944 192.0
1253.794067 220.0
1261.516479 228.0
1268.588379 64.0
1271.397095 128.0
1275.004761 116.0
1277.706787 68.0
1281.088379 200.0
1281.530029 128.0
1281.943359 136.0
1284.345947 120.0
1284.602783 144.0
1294.251099 140.0
1302.886353 64.0
1308.762329 172.0
1309.849854 188.0
1312.84082 164.0
1317.691406 124.0
1319.903198 200.0
1320.474487 140.0
1326.215942 160.0
1327.477417 172.0
1328.979004 168.0
1331.621338 164.0
1332.289551 204.0
1333.037964 164.0
1335.553467 96.0
1339.935669 80.0
1341.181885 164.0
1344.179199 212.0
1344.748535 176.0
1347.925293 196.0
1347.97644 144.0
1351.888672 180.0
1352.656006 128.0
1353.103638 188.0
1354.971191 120.0
1358.460815 140.0
1358.805542 164.0
1358.901001 176.0
1361.080933 60.0
1364.953247 128.0
1365.438599 212.0
1372.692505 188.0
1373.68811 248.0
1375.215576 192.0
1376.389282 124.0
1379.085815 84.0
1379.440552 180.0
1382.983643 64.0
1383.916382 196.0
1385.805176 128.0
1386.746216 100.0
1390.491699 192.0
1390.625244 188.0
1394.435425 124.0
1397.900879 164.0
1399.263062 152.0
1400.268311 136.0
1400.365112 124.0
1401.132324 152.0
1401.869995 236.0
1407.561646 112.0
1409.197388 208.0
1413.279785 128.0
1413.638916 60.0
1415.809937 168.0
1416.064575 120.0
1417.390503 52.0
1417.682739 28.0
1419.894287 160.0
1420.201782 108.0
1422.292114 172.0
1430.450928 176.0
1434.518799 188.0
1435.611938 168.0
1436.848999 184.0
1443.253784 144.0
1448.195435 128.0
1449.293823 212.0
1453.699463 148.0
1455.285889 144.0
1457.245361 124.0
1458.309326 196.0
1463.032959 164.0
1463.611694 188.0
1466.498901 168.0
1468.870239 200.0
1469.122192 180.0
1469.182983 156.0
1469.594971 124.0
1469.656006 196.0
1471.342773 144.0
1474.979004 148.0
1478.779419 156.0
1479.453979 104.0
1480.280884 148.0
1480.4646 76.0
1480.610107 132.0
1481.115601 172.0
1484.242432 144.0
1486.021973 128.0
1489.422729 220.0
1490.552124 148.0
1490.920898 148.0
1491.228394 128.0
1491.889404 140.0
1494.296509 212.0
1494.735107 156.0
1500.272827 164.0
1501.545044 140.0
1504.236084 212.0
