>compound MLS001212883-01!2-Benzyl-1H-benzoimidazole
>formula C14H12N2
>ionization [M+H]+
>parentmass 209.107391
#inchi InChI=1S/C14H12N2/c1-2-6-11(7-3-1)10-14-15-12-8-4-5-9-13(12)16-14/h1-9H,10H2,(H,15,16)
#inchikey YTLQFZVCLXFFRK
#Ion_Source LC-ESI
#Instrument qTof
#Compound_Source NIH Pharmacologically Active Library
#PI Dorrestein
#Data_Collector VP/LMS
#Scan -1
#Precursor_MZ 209.11
#ExactMass 208.1
#Charge 1
#CAS_Number N/A
#Pubmed_ID N/A
#Smiles C(c1nc2ccccc2[nH]1)c3ccccc3
#INCHI_AUX N/A
#Library_Class 1
#SpectrumID CCMSLIB00000085688
#IonMode Positive
#UpdateWorkflowName UPDATE-SINGLE-ANNOTATED-GOLD
#LibraryQualityString Gold
#TaskID d252d724072548979f1f6f1ced849daf
##Scan# 1344
#SpectrumFile p4-E04_GE4_01_18376.mzXML
#LibraryName Pharm_Active_Library.mgf
#MQScore -1
#Organism Pharm_Active_Library
#TIC_Query 0
#RT_Query -1
#MZErrorPPM -1
#SharedPeaks 0
#MassDiff 0
#LibMZ -1
#SpecMZ 209.11
#SpecCharge 0
#internalFilename spec-00000.mgf

>collision 10
44.893509 148.0
45.107136 112.0
45.291798 128.0
45.369522 72.0
45.38427 180.0
45.448654 60.0
45.541286 172.0
45.565468 336.0
45.651493 224.0
45.716064 72.0
45.844326 164.0
45.922127 200.0
45.947826 132.0
45.989662 180.0
46.003159 224.0
46.082844 108.0
46.112572 160.0
46.127441 180.0
46.136906 100.0
46.174767 200.0
46.195057 132.0
46.438877 208.0
46.547447 108.0
46.779945 152.0
46.858932 172.0
46.931171 164.0
47.010288 224.0
47.03688 124.0
47.096302 164.0
47.141388 196.0
47.350704 232.0
47.391804 164.0
47.468563 36.0
47.479534 144.0
47.553623 92.0
47.609913 172.0
47.711594 184.0
47.741844 440.0
47.762478 100.0
47.960758 168.0
48.02005 120.0
48.118023 152.0
48.178791 152.0
48.232685 172.0
48.413937 148.0
48.444408 120.0
48.497066 140.0
48.55946 152.0
48.581654 192.0
48.61079 144.0
48.648266 200.0
48.755219 140.0
48.855335 164.0
48.89986 176.0
48.980621 128.0
49.080967 140.0
49.143734 156.0
49.157688 80.0
49.170246 208.0
49.220505 148.0
49.377087 180.0
49.44138 228.0
49.523983 172.0
49.553402 176.0
49.679581 136.0
50.054855 124.0
50.092884 132.0
50.249371 120.0
50.376431 136.0
50.411755 156.0
50.482437 148.0
50.568737 164.0
50.578648 208.0
50.612625 116.0
50.865162 256.0
50.918941 160.0
50.957294 164.0
51.004192 36.0
51.157825 180.0
51.219055 220.0
51.296005 216.0
51.363026 172.0
51.375866 128.0
51.433151 140.0
51.477203 36.0
51.527199 144.0
51.621483 208.0
51.655865 180.0
51.705944 176.0
51.844864 160.0
51.857761 204.0
51.926582 196.0
52.035645 104.0
52.098835 192.0
52.115547 228.0
52.208076 156.0
52.235405 148.0
52.280006 220.0
52.442051 160.0
52.556683 164.0
52.574001 244.0
52.640408 184.0
52.660625 216.0
52.698185 208.0
52.751659 200.0
52.864475 76.0
52.929615 220.0
52.952789 256.0
53.017982 176.0
53.02813 140.0
53.18623 220.0
53.211399 220.0
53.232689 200.0
53.299511 184.0
53.35474 180.0
53.466743 180.0
53.533714 144.0
53.557014 104.0
53.575954 124.0
53.699856 80.0
53.762592 152.0
53.823902 120.0
53.861877 204.0
53.88525 140.0
54.1427 144.0
54.195438 156.0
54.23061 144.0
54.324455 192.0
54.339127 172.0
54.424923 192.0
54.449425 156.0
54.484474 180.0
54.532967 128.0
54.657974 168.0
54.870956 140.0
54.890713 164.0
55.001217 200.0
55.016129 68.0
55.175686 204.0
55.208214 136.0
55.218567 148.0
55.320667 88.0
55.416931 160.0
55.465839 168.0
55.511799 220.0
55.553329 252.0
55.661888 196.0
55.73595 168.0
55.866787 32.0
55.936729 176.0
55.967995 136.0
56.018631 144.0
56.16024 180.0
56.29755 212.0
56.363277 212.0
56.40662 124.0
56.445492 200.0
56.469421 176.0
56.532257 156.0
56.62957 164.0
56.655037 116.0
56.696991 116.0
56.749458 140.0
56.81245 192.0
56.846958 132.0
56.926521 156.0
57.001633 192.0
57.065331 148.0
57.162533 252.0
57.26704 240.0
57.350792 180.0
57.440708 216.0
57.571068 220.0
57.608829 144.0
57.825058 152.0
57.918934 164.0
57.937115 216.0
58.049278 124.0
58.149406 204.0
58.196465 56.0
58.211651 176.0
58.245064 76.0
58.298241 164.0
58.322559 160.0
58.451832 176.0
58.495968 196.0
58.518806 148.0
58.532509 168.0
58.545574 152.0
58.572105 116.0
58.628277 180.0
58.681633 184.0
58.871048 144.0
58.898537 96.0
58.941315 148.0
58.965927 152.0
59.04221 176.0
59.10799 236.0
59.123295 252.0
59.155437 104.0
59.244259 172.0
59.279499 232.0
59.445118 164.0
59.597137 180.0
59.715511 224.0
59.786282 124.0
59.798595 220.0
59.907921 56.0
59.953011 228.0
60.088299 256.0
60.102631 208.0
60.25481 212.0
60.321495 116.0
60.38644 164.0
60.440586 220.0
60.471535 96.0
60.51643 116.0
60.575279 128.0
60.616165 196.0
60.75666 116.0
60.888599 124.0
60.940289 220.0
60.989594 64.0
61.124901 108.0
61.142017 184.0
61.180931 180.0
61.201172 172.0
61.289955 124.0
61.336712 184.0
61.525471 128.0
61.542645 224.0
61.692631 180.0
61.966515 220.0
61.997856 176.0
62.080944 160.0
62.099762 112.0
62.195477 168.0
62.262989 220.0
62.284977 172.0
62.336826 180.0
62.396557 148.0
62.462605 184.0
62.506657 172.0
62.615284 176.0
62.654224 144.0
62.733459 188.0
62.764996 176.0
62.802845 164.0
62.820194 108.0
62.837551 232.0
62.861217 172.0
62.900677 236.0
62.930672 140.0
62.959095 196.0
62.978046 144.0
62.993843 128.0
63.038082 36.0
63.134518 104.0
63.14875 248.0
63.24527 180.0
63.270596 168.0
63.487679 172.0
63.535263 160.0
63.622551 196.0
63.657482 180.0
63.736908 168.0
63.916592 116.0
63.945236 132.0
63.95797 172.0
63.991402 184.0
64.043953 140.0
64.141151 152.0
64.153908 160.0
64.220879 64.0
64.453964 192.0
64.506706 156.0
64.538681 148.0
64.596252 180.0
64.738708 276.0
64.783554 52.0
64.860474 172.0
64.948662 132.0
64.964706 180.0
65.025681 96.0
65.097923 172.0
65.117195 148.0
65.139687 208.0
65.178246 244.0
65.244141 184.0
65.257004 184.0
65.306854 160.0
65.329376 100.0
65.384087 116.0
65.421104 172.0
65.469414 180.0
65.508064 84.0
65.549957 216.0
65.625717 168.0
65.637009 212.0
65.666031 76.0
65.746704 68.0
65.86618 148.0
65.95829 180.0
65.997086 212.0
66.0634 172.0
66.077957 164.0
66.131363 168.0
66.166977 116.0
66.199356 172.0
66.24633 96.0
66.295731 200.0
66.314384 128.0
66.353294 176.0
66.42627 136.0
66.452225 48.0
66.466827 152.0
66.48793 232.0
66.523636 160.0
66.573967 184.0
66.692574 212.0
66.703949 132.0
66.806404 196.0
66.861725 156.0
66.995247 188.0
67.024574 176.0
67.045753 168.0
67.101181 200.0
67.198105 172.0
67.23494 180.0
67.267586 172.0
67.28717 216.0
67.311668 168.0
67.467079 100.0
67.509399 72.0
67.892609 180.0
67.912292 220.0
68.117477 96.0
68.165123 196.0
68.183197 156.0
68.214859 184.0
68.239609 120.0
68.324615 172.0
68.434883 168.0
68.451355 180.0
68.476051 140.0
68.584801 188.0
68.612823 108.0
68.842178 152.0
68.883469 172.0
68.903297 124.0
69.017342 164.0
69.037186 128.0
69.215904 60.0
69.26062 196.0
69.280502 144.0
69.369987 200.0
69.466171 164.0
69.510971 128.0
69.675346 168.0
69.693626 156.0
69.783379 228.0
69.896484 212.0
69.919785 188.0
70.045799 252.0
70.204666 216.0
70.324791 148.0
70.349831 136.0
70.441673 48.0
70.458382 160.0
70.73909 164.0
71.000725 188.0
71.165176 164.0
71.193718 340.0
71.220596 60.0
71.255692 152.0
71.466042 180.0
71.499695 168.0
71.550194 116.0
71.602394 52.0
71.674835 228.0
71.814758 204.0
71.85862 160.0
71.890678 188.0
71.919373 156.0
72.265816 100.0
72.294579 164.0
72.365677 148.0
72.406319 224.0
72.582558 176.0
72.62326 184.0
72.771599 224.0
72.791275 148.0
72.87281 204.0
72.925491 232.0
72.979889 272.0
73.01841 172.0
73.042816 224.0
73.110878 128.0
73.153427 52.0
73.226646 176.0
73.245384 136.0
73.325462 160.0
73.489174 92.0
73.72995 188.0
73.741913 160.0
73.859894 140.0
73.882133 240.0
73.918167 132.0
73.957428 176.0
74.07386 176.0
74.159538 148.0
74.19725 180.0
74.32589 100.0
74.434036 248.0
74.485558 180.0
74.62648 120.0
74.660873 176.0
74.877724 136.0
74.905281 124.0
74.953522 200.0
74.993164 224.0
75.012123 216.0
75.043152 168.0
75.056946 176.0
75.069016 156.0
75.16217 128.0
75.189781 156.0
75.224304 116.0
75.305458 212.0
75.330482 148.0
75.6996 200.0
75.715363 148.0
75.794724 108.0
75.919106 196.0
75.949348 96.0
75.997925 160.0
76.062134 164.0
76.220177 184.0
76.260147 172.0
76.427101 176.0
76.540245 196.0
76.684837 140.0
76.702271 124.0
76.72319 152.0
76.778984 416.0
76.977936 204.0
77.018105 104.0
77.056534 152.0
77.086243 168.0
77.30658 216.0
77.380096 164.0
77.43438 136.0
77.469414 212.0
77.504456 172.0
77.562294 152.0
77.67276 128.0
77.69381 148.0
77.735924 172.0
77.758736 156.0
77.772781 176.0
77.832474 228.0
77.846519 168.0
77.902725 232.0
77.960709 164.0
78.022224 140.0
78.108398 76.0
78.147621 192.0
78.177017 200.0
78.219254 164.0
78.236862 176.0
78.310089 204.0
78.448257 128.0
78.577003 176.0
78.619354 128.0
78.638763 132.0
78.951485 240.0
78.97271 204.0
78.990395 148.0
79.032852 196.0
79.100105 152.0
79.139053 208.0
79.169159 88.0
79.392456 116.0
79.408417 200.0
79.537003 260.0
79.63916 88.0
79.717331 80.0
79.76532 156.0
79.835709 208.0
79.85778 100.0
79.889801 128.0
80.139053 200.0
80.180038 96.0
80.381554 180.0
80.411896 184.0
80.502945 216.0
80.594048 180.0
80.644081 180.0
80.724533 180.0
80.772827 180.0
80.846184 176.0
80.88308 200.0
80.910622 168.0
80.923157 84.0
80.935684 144.0
80.992996 120.0
81.105881 144.0
81.256523 200.0
81.28344 112.0
81.317535 172.0
81.366005 196.0
81.392754 220.0
81.436996 160.0
81.471962 152.0
81.592369 204.0
81.669701 44.0
81.739861 144.0
81.802856 280.0
81.909103 88.0
81.921707 104.0
81.945129 164.0
81.96315 192.0
81.990334 168.0
82.107368 96.0
82.127205 140.0
82.152458 240.0
82.208397 84.0
82.472084 188.0
82.538971 196.0
82.593231 88.0
82.652931 152.0
82.674644 52.0
82.705414 60.0
82.799568 184.0
82.814056 216.0
82.91008 204.0
82.988029 180.0
83.129517 140.0
83.14222 228.0
83.180336 152.0
83.262039 192.0
83.354691 244.0
83.614746 120.0
83.631126 188.0
83.877029 152.0
83.922607 204.0
84.05394 184.0
84.16346 148.0
84.181717 128.0
84.238342 156.0
84.252953 144.0
84.282188 120.0
84.397346 140.0
84.415627 144.0
84.455864 104.0
84.479767 244.0
84.516235 164.0
84.57663 184.0
84.593109 120.0
84.805588 144.0
84.976135 160.0
84.990814 80.0
85.023842 44.0
85.055046 180.0
85.159706 168.0
85.192772 168.0
85.207474 160.0
85.240547 244.0
85.266273 156.0
85.38578 116.0
85.398651 188.0
85.473289 168.0
85.520088 148.0
85.534813 152.0
85.58268 156.0
85.68364 216.0
85.715302 204.0
85.789215 156.0
85.846184 192.0
85.864632 132.0
85.953178 148.0
86.148888 100.0
86.18399 124.0
86.335571 132.0
86.540977 60.0
86.618759 148.0
86.633575 208.0
86.687309 144.0
86.985115 148.0
87.084335 176.0
87.141922 84.0
87.167938 160.0
87.186516 160.0
87.199532 168.0
87.260872 136.0
87.398514 168.0
87.471092 68.0
87.627533 96.0
87.784103 124.0
87.853348 160.0
87.892296 232.0
87.922157 176.0
88.05658 176.0
88.353798 204.0
88.438004 188.0
88.473572 100.0
88.645889 164.0
88.944099 64.0
89.05336 168.0
89.133781 144.0
89.233406 104.0
89.391403 128.0
89.445984 140.0
89.477989 124.0
89.547668 124.0
89.60041 164.0
89.64563 168.0
89.949287 228.0
90.032364 368.0
90.053139 172.0
90.085251 44.0
90.102257 124.0
90.140045 80.0
90.237518 172.0
90.31398 252.0
90.446434 172.0
90.522163 172.0
90.560043 52.0
90.652534 200.0
90.753342 120.0
90.882317 200.0
90.959557 212.0
91.020935 164.0
91.054314 12700.0
91.104065 196.0
91.155754 80.0
91.207069 180.0
91.231781 108.0
91.311646 168.0
91.355392 120.0
91.417938 248.0
91.443512 168.0
91.507652 176.0
91.64669 168.0
91.662994 144.0
91.738174 204.0
91.799187 80.0
91.841141 164.0
91.88311 224.0
91.907913 168.0
92.003349 116.0
92.056915 1512.0
92.091187 112.0
92.119835 68.0
92.356873 108.0
92.387474 80.0
92.400871 168.0
92.532928 84.0
92.57505 68.0
92.67466 180.0
92.71682 104.0
92.801163 132.0
92.835831 152.0
92.905815 160.0
92.979568 168.0
93.052567 128.0
93.05883 164.0
93.171097 204.0
93.454216 272.0
93.592796 180.0
93.762321 184.0
93.781593 204.0
93.833641 128.0
94.072868 128.0
94.152031 212.0
94.492241 156.0
94.530945 184.0
94.656769 136.0
95.129852 244.0
95.172562 72.0
95.23082 188.0
95.299553 200.0
95.361 96.0
95.382385 132.0
95.582703 164.0
95.752075 156.0
95.822197 140.0
96.030785 120.0
96.097107 156.0
96.315758 160.0
96.358734 216.0
96.654495 228.0
96.83017 144.0
96.996719 200.0
97.214928 188.0
97.554222 64.0
97.618332 132.0
97.67614 104.0
97.779388 144.0
97.853256 128.0
97.880821 104.0
98.022652 124.0
98.174446 132.0
98.194168 140.0
98.304649 116.0
98.318459 116.0
98.353989 96.0
98.465981 128.0
98.500107 92.0
98.551476 176.0
98.670067 84.0
98.72345 224.0
98.745209 152.0
98.863914 180.0
98.977768 232.0
99.480942 192.0
99.611404 148.0
99.643188 196.0
99.694855 224.0
99.814125 140.0
99.879761 184.0
99.903625 76.0
100.001129 148.0
100.068817 128.0
100.379654 136.0
100.427521 164.0
100.525284 140.0
100.604507 156.0
100.625084 232.0
100.680992 308.0
100.750908 148.0
100.832832 212.0
100.868813 232.0
101.148857 140.0
101.260986 196.0
101.297043 148.0
101.549606 140.0
101.581696 200.0
101.676003 192.0
101.814529 388.0
101.832558 176.0
101.925018 156.0
101.983299 184.0
102.033554 296.0
102.073769 168.0
102.101921 152.0
102.124046 108.0
102.194458 164.0
102.216591 152.0
102.254829 192.0
102.274956 268.0
102.339378 112.0
102.468277 156.0
102.482384 188.0
102.629524 196.0
102.688004 200.0
102.778786 188.0
102.839905 180.0
103.038483 216.0
103.419426 84.0
103.504456 164.0
103.518631 160.0
103.664482 196.0
103.698715 180.0
103.719208 80.0
103.743973 220.0
103.796249 256.0
103.834778 140.0
103.883461 184.0
103.936211 108.0
103.952446 160.0
103.986946 80.0
104.00927 116.0
104.049484 27256.0
104.092468 176.0
104.114716 116.0
104.165634 76.0
104.218452 104.0
104.293648 76.0
104.360733 104.0
104.382843 32.0
104.409538 52.0
104.521194 256.0
104.610977 104.0
104.712784 60.0
104.790199 144.0
104.865593 172.0
104.883942 216.0
104.925903 164.0
104.965492 164.0
105.018517 120.0
105.0532 3056.0
105.093994 56.0
105.124603 108.0
105.163383 72.0
105.18705 256.0
105.240959 128.0
105.255249 156.0
105.281799 76.0
105.466728 156.0
105.492249 148.0
105.60083 200.0
105.657906 112.0
105.681824 144.0
105.761078 160.0
105.790924 108.0
105.862587 116.0
105.88102 44.0
105.917885 176.0
105.997787 204.0
106.059456 136.0
106.191772 200.0
106.258194 164.0
106.644257 356.0
106.720322 172.0
106.844154 172.0
106.993965 196.0
107.307121 244.0
107.852127 196.0
107.86866 48.0
107.920349 176.0
108.014519 204.0
108.189308 164.0
108.309418 152.0
108.495918 180.0
108.51873 124.0
108.54361 172.0
108.742828 144.0
108.886024 248.0
109.095894 160.0
109.459999 92.0
109.749641 212.0
109.826805 76.0
109.951988 176.0
110.073074 224.0
110.267357 224.0
110.28199 80.0
110.319611 176.0
110.367699 216.0
110.453445 112.0
110.526672 176.0
110.570618 168.0
110.761154 72.0
110.895256 132.0
110.960243 144.0
111.031532 124.0
111.056702 132.0
111.117538 132.0
111.178391 52.0
111.23468 176.0
111.285446 124.0
111.381721 176.0
111.451385 204.0
112.048927 212.0
112.202774 200.0
112.259705 96.0
112.757942 148.0
112.798103 168.0
112.886902 172.0
113.092117 224.0
113.524323 140.0
113.75135 140.0
113.836273 68.0
113.936104 36.0
114.023224 128.0
114.506187 124.0
114.536003 132.0
114.597786 176.0
114.682037 116.0
114.764038 100.0
114.810951 172.0
114.834412 176.0
114.900536 168.0
114.928276 124.0
115.052063 144.0
115.158836 164.0
115.216515 176.0
115.398178 172.0
115.492271 112.0
115.520081 136.0
115.652748 220.0
115.714043 196.0
115.73275 196.0
115.849335 164.0
115.916176 60.0
115.946182 152.0
115.991188 200.0
116.044006 132.0
116.192772 132.0
116.338707 192.0
116.603981 196.0
116.630859 120.0
116.869568 240.0
116.919067 144.0
117.057037 356.0
117.192543 204.0
117.252884 140.0
117.349892 104.0
117.43615 124.0
117.647621 184.0
117.705917 164.0
117.725349 204.0
117.813911 200.0
117.83551 192.0
118.049507 156.0
118.246376 128.0
118.268021 176.0
118.293999 144.0
118.525734 124.0
118.623268 92.0
118.742523 224.0
118.831467 188.0
118.881371 180.0
119.061218 328.0
119.09848 120.0
119.113686 276.0
119.154961 136.0
119.237541 172.0
119.307098 144.0
119.374496 212.0
119.85775 124.0
119.877365 136.0
120.490501 196.0
120.818436 156.0
120.932228 184.0
121.210358 160.0
121.306793 128.0
121.333046 160.0
121.543663 176.0
121.638031 128.0
121.785568 148.0
121.927963 184.0
121.949944 140.0
122.040077 116.0
122.061707 316.0
122.255653 240.0
122.387726 136.0
122.471413 208.0
122.685165 116.0
122.866005 136.0
122.936615 156.0
122.967514 452.0
123.011658 156.0
123.093346 216.0
123.161812 196.0
123.657089 180.0
123.761139 168.0
123.781067 140.0
124.002602 196.0
124.128967 32.0
124.215469 236.0
124.259834 156.0
124.659515 104.0
124.845169 164.0
124.966377 176.0
125.255791 220.0
125.324852 128.0
125.42514 160.0
125.467491 208.0
125.85125 236.0
125.940575 164.0
126.041115 168.0
126.329529 148.0
126.459312 176.0
126.524231 216.0
126.786301 60.0
126.929771 140.0
127.001541 140.0
127.055382 48.0
127.309021 188.0
127.362923 68.0
127.403358 88.0
127.439308 72.0
127.457283 128.0
127.742813 232.0
127.799057 152.0
128.075958 136.0
128.159317 80.0
128.265244 192.0
128.535889 140.0
128.581024 148.0
128.648727 64.0
128.797775 192.0
129.046356 152.0
129.154907 160.0
129.231827 160.0
129.258987 88.0
129.505753 156.0
129.678299 180.0
129.773163 148.0
129.96701 196.0
130.040146 288.0
130.331528 232.0
130.492905 380.0
130.535782 196.0
130.569321 80.0
130.602066 84.0
130.628357 136.0
130.686508 172.0
130.727081 156.0
130.767059 136.0
130.786087 128.0
130.789474 188.0
130.810501 208.0
130.834976 236.0
130.860046 144.0
130.893799 140.0
130.914368 148.0
130.945755 292.0
130.971283 168.0
130.991241 212.0
131.007065 140.0
131.024857 264.0
131.060898 90832.0
131.145432 208.0
131.199829 64.0
131.209854 40.0
131.213547 240.0
131.230103 72.0
131.266037 108.0
131.309906 220.0
131.334259 116.0
131.389053 96.0
131.408966 20.0
131.435181 1184.0
131.455627 80.0
131.48381 152.0
131.510178 80.0
131.550797 104.0
131.580658 180.0
131.620789 80.0
131.652756 76.0
131.684723 144.0
131.701691 136.0
131.722321 44.0
131.740631 68.0
131.780106 48.0
131.833237 40.0
131.858368 164.0
131.942322 192.0
131.994827 192.0
132.02475 176.0
132.065033 14544.0
132.113556 60.0
132.160233 68.0
132.211823 228.0
132.234711 92.0
132.267792 40.0
132.299271 64.0
132.336472 72.0
132.358047 88.0
132.379974 80.0
132.396835 112.0
132.423492 32.0
132.441818 72.0
132.45874 72.0
132.556366 44.0
132.606781 72.0
132.636581 56.0
132.673264 144.0
132.691605 96.0
132.727188 64.0
132.755692 116.0
132.785629 80.0
132.824112 168.0
132.846786 120.0
132.895737 40.0
132.932449 60.0
132.970444 100.0
133.007126 224.0
133.021347 120.0
133.071014 728.0
133.09906 116.0
133.133911 212.0
133.175812 120.0
133.191879 96.0
133.252014 68.0
133.721878 104.0
133.807251 92.0
133.980164 96.0
134.089233 40.0
134.151474 32.0
134.227554 128.0
134.310577 88.0
134.509033 72.0
134.582275 44.0
134.617538 36.0
134.777344 204.0
135.00116 144.0
135.146881 156.0
135.306595 136.0
135.403839 32.0
135.56601 184.0
135.883682 112.0
136.082855 172.0
136.459686 112.0
137.102142 164.0
137.263 124.0
137.409943 80.0
137.610672 120.0
137.655029 164.0
138.13884 160.0
138.237106 44.0
138.397949 208.0
138.778214 80.0
138.836838 100.0
138.921265 212.0
139.094925 72.0
139.249893 80.0
139.837677 36.0
140.363037 124.0
140.469162 76.0
140.998077 68.0
141.038254 152.0
141.054794 208.0
141.445099 228.0
141.482986 132.0
141.639267 72.0
141.719818 200.0
141.809875 116.0
141.909439 96.0
141.959229 36.0
142.016159 120.0
142.058853 112.0
142.084946 104.0
142.279556 156.0
142.457672 92.0
142.643021 172.0
142.871323 80.0
142.983154 140.0
142.999817 180.0
143.421402 80.0
143.609772 272.0
143.994049 244.0
144.615677 120.0
144.807236 108.0
145.949539 100.0
146.055359 136.0
146.245438 160.0
146.325729 204.0
147.255692 120.0
147.357147 180.0
148.02475 112.0
148.27887 156.0
148.313049 116.0
148.473068 36.0
148.776382 124.0
148.943939 184.0
149.092148 100.0
149.598068 164.0
149.62973 60.0
149.68573 168.0
150.644257 168.0
151.355972 124.0
151.500473 240.0
151.97612 128.0
152.064453 140.0
152.882858 148.0
153.069946 200.0
153.592438 108.0
153.733078 72.0
154.890182 124.0
155.254517 156.0
156.258057 152.0
156.472092 212.0
156.985382 156.0
157.239853 136.0
157.314743 160.0
157.432465 136.0
157.704422 136.0
157.974472 232.0
158.044525 72.0
158.841217 196.0
159.39357 188.0
159.58963 48.0
160.022385 204.0
160.846756 152.0
161.274887 192.0
161.367172 228.0
161.551804 160.0
161.754242 184.0
163.487793 188.0
163.531052 172.0
163.691437 212.0
164.280212 164.0
164.660538 112.0
165.069321 520.0
165.164062 156.0
165.243362 176.0
165.581268 188.0
166.067047 216.0
166.563629 240.0
166.609863 176.0
167.073059 192.0
167.252762 56.0
167.296524 148.0
167.721558 52.0
167.76796 136.0
168.330429 148.0
168.521576 156.0
168.57843 136.0
169.072571 184.0
169.266525 112.0
169.732956 144.0
170.148102 256.0
170.311691 212.0
170.659927 144.0
170.678131 204.0
170.922653 88.0
171.043991 132.0
171.51384 256.0
174.020065 132.0
174.272217 152.0
174.790207 64.0
175.419678 52.0
175.533051 132.0
175.696579 128.0
176.7164 164.0
177.057877 116.0
177.169128 68.0
177.903732 184.0
178.009933 216.0
178.068359 168.0
178.134766 60.0
179.044434 64.0
179.06308 148.0
179.545471 148.0
179.612152 224.0
180.078476 340.0
180.337997 200.0
181.080444 280.0
181.714874 152.0
182.086517 652.0
182.305618 184.0
182.499161 40.0
182.711639 188.0
182.964615 220.0
183.050781 128.0
183.083099 188.0
183.756989 132.0
184.845901 64.0
185.712845 104.0
185.878342 164.0
186.962952 152.0
187.488251 240.0
188.140152 72.0
188.402328 184.0
188.782257 76.0
189.32959 80.0
189.411758 220.0
189.521347 116.0
190.006653 80.0
191.07019 176.0
192.555649 164.0
193.074509 240.0
193.304855 68.0
193.473694 196.0
193.903046 156.0
194.01947 116.0
194.082977 312.0
194.296799 92.0
194.504929 64.0
195.088287 156.0
195.383087 44.0
195.892532 68.0
197.416489 100.0
198.085419 76.0
198.200287 192.0
198.497421 180.0
200.744278 144.0
201.283249 164.0
202.459656 216.0
202.8535 116.0
202.927216 128.0
203.486145 128.0
204.12262 112.0
204.293274 176.0
204.919617 160.0
205.076355 112.0
205.307281 152.0
205.489853 180.0
205.544052 172.0
205.829514 128.0
205.952316 96.0
206.083069 1792.0
206.23233 60.0
206.340958 80.0
207.091263 5156.0
207.159454 140.0
207.506226 224.0
207.781555 188.0
207.904953 132.0
207.968094 196.0
208.028366 180.0
208.059952 92.0
208.098602 3500.0
208.485062 84.0
208.535172 120.0
208.720779 112.0
208.84642 204.0
208.883774 220.0
208.90477 148.0
208.936493 100.0
208.976776 120.0
209.014191 136.0
209.042679 168.0
209.049286 200.0
209.107391 54844.0
209.190979 216.0
209.212784 52.0
209.243729 80.0
209.26033 124.0
209.307922 84.0
209.335098 124.0
209.385544 132.0
209.404465 120.0
209.410614 68.0
209.421036 100.0
209.443146 44.0
209.463318 152.0
209.497971 100.0
209.53006 72.0
209.581436 48.0
209.618378 112.0
209.656265 60.0
209.798233 36.0
209.915817 64.0
209.944656 156.0
209.987915 168.0
210.019638 88.0
210.109436 6912.0
210.169647 40.0
210.210464 56.0
210.305298 48.0
210.331268 60.0
210.351471 44.0
210.425446 64.0
210.478516 76.0
210.526443 60.0
210.573807 60.0
210.747131 100.0
210.846893 52.0
210.963181 64.0
211.059311 144.0
211.079544 132.0
211.108551 476.0
211.241516 76.0
211.325409 76.0
211.357239 64.0
211.380386 96.0
211.435455 136.0
211.461426 64.0
211.548264 80.0
211.585892 60.0
211.627533 116.0
211.791504 116.0
211.956635 76.0
212.165329 56.0
212.281296 44.0
212.658463 108.0
212.733932 36.0
212.82103 48.0
212.911041 88.0
213.123108 72.0
213.312012 48.0
213.579529 28.0
214.520096 76.0
216.879074 68.0
217.195755 116.0
220.593933 68.0
220.783173 96.0
224.635574 84.0
226.080093 156.0
227.139359 56.0
230.626251 92.0
233.312057 48.0
235.386993 132.0
240.079163 156.0
240.711792 92.0
241.271042 88.0
242.72316 32.0
244.749146 40.0
248.405823 68.0
249.11528 44.0
259.673218 28.0
273.111359 76.0
275.065369 100.0
281.473175 80.0
297.242157 68.0
307.119781 64.0
325.087372 84.0
333.328186 56.0
333.397217 64.0
335.625061 68.0
359.442596 100.0
361.801117 60.0
362.426056 48.0
370.921173 124.0
385.15387 48.0
389.706116 72.0
394.372101 52.0
401.295502 108.0
415.546204 84.0
419.059082 56.0
419.372894 92.0
422.185913 100.0
443.388367 120.0
457.539429 48.0
475.434509 100.0
477.176361 52.0
477.206818 88.0
503.699921 76.0
543.892273 68.0
577.056396 76.0
578.553894 60.0
586.441528 188.0
588.849121 76.0
610.714905 100.0
612.073242 48.0
616.938049 152.0
642.408264 168.0
647.918762 168.0
667.611816 104.0
698.798157 164.0
700.614502 204.0
707.342346 84.0
708.533875 212.0
735.303589 168.0
738.496765 224.0
745.615601 132.0
749.72998 116.0
772.694275 180.0
786.297485 192.0
787.592834 208.0
789.185547 256.0
796.701416 172.0
797.510559 196.0
800.041931 164.0
800.841553 32.0
803.570007 116.0
805.907532 248.0
807.360291 224.0
809.674988 148.0
810.082825 120.0
813.956604 168.0
814.484741 136.0
814.979004 176.0
817.902161 276.0
818.801819 228.0
820.619629 136.0
823.712769 100.0
825.415955 172.0
835.136902 112.0
835.769714 152.0
837.825134 272.0
837.871216 312.0
842.163086 168.0
843.451599 184.0
843.786926 208.0
846.153259 180.0
847.890991 176.0
849.64801 196.0
853.382507 192.0
856.804749 200.0
857.270935 148.0
858.786743 208.0
863.874573 156.0
867.470154 112.0
870.063171 132.0
870.826538 48.0
871.372864 184.0
871.731262 140.0
874.230591 192.0
879.540955 176.0
880.036865 140.0
881.094055 180.0
881.377686 116.0
882.536194 164.0
883.807922 252.0
888.280945 184.0
893.467163 180.0
893.919373 116.0
894.466919 192.0
894.645508 124.0
899.700989 76.0
902.204163 156.0
904.651001 160.0
907.988525 192.0
912.161499 140.0
915.591125 148.0
916.802063 128.0
919.365112 200.0
920.107605 164.0
920.361145 60.0
921.684021 176.0
922.512024 188.0
922.76593 180.0
923.431152 220.0
924.508057 204.0
925.288879 188.0
926.063965 68.0
927.65155 52.0
928.6521 152.0
929.604614 144.0
930.806519 52.0
932.422485 128.0
932.62915 172.0
941.542908 128.0
942.062073 160.0
943.492126 132.0
944.195312 184.0
946.686096 164.0
947.004578 184.0
951.376709 204.0
952.445251 168.0
954.651672 160.0
956.226624 188.0
956.577515 204.0
957.439514 132.0
957.65509 148.0
958.049316 172.0
958.129395 204.0
959.70105 124.0
960.323914 148.0
961.193787 180.0
963.966431 184.0
967.083435 92.0
969.492676 132.0
972.612427 196.0
975.159058 176.0
976.657532 168.0
978.773499 176.0
979.963196 152.0
982.738464 176.0
983.723877 164.0
984.416931 192.0
990.872131 168.0
991.761963 168.0
992.200806 220.0
993.875427 144.0
995.497131 164.0
996.380615 172.0
996.795288 132.0
998.322876 188.0
1000.178955 176.0
1004.148438 132.0
1004.230469 136.0
1006.161438 96.0
1006.559204 160.0
1009.579834 108.0
1010.003601 172.0
1010.807129 236.0
1013.688354 236.0
1014.189026 144.0
1015.698181 80.0
1016.034424 172.0
1016.243774 172.0
1016.57373 144.0
1017.037048 124.0
1018.129089 144.0
1019.012024 152.0
1019.463196 140.0
1019.666565 112.0
1020.963501 160.0
1021.580505 160.0
1024.02478 164.0
1024.980347 200.0
1026.97583 160.0
1027.779663 168.0
1027.91626 172.0
1028.22644 176.0
1028.62854 304.0
1028.851929 48.0
1031.739624 112.0
1031.848267 132.0
1033.357666 96.0
1033.613647 208.0
1036.328613 156.0
1037.5271 180.0
1038.302979 80.0
1038.655762 224.0
1040.921265 124.0
1041.7948 152.0
1043.266479 228.0
1045.865356 56.0
1046.187134 184.0
1046.798828 132.0
1047.610352 148.0
1048.467407 40.0
1048.551147 136.0
1051.085571 212.0
1051.311401 192.0
1055.141846 132.0
1059.471558 32.0
1061.052856 200.0
1063.024658 44.0
1064.816528 200.0
1066.317261 132.0
1067.428955 160.0
1068.469727 148.0
1072.761353 156.0
1073.022217 136.0
1073.387329 104.0
1076.127808 200.0
1076.4021 104.0
1077.630127 184.0
1078.688843 172.0
1079.04834 172.0
1080.022705 184.0
1082.640747 224.0
1082.686646 156.0
1083.590576 180.0
1084.671875 184.0
1085.347168 244.0
1086.809937 160.0
1087.013306 136.0
1088.772705 140.0
1089.310913 196.0
1089.429565 52.0
1092.420654 188.0
1093.670898 144.0
1095.560791 56.0
1095.626709 124.0
1095.962769 36.0
1096.503052 184.0
1097.689697 144.0
1099.926392 136.0
1100.22998 148.0
1100.401733 192.0
1102.237915 124.0
1104.161621 160.0
1105.054688 120.0
1108.603882 132.0
1109.346313 148.0
1109.949585 128.0
1110.513306 140.0
1113.652832 184.0
1114.602783 164.0
1115.101196 160.0
1116.05188 172.0
1116.131714 164.0
1117.135986 140.0
1119.06604 112.0
1119.638672 52.0
1120.391357 204.0
1122.764404 132.0
1126.341919 156.0
1128.62085 204.0
1128.741211 68.0
1128.875 180.0
1130.259644 220.0
1132.716675 112.0
1132.998047 164.0
1133.560913 128.0
1134.626709 160.0
1134.98877 204.0
1136.538208 196.0
1137.189209 244.0
1138.095459 168.0
1139.035645 172.0
1141.623291 212.0
1142.309326 188.0
1143.554199 188.0
1144.408813 192.0
1146.106567 204.0
1146.746704 172.0
1146.874878 52.0
1148.142334 136.0
1150.072021 188.0
1152.266724 84.0
1153.496704 68.0
1154.294434 96.0
1154.348633 140.0
1154.571777 136.0
1154.808472 176.0
1154.991089 196.0
1155.559326 112.0
1157.664551 144.0
1158.937988 172.0
1159.730957 164.0
1160.218994 172.0
1160.991455 192.0
1162.036621 40.0
1164.37854 184.0
1164.439697 164.0
1164.500854 176.0
1164.69104 104.0
1166.716064 180.0
1167.525269 156.0
1168.0625 132.0
1168.688477 184.0
1169.341797 132.0
1169.838623 156.0
1169.968018 340.0
1171.132446 120.0
1172.522339 160.0
1172.59729 164.0
1176.205566 172.0
1177.052124 188.0
1177.673584 132.0
1180.222656 44.0
1181.057007 140.0
1182.487061 160.0
1182.878296 220.0
1183.26062 176.0
1183.370117 164.0
1184.19873 212.0
1185.829468 128.0
1186.220093 116.0
1186.405273 156.0
1189.416748 60.0
1195.754028 184.0
1195.843506 196.0
1196.23584 120.0
1196.297852 192.0
1196.752197 100.0
1198.28125 168.0
1198.894531 172.0
1199.535522 164.0
1199.72168 132.0
1200.128418 144.0
1202.674072 148.0
1202.722412 76.0
1202.812134 132.0
1203.081421 204.0
1205.471191 172.0
1206.252197 152.0
1206.743042 160.0
1207.395142 256.0
1207.476074 184.0
1207.524536 60.0
1207.648926 240.0
1207.794189 132.0
1207.974121 176.0
1209.060425 140.0
1209.994873 168.0
1210.161011 116.0
1210.313354 72.0
1212.121338 144.0
1213.098511 204.0
1214.443848 220.0
1214.853027 184.0
1215.310913 100.0
1216.525513 144.0
1218.643799 120.0
1218.886963 184.0
1219.491577 128.0
1219.825195 168.0
1220.200684 160.0
1220.419922 200.0
1221.730713 144.0
1223.157227 184.0
1225.992065 176.0
1227.372314 196.0
1229.178955 68.0
1229.890869 120.0
1230.428345 44.0
1232.062622 160.0
1232.195312 236.0
1232.258179 172.0
1233.208618 64.0
1233.935669 136.0
1234.299194 68.0
1234.494995 136.0
1234.844727 172.0
1236.873779 136.0
1237.174805 148.0
1238.520996 140.0
1239.731445 152.0
1240.243042 168.0
1241.273682 128.0
1241.785645 196.0
1241.904907 224.0
1242.262573 68.0
1242.690552 128.0
1242.880005 236.0
1244.059082 168.0
1244.873657 92.0
1245.224731 40.0
1245.295044 212.0
1245.779663 64.0
1245.96228 72.0
1246.889893 60.0
1247.107788 160.0
1247.564697 104.0
1247.754517 140.0
1248.366211 160.0
1250.42749 184.0
1250.821777 188.0
1251.399048 136.0
1251.821533 188.0
1252.096191 164.0
1252.497681 128.0
1254.007446 224.0
1256.565308 104.0
1256.995728 188.0
1257.496826 188.0
1258.96521 140.0
1259.042969 176.0
1259.247803 224.0
1259.445557 180.0
1259.544434 164.0
1263.085815 160.0
1263.361694 156.0
1263.701294 180.0
1263.779175 144.0
1263.941895 128.0
1264.154175 36.0
1265.201782 172.0
1265.336304 160.0
1265.484985 200.0
1265.640747 160.0
1266.207275 192.0
1266.363037 152.0
1266.625122 240.0
1266.98645 216.0
1267.050171 124.0
1267.361938 132.0
1268.552612 216.0
1268.985107 136.0
1270.204956 124.0
1270.701538 208.0
1271.851196 152.0
1272.234497 196.0
1272.667603 196.0
1273.536743 256.0
1273.654663 176.0
1273.725708 84.0
1274.47168 68.0
1274.976318 136.0
1276.291382 164.0
1277.849121 156.0
1279.607056 116.0
1279.93457 140.0
1280.504272 248.0
1281.045654 164.0
1281.373413 216.0
1281.755859 200.0
1282.549194 184.0
1283.789795 112.0
1285.494751 196.0
1287.000854 128.0
1287.165161 412.0
1287.22937 144.0
1290.723755 96.0
1291.395996 168.0
1291.546143 164.0
1291.889526 92.0
1292.190063 184.0
1292.762451 192.0
1293.334961 88.0
1293.467407 152.0
1294.373169 180.0
1294.788452 100.0
1296.063599 216.0
1296.171143 168.0
1296.687134 140.0
1298.730469 156.0
1299.921509 144.0
1300.913086 148.0
1301.034058 108.0
1301.220703 148.0
1302.182983 132.0
1302.376831 204.0
1302.750366 152.0
1303.159912 228.0
1303.619751 200.0
1303.864136 180.0
1303.928833 152.0
1304.812988 128.0
1305.575195 148.0
1306.546265 56.0
1307.532104 220.0
1308.453491 208.0
1308.827881 204.0
1309.792847 136.0
1310.06665 152.0
1311.39978 148.0
1312.711914 136.0
1313.050781 196.0
1314.399902 84.0
1315.994995 164.0
1316.204468 244.0
1316.70813 232.0
1316.926636 180.0
1317.439453 176.0
1318.653442 136.0
1318.747437 184.0
1318.985962 140.0
1320.345215 252.0
1322.04541 36.0
1323.116699 40.0
1323.761108 160.0
1324.19751 252.0
1324.25354 128.0
1324.76062 100.0
1325.137329 148.0
1326.347656 256.0
1328.044312 152.0
1328.602905 108.0
1328.864014 76.0
1329.814697 172.0
1331.215942 140.0
1333.388062 140.0
1333.846069 48.0
1335.882202 200.0
1336.435059 132.0
1338.429443 212.0
1338.575195 136.0
1338.873657 232.0
1339.398071 192.0
1340.352539 188.0
1344.976318 184.0
1345.669922 212.0
1345.961914 140.0
1346.122559 168.0
1346.750732 144.0
1346.845703 220.0
1346.926025 136.0
1346.991699 168.0
1348.767456 220.0
1348.915771 188.0
1349.081787 132.0
1350.478394 60.0
1350.77832 200.0
1352.109985 64.0
1352.32959 116.0
1352.439331 180.0
1355.229614 196.0
1355.449341 196.0
1356.02832 168.0
1357.993286 204.0
1358.484741 124.0
1359.497314 184.0
1360.084473 164.0
1360.444214 188.0
1360.598389 180.0
1363.191162 144.0
1364.095215 44.0
1364.455444 204.0
1364.55835 100.0
1364.624512 148.0
1366.948975 144.0
1368.119263 140.0
1368.266479 48.0
1368.752441 176.0
1369.091187 152.0
1369.474121 228.0
1369.724609 188.0
1370.623413 132.0
1370.675049 80.0
1370.955078 148.0
1371.131958 80.0
1371.470947 168.0
1372.289185 48.0
1373.64624 172.0
1374.7677 144.0
1375.978271 200.0
1376.916138 132.0
1377.189331 196.0
1377.617798 144.0
1378.194092 132.0
1379.857056 132.0
1380.670532 164.0
1381.365723 180.0
1381.535889 168.0
1382.512573 140.0
1382.719849 92.0
1382.80127 68.0
1383.600708 132.0
1383.711792 140.0
1384.304077 276.0
1384.652222 168.0
1384.778076 120.0
1384.881836 56.0
1385.060059 180.0
1385.429932 176.0
1385.570679 160.0
1385.941162 148.0
1386.408081 168.0
1386.704468 152.0
1388.661865 208.0
1389.66333 236.0
1389.848877 40.0
1390.301514 256.0
1391.652588 212.0
1392.283691 176.0
1394.356567 180.0
1394.545532 224.0
1395.709473 164.0
1395.761597 60.0
1396.371338 152.0
1400.301147 112.0
1400.919434 192.0
1401.001343 136.0
1401.940186 252.0
1402.983765 156.0
1403.453491 160.0
1405.721069 180.0
1406.206177 136.0
1407.983154 200.0
1408.677734 116.0
1409.536987 220.0
1411.263672 368.0
1413.799561 132.0
1414.525513 132.0
1415.32666 144.0
1415.828369 156.0
1415.918213 172.0
1415.993164 136.0
1416.397583 144.0
1416.884521 172.0
1417.011963 176.0
1417.09436 160.0
1417.306519 148.0
1417.986084 216.0
1418.173462 168.0
1418.585693 156.0
1418.773193 132.0
1419.080566 108.0
1419.365479 176.0
1419.995361 148.0
1420.400513 152.0
1421.188232 140.0
1421.803589 96.0
1421.87854 128.0
1422.066284 152.0
1422.441528 204.0
1422.794312 156.0
1422.876953 180.0
1423.132202 164.0
1423.530151 104.0
1423.785522 92.0
1424.65686 164.0
1424.882202 172.0
1425.002441 196.0
1425.573486 132.0
1426.265015 124.0
1426.513062 176.0
1426.610718 156.0
1427.24231 64.0
1427.671021 204.0
1428.001831 132.0
1428.408081 172.0
1430.703247 240.0
1431.155029 148.0
1431.358398 168.0
1431.531494 48.0
1431.636963 124.0
1432.397705 164.0
1432.827148 152.0
1433.347046 180.0
1434.330566 160.0
1434.447388 184.0
1434.650879 160.0
1435.012817 120.0
1435.729126 160.0
1436.136475 208.0
1436.585083 228.0
1436.762573 88.0
1437.539673 124.0
1437.735962 152.0
1438.151001 188.0
1438.830444 228.0
1438.898438 168.0
1440.212402 72.0
1440.363525 152.0
1440.522095 148.0
1442.207153 220.0
1442.660767 228.0
1443.046265 212.0
1443.590698 132.0
1443.923462 180.0
1444.64209 164.0
1446.147949 144.0
1446.223633 236.0
1446.723267 192.0
1447.722656 92.0
1448.608887 136.0
1448.957397 100.0
1449.017944 216.0
1449.874268 84.0
1450.01062 180.0
1451.200806 132.0
1451.754395 148.0
1451.875732 160.0
1452.088013 192.0
1452.876953 148.0
1453.150024 232.0
1453.552246 212.0
1454.963989 188.0
1455.411987 172.0
1455.624512 92.0
1456.14856 144.0
1456.885376 136.0
1457.553955 156.0
1457.789551 180.0
1458.159424 232.0
1459.21106 160.0
1459.461914 352.0
1460.587524 136.0
1460.792847 140.0
1461.630371 160.0
1463.022583 212.0
1464.050537 144.0
1465.208374 160.0
1465.307373 152.0
1465.44458 100.0
1465.924561 156.0
1466.015991 64.0
1466.297974 196.0
1466.496216 200.0
1467.228027 152.0
1467.388062 176.0
1467.487183 112.0
1468.539551 148.0
1468.814209 164.0
1469.088867 180.0
1469.30603 136.0
1469.661011 168.0
1470.222534 192.0
1471.225708 208.0
1473.234131 108.0
1473.333496 136.0
1473.501587 176.0
1473.593262 100.0
1473.723145 184.0
1473.82251 168.0
1474.319214 216.0
1475.556641 196.0
1476.039185 180.0
1476.444458 152.0
1476.559204 184.0
1476.987549 104.0
1477.691406 192.0
1477.951538 164.0
1479.306152 164.0
1479.359741 176.0
1479.995239 192.0
1480.064087 152.0
1480.944824 180.0
1481.825806 164.0
1482.500122 204.0
1482.883301 208.0
1483.373901 144.0
1483.803223 192.0
1483.987183 108.0
1484.094604 160.0
1484.148193 168.0
1485.114502 144.0
1485.720581 168.0
1486.480103 160.0
1487.907837 200.0
1487.976929 160.0
1488.061401 112.0
1488.161133 132.0
1488.890625 164.0
1489.136475 84.0
1489.320801 176.0
1489.420654 168.0
1489.55896 152.0
1490.027588 132.0
1490.56543 152.0
1490.903564 124.0
1491.011108 172.0
1491.234009 128.0
1491.618286 168.0
1491.749023 200.0
1492.748535 132.0
1492.879272 36.0
1493.329834 216.0
1493.748413 152.0
1494.240723 180.0
1494.540771 168.0
1495.401611 168.0
1495.416138 144.0
1495.518188 240.0
1496.434326 56.0
1497.111938 200.0
1497.196655 72.0
1497.443115 156.0
1497.936035 180.0
1498.275024 136.0
1498.421387 136.0
1498.552368 216.0
1498.68335 176.0
1499.916382 176.0
1500.209351 240.0
1500.756714 56.0
1501.558716 188.0
1501.782471 76.0
1502.013794 100.0
1502.330078 176.0
1503.842529 172.0
1504.321167 124.0
1504.977417 176.0
