>compound MLS002154236-01!Kawain500-64-1
>formula C14H14O3
>ionization [M+H]+
>parentmass 231.1015707600905
#inchi InChI=1S/C14H14O3/c1-16-13-9-12(17-14(15)10-13)8-7-11-5-3-2-4-6-11/h2-8,10,12H,9H2,1H3/b8-7+/t12-/m0/s1
#inchikey XEAQIWGXBXCYFX
#Ion_Source LC-ESI
#Instrument qTof
#Compound_Source NIH Pharmacologically Active Library
#PI Dorrestein
#Data_Collector VP/LMS
#Scan -1
#Precursor_MZ 231.099
#ExactMass 230.094
#Charge 1
#CAS_Number N/A
#Pubmed_ID N/A
#Smiles COC1=CC(=O)O[C@H](C1)/C=C/c2ccccc2
#INCHI_AUX N/A
#Library_Class 1
#SpectrumID CCMSLIB00000085941
#IonMode Positive
#UpdateWorkflowName UPDATE-SINGLE-ANNOTATED-GOLD
#LibraryQualityString Gold
#TaskID d252d724072548979f1f6f1ced849daf
##Scan# 1993
#SpectrumFile p4-H05_GH5_01_18413.mzXML
#LibraryName Pharm_Active_Library.mgf
#MQScore -1
#Organism Pharm_Active_Library
#TIC_Query 0
#RT_Query -1
#MZErrorPPM -1
#SharedPeaks 0
#MassDiff 0
#LibMZ -1
#SpecMZ 231.099
#SpecCharge 0
#internalFilename spec-00000.mgf

>collision 10
44.923756 124.0
44.947769 84.0
45.02079 212.0
45.0439 172.0
45.071957 176.0
45.10136 212.0
45.461643 120.0
45.494068 180.0
45.539513 160.0
45.796421 184.0
45.851662 152.0
45.877274 148.0
45.908283 196.0
45.96764 140.0
46.020287 160.0
46.037842 80.0
46.090523 128.0
46.143238 184.0
46.185162 116.0
46.232517 160.0
46.294792 156.0
46.366592 112.0
46.393703 132.0
46.415398 176.0
46.428959 144.0
46.723724 116.0
46.794498 88.0
47.013962 212.0
47.094517 180.0
47.17514 192.0
47.186077 192.0
47.23531 148.0
47.251728 124.0
47.262672 144.0
47.442097 220.0
47.797832 172.0
47.851513 116.0
47.934296 240.0
47.958965 140.0
48.096905 164.0
48.107948 172.0
48.134178 164.0
48.160419 164.0
48.18943 192.0
48.294498 204.0
48.430145 248.0
48.534084 212.0
48.672848 148.0
48.767319 152.0
48.991356 152.0
49.136349 164.0
49.164257 156.0
49.199154 152.0
49.256409 192.0
49.298325 144.0
49.334934 168.0
49.438175 136.0
49.492767 224.0
49.592834 216.0
49.612003 196.0
49.628685 60.0
49.659538 132.0
49.822372 156.0
49.900047 180.0
49.991104 120.0
50.179859 176.0
50.332245 172.0
50.411354 220.0
50.576832 68.0
50.602314 136.0
50.69297 172.0
50.724152 128.0
50.829105 160.0
50.874138 192.0
50.912861 136.0
50.924225 236.0
51.043602 184.0
51.134651 200.0
51.160275 60.0
51.244305 216.0
51.269955 116.0
51.346943 236.0
51.358353 132.0
51.40686 128.0
51.448254 44.0
51.533947 92.0
51.688377 148.0
51.769974 148.0
51.779999 184.0
51.857368 184.0
51.929058 120.0
51.957748 176.0
52.028072 184.0
52.086952 176.0
52.268105 184.0
52.29113 160.0
52.34296 152.0
52.390491 128.0
52.586601 160.0
52.602482 216.0
52.638577 192.0
52.680462 256.0
52.797543 180.0
52.904617 236.0
52.920544 176.0
52.978477 156.0
53.069786 172.0
53.228321 188.0
53.251186 172.0
53.264259 152.0
53.347092 208.0
53.603256 120.0
53.687809 204.0
53.838127 164.0
53.984268 156.0
54.004745 220.0
54.016445 56.0
54.051559 172.0
54.164295 164.0
54.212646 152.0
54.253685 44.0
54.339081 196.0
54.682617 116.0
54.747398 140.0
54.85643 148.0
54.884445 196.0
55.020187 152.0
55.120625 240.0
55.274414 212.0
55.326218 212.0
55.345467 120.0
55.385452 220.0
55.530712 180.0
55.711811 140.0
55.774223 224.0
55.802471 140.0
55.872944 156.0
55.896179 180.0
55.948273 148.0
56.077869 180.0
56.358433 136.0
56.389816 128.0
56.509449 128.0
56.548359 120.0
56.642693 180.0
56.654675 68.0
56.675652 120.0
56.707123 132.0
56.731106 108.0
57.037346 172.0
57.297691 132.0
57.353451 128.0
57.459015 148.0
57.472595 40.0
57.487682 120.0
57.566185 184.0
57.690083 152.0
57.746033 220.0
57.779312 172.0
57.839844 240.0
57.867092 160.0
57.95343 184.0
58.18071 136.0
58.190044 192.0
58.252308 164.0
58.335892 156.0
58.355656 144.0
58.373901 64.0
58.509323 52.0
58.658619 204.0
58.803528 136.0
58.844742 168.0
58.88903 180.0
58.937916 40.0
58.953197 164.0
59.021988 208.0
59.052574 180.0
59.178059 152.0
59.384945 124.0
59.669037 44.0
59.745937 132.0
59.804413 216.0
59.830582 216.0
59.910664 128.0
60.035519 56.0
60.091049 208.0
60.153431 180.0
60.236168 228.0
60.335075 128.0
60.352081 208.0
60.398479 192.0
60.45882 148.0
60.947304 64.0
60.989265 144.0
61.03746 168.0
61.057674 144.0
61.071674 112.0
61.196171 208.0
61.20863 124.0
61.278721 168.0
61.401871 140.0
61.490803 124.0
61.588531 264.0
61.63604 76.0
61.661045 132.0
61.671986 152.0
62.036716 176.0
62.168472 172.0
62.388374 176.0
62.474873 100.0
62.504768 76.0
62.709499 56.0
62.79464 172.0
62.884575 148.0
62.931934 220.0
63.127876 232.0
63.191151 144.0
63.206974 172.0
63.287701 212.0
63.484196 196.0
63.595253 96.0
63.617477 88.0
63.690525 240.0
63.712765 180.0
63.762024 224.0
63.983131 132.0
64.007019 120.0
64.136261 196.0
64.24929 148.0
64.262054 188.0
64.367401 428.0
64.404137 108.0
64.418839 216.0
64.727196 164.0
64.74321 256.0
64.767235 144.0
64.932327 96.0
65.301735 156.0
65.369301 128.0
65.391838 148.0
65.424026 164.0
65.491661 208.0
65.801292 196.0
65.890121 196.0
66.116501 136.0
66.156967 168.0
66.220123 160.0
66.284927 108.0
66.340034 136.0
66.361778 224.0
66.378944 152.0
66.393539 164.0
66.408142 148.0
66.421112 156.0
66.507118 76.0
66.658157 168.0
66.866325 228.0
66.877716 184.0
66.932312 164.0
66.986816 60.0
67.014511 144.0
67.06945 208.0
67.11557 124.0
67.187332 108.0
67.348946 164.0
67.419205 220.0
67.721886 196.0
67.912018 144.0
68.169777 120.0
68.322693 216.0
68.384216 196.0
68.512024 128.0
68.596069 188.0
68.638939 180.0
68.889809 172.0
68.929466 128.0
68.993927 188.0
69.040222 164.0
69.175903 252.0
69.288521 240.0
69.331604 176.0
69.356461 92.0
69.401222 168.0
69.454292 156.0
69.593697 144.0
69.696686 152.0
69.829681 52.0
70.002762 188.0
70.02108 184.0
70.077721 236.0
70.089386 172.0
70.259453 176.0
70.302834 156.0
70.357918 112.0
70.394653 140.0
70.541687 200.0
70.717323 144.0
70.732384 216.0
70.764198 160.0
70.816109 192.0
70.849609 160.0
71.039047 176.0
71.176682 136.0
71.28627 268.0
71.553314 160.0
71.642578 176.0
72.104919 220.0
72.186073 84.0
72.307877 200.0
72.362488 184.0
72.809723 92.0
72.855583 152.0
72.977959 60.0
73.003464 164.0
73.039177 236.0
73.139572 132.0
73.170219 120.0
73.194054 100.0
73.436058 96.0
73.487236 152.0
73.622574 212.0
73.646004 184.0
73.692123 240.0
73.726303 220.0
73.774162 132.0
73.81691 136.0
73.871635 172.0
74.041092 188.0
74.162743 192.0
74.247681 200.0
74.31366 196.0
74.348846 176.0
74.408058 68.0
74.444115 268.0
74.619385 196.0
74.652054 220.0
74.750107 176.0
74.804588 212.0
74.89473 200.0
75.010178 208.0
75.155052 192.0
75.253006 176.0
75.30352 112.0
75.33979 180.0
75.384758 176.0
75.402 240.0
75.48671 140.0
75.632042 112.0
75.656273 196.0
75.753258 84.0
75.874565 164.0
75.909248 140.0
75.983833 284.0
76.026596 192.0
76.192169 212.0
76.326004 72.0
76.401321 220.0
76.557449 196.0
76.620163 152.0
76.646294 144.0
76.688118 184.0
76.785759 164.0
76.831116 52.0
76.909645 232.0
76.925354 124.0
77.05983 188.0
77.140221 140.0
77.339241 124.0
77.579628 192.0
77.612938 160.0
77.712921 164.0
77.826324 184.0
77.851593 44.0
77.876183 208.0
77.920097 168.0
77.93943 216.0
78.032585 52.0
78.051926 164.0
78.120522 104.0
78.212029 164.0
78.278931 176.0
78.307106 188.0
78.405769 52.0
78.418106 136.0
78.44455 168.0
78.456886 164.0
78.499207 204.0
78.631523 60.0
78.832855 176.0
78.884109 180.0
78.908859 136.0
78.961914 188.0
79.055679 124.0
79.23629 132.0
79.31781 152.0
79.456139 132.0
79.534218 140.0
79.717155 88.0
79.83448 88.0
79.9608 104.0
80.028442 200.0
80.099686 152.0
80.220863 56.0
80.261871 160.0
80.297539 188.0
80.47242 140.0
80.540283 204.0
80.85675 212.0
80.91404 164.0
81.019699 168.0
81.108459 212.0
81.170265 100.0
81.500549 124.0
81.698318 240.0
81.905342 200.0
81.959389 148.0
82.09639 216.0
82.256973 132.0
82.280441 184.0
82.556908 148.0
82.654594 196.0
82.678116 136.0
82.710693 184.0
82.80304 148.0
82.859192 256.0
82.877312 176.0
83.260078 132.0
83.390892 56.0
83.415131 144.0
83.463615 160.0
83.507256 172.0
83.587303 88.0
83.667389 120.0
83.869598 136.0
83.986298 164.0
84.068398 120.0
84.154198 76.0
84.256477 60.0
84.344193 152.0
84.488663 136.0
84.547218 220.0
84.56369 52.0
84.750481 156.0
84.792633 148.0
84.909966 164.0
85.034729 228.0
85.095032 160.0
85.240417 108.0
85.255119 108.0
85.269821 112.0
85.444519 100.0
85.90509 124.0
85.979904 188.0
86.164589 100.0
86.204201 240.0
86.300323 252.0
86.526047 240.0
86.650139 152.0
86.664963 72.0
86.740952 32.0
86.822533 192.0
86.942261 216.0
86.97467 132.0
87.174164 156.0
87.219864 128.0
87.454239 208.0
87.511948 264.0
87.599319 140.0
87.830627 92.0
87.979919 120.0
88.088234 192.0
88.10318 148.0
88.146156 120.0
88.247093 188.0
88.277008 160.0
88.35183 124.0
88.370537 164.0
88.509048 132.0
88.724518 180.0
89.056671 140.0
89.252121 124.0
89.323586 52.0
89.349922 152.0
89.466606 160.0
89.656853 136.0
89.675705 184.0
89.743568 164.0
89.900139 140.0
90.041733 136.0
90.194778 140.0
90.306335 220.0
90.719139 192.0
90.821541 152.0
90.857582 160.0
91.054298 1364.0
91.184196 168.0
91.2108 60.0
91.224113 124.0
91.260231 196.0
91.435249 184.0
91.452377 188.0
91.558998 116.0
91.721176 168.0
91.976562 148.0
91.989922 164.0
92.010399 132.0
92.05484 156.0
92.53479 184.0
92.590317 60.0
92.758934 184.0
93.012146 132.0
93.1408 92.0
93.160011 292.0
93.206123 92.0
93.278412 124.0
93.536919 152.0
93.61779 176.0
93.671715 176.0
93.831673 152.0
93.918457 48.0
93.987907 192.0
94.041344 176.0
94.302696 124.0
94.331688 140.0
94.450974 192.0
94.850479 160.0
94.877617 196.0
95.139786 148.0
95.310448 176.0
95.429016 176.0
95.48735 204.0
95.798798 80.0
95.941063 204.0
96.397797 152.0
96.534637 136.0
96.601143 156.0
96.667664 164.0
96.697021 188.0
96.751831 204.0
96.836029 152.0
97.487389 144.0
97.88279 124.0
97.92218 140.0
98.15078 208.0
98.282944 92.0
98.353989 176.0
98.444809 148.0
98.620651 204.0
98.672043 184.0
98.905479 132.0
98.919342 232.0
99.012398 184.0
99.026268 132.0
99.044586 160.0
99.18676 172.0
99.228394 140.0
99.303749 132.0
99.329536 164.0
99.351357 120.0
99.379135 144.0
99.438667 180.0
99.460503 132.0
99.508148 140.0
99.792267 44.0
99.816132 176.0
99.886017 144.0
100.040848 72.0
100.172394 180.0
100.313881 40.0
100.419563 148.0
100.489388 140.0
100.541359 88.0
100.695 136.0
100.846848 176.0
101.036301 444.0
101.072838 212.0
101.126869 180.0
101.367203 164.0
101.627876 184.0
101.668007 140.0
101.830635 216.0
101.844696 160.0
101.931084 172.0
102.047508 388.0
102.124084 172.0
102.23877 188.0
102.321297 148.0
102.35553 152.0
102.424721 180.0
102.819191 140.0
102.883789 136.0
102.966438 180.0
103.054268 2160.0
103.225258 152.0
103.296043 220.0
103.322342 196.0
103.792252 140.0
103.873375 152.0
104.054245 344.0
104.079575 220.0
104.106789 184.0
104.135223 192.0
104.398544 212.0
104.433807 164.0
104.472565 176.0
104.875854 160.0
104.928856 120.0
105.032822 192.0
105.070663 280.0
105.175697 172.0
105.361534 28.0
105.445312 176.0
105.539352 208.0
105.639565 160.0
105.684578 176.0
105.745972 176.0
105.807381 136.0
105.922066 156.0
105.991722 96.0
106.038857 224.0
106.069603 176.0
106.088051 168.0
106.184425 120.0
106.238136 132.0
106.348572 128.0
106.422478 156.0
106.457382 160.0
106.529274 172.0
106.683403 124.0
106.973465 104.0
107.012581 128.0
107.047905 104.0
107.117615 180.0
107.171181 124.0
107.323715 132.0
107.360641 220.0
107.724106 204.0
107.823288 140.0
108.058365 276.0
108.08799 156.0
108.224609 160.0
108.440056 112.0
108.45871 196.0
108.724197 188.0
108.7491 140.0
108.865364 140.0
109.224937 176.0
109.349777 140.0
109.387245 224.0
109.524681 188.0
109.753929 76.0
109.772697 140.0
109.879074 168.0
110.204788 156.0
110.248672 136.0
110.286293 164.0
110.499596 164.0
110.635635 244.0
110.692169 52.0
110.715202 196.0
110.996017 152.0
111.184822 116.0
111.415802 148.0
111.661743 188.0
111.787971 180.0
111.832169 124.0
111.975342 120.0
112.152328 200.0
112.23877 152.0
112.31469 200.0
112.373756 212.0
112.49617 152.0
112.519394 232.0
112.557396 176.0
112.679909 148.0
112.755981 144.0
112.887054 136.0
112.94416 184.0
113.047829 212.0
113.066879 84.0
113.082993 228.0
113.257431 216.0
113.30616 88.0
113.441788 172.0
113.465111 148.0
113.711182 160.0
113.755753 116.0
113.908653 112.0
114.038269 108.0
114.146698 184.0
114.180717 192.0
114.219009 104.0
114.361572 208.0
114.406273 148.0
114.444595 32.0
114.519135 216.0
114.627785 160.0
114.762688 164.0
114.932716 160.0
114.990341 200.0
115.020218 204.0
115.054581 21672.0
115.129112 120.0
115.228439 104.0
115.278656 200.0
115.29361 92.0
115.359871 76.0
115.436844 36.0
115.511703 64.0
115.537376 120.0
115.569473 44.0
115.60585 108.0
115.652931 128.0
115.913528 212.0
116.058632 1132.0
116.109306 84.0
116.132896 196.0
116.190819 44.0
116.405457 168.0
116.560127 56.0
116.611702 84.0
116.699623 192.0
116.719193 48.0
116.828888 136.0
116.856857 132.0
116.906349 52.0
116.949394 136.0
117.065865 488.0
117.088593 184.0
117.257393 80.0
117.399689 56.0
117.453606 100.0
117.602493 80.0
117.658615 172.0
117.703957 84.0
117.81411 72.0
117.922096 148.0
118.043228 148.0
118.263901 176.0
118.344002 188.0
118.439018 64.0
118.525948 164.0
118.726891 220.0
118.849548 120.0
119.111732 144.0
119.144318 216.0
119.274712 160.0
119.494354 68.0
119.546577 60.0
119.609009 172.0
119.648888 148.0
119.922043 132.0
120.086891 168.0
120.433937 152.0
120.591255 64.0
120.645905 280.0
120.766174 164.0
120.798988 88.0
121.20491 272.0
121.32238 60.0
121.495636 160.0
121.548294 220.0
121.611938 156.0
121.673409 92.0
121.70195 80.0
121.783203 60.0
121.837936 184.0
121.864487 192.0
121.912834 180.0
122.040329 256.0
122.068916 140.0
122.16349 132.0
122.260307 196.0
122.390182 216.0
122.480484 192.0
122.599457 152.0
122.794945 168.0
123.00309 60.0
123.104652 156.0
123.131157 228.0
123.276962 64.0
123.311806 136.0
123.418442 228.0
123.568848 196.0
123.624161 116.0
123.703842 184.0
123.863281 160.0
123.940826 192.0
124.23571 192.0
124.677582 132.0
124.718468 140.0
124.757599 140.0
125.037872 176.0
125.144722 196.0
125.179726 172.0
125.244942 44.0
125.667702 208.0
125.867722 164.0
125.902901 160.0
126.046829 752.0
126.204582 152.0
126.280617 152.0
126.309692 136.0
126.354439 108.0
126.428276 200.0
126.481995 140.0
126.786606 192.0
126.831436 228.0
126.936806 156.0
126.983902 200.0
127.004692 224.0
127.05481 4920.0
127.074509 316.0
127.105049 164.0
127.197067 136.0
127.25544 40.0
127.289909 160.0
127.296501 56.0
127.304123 176.0
127.709389 232.0
127.772377 148.0
127.920906 112.0
127.938919 64.0
127.954674 112.0
127.981697 180.0
128.029999 184.0
128.062775 25592.0
128.121338 60.0
128.143875 224.0
128.164154 56.0
128.179916 44.0
128.236267 52.0
128.303894 64.0
128.396576 152.0
128.468521 52.0
128.549744 52.0
128.576828 80.0
128.610687 104.0
128.646805 124.0
128.710419 68.0
128.795837 168.0
128.883957 124.0
128.903244 336.0
128.939392 120.0
129.000839 156.0
129.034134 188.0
129.068878 8344.0
129.094879 180.0
129.184647 76.0
129.209534 40.0
129.363434 204.0
129.390594 96.0
129.54007 36.0
129.576477 196.0
129.611191 172.0
129.653351 52.0
129.689621 144.0
129.748566 100.0
129.772705 68.0
129.816589 152.0
129.838074 228.0
129.895966 188.0
129.946533 124.0
129.975372 132.0
130.036346 184.0
130.074081 908.0
130.127457 112.0
130.17514 60.0
130.20694 196.0
130.236465 40.0
130.447784 188.0
130.479614 52.0
130.50235 128.0
130.587036 184.0
130.752579 60.0
130.859573 44.0
130.916504 56.0
130.932449 88.0
130.971161 124.0
131.012161 128.0
131.049316 352.0
131.086563 260.0
131.3564 76.0
131.402023 200.0
131.481888 136.0
131.989044 192.0
132.146866 56.0
132.165176 140.0
132.323105 200.0
132.572784 228.0
133.065811 300.0
133.114182 188.0
133.142853 164.0
133.385284 132.0
133.445053 40.0
133.838516 184.0
134.059662 276.0
134.403259 152.0
134.534805 136.0
135.154236 72.0
135.313934 196.0
135.357925 160.0
135.48996 196.0
135.57106 160.0
135.770432 184.0
135.911942 148.0
136.048874 84.0
136.069763 120.0
136.425232 156.0
137.032669 64.0
137.081604 76.0
137.114227 116.0
137.188812 204.0
137.359055 196.0
137.429031 148.0
137.615768 220.0
137.66246 120.0
137.737213 72.0
137.790939 180.0
137.900772 148.0
137.921799 108.0
138.252625 168.0
138.303085 104.0
138.338196 72.0
138.429504 28.0
138.924057 204.0
138.949875 40.0
139.04892 152.0
139.161102 132.0
139.205719 76.0
139.466507 160.0
139.49942 76.0
139.753418 128.0
139.805191 72.0
140.010773 184.0
140.054764 152.0
140.324646 148.0
140.3918 64.0
140.41774 220.0
140.45784 84.0
140.476715 152.0
140.670212 136.0
140.700912 192.0
141.0009 140.0
141.070496 4024.0
141.112 164.0
141.161667 56.0
141.204224 116.0
141.277557 156.0
141.689499 200.0
141.860138 44.0
142.077118 1856.0
142.14238 92.0
142.23494 128.0
142.296661 40.0
142.332275 180.0
142.422531 192.0
142.700577 156.0
142.755264 76.0
143.009827 208.0
143.043793 196.0
143.086151 1308.0
143.162201 36.0
143.357559 60.0
143.55304 224.0
143.710464 160.0
143.748642 176.0
143.775101 184.0
143.825012 180.0
144.011261 44.0
144.058472 220.0
144.091187 516.0
144.23587 52.0
144.288467 140.0
144.53244 116.0
144.752014 240.0
144.953888 40.0
145.06546 1108.0
145.102493 156.0
145.455139 72.0
145.671265 44.0
145.815445 156.0
145.858704 92.0
146.063324 176.0
146.337448 160.0
146.636169 204.0
146.819397 108.0
146.860397 88.0
146.9207 244.0
146.937592 208.0
147.046188 140.0
147.07756 128.0
147.118591 156.0
147.148102 128.0
147.853424 180.0
147.896988 216.0
148.308762 152.0
148.345123 128.0
148.546402 188.0
148.827927 72.0
149.01738 140.0
149.039948 160.0
149.090286 204.0
149.355301 200.0
149.40152 72.0
149.445312 96.0
149.476944 244.0
149.703339 220.0
149.776413 40.0
149.803207 36.0
149.898972 212.0
149.949402 44.0
150.000595 196.0
150.017654 128.0
150.045853 784.0
150.129822 44.0
150.217621 224.0
150.244461 60.0
150.439697 228.0
150.723022 108.0
150.845215 92.0
151.05426 4672.0
151.111786 144.0
151.128922 288.0
151.155304 200.0
151.217026 116.0
151.283112 180.0
151.449631 56.0
151.483917 148.0
151.589279 156.0
151.714279 100.0
151.760605 196.0
151.818161 164.0
151.905045 132.0
151.934998 156.0
151.974167 172.0
152.003708 184.0
152.062637 51360.0
152.121506 132.0
152.15834 68.0
152.22464 136.0
152.263275 288.0
152.308243 100.0
152.343765 120.0
152.422028 56.0
152.452484 48.0
152.485046 64.0
152.514542 80.0
152.583374 68.0
152.615341 52.0
152.639114 48.0
152.760452 28.0
152.849014 152.0
152.882141 184.0
152.93515 148.0
152.981934 128.0
153.01947 136.0
153.039749 140.0
153.069427 29644.0
153.135925 104.0
153.180603 188.0
153.199417 140.0
153.236755 68.0
153.257767 108.0
153.280273 60.0
153.314453 64.0
153.344025 80.0
153.408112 148.0
153.464813 100.0
153.506744 52.0
153.533859 200.0
153.573334 80.0
153.636322 136.0
153.704086 104.0
153.727249 164.0
153.823975 76.0
153.918335 184.0
153.941071 116.0
153.981934 68.0
154.075607 5252.0
154.113983 196.0
154.144867 152.0
154.216537 100.0
154.275452 72.0
154.333969 108.0
154.387253 116.0
154.425461 120.0
154.477417 100.0
154.513184 96.0
154.536789 180.0
154.566483 84.0
154.587418 52.0
154.645981 96.0
154.700134 88.0
154.752121 56.0
154.779358 52.0
154.884552 68.0
154.913101 32.0
154.962662 164.0
155.02298 144.0
155.059158 2396.0
155.084763 3360.0
155.147751 104.0
155.178284 124.0
155.217957 68.0
155.345963 92.0
155.428802 124.0
155.577728 84.0
155.607529 132.0
155.647247 60.0
155.736649 28.0
155.756531 200.0
156.065125 652.0
156.090164 672.0
156.313446 116.0
156.420471 72.0
157.064972 2340.0
157.103287 188.0
157.174393 144.0
157.213074 60.0
157.367828 52.0
157.725082 112.0
158.068375 92.0
158.310547 56.0
158.468353 68.0
158.495926 56.0
158.678894 144.0
158.841904 52.0
159.067749 156.0
159.115448 52.0
159.477188 212.0
159.562653 180.0
159.670258 152.0
159.950073 60.0
160.486694 168.0
160.600189 88.0
160.620361 120.0
160.776794 156.0
160.870193 140.0
161.107574 180.0
161.917007 124.0
162.188126 148.0
162.76149 108.0
162.779266 56.0
162.84021 68.0
163.305344 68.0
163.348587 152.0
163.669266 116.0
165.0728 1092.0
165.605072 52.0
166.075027 528.0
166.341003 40.0
166.85994 104.0
167.087067 424.0
167.446655 192.0
167.802261 88.0
168.016327 76.0
168.058853 144.0
168.096313 224.0
168.388046 88.0
168.783447 124.0
168.932495 140.0
169.065155 7292.0
169.112 116.0
169.147324 68.0
169.596359 124.0
169.656586 140.0
169.69487 116.0
169.751923 64.0
169.770081 76.0
169.925705 240.0
170.072311 5612.0
170.200851 32.0
170.265762 116.0
170.442413 220.0
170.574966 60.0
171.076782 1164.0
171.574631 40.0
172.083649 200.0
172.112122 172.0
172.287109 48.0
172.530167 52.0
172.684448 64.0
172.830948 76.0
173.095322 180.0
174.068192 148.0
174.210022 72.0
175.283508 176.0
176.487198 52.0
178.723251 236.0
179.061386 916.0
179.135925 80.0
179.242508 56.0
179.74382 180.0
179.773178 212.0
180.054443 548.0
181.063797 6952.0
181.112656 124.0
181.134827 160.0
181.302887 116.0
181.324326 148.0
181.4664 32.0
181.949341 40.0
182.066986 1208.0
182.371094 84.0
183.075455 176.0
183.27803 80.0
183.477478 164.0
183.936096 64.0
184.054886 212.0
184.081284 260.0
184.192627 40.0
184.425003 152.0
185.055344 92.0
185.095535 1384.0
185.122345 152.0
185.393936 36.0
185.456284 56.0
185.597244 116.0
186.092911 148.0
187.102493 140.0
187.235916 72.0
187.257706 60.0
188.108444 116.0
189.100677 144.0
190.801437 124.0
194.078812 208.0
195.077988 132.0
196.375916 120.0
197.05957 340.0
198.06752 412.0
199.075439 168.0
200.086136 204.0
205.745132 60.0
207.691071 56.0
209.064423 176.0
209.087448 72.0
213.09346 288.0
215.096161 176.0
215.697922 104.0
218.469162 72.0
220.580627 64.0
226.403595 116.0
229.227493 100.0
230.470718 60.0
233.496155 144.0
234.202286 196.0
248.806229 112.0
252.666992 52.0
262.647278 44.0
269.683777 56.0
275.335022 152.0
284.250549 96.0
298.072266 68.0
300.465271 88.0
304.911499 64.0
318.790741 52.0
340.958282 108.0
346.337769 48.0
352.696991 104.0
376.662262 96.0
376.963623 120.0
400.387024 68.0
418.961578 72.0
420.511108 80.0
428.598358 52.0
434.005005 76.0
446.171936 72.0
453.813965 72.0
478.299652 104.0
502.901825 104.0
522.282471 52.0
552.814636 76.0
569.144104 28.0
619.652649 60.0
622.331055 108.0
629.606445 200.0
632.591492 96.0
687.519531 44.0
704.411072 144.0
706.710876 60.0
707.398926 68.0
714.866821 68.0
728.119995 220.0
756.46344 92.0
782.95697 116.0
787.429932 172.0
796.116394 144.0
804.556885 80.0
812.355347 160.0
821.588562 124.0
840.650024 212.0
841.354248 128.0
843.2547 132.0
845.325134 48.0
860.945984 184.0
861.273071 172.0
863.008789 152.0
874.477661 60.0
878.425659 264.0
880.036804 60.0
882.216919 164.0
884.84967 88.0
887.936951 176.0
892.937866 164.0
893.270935 180.0
896.140503 272.0
899.826538 152.0
910.50946 204.0
914.700317 212.0
918.659546 172.0
920.035522 124.0
927.864197 212.0
933.9552 124.0
941.067139 148.0
948.886536 192.0
956.572083 132.0
957.003052 140.0
958.432068 132.0
963.868347 204.0
964.171204 212.0
969.567932 164.0
971.955444 180.0
972.489197 68.0
979.577942 152.0
981.403992 108.0
981.46637 252.0
982.177368 176.0
984.923889 248.0
985.080017 180.0
985.71106 172.0
988.018311 204.0
989.620544 168.0
994.177795 148.0
994.635986 56.0
998.198303 148.0
998.908997 216.0
1000.400452 216.0
1009.720276 236.0
1009.954346 172.0
1011.200806 236.0
1023.828857 148.0
1027.2771 156.0
1027.474976 112.0
1027.85144 80.0
1028.10022 172.0
1029.945435 172.0
1037.086426 108.0
1040.049805 156.0
1040.781738 132.0
1042.28479 208.0
1048.462646 148.0
1051.874756 188.0
1060.380493 172.0
1060.425903 180.0
1060.717529 196.0
1062.494507 100.0
1062.565918 164.0
1063.597656 192.0
1063.857422 164.0
1065.87085 120.0
1066.416748 244.0
1067.613037 128.0
1071.570679 148.0
1071.70752 192.0
1071.824829 180.0
1072.020386 136.0
1072.783936 140.0
1072.965454 188.0
1077.285889 172.0
1077.344604 168.0
1081.575684 136.0
1085.86084 84.0
1086.542969 120.0
1092.547852 184.0
1092.751831 256.0
1093.587524 168.0
1094.719971 156.0
1095.286377 192.0
1097.968994 204.0
1100.460327 180.0
1100.819946 240.0
1103.088623 352.0
1104.117676 160.0
1109.030518 132.0
1109.083496 88.0
1110.184082 92.0
1110.402954 52.0
1114.033936 144.0
1114.970825 160.0
1116.12085 244.0
1119.847656 184.0
1120.114136 204.0
1120.740356 176.0
1121.946777 140.0
1123.600708 152.0
1124.661743 160.0
1125.062256 72.0
1125.182495 156.0
1125.636475 164.0
1126.411255 164.0
1126.711914 156.0
1127.219727 148.0
1130.248901 176.0
1131.547363 112.0
1135.668701 180.0
1135.836426 188.0
1136.775757 180.0
1137.346191 228.0
1137.594604 156.0
1138.897339 124.0
1138.971191 156.0
1140.429321 104.0
1141.007446 164.0
1142.540894 220.0
1143.429077 164.0
1146.075684 208.0
1149.433716 168.0
1150.047852 152.0
1152.526367 136.0
1153.472534 72.0
1155.528442 152.0
1156.631592 128.0
1160.086304 208.0
1162.636719 176.0
1163.322266 144.0
1164.544556 188.0
1166.59668 188.0
1168.507812 152.0
1169.69873 204.0
1170.182129 68.0
1173.854858 72.0
1174.025391 120.0
1175.59436 196.0
1175.963013 72.0
1176.515869 108.0
1176.693359 120.0
1178.558105 228.0
1181.443359 56.0
1187.443848 84.0
1188.102417 104.0
1188.198486 204.0
1190.230103 152.0
1191.610718 200.0
1199.24939 156.0
1199.552734 168.0
1200.745605 148.0
1202.311768 40.0
1203.38855 172.0
1204.638672 108.0
1204.970215 176.0
1206.691284 248.0
1206.77417 188.0
1207.209839 80.0
1207.936035 200.0
1208.122925 196.0
1213.379395 120.0
1213.7677 164.0
1214.877441 152.0
1214.995361 184.0
1215.397827 180.0
1215.765625 76.0
1217.320679 184.0
1217.431763 244.0
1218.821167 208.0
1219.384033 172.0
1219.717651 192.0
1222.068359 148.0
1224.616211 172.0
1224.839111 168.0
1225.584595 156.0
1228.938477 140.0
1229.512573 200.0
1229.768921 100.0
1230.599731 208.0
1230.934814 124.0
1233.890503 56.0
1235.394165 136.0
1236.163818 84.0
1238.65625 228.0
1239.041626 224.0
1242.638306 176.0
1246.493286 236.0
1249.235352 76.0
1249.86084 172.0
1250.08667 128.0
1251.283325 144.0
1251.35376 120.0
1252.360718 136.0
1254.072998 68.0
1254.587524 200.0
1255.00354 72.0
1255.680542 140.0
1256.005005 112.0
1256.244873 116.0
1256.738647 160.0
1258.517456 236.0
1258.623291 164.0
1259.061157 148.0
1260.191406 116.0
1260.98999 212.0
1263.097046 168.0
1263.380005 72.0
1263.847046 128.0
1266.360229 116.0
1267.819702 132.0
1268.443359 184.0
1269.194946 148.0
1269.535278 204.0
1270.812134 116.0
1271.841187 104.0
1272.039917 216.0
1272.203247 92.0
1272.742798 68.0
1273.381958 200.0
1273.538208 56.0
1273.921875 128.0
1275.37146 180.0
1277.063721 156.0
1277.134888 68.0
1282.774536 128.0
1284.514526 212.0
1284.885498 116.0
1285.135254 172.0
1286.2771 92.0
1287.605225 196.0
1287.755249 164.0
1289.348511 204.0
1290.942749 80.0
1291.922607 164.0
1292.630981 168.0
1295.3302 212.0
1301.397583 140.0
1301.512451 232.0
1302.194702 180.0
1303.12854 92.0
1303.609985 132.0
1303.919067 136.0
1307.659058 148.0
1309.63916 172.0
1310.04248 212.0
1311.267456 156.0
1312.197388 80.0
1312.514648 148.0
1313.077148 80.0
1313.134888 192.0
1314.722168 152.0
1316.924194 196.0
1317.581543 196.0
1318.137939 164.0
1318.513672 208.0
1318.593262 208.0
1318.70166 104.0
1319.83667 36.0
1320.863647 164.0
1320.928711 144.0
1321.869263 144.0
1323.679077 120.0
1323.773193 72.0
1324.642334 48.0
1324.765503 236.0
1327.222534 84.0
1327.759155 56.0
1328.912476 244.0
1331.126465 180.0
1331.409668 120.0
1332.862549 212.0
1333.981812 128.0
1334.556274 304.0
1335.254272 116.0
1336.578369 228.0
1336.908691 192.0
1337.145996 84.0
1338.26709 156.0
1338.856934 76.0
1339.381348 124.0
1339.519775 172.0
1339.658081 64.0
1340.605835 188.0
1344.302734 196.0
1344.689453 160.0
1345.309937 68.0
1347.84436 128.0
1348.443604 168.0
1349.832642 136.0
1352.49585 64.0
1353.513428 92.0
1354.392334 172.0
1357.419189 220.0
1359.414551 72.0
1360.86792 136.0
1361.301147 160.0
1361.51416 172.0
1362.035645 224.0
1364.10791 220.0
1364.188721 180.0
1364.313721 156.0
1365.674194 236.0
1368.713623 48.0
1373.260742 184.0
1373.378784 80.0
1375.658936 184.0
1375.924683 200.0
1376.544922 180.0
1376.670532 216.0
1377.401733 180.0
1377.970581 76.0
1378.458252 256.0
1378.546875 132.0
1379.744385 156.0
1380.003174 176.0
1380.528076 172.0
1380.971924 152.0
1381.400879 148.0
1382.954834 64.0
1384.53186 136.0
1385.168823 172.0
1385.235596 160.0
1386.109863 112.0
1386.19873 84.0
1388.756592 52.0
1389.379639 180.0
1389.817383 140.0
1391.665649 92.0
1392.43396 208.0
1392.920776 132.0
1393.329346 140.0
1393.477905 152.0
1393.559692 160.0
1394.82312 184.0
1395.23938 180.0
1395.759888 216.0
1396.049927 148.0
1397.120972 184.0
1398.698608 72.0
1400.694336 180.0
1401.81189 108.0
1401.981567 136.0
1402.087646 164.0
1402.572144 132.0
1403.03894 280.0
1404.376587 172.0
1405.719482 160.0
1405.96582 148.0
1406.831665 192.0
1408.123413 180.0
1408.840576 156.0
1409.430786 116.0
1409.909058 144.0
1409.983765 252.0
1410.40979 72.0
1412.683105 148.0
1412.930054 100.0
1413.102051 140.0
1414.142212 48.0
1415.834351 172.0
1416.047852 228.0
1416.635864 292.0
1416.800659 148.0
1416.995361 172.0
1417.477661 100.0
1417.707275 128.0
1417.992065 208.0
1418.509277 140.0
1418.869141 164.0
1420.211426 184.0
1420.714111 172.0
1422.027222 228.0
1422.425049 124.0
1424.099487 56.0
1424.182129 188.0
1424.437622 124.0
1425.11377 164.0
1425.34668 220.0
1425.6698 68.0
1426.08313 152.0
1426.466553 216.0
1426.744629 144.0
1427.090576 204.0
1427.173218 176.0
1427.519165 144.0
1427.880127 208.0
1428.873047 148.0
1429.106323 132.0
1430.024414 196.0
1431.123535 192.0
1432.652466 88.0
1433.097046 212.0
1434.023926 216.0
1434.73999 136.0
1435.599609 136.0
1435.88623 128.0
1435.946533 76.0
1436.512329 172.0
1439.025513 164.0
1439.78064 112.0
1439.901489 152.0
1440.05249 180.0
1440.339478 156.0
1440.747437 252.0
1442.621704 136.0
1443.438232 164.0
1448.880371 128.0
1450.865967 176.0
1451.131348 132.0
1451.449829 144.0
1453.164062 156.0
1453.998779 188.0
1454.256836 160.0
1455.076782 132.0
1455.95752 196.0
1456.291748 40.0
1458.958984 140.0
1459.726929 216.0
1461.065674 188.0
1461.385254 164.0
1461.948364 168.0
1462.541992 156.0
1464.392212 140.0
1464.651245 200.0
1465.832153 140.0
1468.302124 128.0
1469.187012 64.0
1470.23999 192.0
1470.468994 148.0
1471.201782 184.0
1475.120728 144.0
1476.015259 96.0
1478.769409 48.0
1478.899536 264.0
1479.548462 148.0
1480.055542 156.0
1480.262329 100.0
1480.54834 180.0
1480.760132 160.0
1481.150757 112.0
1482.238647 52.0
1482.292358 160.0
1482.897827 112.0
1483.173706 128.0
1483.227417 40.0
1483.587646 188.0
1483.736816 128.0
1484.300659 56.0
1484.630493 124.0
1485.481812 240.0
1485.819458 248.0
1486.537842 108.0
1488.398315 128.0
1489.220093 204.0
1490.165039 132.0
1491.386963 212.0
1491.517578 180.0
1491.942383 192.0
1493.266357 188.0
1493.847656 152.0
1494.301514 220.0
1494.932495 200.0
1495.656006 44.0
1495.717529 112.0
1496.733765 52.0
1497.003296 164.0
1498.220337 164.0
1498.420654 80.0
1499.175781 220.0
1499.753906 192.0
1501.249634 124.0
1501.781738 132.0
1502.429688 144.0
1502.900391 224.0
1503.293945 148.0
