>compound MLS001401464-01!alosetron??monohydrochloride
>formula C17H18N4O
>ionization [M+H]+
>parentmass 295.1553376480905
#inchi InChI=1S/C17H18N4O/c1-11-13(19-10-18-11)9-21-8-7-15-16(17(21)22)12-5-3-4-6-14(12)20(15)2/h3-6,10H,7-9H2,1-2H3,(H,18,19)
#inchikey JSWZEAMFRNKZNL
#origInchi InChI=1S/C17H18N4O.ClH/c1-11-13(19-10-18-11)9-21-8-7-15-16(17(21)22)12-5-3-4-6-14(12)20(15)2;/h3-6,10H,7-9H2,1-2H3,(H,18,19);1H
#Ion_Source LC-ESI
#Instrument qTof
#Compound_Source NIH Pharmacologically Active Library
#PI Dorrestein
#Data_Collector VP/LMS
#Scan -1
#Precursor_MZ 295.159
#ExactMass 294.148
#Charge 1
#CAS_Number N/A
#Pubmed_ID N/A
#Smiles Cc1[nH]cnc1CN2CCc3c(C2=O)c4ccccc4n3C.Cl
#INCHI_AUX N/A
#Library_Class 1
#SpectrumID CCMSLIB00000085720
#IonMode Positive
#UpdateWorkflowName UPDATE-SINGLE-ANNOTATED-GOLD
#LibraryQualityString Gold
#TaskID d252d724072548979f1f6f1ced849daf
##Scan# 1376
#SpectrumFile p4-E07_GE7_01_18379.mzXML
#LibraryName Pharm_Active_Library.mgf
#MQScore -1
#Organism Pharm_Active_Library
#TIC_Query 0
#RT_Query -1
#MZErrorPPM -1
#SharedPeaks 0
#MassDiff 0
#LibMZ -1
#SpecMZ 295.159
#SpecCharge 0
#internalFilename spec-00000.mgf

>collision 10
44.897778 140.0
44.959148 200.0
44.969822 56.0
45.032578 124.0
45.05014 216.0
45.103394 108.0
45.123447 368.0
45.134144 60.0
45.144844 108.0
45.204552 196.0
45.231812 120.0
45.24118 152.0
45.286709 344.0
45.300106 156.0
45.318863 120.0
45.33923 180.0
45.359066 140.0
45.371132 60.0
45.415756 216.0
45.458317 184.0
45.49538 176.0
45.57724 164.0
45.628906 148.0
45.702881 156.0
45.728451 116.0
45.748642 108.0
45.764603 416.0
45.776917 184.0
45.811935 144.0
45.832062 128.0
45.867188 164.0
45.88876 100.0
45.908787 136.0
45.934612 160.0
45.945404 200.0
45.957546 172.0
46.008835 172.0
46.089874 136.0
46.100685 56.0
46.130421 208.0
46.208858 44.0
46.223816 148.0
46.249458 304.0
46.258934 128.0
46.38356 164.0
46.503452 216.0
46.540699 228.0
46.606796 156.0
46.693138 52.0
46.73531 116.0
46.761166 124.0
46.770695 76.0
46.814262 132.0
46.85104 184.0
46.864662 232.0
46.927597 184.0
47.039234 176.0
47.07473 180.0
47.085655 124.0
47.104778 116.0
47.123142 200.0
47.196728 216.0
47.268265 124.0
47.279797 164.0
47.30991 156.0
47.344139 132.0
47.367424 108.0
47.38258 192.0
47.394497 200.0
47.430458 208.0
47.465317 132.0
47.580467 232.0
47.601959 44.0
47.638229 220.0
47.650032 60.0
47.661026 148.0
47.746258 152.0
47.863228 232.0
47.894905 44.0
47.905926 144.0
47.940372 200.0
47.991375 164.0
48.012058 132.0
48.080032 148.0
48.107265 236.0
48.116932 84.0
48.145927 132.0
48.15974 108.0
48.208096 196.0
48.306263 108.0
48.340855 196.0
48.362999 112.0
48.404533 356.0
48.429462 136.0
48.523693 188.0
48.541721 116.0
48.552814 212.0
48.57917 144.0
48.588879 128.0
48.616631 168.0
48.643005 100.0
48.688927 160.0
48.719517 164.0
48.747173 120.0
48.756901 80.0
48.770798 140.0
48.793583 208.0
48.830585 108.0
48.845886 152.0
48.908504 60.0
48.975342 168.0
49.007381 60.0
49.021317 224.0
49.04501 156.0
49.067314 76.0
49.097992 260.0
49.137051 152.0
49.156586 112.0
49.202648 176.0
49.251625 220.0
49.27108 220.0
49.281052 148.0
49.294834 180.0
49.375919 128.0
49.403896 124.0
49.416485 172.0
49.520077 124.0
49.542492 116.0
49.575954 236.0
49.595741 120.0
49.61116 44.0
49.625179 172.0
49.648102 208.0
49.671463 112.0
49.703732 168.0
49.785149 28.0
49.840069 192.0
49.886314 112.0
49.980213 184.0
50.083038 140.0
50.10445 200.0
50.135452 156.0
50.145317 72.0
50.212936 188.0
50.262367 100.0
50.331535 100.0
50.388035 184.0
50.441765 196.0
50.593105 140.0
50.64975 96.0
50.691154 124.0
50.70359 96.0
50.716145 168.0
50.79179 156.0
50.80994 120.0
50.852356 180.0
50.907112 140.0
50.920662 192.0
51.012947 148.0
51.059948 168.0
51.086933 148.0
51.106892 104.0
51.125393 148.0
51.14674 144.0
51.184689 220.0
51.203693 64.0
51.223637 156.0
51.236458 144.0
51.254978 100.0
51.290607 236.0
51.308846 268.0
51.389011 184.0
51.404709 336.0
51.417553 160.0
51.48037 272.0
51.52179 140.0
51.538937 128.0
51.62291 156.0
51.641869 164.0
51.67334 164.0
51.69194 152.0
51.733944 168.0
51.75922 140.0
51.83514 116.0
51.866673 148.0
51.892475 148.0
51.902512 40.0
51.972797 196.0
51.997196 124.0
52.043133 144.0
52.061798 176.0
52.087654 280.0
52.101261 144.0
52.161407 172.0
52.189693 48.0
52.245712 156.0
52.262779 212.0
52.283321 140.0
52.297588 100.0
52.350094 256.0
52.362381 80.0
52.379665 164.0
52.438744 240.0
52.509392 172.0
52.558441 172.0
52.587303 52.0
52.629169 72.0
52.678272 224.0
52.709507 168.0
52.741856 164.0
52.775105 180.0
52.809814 124.0
52.832958 148.0
52.886501 196.0
52.937172 84.0
52.956001 156.0
52.969921 200.0
53.05019 48.0
53.063236 192.0
53.116493 188.0
53.167679 168.0
53.177837 172.0
53.205418 152.0
53.242863 132.0
53.311451 248.0
53.402214 168.0
53.472885 200.0
53.483074 208.0
53.506367 44.0
53.53112 160.0
53.590206 284.0
53.625816 168.0
53.663719 244.0
53.704552 176.0
53.743942 188.0
53.799404 196.0
53.841747 204.0
53.990818 208.0
54.037312 204.0
54.053722 264.0
54.133308 284.0
54.193493 188.0
54.206017 168.0
54.258785 92.0
54.306473 152.0
54.326248 80.0
54.346786 160.0
54.362926 132.0
54.382008 224.0
54.427517 168.0
54.493439 168.0
54.498142 148.0
54.502693 180.0
54.553871 232.0
54.567104 156.0
54.636227 108.0
54.664185 112.0
54.680344 196.0
54.693619 176.0
54.711285 116.0
54.740734 168.0
54.752514 144.0
54.768188 156.0
54.797039 160.0
54.82618 116.0
54.842392 180.0
54.865974 144.0
54.913162 192.0
54.923489 172.0
54.966274 180.0
54.981617 176.0
55.022362 196.0
55.038605 152.0
55.071903 284.0
55.113937 156.0
55.14645 196.0
55.193157 168.0
55.230427 196.0
55.251438 136.0
55.266235 168.0
55.298321 252.0
55.398003 156.0
55.423191 120.0
55.433949 108.0
55.452827 220.0
55.518063 124.0
55.544796 164.0
55.591763 236.0
55.669434 84.0
55.699139 180.0
55.715397 140.0
55.724808 144.0
55.745827 132.0
55.758572 96.0
55.768978 100.0
55.847782 148.0
55.865566 184.0
55.907295 252.0
55.925156 188.0
55.960884 208.0
55.975773 188.0
56.014721 80.0
56.049316 248.0
56.106892 44.0
56.123295 172.0
56.14119 136.0
56.156101 204.0
56.166542 104.0
56.212002 212.0
56.233921 204.0
56.245152 188.0
56.357639 224.0
56.40546 84.0
56.441345 96.0
56.457794 160.0
56.471252 156.0
56.484715 68.0
56.50288 140.0
56.540077 56.0
56.559536 48.0
56.574505 180.0
56.631081 128.0
56.668858 156.0
56.681377 124.0
56.701828 40.0
56.712318 196.0
56.809788 168.0
56.836792 192.0
56.919353 44.0
56.934372 124.0
56.956902 184.0
56.96936 288.0
56.982437 148.0
57.07563 228.0
57.107212 136.0
57.126766 180.0
57.15836 216.0
57.204323 176.0
57.235619 148.0
57.265427 136.0
57.36018 172.0
57.443115 120.0
57.492908 200.0
57.515327 164.0
57.544231 136.0
57.561275 208.0
57.616726 28.0
57.637878 236.0
57.69772 196.0
57.71944 180.0
57.752705 168.0
57.781521 92.0
57.814812 196.0
57.82692 200.0
57.88596 172.0
57.914738 100.0
57.942005 144.0
57.982918 68.0
58.001106 168.0
58.036034 212.0
58.154766 184.0
58.211349 216.0
58.224148 164.0
58.281872 72.0
58.298588 148.0
58.318348 84.0
58.340557 188.0
58.35331 228.0
58.385242 192.0
58.401814 152.0
58.453701 228.0
58.494312 176.0
58.513065 120.0
58.53286 68.0
58.566364 212.0
58.578548 184.0
58.609135 160.0
58.629032 212.0
58.672241 260.0
58.703529 48.0
58.726406 196.0
58.743324 220.0
58.786762 272.0
58.837807 208.0
58.862236 184.0
58.874451 104.0
58.893105 132.0
58.954319 144.0
58.993633 148.0
59.164593 208.0
59.215508 172.0
59.22776 200.0
59.27158 120.0
59.287518 188.0
59.302841 188.0
59.38316 52.0
59.397163 148.0
59.466957 160.0
59.500729 128.0
59.51762 128.0
59.53912 168.0
59.594421 156.0
59.619007 96.0
59.660507 152.0
59.731247 156.0
59.743553 124.0
59.782021 132.0
59.824936 272.0
59.90802 204.0
59.936012 132.0
60.037167 168.0
60.107174 140.0
60.125153 172.0
60.139164 192.0
60.159649 156.0
60.192074 136.0
60.210606 84.0
60.280125 208.0
60.294647 188.0
60.355804 196.0
60.408455 120.0
60.442352 176.0
60.445278 160.0
60.496662 140.0
60.526756 140.0
60.541565 160.0
60.591133 216.0
60.601978 132.0
60.646919 152.0
60.764778 84.0
60.786503 108.0
60.800468 168.0
60.81599 168.0
60.831306 180.0
60.865669 172.0
60.896729 148.0
60.94178 116.0
60.991684 252.0
61.013275 152.0
61.06459 96.0
61.151722 144.0
61.178185 108.0
61.212437 160.0
61.235798 176.0
61.305904 104.0
61.323048 140.0
61.363579 192.0
61.379704 188.0
61.402565 136.0
61.514912 140.0
61.528961 164.0
61.542732 200.0
61.560188 96.0
61.597198 144.0
61.602798 100.0
61.60614 172.0
61.644337 208.0
61.699253 136.0
61.711761 204.0
61.733654 176.0
61.74773 144.0
61.769627 128.0
61.832214 120.0
61.861954 164.0
61.872913 232.0
61.941818 160.0
61.987904 212.0
62.007629 188.0
62.039722 168.0
62.081314 192.0
62.122093 52.0
62.155041 132.0
62.172302 104.0
62.228813 80.0
62.239803 108.0
62.261791 132.0
62.329342 176.0
62.3592 156.0
62.371048 172.0
62.434181 168.0
62.45565 176.0
62.505459 204.0
62.57629 112.0
62.589153 188.0
62.602802 196.0
62.640858 192.0
62.661339 96.0
62.678673 144.0
62.691277 172.0
62.705463 144.0
62.721226 124.0
62.746449 172.0
62.792179 192.0
62.830036 144.0
62.871059 232.0
62.889999 116.0
62.924732 92.0
62.946838 160.0
62.957951 108.0
62.961544 140.0
62.997379 168.0
63.014759 180.0
63.03688 228.0
63.052681 168.0
63.117496 188.0
63.169689 176.0
63.188675 144.0
63.213993 208.0
63.255142 144.0
63.314701 140.0
63.354912 228.0
63.378677 132.0
63.394524 152.0
63.4072 124.0
63.427807 116.0
63.502331 156.0
63.548336 152.0
63.578484 120.0
63.59277 192.0
63.653099 96.0
63.685669 236.0
63.712433 144.0
63.75 108.0
63.78252 156.0
63.827892 124.0
63.86821 160.0
63.907425 220.0
63.93766 172.0
63.983822 196.0
64.001335 116.0
64.080597 152.0
64.125595 140.0
64.144722 188.0
64.18383 196.0
64.254761 304.0
64.31221 160.0
64.357239 176.0
64.374474 132.0
64.497498 56.0
64.5467 220.0
64.582245 132.0
64.604637 100.0
64.62384 152.0
64.644608 184.0
64.663315 144.0
64.697464 128.0
64.711868 136.0
64.75264 104.0
64.817413 264.0
64.891319 40.0
64.929802 136.0
64.958679 188.0
65.055229 168.0
65.077438 156.0
65.11277 132.0
65.141678 188.0
65.185059 212.0
65.230064 220.0
65.286339 176.0
65.358727 152.0
65.369987 136.0
65.397354 192.0
65.412537 148.0
65.465363 164.0
65.532814 104.0
65.559013 148.0
65.606766 232.0
65.683067 228.0
65.760002 196.0
65.772919 72.0
65.790672 144.0
65.879501 240.0
65.892426 120.0
65.965149 172.0
66.023354 132.0
66.054359 188.0
66.134995 140.0
66.188416 160.0
66.206657 228.0
66.227287 84.0
66.274269 184.0
66.314781 224.0
66.330994 40.0
66.343521 208.0
66.361794 180.0
66.444969 184.0
66.465607 76.0
66.477303 76.0
66.522949 132.0
66.525963 168.0
66.548958 124.0
66.597107 156.0
66.632683 164.0
66.69622 200.0
66.758003 168.0
66.775894 160.0
66.797043 140.0
66.824699 128.0
66.853989 120.0
66.867004 168.0
66.904442 156.0
66.933868 224.0
66.984238 156.0
67.028229 240.0
67.109734 100.0
67.150497 176.0
67.189651 112.0
67.205963 148.0
67.231331 192.0
67.267982 212.0
67.3088 220.0
67.432259 308.0
67.472191 152.0
67.515022 188.0
67.621048 204.0
67.675072 44.0
67.752052 128.0
67.784653 192.0
67.837265 188.0
67.887558 220.0
67.915977 144.0
67.935364 196.0
68.007866 80.0
68.043983 216.0
68.102043 212.0
68.12281 148.0
68.242783 136.0
68.261803 212.0
68.277321 152.0
68.313507 164.0
68.352989 168.0
68.388298 144.0
68.402367 184.0
68.417183 128.0
68.551811 56.0
68.657753 152.0
68.682495 196.0
68.713524 296.0
68.736938 160.0
68.748489 248.0
68.764992 152.0
68.958237 148.0
68.969246 140.0
69.125275 144.0
69.145134 48.0
69.164993 160.0
69.28257 164.0
69.323814 148.0
69.376572 144.0
69.396927 148.0
69.463264 320.0
69.531296 52.0
69.562836 180.0
69.576111 116.0
69.599358 140.0
69.674294 140.0
69.690712 108.0
69.720245 188.0
69.732262 140.0
69.798759 164.0
69.810402 120.0
69.824661 164.0
69.887833 232.0
69.921867 180.0
69.936844 184.0
70.043411 168.0
70.065399 284.0
70.105057 332.0
70.120056 88.0
70.144249 328.0
70.240112 40.0
70.255127 176.0
70.281822 176.0
70.32354 152.0
70.365273 132.0
70.417038 168.0
70.428734 180.0
70.468826 116.0
70.487206 180.0
70.512276 156.0
70.537346 124.0
70.639351 176.0
70.671143 184.0
70.720139 216.0
70.762459 220.0
70.773239 384.0
70.826881 204.0
70.843582 236.0
70.907257 160.0
70.935829 180.0
70.974312 136.0
70.986053 184.0
71.00959 224.0
71.031334 192.0
71.05986 248.0
71.07637 224.0
71.082275 188.0
71.215981 156.0
71.333603 208.0
71.348732 164.0
71.387405 136.0
71.422729 196.0
71.474876 120.0
71.611244 144.0
71.673576 116.0
71.69548 152.0
71.751434 208.0
71.843864 180.0
71.862427 176.0
71.884361 104.0
71.911362 144.0
71.933304 208.0
71.972137 56.0
71.999199 168.0
72.061661 212.0
72.110664 120.0
72.149544 64.0
72.190125 108.0
72.213799 156.0
72.252708 116.0
72.283165 164.0
72.295013 192.0
72.313629 188.0
72.391502 168.0
72.416908 164.0
72.431526 184.0
72.491455 224.0
72.514732 244.0
72.58638 104.0
72.64032 196.0
72.694954 116.0
72.718712 208.0
72.739929 168.0
72.803596 168.0
72.866806 152.0
72.927628 160.0
72.954826 160.0
73.004135 120.0
73.017365 164.0
73.048355 76.0
73.082382 168.0
73.1045 176.0
73.117844 172.0
73.137619 216.0
73.158012 192.0
73.210052 208.0
73.227081 64.0
73.338844 168.0
73.358284 48.0
73.44696 128.0
73.484489 152.0
73.530563 160.0
73.549339 52.0
73.561287 240.0
73.610802 204.0
73.624466 60.0
73.661476 192.0
73.783806 128.0
73.800476 212.0
73.819283 132.0
73.843117 180.0
73.860329 84.0
73.873093 188.0
73.935654 164.0
73.958977 148.0
73.978409 128.0
74.038338 88.0
74.054916 188.0
74.125702 140.0
74.146271 152.0
74.178841 124.0
74.198372 172.0
74.317757 176.0
74.346924 148.0
74.377823 204.0
74.43454 108.0
74.463669 100.0
74.488388 124.0
74.53067 136.0
74.549049 248.0
74.566757 176.0
74.604576 168.0
74.638962 164.0
74.660553 188.0
74.675079 152.0
74.735291 184.0
74.831673 152.0
74.857605 132.0
74.900558 208.0
74.926399 176.0
75.048775 236.0
75.07119 144.0
75.103386 252.0
75.164345 216.0
75.202309 176.0
75.223022 204.0
75.248924 172.0
75.318001 172.0
75.383705 132.0
75.435501 188.0
75.47258 224.0
75.523689 176.0
75.591293 164.0
75.70369 188.0
75.755653 172.0
75.769508 212.0
75.818031 140.0
75.899506 140.0
75.92205 152.0
76.019196 128.0
76.034821 128.0
76.078209 224.0
76.099045 116.0
76.198044 60.0
76.214706 176.0
76.249481 48.0
76.277985 164.0
76.338837 220.0
76.357971 164.0
76.392761 176.0
76.461716 204.0
76.500656 184.0
76.533737 88.0
76.577271 156.0
76.634125 176.0
76.728874 228.0
76.749802 272.0
76.770721 228.0
76.817818 204.0
76.8405 348.0
76.854454 188.0
76.945213 164.0
76.973152 132.0
77.121651 120.0
77.189835 140.0
77.214317 148.0
77.263298 144.0
77.308792 168.0
77.354568 180.0
77.401573 120.0
77.413826 40.0
77.429588 112.0
77.44886 152.0
77.469086 184.0
77.524193 184.0
77.55378 204.0
77.592552 184.0
77.650635 200.0
77.673225 124.0
77.697784 168.0
77.734108 204.0
77.783775 192.0
77.871567 192.0
77.912071 140.0
77.943596 164.0
77.955902 160.0
77.976128 172.0
78.004662 156.0
78.024452 180.0
78.042686 140.0
78.077202 96.0
78.109657 140.0
78.165245 164.0
78.188042 220.0
78.221481 172.0
78.239403 44.0
78.292694 244.0
78.306 196.0
78.321854 116.0
78.358849 152.0
78.389626 172.0
78.46283 164.0
78.497765 192.0
78.513969 100.0
78.529839 152.0
78.566887 312.0
78.579239 156.0
78.831741 180.0
78.854713 128.0
78.898911 68.0
78.934944 136.0
79.028015 180.0
79.073235 192.0
79.100578 164.0
79.134216 180.0
79.187836 188.0
79.230766 156.0
79.244026 140.0
79.281242 180.0
79.297195 156.0
79.318459 184.0
79.385834 172.0
79.435501 172.0
79.471199 164.0
79.50647 112.0
79.533096 152.0
79.616539 232.0
79.646736 176.0
79.673386 196.0
79.717804 156.0
79.796013 116.0
79.824463 120.0
79.92942 180.0
79.943649 180.0
79.963226 136.0
80.102112 164.0
80.143089 140.0
80.178734 76.0
80.205467 132.0
80.232208 156.0
80.273216 324.0
80.288559 204.0
80.303535 180.0
80.317802 120.0
80.359726 144.0
80.40876 160.0
80.438461 156.0
80.516289 216.0
80.544502 164.0
80.639198 96.0
80.750053 168.0
80.801468 160.0
80.823402 184.0
80.880669 196.0
80.932823 152.0
80.98452 160.0
81.027519 240.0
81.093338 164.0
81.123505 136.0
81.145805 100.0
81.204987 112.0
81.22113 136.0
81.254417 192.0
81.280334 128.0
81.350327 172.0
81.371124 220.0
81.411377 200.0
81.427544 124.0
81.491043 148.0
81.508255 164.0
81.522346 104.0
81.527336 132.0
81.564346 172.0
81.579536 68.0
81.600052 92.0
81.675583 168.0
81.725952 180.0
81.761948 208.0
81.833389 160.0
81.850159 104.0
81.880768 160.0
81.929405 124.0
82.012299 124.0
82.034286 244.0
82.129639 156.0
82.155861 216.0
82.172798 128.0
82.210541 144.0
82.230545 272.0
82.275673 236.0
82.396057 152.0
82.432945 164.0
82.481613 156.0
82.50692 60.0
82.544891 144.0
82.602768 128.0
82.70414 160.0
82.738495 76.0
82.756599 192.0
82.788223 180.0
82.841721 168.0
82.968758 160.0
83.086464 212.0
83.155418 184.0
83.180733 148.0
83.233482 204.0
83.246193 184.0
83.262535 52.0
83.279518 148.0
83.297607 232.0
83.321442 128.0
83.360703 172.0
83.389717 48.0
83.424255 160.0
83.473343 188.0
83.486076 164.0
83.504463 212.0
83.551552 92.0
83.570648 132.0
83.686241 160.0
83.713554 184.0
83.726303 40.0
83.744514 76.0
83.782768 140.0
83.81192 132.0
83.845146 172.0
83.918777 192.0
83.951355 228.0
84.013641 312.0
84.085464 128.0
84.116493 64.0
84.187698 172.0
84.209488 172.0
84.262596 204.0
84.392365 192.0
84.41613 160.0
84.456367 100.0
84.472832 140.0
84.489296 124.0
84.507591 128.0
84.527718 108.0
84.544189 152.0
84.593613 120.0
84.617409 84.0
84.632057 200.0
84.681503 200.0
84.749283 108.0
84.795097 132.0
84.815262 120.0
84.877594 56.0
84.895935 168.0
84.965637 140.0
84.993156 128.0
85.018845 188.0
85.099579 204.0
85.130829 96.0
85.20063 200.0
85.236511 220.0
85.257118 156.0
85.263992 116.0
85.288841 396.0
85.428589 188.0
85.442268 152.0
85.490837 164.0
85.508591 160.0
85.524277 244.0
85.540977 172.0
85.632912 156.0
85.688179 180.0
85.718735 192.0
85.82457 108.0
85.86145 224.0
85.874367 116.0
85.918495 156.0
86.012749 124.0
86.054695 272.0
86.069023 160.0
86.101379 168.0
86.116829 216.0
86.160484 160.0
86.221466 180.0
86.243912 140.0
86.395279 160.0
86.423035 192.0
86.441536 172.0
86.485474 184.0
86.50396 176.0
86.554451 104.0
86.667442 176.0
86.685974 228.0
86.730453 212.0
86.745285 52.0
86.767532 136.0
86.78978 140.0
86.808327 76.0
86.821304 224.0
86.836143 180.0
86.867775 152.0
86.88623 140.0
86.962311 164.0
86.986443 228.0
87.011147 260.0
87.055138 124.0
87.090424 132.0
87.112717 224.0
87.13501 204.0
87.151733 156.0
87.171814 144.0
87.179474 116.0
87.211823 192.0
87.259537 204.0
87.3395 156.0
87.385262 192.0
87.421364 200.0
87.465401 188.0
87.490723 168.0
87.558418 168.0
87.581482 128.0
87.648987 204.0
87.670563 172.0
87.687683 260.0
87.713776 156.0
87.75666 100.0
87.778412 180.0
87.826653 180.0
87.845757 136.0
87.86483 176.0
87.900284 156.0
87.92514 212.0
87.965607 204.0
88.009201 196.0
88.109406 128.0
88.175507 192.0
88.204712 196.0
88.277634 240.0
88.32412 192.0
88.328949 164.0
88.388 144.0
88.404839 252.0
88.417938 120.0
88.446014 128.0
88.487206 116.0
88.556488 300.0
88.609009 292.0
88.655785 128.0
88.689522 196.0
88.72139 108.0
88.813278 208.0
88.832039 356.0
88.892075 48.0
88.978416 160.0
89.007988 240.0
89.14183 168.0
89.177544 124.0
89.235817 112.0
89.250862 136.0
89.307274 368.0
89.405113 172.0
89.429581 140.0
89.461578 200.0
89.482292 148.0
89.519951 32.0
89.565147 164.0
89.717789 140.0
89.783783 320.0
89.804535 124.0
89.823395 140.0
89.847923 108.0
89.866791 112.0
89.923401 140.0
89.938499 140.0
89.953598 212.0
90.004578 84.0
90.06501 160.0
90.185944 120.0
90.252106 168.0
90.28804 180.0
90.306953 160.0
90.351036 236.0
90.412903 148.0
90.482941 40.0
90.499977 40.0
90.566261 188.0
90.610542 204.0
90.662888 88.0
90.693214 176.0
90.731354 336.0
90.765404 160.0
90.826347 208.0
90.873375 64.0
90.896141 168.0
90.918915 168.0
90.97966 132.0
91.002441 184.0
91.052711 152.0
91.150597 256.0
91.205711 60.0
91.287468 160.0
91.325508 252.0
91.344528 108.0
91.389511 192.0
91.473923 252.0
91.489159 112.0
91.517715 148.0
91.532944 48.0
91.572083 204.0
91.671181 168.0
91.685349 144.0
91.738716 112.0
91.754997 200.0
91.778755 128.0
91.797829 184.0
91.830521 168.0
91.900871 208.0
91.94281 68.0
92.024895 224.0
92.056984 144.0
92.11657 164.0
92.19873 168.0
92.212105 60.0
92.284752 172.0
92.300049 164.0
92.338379 176.0
92.412903 32.0
92.443512 176.0
92.477005 288.0
92.529648 112.0
92.543053 96.0
92.601791 184.0
92.646477 180.0
92.710289 144.0
92.732704 52.0
92.746124 140.0
92.856094 236.0
92.909119 192.0
92.948334 192.0
92.97052 152.0
92.989716 68.0
93.058823 64.0
93.093269 128.0
93.120277 140.0
93.138123 232.0
93.166885 316.0
93.185593 172.0
93.200958 180.0
93.239395 168.0
93.256691 160.0
93.294876 176.0
93.300552 152.0
93.340271 236.0
93.39978 212.0
93.490387 188.0
93.50148 132.0
93.532387 412.0
93.618393 168.0
93.633797 152.0
93.649208 164.0
93.710854 140.0
93.737831 176.0
93.772514 188.0
93.786011 220.0
93.832275 236.0
93.932556 136.0
93.969215 44.0
93.996223 132.0
94.138115 216.0
94.160164 248.0
94.203766 140.0
94.239525 200.0
94.328423 136.0
94.341957 232.0
94.390297 204.0
94.442513 156.0
94.562469 132.0
94.583763 168.0
94.618607 164.0
94.687424 176.0
94.766838 240.0
94.82782 132.0
94.865852 180.0
94.899956 152.0
94.938332 120.0
94.962456 236.0
94.988525 136.0
95.015251 320.0
95.060204 40132.0
95.114441 156.0
95.129654 164.0
95.163422 48.0
95.188667 180.0
95.203308 208.0
95.239159 96.0
95.268295 40.0
95.293556 72.0
95.316872 76.0
95.343262 172.0
95.379066 220.0
95.460144 176.0
95.478905 276.0
95.509346 132.0
95.56382 72.0
95.579384 152.0
95.606628 160.0
95.731216 72.0
95.746086 120.0
95.792297 56.0
95.805237 232.0
95.836411 188.0
95.867584 156.0
95.882133 148.0
95.908516 196.0
95.929893 116.0
95.957863 88.0
95.978699 196.0
95.994301 156.0
96.028656 356.0
96.063339 2624.0
96.09304 252.0
96.10788 228.0
96.14061 168.0
96.177696 216.0
96.230408 200.0
96.271408 56.0
96.294846 148.0
96.308517 180.0
96.378532 272.0
96.417931 172.0
96.437477 136.0
96.45507 120.0
96.489334 152.0
96.521996 156.0
96.619339 160.0
96.642815 148.0
96.670212 48.0
96.69957 156.0
96.715225 224.0
96.732841 76.0
96.750465 120.0
96.792252 116.0
96.814133 232.0
96.859474 120.0
96.899307 100.0
96.967896 40.0
96.991417 188.0
97.067986 144.0
97.136467 144.0
97.163361 100.0
97.194466 232.0
97.259712 128.0
97.285667 140.0
97.305656 176.0
97.354385 192.0
97.450272 156.0
97.462425 188.0
97.495834 136.0
97.517456 120.0
97.558731 52.0
97.576431 56.0
97.619682 88.0
97.639351 112.0
97.653122 184.0
97.677261 276.0
97.73378 80.0
97.788879 204.0
97.806595 116.0
97.855812 80.0
97.905037 160.0
97.954277 168.0
98.003532 148.0
98.017326 224.0
98.08828 88.0
98.106018 160.0
98.123764 64.0
98.137566 104.0
98.183746 200.0
98.226357 168.0
98.24604 312.0
98.288017 116.0
98.315102 172.0
98.368393 176.0
98.445396 148.0
98.520584 180.0
98.538231 160.0
98.604271 116.0
98.635071 172.0
98.658791 136.0
98.745796 188.0
98.779907 164.0
98.826904 84.0
98.846695 196.0
98.898582 200.0
98.951599 148.0
99.012985 196.0
99.036751 132.0
99.072411 304.0
99.211136 148.0
99.230957 176.0
99.326813 180.0
99.357193 216.0
99.424072 136.0
99.486885 188.0
99.508728 116.0
99.56234 36.0
99.675575 360.0
99.69545 136.0
99.719368 224.0
99.763031 40.0
99.812737 112.0
99.856483 152.0
99.963913 192.0
100.027603 124.0
100.053482 320.0
100.127159 124.0
100.182938 136.0
100.219749 176.0
100.25267 76.0
100.276588 56.0
100.352341 208.0
100.370285 172.0
100.408173 144.0
100.456047 148.0
100.483978 132.0
100.501732 120.0
100.553818 296.0
100.617134 112.0
100.735527 204.0
100.761497 136.0
100.775482 180.0
100.807449 188.0
100.859421 180.0
100.903397 112.0
100.94593 148.0
101.037399 108.0
101.058594 208.0
101.075409 176.0
101.143456 40.0
101.161476 212.0
101.265594 176.0
101.343727 236.0
101.362022 224.0
101.441933 232.0
101.454323 200.0
101.522133 176.0
101.556229 132.0
101.588326 148.0
101.752892 300.0
101.806244 192.0
101.839241 136.0
101.863342 120.0
101.903526 240.0
101.94371 168.0
101.999985 84.0
102.053246 116.0
102.070358 60.0
102.219131 104.0
102.269493 248.0
102.301735 180.0
102.331932 208.0
102.386299 232.0
102.42128 220.0
102.438675 152.0
102.46315 132.0
102.495087 184.0
102.601906 112.0
102.704216 168.0
102.843979 136.0
102.940887 148.0
102.96714 140.0
103.021683 156.0
103.056168 336.0
103.133835 256.0
103.167183 264.0
103.296028 208.0
103.322906 112.0
103.387657 200.0
103.5233 184.0
103.557724 56.0
103.614449 152.0
103.636139 164.0
103.656998 132.0
103.671997 420.0
103.738068 160.0
103.7668 188.0
103.77623 180.0
103.855682 196.0
103.896904 200.0
103.953064 92.0
104.015984 188.0
104.038315 160.0
104.078369 192.0
104.13578 136.0
104.15406 164.0
104.192757 176.0
104.23127 156.0
104.283607 164.0
104.330856 160.0
104.364845 264.0
104.411713 168.0
104.452103 188.0
104.507805 40.0
104.576996 92.0
104.669678 172.0
104.729706 76.0
104.896797 32.0
104.917183 168.0
104.935532 144.0
104.962036 252.0
104.980392 76.0
105.071426 156.0
105.098434 180.0
105.135437 164.0
105.149719 176.0
105.166046 136.0
105.261299 220.0
105.277588 324.0
105.345741 144.0
105.373856 152.0
105.394775 176.0
105.515366 136.0
105.550125 148.0
105.586937 180.0
105.629753 180.0
105.752663 148.0
105.771088 204.0
105.824318 264.0
105.852257 220.0
105.869362 180.0
105.900085 132.0
105.947197 64.0
105.96769 216.0
106.027115 308.0
106.070488 172.0
106.088608 236.0
106.102623 196.0
106.20549 88.0
106.23774 200.0
106.279343 172.0
106.324623 188.0
106.370491 144.0
106.398384 144.0
106.427132 156.0
106.443558 108.0
106.480522 124.0
106.499008 144.0
106.53804 172.0
106.673676 132.0
106.692177 148.0
106.71479 136.0
106.768745 84.0
106.788818 264.0
106.811447 188.0
106.91021 176.0
106.957542 188.0
107.053268 220.0
107.120224 136.0
107.172401 184.0
107.233421 192.0
107.305702 172.0
107.349007 196.0
107.388191 164.0
107.422134 176.0
107.501663 60.0
107.520233 200.0
107.553261 200.0
107.578156 192.0
107.613129 176.0
107.673935 224.0
107.71019 112.0
107.734978 172.0
107.790459 216.0
107.824371 180.0
107.867233 148.0
107.92099 144.0
107.954071 168.0
108.051292 160.0
108.093201 188.0
108.245857 188.0
108.318344 168.0
108.392937 156.0
108.43438 92.0
108.473763 220.0
108.506935 184.0
108.521446 96.0
108.579514 176.0
108.608917 112.0
108.635513 180.0
108.666634 120.0
108.722664 44.0
108.743416 116.0
108.757942 140.0
108.776627 172.0
108.83268 136.0
108.94899 192.0
108.978081 140.0
108.998314 168.0
109.034187 480.0
109.067574 128.0
109.098625 152.0
109.129776 268.0
109.148293 72.0
109.287888 192.0
109.327423 200.0
109.35656 144.0
109.394028 176.0
109.425255 116.0
109.506409 136.0
109.521111 136.0
109.564796 112.0
109.581467 200.0
109.608551 40.0
109.679413 176.0
109.712502 188.0
109.787834 192.0
109.810776 184.0
109.854576 52.0
109.879951 172.0
109.992302 140.0
110.082077 156.0
110.10923 88.0
110.140556 148.0
110.282646 168.0
110.332817 128.0
110.359993 148.0
110.393913 164.0
110.417191 228.0
110.51059 220.0
110.63826 148.0
110.706673 232.0
110.907326 108.0
110.935745 160.0
111.094734 172.0
111.114006 144.0
111.179054 92.0
111.200043 200.0
111.252518 120.0
111.298706 268.0
111.370117 168.0
111.416328 152.0
111.439087 192.0
111.50248 160.0
111.534012 172.0
111.563873 156.0
111.706436 152.0
111.790604 112.0
111.826378 152.0
111.903831 212.0
111.937523 168.0
112.039062 196.0
112.103172 112.0
112.146309 188.0
112.211876 80.0
112.285683 220.0
112.312744 116.0
112.342636 152.0
112.370064 124.0
112.409149 260.0
112.443924 108.0
112.49247 120.0
112.543137 268.0
112.598938 196.0
112.674088 196.0
112.703667 148.0
112.822029 164.0
112.902374 108.0
112.925644 144.0
112.948906 148.0
113.013741 112.0
113.041458 172.0
113.058861 124.0
113.1436 180.0
113.191032 268.0
113.228302 148.0
113.277016 108.0
113.395676 144.0
113.431747 232.0
113.455032 184.0
113.6353 200.0
113.728676 168.0
113.809204 180.0
113.869263 208.0
113.993599 184.0
114.026672 212.0
114.119568 96.0
114.134453 152.0
114.155716 148.0
114.172729 232.0
114.194 136.0
114.214241 116.0
114.253555 192.0
114.296112 212.0
114.321953 140.0
114.421692 172.0
114.438721 96.0
114.482834 224.0
114.596336 124.0
114.611252 92.0
114.653084 140.0
114.696938 156.0
114.852158 132.0
114.958183 196.0
114.995117 152.0
115.053223 2308.0
115.077309 120.0
115.133896 56.0
115.180885 164.0
115.35611 144.0
115.486542 108.0
115.514351 128.0
115.56356 144.0
115.627754 188.0
115.846161 196.0
115.897583 144.0
115.961876 192.0
115.981163 92.0
115.99617 136.0
116.02404 168.0
116.061203 648.0
116.099083 116.0
116.141983 240.0
116.165581 120.0
116.21492 164.0
116.253548 100.0
116.275009 204.0
116.352287 140.0
116.368126 148.0
116.383751 104.0
116.425293 168.0
116.478989 328.0
116.579971 152.0
116.620804 44.0
116.646599 152.0
116.785194 100.0
116.844452 188.0
116.867233 212.0
116.887482 80.0
116.932678 64.0
116.955307 132.0
116.98864 60.0
117.003708 96.0
117.066269 2056.0
117.128967 244.0
117.150154 60.0
117.191093 156.0
117.238495 180.0
117.263023 200.0
117.307472 188.0
117.385086 56.0
117.417007 200.0
117.454102 132.0
117.479988 112.0
117.550064 92.0
117.598671 124.0
117.633209 228.0
117.691498 108.0
117.73037 144.0
117.871445 92.0
117.948593 84.0
117.970207 116.0
118.063217 1004.0
118.146172 180.0
118.212456 136.0
118.266563 92.0
118.301674 144.0
118.409462 188.0
118.500443 96.0
118.52211 148.0
118.556786 352.0
118.643486 80.0
118.720459 208.0
118.747566 120.0
118.830002 96.0
118.850082 204.0
118.86615 152.0
118.929825 184.0
118.958046 156.0
119.073753 360.0
119.125259 132.0
119.170883 124.0
119.240425 244.0
119.281723 156.0
119.403481 120.0
119.420883 156.0
119.478905 220.0
119.594948 120.0
119.660255 180.0
119.706528 160.0
119.738647 80.0
119.790924 128.0
119.841034 152.0
119.869507 184.0
119.921669 148.0
119.952187 164.0
119.967445 164.0
120.078651 160.0
120.107002 124.0
120.152817 192.0
120.168091 232.0
120.230423 184.0
120.285934 248.0
120.329597 156.0
120.386375 140.0
120.491219 108.0
120.512474 88.0
120.707611 208.0
120.730431 184.0
120.823532 228.0
120.847343 136.0
120.871666 188.0
120.911064 140.0
120.946083 168.0
120.981102 192.0
121.065186 144.0
121.108116 104.0
121.147545 124.0
121.16288 124.0
121.24395 168.0
121.266258 112.0
121.336014 104.0
121.441277 100.0
121.495529 224.0
121.586082 156.0
121.629982 156.0
121.645348 148.0
121.660713 148.0
121.761719 112.0
121.908287 224.0
121.939682 208.0
121.981018 144.0
122.02356 196.0
122.104576 280.0
122.141968 84.0
122.161766 140.0
122.252663 128.0
122.345345 124.0
122.350861 52.0
122.359169 172.0
122.480957 208.0
122.500778 176.0
122.517807 192.0
122.611664 148.0
122.632988 116.0
122.677078 132.0
122.716759 208.0
122.79615 148.0
122.875565 128.0
122.897629 228.0
122.985901 152.0
123.01976 320.0
123.100708 188.0
123.257545 124.0
123.306168 160.0
123.350227 124.0
123.49884 168.0
123.569313 96.0
123.606102 172.0
123.622421 156.0
123.648979 240.0
123.684387 144.0
123.722023 204.0
123.764091 132.0
123.823883 176.0
123.879257 176.0
123.974037 180.0
124.056541 140.0
124.104965 176.0
124.17688 224.0
124.242828 184.0
124.369316 156.0
124.453209 208.0
124.526962 156.0
124.61261 144.0
124.653595 156.0
124.68927 152.0
124.760284 60.0
124.94487 220.0
124.972267 128.0
124.9916 116.0
125.020714 140.0
125.184174 184.0
125.225349 68.0
125.336739 132.0
125.448181 80.0
125.486076 232.0
125.561897 152.0
125.724762 180.0
125.872093 208.0
125.903358 48.0
125.948029 60.0
125.997177 144.0
126.026222 204.0
126.055267 140.0
126.08432 112.0
126.200562 96.0
126.220688 132.0
126.25647 212.0
126.272125 192.0
126.303436 140.0
126.339233 208.0
126.402557 172.0
126.444176 204.0
126.681747 144.0
126.731041 136.0
126.776794 200.0
126.861031 324.0
126.887932 196.0
126.970901 212.0
127.008675 360.0
127.055305 368.0
127.085304 32.0
127.177315 196.0
127.197517 176.0
127.273438 220.0
127.319191 168.0
127.363686 160.0
127.395134 88.0
127.417595 104.0
127.48539 212.0
127.565926 268.0
127.583908 76.0
127.601891 184.0
127.65361 156.0
127.709831 176.0
127.784607 168.0
127.867332 144.0
127.988899 176.0
128.006912 168.0
128.048752 368.0
128.092499 172.0
128.134964 188.0
128.140991 160.0
128.26651 160.0
128.296783 172.0
128.333633 296.0
128.383255 172.0
128.437378 172.0
128.509735 160.0
128.529877 48.0
128.555832 168.0
128.590805 108.0
128.780472 140.0
128.827911 196.0
128.879868 224.0
129.066559 1104.0
129.09346 140.0
129.119492 120.0
129.142105 140.0
129.173782 136.0
129.269653 172.0
129.30954 132.0
129.338974 84.0
129.501999 196.0
129.522934 164.0
129.597137 164.0
129.619919 160.0
129.653656 192.0
129.692322 272.0
129.753525 160.0
129.889603 168.0
129.928162 168.0
130.014801 132.0
130.065109 3196.0
130.118805 196.0
130.143723 140.0
130.18692 200.0
130.281113 240.0
130.350494 120.0
130.373138 124.0
130.418671 132.0
130.555084 184.0
130.607391 176.0
130.652893 76.0
130.668823 204.0
130.687027 144.0
130.704453 224.0
130.727982 224.0
130.857498 288.0
130.932877 128.0
130.995514 152.0
131.024582 184.0
131.043381 180.0
131.072021 7484.0
131.11058 284.0
131.128799 144.0
131.185852 160.0
131.224548 132.0
131.242798 88.0
131.286118 100.0
131.400162 140.0
131.416138 132.0
131.436676 172.0
131.509705 128.0
131.582748 164.0
131.701508 272.0
131.7258 176.0
131.756332 252.0
131.794403 120.0
131.809525 144.0
131.932007 124.0
131.958496 324.0
131.989456 140.0
132.026047 136.0
132.053497 32.0
132.078049 2172.0
132.118851 56.0
132.137482 112.0
132.174744 128.0
132.199921 100.0
132.229675 200.0
132.267166 136.0
132.283508 108.0
132.332687 68.0
132.360153 136.0
132.399094 180.0
132.438019 156.0
132.47467 188.0
132.504456 164.0
132.582367 148.0
132.625916 148.0
132.683228 144.0
132.724503 276.0
132.792465 220.0
132.818527 92.0
132.847397 164.0
132.87587 168.0
132.896255 236.0
132.919052 176.0
132.990616 44.0
133.008987 152.0
133.045715 136.0
133.082855 336.0
133.110001 132.0
133.146744 92.0
133.247818 148.0
133.263901 40.0
133.291824 180.0
133.422485 144.0
133.459274 180.0
133.494888 148.0
133.625046 52.0
133.788284 132.0
133.83432 140.0
133.893555 212.0
133.93576 192.0
134.004776 164.0
134.053162 176.0
134.077408 156.0
134.106171 68.0
134.129211 140.0
134.163788 136.0
134.19838 152.0
134.239624 180.0
134.345978 196.0
134.374405 164.0
134.408279 180.0
134.423172 152.0
134.452118 236.0
134.476486 144.0
134.514389 184.0
134.576782 148.0
134.643753 164.0
134.664536 136.0
134.73201 132.0
134.769516 172.0
134.800842 220.0
134.838928 148.0
134.916412 168.0
134.9534 136.0
135.079376 136.0
135.214798 176.0
135.290344 164.0
135.300095 104.0
135.30809 148.0
135.335175 140.0
135.521713 128.0
135.599136 144.0
135.72374 156.0
135.803955 256.0
135.862457 264.0
135.91127 156.0
135.942505 88.0
135.963394 200.0
135.984283 188.0
136.021423 172.0
136.039993 120.0
136.12822 204.0
136.221115 136.0
136.243027 228.0
136.279205 36.0
136.295471 188.0
136.358215 200.0
136.402924 248.0
136.451202 116.0
136.48143 124.0
136.651215 128.0
136.72731 356.0
136.772232 160.0
136.795517 60.0
136.853714 144.0
136.907486 168.0
136.946869 64.0
137.030731 184.0
137.065674 136.0
137.1306 192.0
137.214859 164.0
137.380432 160.0
137.410767 128.0
137.443436 168.0
137.494766 48.0
137.541962 200.0
137.571793 100.0
137.623169 180.0
137.70723 128.0
137.810028 168.0
137.831116 136.0
138.039093 272.0
138.064636 148.0
138.088211 180.0
138.214539 192.0
138.270706 228.0
138.289429 180.0
138.310486 52.0
138.348724 192.0
138.39711 196.0
138.441605 236.0
138.469711 192.0
138.528046 132.0
138.617294 128.0
138.642944 216.0
138.725113 140.0
138.755264 176.0
138.809525 148.0
138.926788 64.0
139.032379 184.0
139.114532 64.0
139.193253 152.0
139.27623 176.0
139.309448 128.0
139.330597 140.0
139.476288 140.0
139.513901 168.0
139.549164 212.0
139.782028 64.0
139.838379 140.0
139.923264 184.0
140.050171 148.0
140.129333 260.0
140.189804 180.0
140.260132 164.0
140.285629 192.0
140.370941 196.0
140.436981 268.0
140.488876 208.0
140.528992 152.0
140.635178 208.0
140.672958 196.0
140.724884 220.0
140.814209 212.0
140.894943 136.0
140.962067 264.0
141.004761 260.0
141.031296 168.0
141.067688 784.0
141.129959 176.0
141.344299 160.0
141.379776 184.0
141.434113 192.0
141.467255 220.0
141.727783 44.0
141.75621 144.0
141.787781 224.0
141.962448 128.0
142.021744 104.0
142.063263 2164.0
142.094147 184.0
142.156982 196.0
142.175964 188.0
142.280655 188.0
142.306519 56.0
142.342133 192.0
142.36351 120.0
142.434769 140.0
142.470398 136.0
142.498901 184.0
142.539307 188.0
142.598709 88.0
142.636597 124.0
142.710449 104.0
142.727097 136.0
142.786545 84.0
142.817459 136.0
142.872559 172.0
142.898346 160.0
142.926895 308.0
142.981628 180.0
143.022095 80.0
143.072327 28976.0
143.164948 48.0
143.191147 68.0
143.214966 240.0
143.233063 80.0
143.269745 80.0
143.290543 176.0
143.336472 92.0
143.381744 152.0
143.403198 60.0
143.426651 76.0
143.451813 60.0
143.50618 260.0
143.555542 456.0
143.608597 212.0
143.653564 168.0
143.674973 152.0
143.706055 36.0
143.741089 112.0
143.765701 136.0
143.787186 108.0
143.823441 188.0
143.90416 108.0
143.921631 208.0
143.94519 220.0
143.984772 168.0
144.022736 116.0
144.039444 172.0
144.079437 17908.0
144.13855 152.0
144.203796 116.0
144.24971 164.0
144.281647 40.0
144.331863 184.0
144.413162 124.0
144.468185 64.0
144.499283 136.0
144.529755 104.0
144.590225 36.0
144.626556 200.0
144.647659 144.0
144.683578 96.0
144.710175 148.0
144.785248 148.0
144.82193 164.0
144.837173 176.0
144.867981 132.0
144.93985 228.0
144.956619 108.0
144.999771 32.0
145.029861 100.0
145.086426 2744.0
145.15799 100.0
145.177933 164.0
145.215546 164.0
145.243042 112.0
145.269577 160.0
145.275635 84.0
145.283875 164.0
145.316803 172.0
145.402695 156.0
145.463028 228.0
145.549957 196.0
145.613968 168.0
145.724472 132.0
145.746094 60.0
145.803772 188.0
145.904724 124.0
145.999237 208.0
146.049622 212.0
146.096161 43540.0
146.130081 200.0
146.180054 120.0
146.20636 80.0
146.253433 184.0
146.287231 152.0
146.338776 156.0
146.38475 112.0
146.411819 124.0
146.453491 96.0
146.485565 112.0
146.508789 88.0
146.559387 112.0
146.606979 176.0
146.696762 88.0
146.728104 120.0
146.748337 164.0
146.78598 68.0
146.829376 68.0
146.846268 136.0
146.873947 160.0
146.927475 108.0
146.949997 100.0
146.975357 156.0
146.989639 140.0
147.02179 204.0
147.065155 156.0
147.099152 4848.0
147.145004 96.0
147.174469 32.0
147.203445 112.0
147.287979 140.0
147.324951 52.0
147.374939 136.0
147.412231 116.0
147.420471 100.0
147.459534 160.0
147.484207 172.0
147.517532 52.0
147.534454 188.0
147.569565 176.0
147.643265 32.0
147.674713 96.0
147.710205 140.0
147.742447 228.0
147.793472 132.0
147.83197 160.0
147.854645 228.0
147.980942 220.0
147.987442 156.0
148.019089 148.0
148.047424 124.0
148.08165 180.0
148.100311 264.0
148.133041 104.0
148.164536 184.0
148.183624 84.0
148.240555 176.0
148.267883 116.0
148.313934 104.0
148.410904 76.0
148.473953 84.0
148.525803 128.0
148.563705 228.0
148.703354 164.0
148.750565 196.0
148.786423 244.0
148.864685 40.0
148.901962 224.0
148.9254 56.0
149.024994 204.0
149.054779 140.0
149.073074 184.0
149.120316 108.0
149.163528 144.0
149.257111 144.0
149.321579 172.0
149.345901 128.0
149.36293 156.0
149.516388 108.0
149.583923 180.0
149.642853 156.0
149.698792 192.0
149.759674 120.0
149.803528 200.0
149.935104 116.0
150.000916 208.0
150.024445 184.0
150.219864 168.0
150.264297 144.0
150.430252 152.0
150.447342 76.0
150.537674 128.0
150.562103 88.0
150.608505 164.0
150.627762 168.0
150.65303 140.0
150.686676 140.0
150.791763 112.0
150.833313 288.0
150.86264 168.0
151.063171 160.0
151.092529 180.0
151.165939 124.0
151.33728 156.0
151.388367 172.0
151.452393 204.0
151.486679 188.0
151.50383 52.0
151.560181 176.0
151.606735 192.0
151.658203 164.0
151.761169 292.0
151.778336 156.0
151.864166 136.0
151.935303 96.0
151.984375 188.0
152.006119 140.0
152.031006 104.0
152.143921 80.0
152.27652 40.0
152.303528 248.0
152.357574 180.0
152.426376 84.0
152.450943 160.0
152.468155 168.0
152.544342 152.0
152.573853 112.0
152.610733 136.0
152.65744 128.0
152.691879 44.0
152.729813 132.0
152.740723 56.0
152.749802 124.0
152.780426 160.0
152.802567 244.0
152.849319 224.0
152.869003 160.0
152.920685 152.0
152.989609 164.0
153.044632 128.0
153.062241 88.0
153.127502 220.0
153.222183 120.0
153.334473 120.0
153.374771 148.0
153.420746 220.0
153.452789 116.0
153.509506 56.0
153.585953 204.0
153.647629 180.0
153.706848 28.0
153.748718 172.0
153.810501 48.0
153.89444 200.0
153.973465 112.0
153.995697 152.0
154.062607 448.0
154.176056 120.0
154.255142 160.0
154.332062 180.0
154.368881 88.0
154.403503 164.0
154.420807 112.0
154.440598 112.0
154.46286 116.0
154.500793 216.0
154.521088 164.0
154.561829 160.0
154.717758 136.0
154.814316 184.0
154.950562 48.0
154.992676 228.0
155.066986 248.0
155.177307 180.0
155.27887 136.0
155.367279 144.0
155.434052 212.0
155.458878 76.0
155.496094 220.0
155.558151 136.0
155.580505 212.0
155.690781 136.0
155.714584 204.0
155.838791 224.0
155.865891 168.0
155.900925 136.0
155.923477 156.0
156.026764 228.0
156.052048 180.0
156.079605 2980.0
156.111511 168.0
156.164459 132.0
156.21669 204.0
156.2341 172.0
156.258987 184.0
156.424133 288.0
156.450668 200.0
156.507889 72.0
156.621948 220.0
156.642365 156.0
156.677795 164.0
156.723343 232.0
156.734039 116.0
156.738144 208.0
156.767349 148.0
156.801834 144.0
156.829254 200.0
156.869141 276.0
156.914017 204.0
156.936447 256.0
156.956406 76.0
156.973862 176.0
157.019547 236.0
157.026733 164.0
157.052338 736.0
157.08728 5756.0
157.118118 100.0
157.201233 284.0
157.285721 168.0
157.350632 148.0
157.400574 192.0
157.432526 40.0
157.526016 52.0
157.541626 228.0
157.577911 144.0
157.600403 352.0
157.617889 132.0
157.650375 48.0
157.676117 148.0
157.733795 148.0
157.78035 184.0
157.811264 120.0
157.845367 268.0
157.885376 92.0
157.907883 104.0
157.952728 468.0
158.01033 312.0
158.026093 620.0
158.095901 133768.0
158.175369 64.0
158.19455 160.0
158.229553 44.0
158.272659 68.0
158.308502 260.0
158.325653 52.0
158.329803 84.0
158.352219 152.0
158.392151 76.0
158.434494 240.0
158.453308 88.0
158.483582 60.0
158.507156 820.0
158.541748 152.0
158.571991 80.0
158.597229 76.0
158.628708 280.0
158.670929 200.0
158.696152 168.0
158.736832 96.0
158.754379 44.0
158.78772 88.0
158.812729 76.0
158.82962 128.0
158.862991 80.0
158.905319 92.0
158.925507 164.0
158.98288 48.0
159.02861 156.0
159.062088 288.0
159.099304 14524.0
159.174835 120.0
159.203598 76.0
159.282242 64.0
159.312057 192.0
159.349289 164.0
159.414612 72.0
159.434723 28.0
159.486542 80.0
159.525208 88.0
159.551239 56.0
159.593094 168.0
159.629456 164.0
159.679352 172.0
159.713806 108.0
159.746506 164.0
159.779205 48.0
159.813629 112.0
159.840073 188.0
159.87616 156.0
159.910065 48.0
159.963501 88.0
160.009125 124.0
160.046005 128.0
160.077545 236.0
160.101089 1024.0
160.133575 152.0
160.152679 152.0
160.184616 116.0
160.245148 148.0
160.279907 112.0
160.302444 88.0
160.330261 124.0
160.359558 228.0
160.377518 128.0
160.425293 132.0
160.435181 80.0
160.439697 108.0
160.463531 96.0
160.497543 100.0
160.582779 144.0
160.64949 324.0
160.700363 164.0
160.728256 96.0
160.841614 56.0
160.860168 60.0
160.923462 164.0
160.989105 120.0
161.026993 196.0
161.153305 72.0
161.176041 72.0
161.315048 244.0
161.342865 72.0
161.48291 228.0
161.545181 136.0
161.610947 56.0
161.648911 44.0
161.775284 176.0
161.810898 196.0
161.962845 152.0
162.059113 48.0
162.081924 168.0
162.127533 216.0
162.231461 48.0
162.2771 140.0
162.639862 216.0
162.6754 72.0
162.695709 148.0
162.77655 196.0
162.830292 192.0
162.848068 184.0
162.962387 100.0
163.020828 68.0
163.064041 156.0
163.163177 144.0
163.31575 36.0
163.351364 132.0
163.567657 208.0
163.68988 60.0
164.008331 196.0
164.19957 32.0
164.383774 156.0
164.424072 32.0
164.702377 56.0
164.720261 120.0
164.740707 216.0
164.812241 148.0
164.830124 100.0
164.894989 212.0
164.945129 148.0
164.965591 124.0
164.99115 64.0
165.047333 152.0
165.072968 164.0
165.090866 164.0
165.154816 124.0
165.182953 140.0
165.257141 128.0
165.354385 228.0
165.392517 80.0
165.423004 144.0
165.45166 120.0
165.533585 40.0
165.551514 76.0
165.679581 160.0
165.710327 220.0
165.728271 140.0
166.02562 164.0
166.043579 144.0
166.092316 88.0
166.282181 92.0
166.464462 40.0
166.505539 48.0
166.615997 264.0
166.677673 136.0
166.736771 180.0
166.780472 160.0
166.968155 120.0
167.042755 204.0
167.073624 332.0
167.17363 184.0
167.248611 128.0
167.300095 152.0
167.408234 92.0
167.428833 160.0
167.472626 216.0
167.534439 140.0
167.645233 156.0
167.694214 44.0
167.725143 40.0
167.841156 36.0
167.954636 156.0
168.032013 84.0
168.078644 2256.0
168.13266 124.0
168.168793 176.0
168.194595 40.0
168.299469 136.0
168.367584 32.0
168.457993 48.0
168.687988 148.0
168.817261 76.0
168.835373 148.0
168.856796 140.0
168.897446 132.0
168.925888 152.0
169.024216 96.0
169.050674 160.0
169.076385 552.0
169.27272 188.0
169.337463 148.0
169.60434 212.0
169.663956 104.0
169.700256 116.0
169.721008 140.0
169.749527 124.0
169.816956 136.0
169.876617 172.0
169.931091 52.0
169.988831 128.0
170.086563 440.0
170.21402 196.0
170.255829 164.0
170.314896 128.0
170.369858 128.0
170.414032 132.0
170.476395 208.0
170.632355 68.0
170.671356 160.0
170.68956 88.0
170.718155 112.0
170.751968 132.0
170.803986 140.0
170.887238 60.0
170.970505 176.0
170.988724 88.0
171.006943 84.0
171.025162 88.0
171.088562 1000.0
171.144424 192.0
171.178772 112.0
171.293365 60.0
171.316818 228.0
171.363708 140.0
171.507034 156.0
171.569611 196.0
171.694763 100.0
171.746933 204.0
171.77562 192.0
171.80481 148.0
171.91922 120.0
171.955658 176.0
172.006943 148.0
172.074799 18704.0
172.097168 4748.0
172.17012 84.0
172.197037 160.0
172.242874 36.0
172.288666 88.0
172.308197 48.0
172.33223 160.0
172.378738 148.0
172.405975 104.0
172.538177 340.0
172.576096 128.0
172.624466 88.0
172.723846 92.0
172.768326 156.0
172.806458 160.0
172.828506 48.0
172.870361 156.0
172.896545 164.0
172.945358 184.0
172.970779 232.0
173.008453 260.0
173.024445 236.0
173.077164 2104.0
173.106659 42120.0
173.18132 104.0
173.233994 200.0
173.256348 244.0
173.323395 68.0
173.346207 164.0
173.39415 52.0
173.443192 28.0
173.498154 100.0
173.53949 72.0
173.57518 212.0
173.632004 192.0
173.691132 192.0
173.743668 176.0
173.765533 108.0
173.790741 156.0
173.843475 120.0
173.906235 220.0
173.930267 60.0
173.958084 136.0
173.994308 136.0
174.019272 132.0
174.041565 156.0
174.10939 4212.0
174.21019 208.0
174.249146 68.0
174.256165 56.0
174.26384 96.0
174.310043 80.0
174.344742 116.0
174.371277 120.0
174.441025 148.0
174.481674 120.0
174.501923 192.0
174.544754 136.0
174.565292 80.0
174.649185 168.0
174.669571 128.0
174.743896 140.0
174.764938 32.0
174.78862 88.0
174.820206 56.0
174.885437 180.0
174.904419 40.0
175.034744 80.0
175.057129 64.0
175.087463 232.0
175.111176 544.0
175.151947 152.0
175.175644 88.0
175.218628 128.0
175.259476 120.0
175.323196 148.0
175.399475 116.0
175.423355 52.0
175.441818 92.0
175.468185 132.0
175.52092 40.0
175.562302 92.0
175.623764 152.0
175.758316 68.0
175.797897 144.0
176.057434 184.0
176.117355 204.0
176.25473 40.0
176.459015 168.0
176.532303 152.0
176.616928 44.0
176.672485 56.0
176.712173 88.0
176.730682 160.0
176.836548 100.0
176.878891 108.0
177.021866 136.0
177.085419 188.0
177.294724 32.0
177.387497 56.0
177.567795 200.0
177.642075 100.0
177.726974 72.0
177.79332 68.0
177.8517 108.0
177.973969 76.0
178.005692 52.0
178.042862 180.0
178.119888 104.0
178.36702 196.0
178.463791 100.0
178.51059 108.0
178.566437 144.0
178.593033 132.0
178.622299 64.0
178.800568 120.0
178.84581 92.0
178.96727 256.0
179.005554 184.0
179.065506 220.0
179.120087 100.0
179.349243 192.0
179.477203 188.0
179.629486 252.0
179.877396 212.0
180.000214 44.0
180.029587 184.0
180.064301 184.0
180.14711 212.0
180.235214 168.0
180.328812 160.0
180.523972 88.0
180.604385 180.0
180.697845 180.0
180.786148 172.0
181.072693 2340.0
181.206543 140.0
181.420944 124.0
181.469208 68.0
181.496017 72.0
181.683762 152.0
181.734741 148.0
182.081818 780.0
182.126694 48.0
182.320145 148.0
182.441101 128.0
182.583603 56.0
182.61319 156.0
182.668167 148.0
182.69928 100.0
182.728867 76.0
182.747696 44.0
182.874191 124.0
182.893021 140.0
183.037109 124.0
183.090805 10040.0
183.154663 48.0
183.175766 32.0
183.296997 180.0
183.339386 160.0
183.426376 120.0
183.57196 192.0
183.623199 40.0
183.644775 176.0
183.706818 48.0
183.879517 44.0
183.955093 116.0
183.987488 64.0
184.019302 128.0
184.074432 5116.0
184.171112 84.0
184.21077 88.0
184.273026 72.0
184.297409 208.0
184.330521 176.0
184.492691 176.0
184.544052 148.0
184.56839 100.0
184.681976 152.0
184.746902 32.0
184.80101 60.0
184.866531 148.0
184.94986 36.0
185.017532 144.0
185.07605 484.0
185.104767 3020.0
185.147507 124.0
185.23764 112.0
185.448242 56.0
185.467209 172.0
185.545822 204.0
185.605484 124.0
185.708527 116.0
185.922867 44.0
185.97612 180.0
186.009293 152.0
186.089645 604.0
186.108032 652.0
186.235092 84.0
186.338333 168.0
186.360062 164.0
186.379089 112.0
186.463333 112.0
186.509537 100.0
186.546646 112.0
186.596527 168.0
186.708008 172.0
186.751526 248.0
186.835861 140.0
186.85762 104.0
186.939255 124.0
187.031784 168.0
187.091675 108.0
187.140686 176.0
187.249619 168.0
187.418518 80.0
187.761993 60.0
187.901108 144.0
187.933853 172.0
187.982971 44.0
188.023911 96.0
188.062119 104.0
188.119446 180.0
188.348816 116.0
188.482697 68.0
188.512756 156.0
188.855484 132.0
189.037796 216.0
189.401932 48.0
189.569061 68.0
189.708847 44.0
189.851425 76.0
190.109299 48.0
190.224579 156.0
190.589859 112.0
190.878479 160.0
190.919739 204.0
191.131226 168.0
191.511475 128.0
191.544525 136.0
191.632675 140.0
192.11792 156.0
192.137222 84.0
192.421494 152.0
192.531952 148.0
192.661774 188.0
192.692154 148.0
192.819275 92.0
193.386261 128.0
193.42926 196.0
193.455475 124.0
193.699158 76.0
193.754562 136.0
193.809982 208.0
193.884796 72.0
194.051117 104.0
194.070526 132.0
194.248016 140.0
194.41214 160.0
194.458908 116.0
194.533844 224.0
194.619919 148.0
194.794891 60.0
194.855042 116.0
194.950485 132.0
195.025513 176.0
195.108917 228.0
195.136719 128.0
195.277481 188.0
195.590179 72.0
195.618011 44.0
195.740509 136.0
195.804565 184.0
195.968918 108.0
196.088745 132.0
196.222549 48.0
196.275528 152.0
196.320145 132.0
196.473557 92.0
196.571213 32.0
196.663315 52.0
196.766602 164.0
196.836411 108.0
196.95929 64.0
197.077881 152.0
197.085449 180.0
197.224747 120.0
197.535126 148.0
197.582687 156.0
197.750595 60.0
197.910156 168.0
198.016571 128.0
198.078354 420.0
198.125824 156.0
198.207977 216.0
198.265915 36.0
198.346115 108.0
198.400467 92.0
198.447006 160.0
198.473358 128.0
198.559006 104.0
198.776306 180.0
198.798767 224.0
198.894196 88.0
198.94191 56.0
199.009293 164.0
199.031754 108.0
199.085007 6236.0
199.145554 140.0
199.175751 236.0
199.239594 72.0
199.291168 236.0
199.323883 112.0
199.408203 88.0
199.475662 184.0
199.517822 116.0
199.548752 172.0
199.567474 164.0
199.675293 92.0
199.889099 140.0
199.967896 152.0
200.0439 124.0
200.08902 1396.0
200.149277 140.0
200.198273 76.0
200.246643 152.0
200.277618 76.0
200.302979 56.0
200.35704 84.0
200.376831 164.0
200.424988 292.0
200.463562 140.0
200.51297 136.0
200.534027 104.0
200.598602 176.0
200.630829 128.0
200.660873 148.0
200.704086 124.0
200.722916 148.0
200.748947 220.0
200.782013 168.0
200.806351 224.0
200.81691 132.0
200.841919 204.0
200.862839 124.0
200.899994 252.0
200.940369 332.0
200.973312 236.0
200.98291 276.0
201.01413 152.0
201.051468 572.0
201.10228 183920.0
201.194275 108.0
201.215012 108.0
201.261429 132.0
201.296341 116.0
201.344345 164.0
201.384537 264.0
201.409439 132.0
201.447678 168.0
201.468445 28.0
201.515518 260.0
201.566299 1248.0
201.612457 100.0
201.647476 84.0
201.656128 64.0
201.666275 52.0
201.687347 172.0
201.727417 184.0
201.767273 152.0
201.790421 116.0
201.828003 156.0
201.836609 120.0
201.892395 184.0
201.923141 120.0
201.967194 324.0
202.00267 308.0
202.024963 68.0
202.053253 164.0
202.104095 20516.0
202.160782 72.0
202.188187 148.0
202.199905 196.0
202.262878 144.0
202.289185 88.0
202.322113 184.0
202.350693 220.0
202.378525 52.0
202.395172 244.0
202.439438 64.0
202.53241 92.0
202.569763 132.0
202.593048 60.0
202.600143 84.0
202.645706 80.0
202.669739 76.0
202.690323 76.0
202.747208 112.0
202.781296 40.0
202.846207 60.0
202.868881 44.0
202.900848 44.0
202.928421 28.0
202.96138 160.0
202.993637 36.0
203.052124 64.0
203.106323 2964.0
203.150681 92.0
203.203537 44.0
203.225754 120.0
203.259583 64.0
203.311203 200.0
203.339188 108.0
203.362625 92.0
203.37381 32.0
203.38298 108.0
203.42775 136.0
203.481064 132.0
203.500961 96.0
203.522766 136.0
203.571152 180.0
203.594742 84.0
203.631943 156.0
203.659088 128.0
203.706268 196.0
203.757812 108.0
203.778122 120.0
203.819687 64.0
203.85379 68.0
203.904938 152.0
203.950409 68.0
203.975998 80.0
203.998566 68.0
204.05275 100.0
204.0755 64.0
204.113434 316.0
204.163651 76.0
204.20816 96.0
204.25647 48.0
204.38269 64.0
204.43103 248.0
204.516449 32.0
204.566803 140.0
204.62178 140.0
204.675201 100.0
204.699463 128.0
204.895203 32.0
204.981918 64.0
205.066177 92.0
205.120331 68.0
205.222961 136.0
205.291397 132.0
205.351288 80.0
205.453979 36.0
205.528168 60.0
205.565262 96.0
205.813599 44.0
205.944977 80.0
206.039246 44.0
206.15715 76.0
206.224991 48.0
206.436554 56.0
207.146362 72.0
207.166412 92.0
207.34407 160.0
207.559082 92.0
207.593491 80.0
207.654831 72.0
208.173172 44.0
208.242096 60.0
208.308167 48.0
208.50354 112.0
208.678894 52.0
208.874451 120.0
209.398315 56.0
209.458801 68.0
209.64534 156.0
209.672012 68.0
210.020889 60.0
210.176682 76.0
210.228622 112.0
210.40181 28.0
210.546188 72.0
210.9077 64.0
211.011414 96.0
211.096405 184.0
211.297745 112.0
211.419266 44.0
211.456894 84.0
211.535049 132.0
211.578476 120.0
211.633484 96.0
211.963699 64.0
212.024551 116.0
212.098434 164.0
212.210083 64.0
212.415985 96.0
212.653915 128.0
213.025589 40.0
213.100906 10124.0
213.176682 72.0
213.202835 76.0
213.246948 112.0
213.287125 108.0
213.345261 76.0
213.417953 44.0
213.502274 60.0
213.707108 68.0
213.764099 64.0
213.810669 84.0
213.889252 56.0
213.953293 76.0
214.014435 40.0
214.103897 1040.0
214.215393 52.0
214.731323 52.0
214.798401 176.0
214.880096 64.0
214.900513 88.0
215.008484 44.0
215.113785 160.0
215.204071 68.0
215.464005 160.0
215.487381 92.0
215.610107 32.0
215.66272 44.0
215.683182 72.0
215.735565 100.0
215.776733 116.0
215.838135 64.0
215.958038 112.0
216.356003 56.0
216.402847 56.0
216.631287 88.0
216.74556 84.0
217.097321 128.0
218.216095 72.0
218.392532 80.0
218.727982 92.0
219.008865 148.0
219.119659 124.0
219.797821 48.0
220.092987 80.0
221.101044 152.0
221.139526 44.0
221.290497 76.0
221.548157 84.0
222.013519 140.0
223.492859 84.0
223.567261 72.0
224.147949 156.0
224.240341 40.0
225.437103 100.0
226.062119 56.0
226.364456 124.0
226.442322 48.0
226.696976 72.0
226.900803 44.0
227.212708 52.0
228.179794 112.0
229.004333 80.0
229.724747 84.0
230.691116 44.0
231.880692 128.0
234.424438 104.0
235.431152 60.0
235.712204 88.0
236.075974 196.0
237.031067 120.0
237.092361 152.0
237.411194 84.0
237.911346 44.0
238.024948 80.0
238.756332 100.0
239.257889 44.0
241.093201 124.0
242.954132 128.0
244.106461 212.0
246.497437 116.0
250.85701 112.0
251.125031 124.0
252.176437 40.0
253.163544 80.0
254.863815 96.0
257.201416 68.0
259.088165 40.0
259.838379 56.0
262.28241 108.0
267.22113 52.0
267.983002 128.0
270.907074 140.0
271.192139 136.0
276.273193 104.0
276.81601 60.0
278.231812 92.0
279.072388 60.0
287.156586 104.0
287.318481 80.0
289.80014 116.0
290.865021 52.0
293.627899 52.0
294.081665 152.0
295.157806 204.0
299.592255 40.0
306.156158 40.0
307.296021 80.0
310.317963 100.0
310.433655 68.0
311.830963 132.0
313.798767 132.0
314.070312 28.0
318.537537 96.0
319.10614 208.0
320.529907 52.0
320.832886 104.0
321.985413 56.0
322.632172 56.0
323.956299 48.0
326.824951 72.0
329.594208 92.0
332.05954 84.0
333.620941 36.0
334.978333 72.0
336.594055 108.0
336.736481 68.0
336.805878 64.0
337.112762 120.0
337.759918 40.0
338.078217 44.0
341.2034 64.0
342.137878 64.0
342.461945 52.0
342.653503 108.0
344.224792 72.0
346.106964 104.0
346.251404 48.0
346.532928 96.0
352.131561 144.0
352.542511 48.0
354.874573 52.0
357.108978 80.0
360.388733 60.0
361.451263 128.0
361.981232 44.0
362.18573 56.0
365.134888 104.0
365.393555 88.0
366.284363 88.0
366.375793 68.0
367.885986 72.0
368.776031 96.0
370.904205 72.0
371.744141 76.0
372.005157 84.0
377.275269 52.0
377.480164 60.0
377.894073 64.0
381.007355 164.0
382.278839 76.0
382.356659 56.0
389.967834 116.0
394.753998 84.0
395.671967 104.0
395.937256 120.0
398.25354 36.0
398.372711 100.0
398.452148 124.0
400.863434 56.0
402.770508 52.0
407.843353 156.0
412.022247 56.0
412.782135 148.0
413.125946 96.0
418.283752 92.0
423.11319 156.0
423.518585 44.0
424.329987 140.0
426.970367 64.0
428.736542 60.0
434.085968 52.0
435.958191 60.0
437.147552 112.0
439.635468 48.0
442.532288 84.0
443.839569 52.0
447.50354 104.0
448.202759 120.0
449.190125 104.0
452.434845 64.0
453.451477 60.0
454.214691 104.0
459.780029 108.0
461.039886 48.0
461.185211 60.0
462.673859 120.0
464.254974 60.0
466.182526 108.0
474.309631 152.0
474.500397 104.0
474.738892 112.0
476.914032 80.0
483.999023 80.0
484.318726 40.0
486.217194 132.0
500.509644 160.0
501.048584 36.0
507.368042 64.0
511.433472 100.0
511.501007 128.0
512.149414 72.0
512.992065 68.0
518.878296 32.0
519.789978 32.0
521.906738 80.0
527.893982 76.0
529.926392 72.0
531.875427 68.0
533.184448 108.0
540.734436 172.0
541.016785 40.0
541.841125 92.0
542.18866 76.0
542.86554 80.0
543.436096 100.0
545.628296 72.0
548.449341 100.0
550.128662 80.0
553.009094 164.0
574.085022 44.0
577.552429 76.0
595.206421 48.0
595.292664 84.0
595.71637 52.0
602.561279 84.0
610.998962 72.0
614.21582 84.0
627.825867 28.0
635.208435 68.0
642.952026 64.0
646.266968 72.0
648.338135 28.0
654.683411 64.0
668.773376 96.0
676.366333 172.0
683.117432 56.0
684.338074 60.0
685.590698 64.0
688.277222 64.0
690.754517 112.0
708.882507 76.0
712.155945 72.0
717.306763 40.0
717.909241 44.0
718.864136 76.0
756.080566 92.0
763.349426 60.0
766.195129 124.0
771.012329 136.0
772.129089 112.0
773.008728 72.0
775.323547 220.0
775.999084 120.0
779.018982 216.0
782.021667 160.0
786.899475 188.0
790.356812 168.0
802.345276 208.0
802.582092 148.0
804.771362 132.0
804.957703 60.0
808.632446 164.0
809.003296 196.0
811.24939 100.0
811.629272 172.0
814.983887 236.0
823.135132 124.0
826.158691 140.0
829.824097 80.0
832.354553 104.0
832.51532 176.0
839.934265 208.0
840.118896 76.0
846.169861 64.0
846.447815 204.0
848.209045 160.0
848.580078 152.0
854.004028 292.0
854.876709 152.0
855.953674 72.0
857.264343 124.0
857.468323 108.0
859.112671 72.0
860.478333 104.0
861.652283 156.0
862.569824 64.0
862.628235 100.0
862.862122 136.0
862.932251 112.0
864.300964 200.0
865.612183 216.0
866.906799 208.0
868.249329 148.0
871.40741 144.0
871.830505 224.0
873.988647 76.0
877.776245 68.0
878.059326 172.0
878.52533 136.0
880.396423 180.0
884.351746 212.0
887.574524 168.0
888.458313 220.0
888.623474 52.0
889.348389 292.0
889.484924 212.0
890.04303 164.0
890.494324 44.0
891.789612 180.0
894.585388 52.0
895.663208 184.0
896.646301 164.0
898.148865 140.0
899.957092 232.0
901.020264 72.0
902.388916 124.0
904.117676 208.0
911.968628 116.0
914.362427 212.0
915.74115 176.0
916.229065 136.0
916.614685 60.0
917.374146 88.0
917.482666 140.0
918.157959 152.0
919.606018 188.0
920.137207 44.0
920.312317 116.0
923.533386 92.0
923.739075 176.0
924.313843 88.0
927.10553 28.0
927.232788 172.0
927.481323 180.0
928.123962 172.0
930.210999 144.0
930.599548 176.0
931.856812 128.0
932.020874 196.0
932.118103 168.0
934.124451 228.0
936.297424 44.0
937.333069 164.0
938.783936 184.0
940.42511 80.0
941.114929 148.0
943.448853 156.0
947.677979 132.0
949.768494 148.0
949.983215 52.0
953.458557 240.0
954.509766 184.0
956.767883 192.0
959.040955 92.0
959.978088 172.0
960.59491 156.0
962.662537 156.0
963.026917 48.0
963.477844 220.0
963.836243 184.0
964.763306 160.0
966.161011 188.0
967.039673 144.0
967.473022 148.0
970.000488 208.0
970.285706 240.0
970.837524 56.0
973.797974 144.0
974.114746 196.0
975.58136 184.0
976.905945 132.0
977.14856 136.0
978.405762 56.0
979.078247 156.0
981.988831 136.0
982.219604 140.0
984.785034 152.0
984.997437 168.0
987.954285 152.0
992.275696 184.0
992.501404 132.0
992.676941 144.0
993.090881 140.0
993.134827 52.0
993.322998 32.0
993.429626 128.0
994.923218 52.0
996.977234 208.0
997.832092 156.0
997.926392 160.0
998.876038 160.0
999.008179 96.0
999.863892 136.0
999.920532 180.0
1000.827026 156.0
1001.085205 144.0
1001.387512 228.0
1002.439636 140.0
1003.063599 152.0
1003.952637 108.0
1004.154419 156.0
1004.482422 160.0
1005.050232 176.0
1005.11969 112.0
1005.826538 104.0
1006.988342 140.0
1007.670593 136.0
1008.884033 176.0
1009.173157 76.0
1009.800903 128.0
1010.085571 176.0
1013.257202 36.0
1014.214111 228.0
1014.410645 56.0
1014.670532 128.0
1016.262512 124.0
1017.45575 112.0
1017.570007 236.0
1018.757629 220.0
1019.176941 184.0
1019.818848 124.0
1019.882385 164.0
1020.460876 132.0
1021.065002 88.0
1022.770203 144.0
1024.55957 172.0
1025.082153 152.0
1025.560059 80.0
1026.775269 96.0
1027.115967 196.0
1028.079346 172.0
1029.183716 180.0
1030.180054 148.0
1030.320557 184.0
1031.90564 180.0
1033.946167 204.0
1034.355835 212.0
1034.861572 200.0
1036.546265 144.0
1038.411743 192.0
1038.605103 184.0
1038.655518 108.0
1039.810425 148.0
1042.52063 148.0
1043.439819 212.0
1045.530396 212.0
1046.232056 164.0
1046.618408 124.0
1047.185059 228.0
1048.196533 172.0
1048.505859 220.0
1049.137573 144.0
1050.130615 180.0
1050.575684 72.0
1052.524902 208.0
1053.564697 80.0
1053.661621 148.0
1055.620117 148.0
1056.674438 168.0
1056.959229 188.0
1057.645142 172.0
1059.860107 164.0
1062.421143 136.0
1062.868774 152.0
1063.141357 120.0
1064.355225 72.0
1065.095581 144.0
1065.836304 148.0
1065.998779 172.0
1068.78833 60.0
1069.692993 144.0
1070.064087 32.0
1071.901001 156.0
1072.865601 132.0
1073.53064 184.0
1073.941528 168.0
1075.729492 156.0
1078.98291 60.0
1079.061401 164.0
1080.173096 108.0
1080.748901 128.0
1081.08252 200.0
1082.156128 208.0
1082.555542 68.0
1082.837158 84.0
1083.662598 144.0
1085.111084 116.0
1086.330811 120.0
1087.144409 132.0
1087.413574 64.0
1087.603882 224.0
1088.542725 180.0
1088.720093 176.0
1088.976196 124.0
1089.343994 168.0
1089.731812 172.0
1089.928833 128.0
1091.046143 108.0
1091.493164 136.0
1093.11145 136.0
1093.519409 176.0
1094.013184 172.0
1094.125122 96.0
1095.191895 216.0
1095.745239 176.0
1096.193359 228.0
1096.549194 236.0
1096.865601 144.0
1097.214966 176.0
1097.656738 176.0
1097.729248 96.0
1099.886719 64.0
1100.65918 188.0
1100.830811 44.0
1104.247681 192.0
1104.300537 232.0
1104.743774 156.0
1104.829712 160.0
1105.279663 164.0
1106.424683 352.0
1107.212646 168.0
1107.351807 160.0
1107.689575 140.0
1109.584961 216.0
1109.631348 88.0
1111.262939 120.0
1112.211914 140.0
1112.864868 216.0
1113.446899 164.0
1113.606323 192.0
1115.101196 144.0
1116.038574 196.0
1116.736816 184.0
1116.989624 76.0
1117.555176 188.0
1117.794678 176.0
1118.573364 136.0
1118.986084 192.0
1119.345703 208.0
1120.144165 132.0
1120.224854 148.0
1121.184326 128.0
1121.364258 164.0
1122.070923 140.0
1122.204224 48.0
1123.411377 208.0
1124.025269 156.0
1125.400269 204.0
1125.740845 156.0
1127.738403 156.0
1128.293335 52.0
1129.670898 172.0
1130.065674 140.0
1130.493896 44.0
1131.24353 160.0
1131.297119 148.0
1131.377441 196.0
1131.712158 200.0
1134.321167 216.0
1134.841309 196.0
1135.498413 112.0
1135.558838 152.0
1136.967773 236.0
1137.249634 176.0
1138.048462 240.0
1139.136475 132.0
1139.223877 192.0
1140.016724 184.0
1140.231812 40.0
1140.366211 120.0
1140.446777 272.0
1140.829956 276.0
1141.589722 192.0
1141.845337 168.0
1142.309448 64.0
1143.561035 180.0
1143.870605 128.0
1144.496826 100.0
1144.941284 164.0
1145.264526 116.0
1145.406006 124.0
1145.800049 156.0
1145.917969 140.0
1146.322266 156.0
1146.497437 196.0
1146.814209 140.0
1150.05188 192.0
1151.084839 204.0
1153.476562 136.0
1153.990356 160.0
1154.504272 160.0
1154.943848 168.0
1156.689697 128.0
1157.529175 196.0
1157.637573 140.0
1157.928833 108.0
1158.01001 248.0
1158.111694 392.0
1158.389404 148.0
1158.734863 136.0
1159.764893 232.0
1161.392334 192.0
1161.873901 100.0
1162.036743 164.0
1163.550293 156.0
1165.153076 240.0
1165.594727 88.0
1167.144531 120.0
1167.328125 120.0
1167.749756 212.0
1168.27356 176.0
1168.593384 112.0
1169.76709 112.0
1170.179199 172.0
1170.294922 196.0
1170.403931 192.0
1170.921509 44.0
1171.01001 244.0
1171.445923 184.0
1171.997803 200.0
1172.161377 144.0
1172.21582 64.0
1172.277222 204.0
1172.345337 128.0
1172.461182 176.0
1172.945068 56.0
1173.558716 172.0
1174.5271 88.0
1174.840942 172.0
1174.977295 96.0
1175.373047 172.0
1175.454956 160.0
1175.748413 172.0
1178.445801 180.0
1179.559692 152.0
1179.621216 212.0
1181.474487 120.0
1182.220337 228.0
1182.288818 148.0
1183.746948 120.0
1184.000366 72.0
1184.788086 156.0
1185.747437 172.0
1186.275146 220.0
1186.624878 140.0
1187.488892 140.0
1187.536865 72.0
1187.845581 136.0
1188.710083 100.0
1189.492432 176.0
1190.199585 212.0
1190.481201 184.0
1190.755859 148.0
1191.279907 220.0
1193.03833 148.0
1193.680176 264.0
1193.999878 128.0
1194.550171 172.0
1195.416992 112.0
1195.809326 148.0
1196.015869 76.0
1196.119019 140.0
1196.449463 180.0
1198.191895 176.0
1198.491699 168.0
1198.908569 140.0
1200.004639 144.0
1200.521729 172.0
1200.702026 148.0
1201.025269 244.0
1201.281494 208.0
1201.439087 176.0
1201.611572 232.0
1201.722046 192.0
1201.777222 180.0
1201.880737 144.0
1201.991089 76.0
1202.308594 108.0
1202.439697 180.0
1202.695068 128.0
1203.454468 140.0
1204.262451 84.0
1204.967041 160.0
1205.042725 148.0
1206.13501 176.0
1206.190308 56.0
1207.679199 204.0
1207.960571 180.0
1208.313354 124.0
1209.406738 172.0
1209.628296 132.0
1209.877441 140.0
1210.4729 124.0
1211.183228 200.0
1212.384888 224.0
1212.918579 156.0
1212.980347 216.0
1214.610596 156.0
1215.068481 80.0
1216.421753 208.0
1217.588257 192.0
1217.650757 172.0
1217.706299 60.0
1217.754883 124.0
1217.810425 152.0
1217.945068 156.0
1218.303711 144.0
1218.894287 132.0
1219.227783 136.0
1219.776855 204.0
1220.041016 136.0
1220.340088 164.0
1220.604248 116.0
1221.030518 192.0
1226.278076 164.0
1226.891602 192.0
1227.153564 132.0
1227.25415 200.0
1228.055176 180.0
1228.481567 236.0
1228.732788 208.0
1228.865356 408.0
1228.939453 216.0
1229.060669 204.0
1229.130493 108.0
1229.737671 152.0
1230.442627 180.0
1230.575317 176.0
1230.6521 48.0
1230.833618 232.0
1231.734619 48.0
1231.853394 172.0
1232.035034 144.0
1232.342407 128.0
1232.559082 108.0
1233.362793 180.0
1233.57251 176.0
1234.10376 156.0
1235.138794 140.0
1235.775513 104.0
1235.824463 84.0
1237.812378 168.0
1237.987427 192.0
1238.043457 92.0
1238.218506 172.0
1239.269287 100.0
1240.110229 132.0
1240.593994 204.0
1241.133789 104.0
1241.470459 180.0
1241.856201 356.0
1242.174561 72.0
1242.543579 40.0
1243.961182 108.0
1244.621216 192.0
1244.747559 64.0
1245.101074 164.0
1245.639526 112.0
1245.787109 128.0
1246.897339 60.0
1247.2948 168.0
1247.354126 112.0
1247.993896 224.0
1248.148682 240.0
1248.465088 156.0
1249.020752 244.0
1249.091064 208.0
1249.358398 232.0
1250.547607 160.0
1250.927734 200.0
1251.814819 184.0
1252.202271 88.0
1252.913696 156.0
1253.336426 176.0
1254.887085 216.0
1256.466919 160.0
1256.657471 144.0
1258.584351 164.0
1258.92334 120.0
1259.396484 160.0
1260.313232 196.0
1260.533936 48.0
1260.696533 152.0
1260.753052 208.0
1261.721436 136.0
1261.848755 152.0
1262.19519 128.0
1262.251709 188.0
1264.006104 148.0
1264.075073 264.0
1264.366943 44.0
1265.046509 112.0
1265.372192 168.0
1265.598755 172.0
1265.775757 184.0
1266.207764 148.0
1266.306885 48.0
1266.391846 120.0
1267.411987 160.0
1267.688354 84.0
1267.808838 136.0
1267.929321 32.0
1268.056885 60.0
1268.113647 84.0
1269.531616 156.0
1270.233765 120.0
1270.389771 188.0
1271.532227 116.0
1271.681274 148.0
1272.000732 196.0
1273.527344 132.0
1273.754639 96.0
1274.230591 120.0
1274.529053 124.0
1274.784912 172.0
1274.877319 136.0
1274.976807 200.0
1275.225464 160.0
1276.078613 132.0
1276.846558 48.0
1276.981689 200.0
1277.977661 136.0
1278.240967 148.0
1278.796021 168.0
1278.916992 160.0
1279.052246 216.0
1279.137695 160.0
1279.75708 204.0
1279.942261 156.0
1280.618774 136.0
1281.580444 48.0
1281.658936 124.0
1282.842041 96.0
1282.977417 200.0
1283.69043 176.0
1284.332397 180.0
1284.613159 212.0
1285.017212 208.0
1285.14563 252.0
1285.245483 92.0
1285.351685 164.0
1285.756836 88.0
1285.844971 152.0
1286.544556 172.0
1287.708252 168.0
1288.015625 208.0
1288.194214 208.0
1288.265625 140.0
1288.9729 188.0
1290.338135 120.0
1290.452515 172.0
1290.702759 148.0
1290.912842 200.0
1291.124756 104.0
1291.732666 204.0
1291.868652 60.0
1292.984863 236.0
1293.042114 168.0
1293.614746 168.0
1293.749023 132.0
1294.201782 144.0
1294.330688 160.0
1294.996704 212.0
1295.061157 220.0
1295.140015 108.0
1295.204468 160.0
1296.286255 76.0
1296.515625 176.0
1296.601685 216.0
1297.067505 236.0
1297.504883 144.0
1297.805908 172.0
1297.877686 212.0
1298.0354 220.0
1298.358154 168.0
1298.408325 184.0
1298.537476 216.0
1298.824341 184.0
1299.369507 148.0
1301.321777 156.0
1301.446777 176.0
1301.57312 160.0
1301.77417 212.0
1303.541382 128.0
1303.613159 160.0
1303.724609 228.0
1306.201538 56.0
1306.647583 212.0
1306.82019 132.0
1306.942505 208.0
1307.129639 156.0
1307.295166 132.0
1307.583008 176.0
1307.719727 124.0
1308.864502 232.0
1308.986816 148.0
1309.490967 160.0
1309.73584 120.0
1310.362671 156.0
1310.614868 172.0
1310.816528 188.0
1311.133667 240.0
1311.184082 136.0
1311.249023 184.0
1311.782349 196.0
1312.056274 196.0
1312.330322 108.0
1312.835083 280.0
1312.972046 232.0
1313.801636 212.0
1314.061279 68.0
1314.198486 120.0
1314.27063 240.0
1314.407715 160.0
1314.508667 168.0
1315.244873 124.0
1316.508423 176.0
1317.31311 220.0
1317.562988 180.0
1317.758057 100.0
1318.177124 136.0
1318.81311 216.0
1319.369751 152.0
1319.579346 176.0
1319.716797 220.0
1320.635254 152.0
1320.982422 180.0
1322.046021 136.0
1323.204224 132.0
1323.725586 312.0
1324.333862 172.0
1325.749146 180.0
1325.81189 112.0
1326.043823 148.0
1326.254028 88.0
1326.399048 212.0
1327.022461 140.0
1327.515503 144.0
1327.566284 116.0
1327.690552 148.0
1328.008667 148.0
1328.342407 88.0
1329.452515 64.0
1330.192871 44.0
1330.475952 156.0
1330.628418 208.0
1330.708252 176.0
1331.325562 164.0
1331.717651 180.0
1331.964722 136.0
1332.378784 176.0
1332.465942 176.0
1333.821289 208.0
1334.479248 144.0
1335.635498 156.0
1336.144775 176.0
1336.515869 128.0
1336.596436 160.0
1337.359985 168.0
1337.680298 168.0
1337.821533 308.0
1338.138916 128.0
1338.335571 160.0
1339.799438 192.0
1340.345947 60.0
1340.39856 124.0
1340.446777 168.0
1340.600952 76.0
1341.286133 188.0
1341.688354 188.0
1341.84021 60.0
1343.087158 152.0
1343.182007 144.0
1343.393555 176.0
1343.495728 132.0
1343.838623 192.0
1344.422363 232.0
1344.612183 128.0
1345.291016 100.0
1347.713013 184.0
1348.095703 188.0
1348.556152 108.0
1349.360352 156.0
1349.565063 96.0
1350.150024 152.0
1350.501099 176.0
1351.23999 196.0
1351.400879 208.0
1351.591187 116.0
1351.715576 128.0
1351.861938 120.0
1352.608032 228.0
1352.688965 132.0
1352.836914 152.0
1353.135498 100.0
1353.333252 96.0
1354.058228 272.0
1355.098389 176.0
1355.274292 112.0
1355.823853 164.0
1356.21228 212.0
1356.78418 172.0
1356.850098 76.0
1357.290039 52.0
1357.840088 132.0
1358.727661 200.0
1359.226562 116.0
1360.136597 80.0
1360.195312 100.0
1360.496338 176.0
1360.856079 88.0
1361.663818 280.0
1362.177979 44.0
1362.434448 128.0
1362.582153 208.0
1363.067017 176.0
1363.2948 112.0
1364.42688 176.0
1364.676758 232.0
1364.831177 128.0
1365.546631 168.0
1365.669556 136.0
1365.753296 300.0
1365.905029 192.0
1366.007935 112.0
1366.221313 40.0
1367.199951 140.0
1367.648926 160.0
1367.744629 148.0
1367.891846 164.0
1368.031738 220.0
1368.14209 168.0
1369.349731 136.0
1369.430786 160.0
1370.491577 96.0
1370.683228 152.0
1370.867432 172.0
1371.361206 204.0
1371.692871 200.0
1373.057007 180.0
1374.473389 112.0
1374.668945 156.0
1376.363037 212.0
1376.658447 116.0
1376.968628 200.0
1377.278809 136.0
1377.552124 112.0
1377.773804 96.0
1377.96582 120.0
1378.254028 140.0
1378.305786 176.0
1378.571777 84.0
1379.229614 212.0
1379.44397 212.0
1379.55481 116.0
1381.048584 128.0
1381.640381 188.0
1381.832642 188.0
1381.932129 64.0
1382.24707 148.0
1382.469116 192.0
1382.846558 48.0
1383.335083 156.0
1383.386841 140.0
1383.549683 96.0
1384.134644 112.0
1384.564209 48.0
1384.949341 120.0
1385.127075 96.0
1385.260498 224.0
1385.601196 140.0
1386.327393 124.0
1386.460815 136.0
1386.796631 196.0
1386.949951 144.0
1387.19458 64.0
1387.661621 148.0
1387.772827 200.0
1388.039795 160.0
1388.202881 188.0
1388.447632 116.0
1388.863037 44.0
1388.939575 148.0
1389.367432 172.0
1390.087158 52.0
1390.332031 148.0
1390.487915 140.0
1391.000122 48.0
1391.356445 140.0
1391.699097 152.0
1391.846436 220.0
1393.926392 76.0
1394.602661 60.0
1394.855469 144.0
1395.334351 216.0
1396.111938 84.0
1396.498779 104.0
1396.855713 136.0
1397.197998 228.0
1398.150391 180.0
1398.299316 240.0
1398.656494 164.0
1398.932007 172.0
1399.013916 184.0
1399.535034 176.0
1399.706299 156.0
1400.190308 132.0
1400.817993 124.0
1400.95752 168.0
1401.06189 152.0
1401.373901 240.0
1401.538696 172.0
1401.658691 168.0
1402.209473 96.0
1402.552246 216.0
1403.330811 208.0
1403.469238 140.0
1403.901733 184.0
1404.692383 148.0
1404.804321 140.0
1405.416138 176.0
1405.483276 80.0
1406.095215 132.0
1406.177246 244.0
1406.490723 96.0
1406.82666 188.0
1407.035767 128.0
1407.46875 92.0
1407.543457 188.0
1407.827271 120.0
1407.886963 112.0
1408.140869 148.0
1408.435181 204.0
1409.112061 156.0
1409.791992 164.0
1409.904053 228.0
1410.158203 148.0
1411.040283 40.0
1411.122559 136.0
1411.601074 188.0
1411.653442 188.0
1411.743164 36.0
1411.915161 132.0
1412.004883 112.0
1412.809082 196.0
1412.880127 208.0
1412.999878 192.0
1414.129761 192.0
1414.67627 152.0
1415.11792 200.0
1415.282715 204.0
1415.64209 120.0
1416.413574 244.0
1417.095337 216.0
1417.237671 196.0
1417.300781 120.0
1417.372559 160.0
1417.514893 152.0
1418.594238 152.0
1419.471436 136.0
1419.583862 204.0
1419.763916 64.0
1420.761475 156.0
1421.391724 216.0
1421.721924 172.0
1422.206543 176.0
1422.487549 196.0
1422.690186 88.0
1422.907959 208.0
1423.116577 192.0
1423.771484 96.0
1425.123657 220.0
1425.582031 136.0
1426.201416 116.0
1426.724487 52.0
1426.889893 136.0
1427.055298 176.0
1427.220825 104.0
1427.367798 144.0
1427.679443 184.0
1428.047974 204.0
1428.251099 128.0
1428.792725 92.0
1428.898071 160.0
1429.026001 144.0
1429.168945 56.0
1429.296875 260.0
1429.801025 72.0
1429.904053 216.0
1430.343018 124.0
1430.614014 156.0
1430.957031 160.0
1431.416016 172.0
1431.660522 164.0
1431.909058 188.0
1432.059692 192.0
1432.594604 288.0
1432.820557 120.0
1433.144531 124.0
1433.649414 208.0
1433.800171 160.0
1433.868042 176.0
1434.079102 140.0
1434.275024 164.0
1434.614258 44.0
1434.825317 216.0
1435.141968 168.0
1436.303467 116.0
1437.329468 152.0
1437.435059 120.0
1438.325684 144.0
1438.755981 280.0
1439.103271 52.0
1440.228516 212.0
1440.733154 144.0
1441.286255 176.0
1441.784912 168.0
1442.46521 220.0
1442.93396 192.0
1443.236328 128.0
1443.296875 72.0
1443.614502 164.0
1444.068237 160.0
1444.136353 300.0
1445.142456 152.0
1446.391235 180.0
1446.550171 156.0
1447.168091 232.0
1447.398071 124.0
1447.451172 228.0
1447.541992 200.0
1447.83728 124.0
1448.193359 140.0
1448.322021 164.0
1448.625244 140.0
1448.905396 144.0
1448.98877 96.0
1449.610107 124.0
1449.928345 132.0
1450.102661 164.0
1450.754517 156.0
1451.292847 164.0
1451.535522 68.0
1451.869141 136.0
1451.998169 140.0
1452.14978 112.0
1452.468384 160.0
1452.802124 148.0
1453.178589 224.0
1453.431885 76.0
1453.682251 164.0
1454.008667 196.0
1454.729736 160.0
1454.828369 248.0
1454.972656 148.0
1455.390259 120.0
1455.511719 172.0
1455.853516 120.0
1456.066162 164.0
1456.126831 152.0
1456.423096 184.0
1456.742188 152.0
1457.068848 108.0
1457.897095 92.0
1458.641968 212.0
1458.691895 184.0
1458.924438 144.0
1459.729126 148.0
1460.238647 196.0
1460.497314 152.0
1460.710327 148.0
1460.824463 128.0
1460.915649 136.0
1461.28186 60.0
1461.402588 100.0
1461.592896 144.0
1462.087524 216.0
1462.239746 140.0
1462.407104 192.0
1462.536499 112.0
1462.600098 180.0
1462.71167 208.0
1462.901978 180.0
1463.351074 132.0
1463.442505 160.0
1464.302979 156.0
1465.598022 184.0
1466.123901 324.0
1466.291504 168.0
1466.505005 56.0
1466.825073 172.0
1467.244385 124.0
1467.361816 200.0
1467.457886 172.0
1467.793335 128.0
1468.708496 140.0
1468.899292 128.0
1469.396606 192.0
1469.585815 176.0
1469.700317 140.0
1469.852905 180.0
1470.043701 124.0
1470.287964 140.0
1470.784058 212.0
1470.936646 152.0
1471.236694 164.0
1471.593262 108.0
1471.822388 84.0
1472.364502 44.0
1472.433228 60.0
1472.486694 152.0
1472.876221 116.0
1473.181885 224.0
1473.357544 56.0
1473.421997 136.0
1473.540894 232.0
1474.060547 180.0
1474.274414 176.0
1474.503784 168.0
1474.742676 184.0
1475.22229 160.0
1475.604492 204.0
1475.719238 132.0
1475.808594 128.0
1476.116821 92.0
1476.208618 100.0
1476.623047 200.0
1477.042236 144.0
1477.103394 184.0
1477.983276 128.0
1478.159302 128.0
1478.725586 244.0
1478.840454 184.0
1480.210815 144.0
1480.808105 188.0
1481.007324 192.0
1481.114502 196.0
1481.175781 152.0
1481.283081 120.0
1481.34436 172.0
1481.980225 260.0
1482.424683 116.0
1482.700562 172.0
1484.218384 148.0
1484.502197 192.0
1484.908569 192.0
1485.353516 144.0
1485.407227 172.0
1485.468506 48.0
1485.783081 160.0
1485.905884 144.0
1485.997925 136.0
1486.059326 180.0
1486.258789 168.0
1486.3125 132.0
1486.673218 164.0
1486.926392 200.0
1487.110596 116.0
1487.379272 104.0
1487.525146 168.0
1489.106934 204.0
1489.237549 168.0
1489.484131 148.0
1489.813599 52.0
1490.534058 220.0
1490.789429 172.0
1491.189087 228.0
1491.350464 40.0
1491.619507 144.0
1491.773315 172.0
1491.996216 164.0
1492.125488 176.0
1492.257568 156.0
1492.4729 200.0
1492.665161 196.0
1492.918945 148.0
1493.441895 228.0
1493.834229 160.0
1494.118896 180.0
1494.18042 48.0
1494.518921 128.0
1494.772827 164.0
1495.712646 144.0
1496.09668 132.0
1497.066895 184.0
1497.790894 76.0
1498.260864 192.0
1498.746216 128.0
1498.973389 200.0
1499.231689 212.0
1499.678711 252.0
1499.963867 172.0
1500.50354 180.0
1500.665527 108.0
1501.615601 176.0
1501.853149 108.0
1502.377686 200.0
1502.681152 212.0
1502.809692 192.0
1503.288086 112.0
1503.527344 180.0
1503.581421 120.0
1504.700684 136.0
1504.932373 156.0
1505.048096 192.0
1505.320557 212.0
