>compound MLS001076555-01!
>formula C13H15Cl2NO
>ionization [M+H]+
>parentmass 272.0603459120905
#inchi InChI=1S/C13H15Cl2NO/c1-3-7-16(2)8-4-9-17-13-6-5-11(14)10-12(13)15/h1,5-6,10H,4,7-9H2,2H3
#inchikey BTFHLQRNAMSNLC
#origInchi InChI=1S/C13H15Cl2NO.ClH/c1-3-7-16(2)8-4-9-17-13-6-5-11(14)10-12(13)15;/h1,5-6,10H,4,7-9H2,2H3;1H
#Ion_Source LC-ESI
#Instrument qTof
#Compound_Source NIH Pharmacologically Active Library
#PI Dorrestein
#Data_Collector VP/LMS
#Scan -1
#Precursor_MZ 272.06
#ExactMass 271.053
#Charge 1
#CAS_Number N/A
#Pubmed_ID N/A
#Smiles CN(CCCOc1ccc(Cl)cc1Cl)CC#C.Cl
#INCHI_AUX N/A
#Library_Class 1
#SpectrumID CCMSLIB00000085230
#IonMode Positive
#UpdateWorkflowName UPDATE-SINGLE-ANNOTATED-GOLD
#LibraryQualityString Gold
#TaskID d252d724072548979f1f6f1ced849daf
##Scan# 1685
#SpectrumFile p3-G04_GG4_01_18297.mzXML
#LibraryName Pharm_Active_Library.mgf
#MQScore -1
#Organism Pharm_Active_Library
#TIC_Query 0
#RT_Query -1
#MZErrorPPM -1
#SharedPeaks 0
#MassDiff 0
#LibMZ -1
#SpecMZ 272.06
#SpecCharge 0
#internalFilename spec-00000.mgf

>collision 10
44.983582 140.0
45.230896 228.0
45.375206 224.0
45.395706 216.0
45.492317 188.0
45.640114 124.0
45.860916 52.0
45.894936 172.0
45.948574 152.0
46.17012 184.0
46.233707 148.0
46.244537 160.0
46.502075 148.0
46.704544 156.0
46.748081 136.0
47.071182 92.0
47.394024 148.0
47.483135 152.0
47.638252 96.0
47.656113 156.0
47.744095 152.0
47.880352 140.0
48.172791 192.0
48.342869 172.0
48.439793 168.0
48.56662 172.0
48.65337 116.0
48.735321 172.0
48.989944 80.0
48.999695 100.0
49.009449 172.0
49.070782 136.0
49.130756 180.0
49.35284 156.0
49.652538 128.0
49.71006 216.0
49.802727 168.0
49.904629 172.0
50.122105 148.0
50.220798 184.0
50.236313 84.0
50.517456 116.0
50.588219 176.0
50.762501 156.0
50.885956 144.0
51.223026 88.0
51.292854 128.0
51.566925 168.0
51.943531 148.0
52.039692 148.0
52.461262 208.0
52.64307 124.0
52.88887 156.0
52.991699 68.0
53.569954 284.0
53.863182 40.0
53.876331 40.0
53.950867 52.0
54.435883 156.0
54.503456 240.0
54.556374 168.0
54.61961 116.0
54.822803 160.0
54.869625 220.0
54.989468 160.0
55.141602 184.0
55.375385 168.0
55.485046 228.0
55.985828 156.0
56.06181 128.0
56.175133 160.0
56.324417 172.0
57.087345 112.0
57.636082 204.0
57.661774 228.0
57.850861 120.0
58.092319 252.0
58.213261 108.0
58.228447 180.0
58.472969 112.0
58.774998 204.0
58.881866 120.0
58.910889 152.0
58.9659 128.0
59.308773 208.0
59.431465 148.0
59.546608 184.0
59.752605 116.0
59.769531 120.0
59.78492 200.0
60.031418 228.0
60.535229 180.0
60.985176 132.0
61.053589 76.0
61.16095 152.0
61.280869 156.0
61.385311 176.0
61.416504 164.0
61.499207 128.0
61.578842 152.0
61.697609 188.0
62.134583 188.0
62.220905 172.0
62.455067 72.0
62.626644 148.0
63.02422 128.0
63.385017 108.0
63.802475 100.0
63.884399 172.0
63.897903 84.0
64.104912 224.0
64.165489 40.0
64.200569 152.0
64.232468 148.0
64.27076 52.0
64.336205 36.0
64.505547 188.0
64.518341 212.0
64.732918 192.0
64.787216 236.0
65.048622 216.0
65.325035 168.0
65.444138 216.0
65.782722 148.0
65.892548 168.0
66.175194 252.0
66.195038 180.0
66.415459 80.0
66.506332 188.0
66.852531 172.0
66.97953 156.0
67.251854 192.0
67.613075 160.0
67.649094 96.0
67.952293 116.0
68.134544 180.0
68.231514 168.0
68.358177 132.0
68.392235 236.0
68.499779 168.0
68.676163 64.0
68.728958 116.0
68.920502 120.0
68.970085 168.0
69.021339 204.0
69.102394 136.0
69.563141 160.0
69.755852 176.0
69.987114 172.0
70.002106 128.0
70.018761 76.0
70.057068 140.0
70.138725 88.0
70.561104 156.0
70.837257 100.0
70.879143 220.0
71.09716 152.0
71.174377 164.0
71.871284 108.0
71.945549 152.0
72.325867 160.0
72.551231 176.0
72.573273 168.0
72.798973 180.0
72.924698 144.0
73.118599 188.0
73.375832 92.0
73.507172 152.0
73.529366 92.0
73.657425 156.0
73.710396 84.0
73.744576 108.0
73.820274 144.0
74.098824 132.0
74.270256 180.0
74.529503 164.0
74.634361 204.0
74.895966 312.0
74.949615 256.0
74.964882 44.0
75.0028 304.0
75.220161 120.0
75.240875 92.0
75.259872 156.0
75.425728 204.0
75.571007 144.0
75.666206 116.0
75.718155 200.0
75.887985 164.0
76.644127 108.0
76.774872 176.0
76.811501 140.0
76.910973 184.0
76.923187 72.0
77.551186 176.0
77.568718 332.0
77.624825 180.0
77.765182 152.0
78.317307 172.0
78.384254 76.0
78.426559 80.0
78.574692 116.0
78.664352 200.0
78.721207 136.0
78.859016 136.0
79.037636 140.0
79.133224 188.0
79.546318 152.0
79.572952 428.0
79.899986 176.0
79.917778 148.0
79.937355 152.0
80.386444 184.0
80.670441 200.0
80.707993 156.0
80.740181 44.0
80.770584 160.0
81.064224 152.0
81.421249 192.0
81.532639 148.0
81.762856 164.0
81.807854 88.0
81.937531 132.0
82.576584 108.0
82.701431 156.0
83.667213 204.0
83.916824 160.0
83.938705 96.0
83.969711 140.0
84.175941 176.0
84.517784 172.0
84.590996 28.0
84.807152 52.0
84.966698 188.0
84.981377 328.0
85.078651 180.0
85.231102 120.0
85.357948 164.0
85.536415 128.0
85.772209 216.0
85.85334 52.0
85.982491 172.0
86.076645 112.0
86.329819 180.0
86.527817 168.0
86.590782 164.0
86.816895 128.0
86.948624 172.0
86.98037 152.0
86.998543 148.0
87.056305 84.0
87.42627 136.0
88.013496 204.0
88.327492 132.0
88.42292 116.0
88.655159 72.0
88.797646 144.0
88.823906 152.0
88.95903 148.0
88.976967 236.0
89.004089 176.0
89.216408 152.0
89.261536 176.0
89.410156 160.0
89.436508 172.0
89.494873 152.0
89.830406 164.0
90.09655 184.0
90.281799 196.0
90.353676 72.0
90.6017 180.0
90.715408 116.0
90.78936 148.0
90.990509 140.0
91.020889 216.0
91.058876 84.0
91.410591 120.0
91.761086 148.0
92.093147 164.0
92.343544 172.0
92.475571 136.0
92.734146 164.0
92.872208 164.0
93.031487 136.0
93.106369 220.0
93.183212 180.0
93.34201 108.0
93.55056 180.0
93.598694 112.0
94.064529 2220.0
94.132866 244.0
94.159904 256.0
94.208191 76.0
94.335747 84.0
94.790604 200.0
94.893341 188.0
94.930183 40.0
94.99807 148.0
95.070236 372.0
95.221306 104.0
95.454521 104.0
95.487579 116.0
95.602371 176.0
95.830208 184.0
96.052467 104.0
96.08007 1076.0
96.112946 68.0
96.177353 128.0
96.191017 64.0
96.671844 156.0
97.083153 196.0
97.124451 148.0
97.183304 64.0
97.371765 72.0
97.428734 200.0
97.540756 80.0
97.574173 172.0
97.718193 180.0
97.808289 100.0
97.867348 168.0
97.979622 144.0
98.143211 112.0
98.411568 216.0
98.810837 148.0
99.000282 356.0
99.020676 40.0
99.349739 148.0
99.363625 160.0
99.733009 136.0
100.154861 136.0
100.182747 164.0
100.318947 152.0
100.415977 84.0
100.523712 60.0
100.669441 132.0
100.995232 288.0
101.081261 180.0
101.203369 148.0
101.521996 104.0
101.588188 100.0
101.620293 156.0
101.7901 236.0
101.987808 108.0
102.007912 40.0
102.046501 184.0
102.116501 144.0
102.136612 56.0
102.454689 52.0
102.569557 224.0
102.678444 156.0
102.78537 216.0
103.021606 148.0
103.050804 376.0
103.33094 176.0
103.496918 116.0
103.652893 256.0
103.70356 160.0
103.784546 220.0
104.05249 152.0
104.182472 120.0
104.288139 100.0
104.469124 136.0
104.513885 192.0
104.72155 152.0
104.864174 156.0
104.882523 140.0
104.986511 260.0
105.067123 624.0
105.121155 88.0
105.184425 160.0
105.521523 172.0
105.822296 152.0
106.066093 204.0
106.080444 188.0
106.139908 84.0
106.26503 168.0
106.336861 180.0
106.869125 100.0
106.912338 188.0
106.944054 176.0
106.994675 244.0
107.017326 232.0
107.069603 156.0
107.316101 108.0
107.460487 88.0
107.629745 92.0
107.838409 240.0
107.881821 96.0
108.078308 364.0
108.239769 32.0
108.301903 224.0
108.355766 120.0
108.453171 48.0
108.515366 180.0
108.729034 148.0
108.942909 212.0
108.984192 1448.0
109.092361 184.0
109.19236 76.0
109.598312 192.0
109.883972 80.0
109.986931 304.0
110.036339 152.0
110.096062 3968.0
110.291214 76.0
110.3853 168.0
110.519173 188.0
110.978729 268.0
110.998764 3300.0
111.099136 520.0
111.187691 60.0
111.668839 192.0
111.934013 160.0
111.983078 204.0
112.006821 2948.0
112.035118 156.0
112.117302 188.0
112.178429 156.0
112.288078 64.0
112.444214 168.0
112.690582 144.0
112.712418 200.0
112.790619 36.0
112.889206 128.0
112.975746 588.0
112.99527 728.0
113.011528 536.0
113.06559 140.0
113.110046 60.0
113.179909 180.0
113.209557 56.0
113.51049 172.0
113.690811 56.0
113.894646 60.0
113.964752 180.0
113.982361 432.0
114.001511 788.0
114.234772 112.0
114.532799 116.0
114.607368 152.0
114.735252 124.0
114.773628 152.0
114.814148 108.0
114.85041 140.0
114.948555 124.0
114.976028 356.0
114.992943 324.0
115.01899 40.0
115.057121 204.0
115.209053 64.0
115.450592 176.0
115.98159 184.0
116.030899 36.0
116.20034 132.0
116.260422 128.0
116.481583 140.0
116.853516 100.0
117.012794 132.0
117.241127 120.0
117.260368 160.0
117.376945 136.0
117.534416 40.0
117.556 172.0
118.869598 172.0
118.969444 176.0
119.264885 132.0
119.441025 140.0
119.776253 144.0
119.98983 156.0
120.090141 184.0
120.561752 156.0
120.74321 96.0
120.9599 764.0
121.099388 208.0
121.191994 176.0
121.262123 52.0
121.428757 160.0
121.463852 188.0
121.709663 140.0
121.973312 88.0
122.037071 164.0
122.624863 96.0
122.95723 680.0
123.028549 84.0
123.116875 128.0
123.311302 180.0
123.513069 224.0
123.640854 212.0
123.682907 208.0
123.89772 192.0
124.532166 196.0
124.663254 72.0
125.015251 1752.0
125.21946 100.0
125.268463 100.0
125.73896 148.0
125.781372 88.0
125.985527 464.0
126.025124 144.0
126.163383 124.0
126.378098 208.0
126.776703 176.0
126.99411 1104.0
127.010857 784.0
127.13105 76.0
127.620766 152.0
127.877228 148.0
128.001038 864.0
128.842392 216.0
128.867249 136.0
128.987442 244.0
129.008606 968.0
129.032242 164.0
129.06842 124.0
129.199615 96.0
129.312759 156.0
129.725021 228.0
129.838409 128.0
130.00325 300.0
130.03125 68.0
130.256058 168.0
130.276505 84.0
131.004364 164.0
131.02272 60.0
131.047424 772.0
131.455963 104.0
132.020248 120.0
132.054855 348.0
132.157501 220.0
132.189545 132.0
132.597198 188.0
132.773743 80.0
132.81044 160.0
132.959732 12348.0
132.997208 164.0
133.031525 200.0
133.06366 2236.0
133.138657 68.0
133.18689 116.0
133.29718 72.0
133.962906 736.0
134.065826 224.0
134.128052 152.0
134.307922 48.0
134.330978 104.0
134.384048 144.0
134.61026 72.0
134.677246 200.0
134.728073 220.0
134.848236 128.0
134.956909 8296.0
135.007767 80.0
135.100281 152.0
135.174332 64.0
135.301636 140.0
135.338684 124.0
135.500824 60.0
135.723343 152.0
135.83931 220.0
135.881058 80.0
135.96077 324.0
136.031921 248.0
136.196793 128.0
136.398956 236.0
136.799088 112.0
137.012253 356.0
137.031982 84.0
137.057617 56.0
137.176483 64.0
137.311722 192.0
137.351379 124.0
137.433044 124.0
137.874405 152.0
137.967911 68.0
137.986603 164.0
138.018005 208.0
138.213501 112.0
138.553009 136.0
138.960968 168.0
139.004028 2468.0
139.031616 808.0
139.169876 76.0
139.359116 92.0
139.393036 168.0
139.557587 236.0
139.578735 48.0
140.005081 328.0
140.143677 68.0
140.50679 60.0
140.676712 88.0
140.709763 156.0
140.80658 204.0
141.002594 880.0
141.10907 36.0
141.437912 48.0
141.470001 172.0
141.736328 48.0
141.981842 192.0
142.000977 196.0
142.035065 120.0
142.421463 216.0
142.82608 32.0
142.983124 124.0
143.037872 96.0
143.733826 52.0
144.051376 136.0
144.383621 48.0
144.402756 112.0
144.579803 108.0
144.661194 44.0
144.893509 108.0
144.959381 1924.0
145.015717 136.0
145.078049 140.0
145.207535 124.0
145.225983 172.0
145.584335 160.0
145.644058 148.0
145.730881 232.0
145.96492 164.0
145.988083 52.0
146.081894 60.0
146.09874 104.0
146.368317 188.0
146.975464 5048.0
147.040939 28.0
147.08197 72.0
147.294464 80.0
147.313797 116.0
147.444763 100.0
147.552185 132.0
147.977295 720.0
148.017639 124.0
148.07576 152.0
148.650345 264.0
148.79599 140.0
148.839691 80.0
148.972473 3312.0
149.10936 88.0
149.128799 212.0
149.157974 56.0
149.212753 232.0
149.425491 168.0
149.525269 64.0
149.573944 120.0
149.776062 216.0
149.837585 248.0
149.943375 192.0
149.979034 120.0
150.214844 88.0
150.716461 160.0
150.796005 148.0
151.155518 88.0
151.493408 52.0
151.620834 172.0
151.964142 64.0
152.465103 48.0
152.588013 132.0
152.922577 124.0
153.008408 2132.0
153.176208 228.0
153.869217 172.0
154.007233 208.0
154.057205 172.0
154.801422 124.0
155.005676 860.0
155.088837 36.0
155.126007 76.0
155.163208 92.0
155.803528 256.0
156.007599 216.0
156.56221 364.0
156.980896 152.0
158.515839 132.0
158.975967 136.0
159.238388 212.0
159.645538 144.0
159.948181 200.0
159.985229 112.0
160.332855 132.0
160.441238 156.0
160.776733 232.0
160.867599 56.0
160.954987 4444.0
161.001434 52.0
161.031738 76.0
161.096756 108.0
161.302109 40.0
161.446228 140.0
161.484177 96.0
161.87645 156.0
161.958267 1640.0
162.015762 56.0
162.695465 204.0
162.776108 152.0
162.812271 200.0
162.952423 2880.0
163.000717 180.0
163.095428 144.0
163.12735 64.0
163.278091 28.0
163.300262 60.0
163.404556 168.0
163.483688 204.0
163.582718 100.0
163.707474 40.0
163.829742 200.0
163.961594 264.0
164.1866 92.0
164.9245 228.0
164.962158 776.0
165.010056 300.0
165.433563 128.0
165.47966 96.0
165.863937 68.0
166.016251 160.0
166.035736 176.0
166.102432 80.0
166.382156 156.0
166.407837 104.0
166.454056 124.0
166.829193 116.0
167.00032 160.0
167.026031 412.0
167.153275 220.0
167.712158 160.0
167.972595 144.0
168.031708 3540.0
168.088699 32.0
168.566452 140.0
168.700851 164.0
168.90773 52.0
168.985352 220.0
169.033554 272.0
169.20018 128.0
169.34494 80.0
169.622452 36.0
169.705414 68.0
169.89476 84.0
170.031738 532.0
170.097168 152.0
170.265945 152.0
170.320496 228.0
170.494873 108.0
170.515381 64.0
170.533569 152.0
170.629761 36.0
170.68956 64.0
170.973129 120.0
171.098068 132.0
171.202225 52.0
171.358521 104.0
171.400223 60.0
171.994858 96.0
172.036636 308.0
172.522568 180.0
172.965118 4368.0
172.997086 168.0
173.404724 120.0
173.42569 112.0
173.740387 72.0
173.972122 412.0
174.142014 40.0
174.302277 140.0
174.73877 160.0
174.783493 128.0
174.833496 148.0
174.880875 148.0
174.917725 200.0
174.969513 13744.0
175.056244 56.0
175.119232 144.0
175.1521 164.0
175.191605 84.0
175.210052 48.0
175.246521 76.0
175.31282 60.0
175.718903 64.0
175.795425 108.0
175.974716 1520.0
176.097946 124.0
176.15033 116.0
176.320999 144.0
176.355347 108.0
176.572159 92.0
176.725601 176.0
176.967087 7104.0
177.027374 108.0
177.051208 100.0
177.084396 144.0
177.125381 100.0
177.202209 44.0
177.255203 60.0
177.283386 132.0
177.313507 48.0
177.350616 64.0
177.385071 120.0
177.46196 164.0
177.541519 72.0
177.637009 56.0
177.740479 100.0
177.828064 48.0
177.968719 868.0
178.037811 144.0
178.399185 52.0
178.532135 48.0
178.838104 60.0
178.933945 116.0
178.963226 144.0
179.0298 136.0
179.184296 148.0
179.680222 72.0
179.885712 140.0
180.061081 160.0
180.219559 44.0
181.022064 92.0
181.102417 64.0
181.609024 156.0
181.826355 120.0
182.050552 140.0
182.395798 160.0
183.666794 60.0
184.044632 220.0
185.129333 196.0
186.118835 124.0
186.162292 152.0
186.401352 48.0
186.452988 108.0
186.713989 56.0
186.972458 136.0
187.296478 52.0
188.166443 80.0
188.964539 80.0
189.819168 160.0
189.991959 36.0
192.977585 176.0
194.426392 68.0
195.930771 192.0
197.111053 140.0
197.631165 80.0
198.069107 420.0
198.900757 88.0
198.98497 100.0
199.049561 84.0
199.069214 156.0
199.344528 108.0
200.062515 208.0
200.306793 164.0
200.974976 96.0
201.994904 212.0
202.110901 176.0
202.977264 152.0
203.001556 360.0
203.306793 36.0
204.996552 372.0
206.004242 156.0
206.680908 108.0
211.168945 20.0
211.603027 104.0
213.861603 144.0
215.088791 36.0
216.015152 152.0
220.07991 68.0
223.191254 80.0
224.62384 32.0
225.292557 112.0
225.424026 60.0
226.159775 116.0
226.803787 80.0
230.614563 76.0
232.027252 3156.0
232.286072 56.0
232.361923 84.0
232.656326 104.0
233.025925 388.0
233.98494 60.0
234.024155 1528.0
234.112823 44.0
234.149368 48.0
234.252945 208.0
234.478424 92.0
234.551575 132.0
235.024368 204.0
235.326492 136.0
236.032043 164.0
236.081268 124.0
236.693314 160.0
236.929169 116.0
237.060928 104.0
237.088516 144.0
238.036469 116.0
238.9617 116.0
239.050934 164.0
243.090042 156.0
245.588394 20.0
246.044006 132.0
251.525391 228.0
252.906769 92.0
259.254639 76.0
264.135925 164.0
268.974579 64.0
270.216461 136.0
271.169434 172.0
272.057587 3436.0
272.198303 156.0
272.337524 48.0
272.827148 52.0
273.00473 128.0
273.063049 340.0
273.290924 108.0
273.583832 84.0
274.057129 1428.0
274.189941 48.0
274.2229 76.0
274.585602 72.0
274.720825 52.0
274.849518 140.0
275.056519 116.0
275.116852 32.0
275.311676 112.0
276.051941 160.0
277.10791 108.0
291.908936 152.0
293.755005 120.0
321.041473 176.0
323.868622 80.0
329.70108 96.0
345.961487 28.0
349.067108 52.0
354.89621 64.0
357.111938 116.0
359.878113 104.0
364.385437 48.0
374.485046 72.0
376.676025 60.0
403.662323 48.0
412.269562 108.0
460.901154 64.0
475.062592 72.0
530.22876 120.0
570.386658 88.0
606.586304 156.0
612.118652 52.0
705.870544 56.0
713.516663 104.0
767.111877 104.0
768.446594 120.0
807.854797 188.0
823.247375 208.0
844.4729 184.0
852.438965 60.0
857.519775 144.0
859.000854 168.0
897.308167 200.0
902.287598 164.0
915.374512 180.0
936.749512 188.0
938.486511 44.0
955.883484 192.0
973.657593 84.0
984.150879 148.0
987.212891 180.0
991.564087 84.0
1001.340515 164.0
1015.454346 180.0
1016.450378 160.0
1018.031128 172.0
1020.611145 160.0
1024.347168 212.0
1028.804932 204.0
1029.168823 128.0
1029.379517 164.0
1031.75647 168.0
1032.645386 60.0
1035.006958 156.0
1037.550659 124.0
1039.519897 176.0
1041.561646 172.0
1041.818604 144.0
1043.225952 120.0
1047.183472 160.0
1056.039185 168.0
1062.588623 188.0
1066.192627 172.0
1069.015259 192.0
1071.248535 96.0
1082.72522 164.0
1082.84314 196.0
1085.654785 140.0
1087.256958 96.0
1089.954712 168.0
1091.289185 84.0
1091.53894 200.0
1098.408569 112.0
1100.5271 76.0
1100.811035 64.0
1102.462646 172.0
1102.614624 140.0
1103.890625 176.0
1104.929077 120.0
1109.936646 124.0
1114.477051 152.0
1117.968262 172.0
1129.906006 168.0
1132.992432 56.0
1135.29834 236.0
1138.49292 204.0
1140.569092 116.0
1144.976318 224.0
1146.094604 48.0
1151.545654 160.0
1152.741455 152.0
1154.539795 128.0
1157.273682 148.0
1157.77478 232.0
1169.909058 180.0
1170.174561 128.0
1172.531616 200.0
1173.649658 224.0
1180.150146 212.0
1180.225342 168.0
1180.799805 220.0
1181.470215 228.0
1184.872925 136.0
1188.554932 148.0
1188.664917 148.0
1192.751343 184.0
1197.595703 136.0
1200.752563 216.0
1202.104736 184.0
1205.474854 212.0
1206.566895 244.0
1206.718994 44.0
1206.91272 108.0
1208.884155 164.0
1217.918335 160.0
1220.07959 212.0
1221.004517 180.0
1224.205933 216.0
1225.215942 36.0
1226.428467 220.0
1226.784058 144.0
1226.860718 116.0
1228.862427 164.0
1229.609131 204.0
1230.823853 172.0
1232.220825 156.0
1233.101318 56.0
1233.835327 156.0
1236.724609 132.0
1237.123535 64.0
1239.084595 164.0
1241.425781 92.0
1247.042603 256.0
1252.369019 156.0
1254.363281 160.0
1255.174072 124.0
1256.479004 156.0
1258.568237 160.0
1259.048462 184.0
1261.557007 176.0
1265.858887 44.0
1266.156372 236.0
1274.222046 188.0
1275.017944 188.0
1278.979736 156.0
1284.844727 128.0
1288.035889 240.0
1290.05835 196.0
1293.334595 224.0
1294.831177 164.0
1295.490112 160.0
1299.548218 216.0
1299.942871 144.0
1300.409302 140.0
1303.159912 180.0
1304.029419 128.0
1307.186768 152.0
1309.944336 164.0
1313.8302 164.0
1315.425049 168.0
1317.447144 144.0
1318.567261 220.0
1318.79126 112.0
1319.181641 208.0
1320.099976 272.0
1320.259033 80.0
1320.410889 52.0
1321.141479 144.0
1321.865112 52.0
1322.393433 180.0
1323.486572 208.0
1324.630981 124.0
1326.413574 188.0
1326.631104 176.0
1328.306274 164.0
1329.017334 224.0
1329.859131 176.0
1330.069702 120.0
1330.570557 76.0
1331.892334 104.0
1334.697754 140.0
1336.428955 196.0
1337.258545 124.0
1342.63562 136.0
1342.927368 152.0
1343.14624 168.0
1348.637329 156.0
1353.509888 256.0
1354.176392 152.0
1356.946533 136.0
1357.357178 224.0
1357.577148 112.0
1358.736084 144.0
1360.996826 164.0
1361.628418 164.0
1364.229614 216.0
1364.464844 172.0
1364.604614 228.0
1365.192871 180.0
1366.531738 168.0
1366.929077 208.0
1368.791504 144.0
1368.901978 180.0
1369.940552 176.0
1370.507812 220.0
1371.126831 200.0
1371.900879 224.0
1373.102783 232.0
1374.430786 200.0
1376.172729 44.0
1378.906128 120.0
1379.009644 204.0
1379.770996 176.0
1380.318237 164.0
1381.107056 220.0
1382.345093 148.0
1384.410645 184.0
1387.723022 204.0
1387.774902 176.0
1388.523926 188.0
1389.369629 152.0
1389.666382 132.0
1390.824097 180.0
1391.952637 204.0
1392.145752 116.0
1393.564575 196.0
1395.006348 144.0
1395.400391 244.0
1395.452515 200.0
1395.772217 104.0
1396.456421 68.0
1397.892334 88.0
1399.157715 124.0
1400.654663 176.0
1402.100098 112.0
1402.636841 132.0
1402.927612 260.0
1403.263062 72.0
1403.367432 132.0
1406.374023 116.0
1414.821411 180.0
1416.588867 120.0
1418.372314 144.0
1419.39209 144.0
1422.75354 180.0
1425.810791 188.0
1425.938599 100.0
1428.683228 152.0
1431.219727 248.0
1432.131104 128.0
1433.012451 116.0
1434.39917 120.0
1436.269287 72.0
1436.661621 120.0
1436.767212 172.0
1438.759766 108.0
1439.182495 168.0
1441.388306 176.0
1442.265015 44.0
1449.682373 88.0
1450.046143 176.0
1450.796631 232.0
1452.374756 180.0
1456.397095 160.0
1459.60437 212.0
1461.787598 196.0
1465.297852 184.0
1465.884644 48.0
1466.067505 200.0
1467.828613 124.0
1468.980225 76.0
1470.62854 164.0
1470.758301 192.0
1472.720703 96.0
1474.760864 160.0
1475.426025 132.0
1475.617065 180.0
1476.282349 112.0
1476.588257 228.0
1476.741333 152.0
1477.230835 140.0
1477.36853 56.0
1477.582764 120.0
1478.921997 376.0
1479.121094 192.0
1479.343018 144.0
1480.667725 232.0
1481.694214 76.0
1482.6521 188.0
1483.802002 168.0
1487.085327 124.0
1488.651489 124.0
1489.825195 220.0
1490.556641 84.0
1494.186035 196.0
1494.88623 104.0
1495.532715 164.0
1497.534668 184.0
1497.888062 176.0
1498.551636 132.0
1498.609619 188.0
1499.360718 160.0
1499.484131 136.0
1499.615112 184.0
1500.077637 208.0
1502.306396 240.0
1503.818848 180.0
