>compound MLS002153914-01!Methoxy-6-harmalan3589-73-9
>formula C13H14N2O
>ionization [M+H]+
>parentmass 215.116882
#inchi InChI=1S/C13H14N2O/c1-8-13-10(5-6-14-8)11-7-9(16-2)3-4-12(11)15-13/h3-4,7,15H,5-6H2,1-2H3
#inchikey HMBHRMFLDKKSCT
#Ion_Source LC-ESI
#Instrument qTof
#Compound_Source NIH Pharmacologically Active Library
#PI Dorrestein
#Data_Collector VP/LMS
#Scan -1
#Precursor_MZ 215.119
#ExactMass 214.111
#Charge 1
#CAS_Number N/A
#Pubmed_ID N/A
#Smiles COc1ccc2[nH]c3C(=NCCc3c2c1)C
#INCHI_AUX N/A
#Library_Class 1
#SpectrumID CCMSLIB00000085166
#IonMode Positive
#UpdateWorkflowName UPDATE-SINGLE-ANNOTATED-GOLD
#LibraryQualityString Gold
#TaskID d252d724072548979f1f6f1ced849daf
##Scan# 1354
#SpectrumFile p3-F07_GF7_01_18288.mzXML
#LibraryName Pharm_Active_Library.mgf
#MQScore -1
#Organism Pharm_Active_Library
#TIC_Query 0
#RT_Query -1
#MZErrorPPM -1
#SharedPeaks 0
#MassDiff 0
#LibMZ -1
#SpecMZ 215.119
#SpecCharge 0
#internalFilename spec-00000.mgf

>collision 10
44.893776 208.0
44.983177 112.0
45.00721 224.0
45.048618 152.0
45.068657 124.0
45.087368 196.0
45.098061 224.0
45.159077 216.0
45.164173 136.0
45.199707 140.0
45.311512 228.0
45.344948 168.0
45.365799 200.0
45.438461 180.0
45.495937 180.0
45.515305 236.0
45.599373 76.0
45.610126 260.0
45.642395 108.0
45.693508 168.0
45.779663 136.0
45.837505 184.0
45.884769 228.0
45.95491 76.0
45.9846 268.0
46.021049 88.0
46.04266 184.0
46.080482 188.0
46.095348 152.0
46.121029 156.0
46.202202 180.0
46.219761 132.0
46.248184 160.0
46.314533 184.0
46.325371 160.0
46.414829 80.0
46.432461 160.0
46.474518 72.0
46.522022 212.0
46.541031 216.0
46.78986 184.0
46.844761 168.0
46.922024 160.0
46.990223 204.0
47.014786 304.0
47.062965 164.0
47.088795 176.0
47.143166 128.0
47.160934 228.0
47.275826 188.0
47.289513 128.0
47.300465 260.0
47.31826 176.0
47.341541 208.0
47.377155 212.0
47.445683 204.0
47.468639 232.0
47.525238 164.0
47.576023 140.0
47.608978 256.0
47.6763 120.0
47.841366 152.0
47.876137 208.0
47.910229 204.0
47.925385 92.0
48.002583 148.0
48.092266 176.0
48.20414 180.0
48.348629 168.0
48.372887 140.0
48.404732 144.0
48.414425 108.0
48.453213 124.0
48.479301 252.0
48.532219 140.0
48.564117 48.0
48.598804 208.0
48.645992 148.0
48.787701 140.0
48.864197 172.0
48.885071 164.0
48.968609 100.0
49.057125 268.0
49.098232 376.0
49.119713 140.0
49.149849 128.0
49.281109 172.0
49.300953 240.0
49.316048 176.0
49.408348 184.0
49.42374 88.0
49.458729 108.0
49.469929 132.0
49.495514 176.0
49.60582 108.0
49.631058 172.0
49.809307 68.0
49.821743 164.0
49.865513 148.0
49.895035 104.0
49.927197 220.0
49.99913 92.0
50.008984 152.0
50.16394 128.0
50.234409 124.0
50.275322 220.0
50.338905 192.0
50.42226 108.0
50.446289 168.0
50.512756 176.0
50.54834 216.0
50.594841 176.0
50.638741 204.0
50.654324 140.0
50.67841 68.0
50.696831 236.0
50.71526 184.0
50.823044 128.0
50.838654 72.0
50.871304 204.0
50.929527 176.0
50.952255 72.0
51.008598 260.0
51.053185 176.0
51.069901 208.0
51.157059 224.0
51.193615 196.0
51.239662 64.0
51.289459 132.0
51.302376 200.0
51.442184 212.0
51.453823 132.0
51.470741 152.0
51.510735 192.0
51.5536 184.0
51.568115 128.0
51.596485 188.0
51.627945 196.0
51.660843 148.0
51.67086 204.0
51.700909 136.0
51.73275 148.0
51.790241 72.0
51.808308 132.0
51.852642 132.0
51.875664 88.0
52.007641 228.0
52.049278 216.0
52.065075 52.0
52.115356 124.0
52.143028 204.0
52.163868 244.0
52.207203 184.0
52.212761 164.0
52.254833 144.0
52.266342 148.0
52.372883 156.0
52.394493 148.0
52.407463 112.0
52.581963 104.0
52.59351 220.0
52.612999 208.0
52.670044 140.0
52.808811 160.0
52.841202 232.0
52.859451 168.0
52.872475 192.0
52.925957 212.0
52.997017 192.0
53.107201 112.0
53.124611 152.0
53.139118 140.0
53.1828 160.0
53.195721 80.0
53.207336 204.0
53.232021 64.0
53.250904 168.0
53.274143 140.0
53.293034 112.0
53.348263 44.0
53.35844 200.0
53.372948 160.0
53.445717 52.0
53.505394 36.0
53.560734 180.0
53.576759 220.0
53.591331 196.0
53.601532 224.0
53.619019 152.0
53.664211 52.0
53.697754 236.0
53.747356 108.0
53.770706 100.0
53.821804 144.0
53.913742 180.0
53.922974 224.0
53.975243 176.0
53.998642 296.0
54.013268 144.0
54.035213 156.0
54.06448 128.0
54.127083 168.0
54.131962 128.0
54.136642 180.0
54.155258 48.0
54.184559 180.0
54.199757 172.0
54.21973 240.0
54.262241 128.0
54.27544 164.0
54.335579 160.0
54.422176 192.0
54.474255 148.0
54.533833 192.0
54.603798 212.0
54.632359 192.0
54.898975 112.0
54.914757 200.0
54.935852 136.0
54.97274 164.0
55.002258 96.0
55.012592 180.0
55.042606 232.0
55.061321 80.0
55.130764 152.0
55.209122 248.0
55.221527 220.0
55.232784 52.0
55.254978 276.0
55.290493 180.0
55.300854 200.0
55.314175 184.0
55.371925 176.0
55.426704 164.0
55.486855 276.0
55.522045 84.0
55.576511 52.0
55.586899 172.0
55.608559 264.0
55.655186 176.0
55.668552 148.0
55.689342 160.0
55.820133 108.0
55.846905 196.0
55.878147 156.0
55.915352 176.0
55.933212 124.0
56.050877 192.0
56.131374 196.0
56.144798 128.0
56.164188 72.0
56.191044 168.0
56.228352 172.0
56.25671 168.0
56.295536 164.0
56.310471 76.0
56.340347 192.0
56.368736 160.0
56.476387 88.0
56.49284 140.0
56.507805 124.0
56.596115 144.0
56.657528 80.0
56.675507 148.0
56.73996 256.0
56.768452 148.0
56.79845 236.0
56.865974 148.0
56.882484 284.0
56.958061 196.0
57.016171 152.0
57.026695 164.0
57.066574 160.0
57.14249 140.0
57.169579 240.0
57.189369 160.0
57.216244 144.0
57.238827 148.0
57.334377 120.0
57.345798 208.0
57.452499 132.0
57.509899 192.0
57.544933 56.0
57.686954 140.0
57.755005 200.0
57.785263 76.0
57.819511 152.0
57.848831 240.0
57.884979 224.0
57.909401 132.0
57.930611 52.0
58.032158 232.0
58.101315 160.0
58.133793 212.0
58.168705 116.0
58.182369 32.0
58.200588 48.0
58.229443 160.0
58.252228 176.0
58.282616 116.0
58.343414 220.0
58.366222 148.0
58.398159 152.0
58.424801 164.0
58.463585 196.0
58.519909 156.0
58.538185 152.0
58.631119 52.0
58.733276 72.0
58.821785 144.0
58.87981 176.0
58.936333 144.0
58.947033 272.0
58.973015 164.0
59.048717 180.0
59.07394 68.0
59.127499 172.0
59.138096 156.0
59.197678 224.0
59.228558 68.0
59.263794 148.0
59.392578 84.0
59.486187 176.0
59.504612 220.0
59.576797 360.0
59.629044 148.0
59.647491 56.0
59.673626 116.0
59.733608 180.0
59.763504 176.0
59.784698 156.0
59.798237 316.0
59.952255 204.0
60.095669 136.0
60.11573 44.0
60.15316 208.0
60.203732 92.0
60.229988 56.0
60.290249 88.0
60.347446 68.0
60.358269 152.0
60.438709 180.0
60.477402 164.0
60.497276 200.0
60.517654 212.0
60.554821 216.0
60.610596 140.0
60.68655 128.0
60.700508 192.0
60.733078 88.0
60.813583 272.0
60.830696 196.0
60.899166 92.0
60.938007 128.0
60.954487 192.0
61.02816 176.0
61.042156 152.0
61.074818 168.0
61.114826 240.0
61.205299 172.0
61.260067 212.0
61.331749 200.0
61.446426 232.0
61.473682 160.0
61.528316 252.0
61.630253 192.0
61.734581 188.0
61.811237 104.0
61.862888 116.0
61.892639 136.0
61.982105 176.0
61.996033 36.0
62.024246 120.0
62.054035 108.0
62.071281 48.0
62.138733 60.0
62.1968 96.0
62.24152 248.0
62.326958 124.0
62.37431 180.0
62.394749 44.0
62.430916 168.0
62.449787 184.0
62.514297 184.0
62.530037 84.0
62.594585 104.0
62.611908 200.0
62.646965 176.0
62.68438 180.0
62.704948 156.0
62.736393 164.0
62.782288 152.0
62.801006 144.0
62.889412 120.0
62.914673 188.0
62.955727 144.0
62.989704 188.0
63.022076 84.0
63.055264 220.0
63.098198 100.0
63.126408 84.0
63.137478 196.0
63.173141 88.0
63.189682 152.0
63.207088 128.0
63.257736 140.0
63.36256 128.0
63.373356 224.0
63.416145 140.0
63.435165 136.0
63.476547 204.0
63.522388 112.0
63.569801 168.0
63.614433 196.0
63.631626 164.0
63.714489 124.0
63.771698 192.0
63.817802 152.0
63.832115 76.0
63.88142 228.0
63.926208 108.0
64.086807 140.0
64.10202 220.0
64.111496 236.0
64.123466 120.0
64.148972 164.0
64.187233 200.0
64.199348 188.0
64.227112 260.0
64.239868 168.0
64.311684 180.0
64.324448 220.0
64.367561 232.0
64.396309 196.0
64.428261 192.0
64.527351 148.0
64.580124 92.0
64.647324 112.0
64.679337 148.0
64.802658 204.0
64.841919 132.0
64.857147 136.0
64.897224 96.0
64.92128 124.0
65.027176 116.0
65.075333 160.0
65.27459 176.0
65.318016 276.0
65.372726 132.0
65.408134 200.0
65.532143 212.0
65.562759 168.0
65.604675 196.0
65.75631 128.0
65.799149 296.0
65.820885 176.0
65.843491 72.0
65.857185 140.0
66.009956 92.0
66.0326 168.0
66.107025 204.0
66.123207 108.0
66.152344 256.0
66.199303 180.0
66.233315 88.0
66.275436 200.0
66.291641 184.0
66.315956 152.0
66.422981 176.0
66.444069 152.0
66.527336 144.0
66.546585 176.0
66.572304 128.0
66.60154 220.0
66.625908 204.0
66.655159 64.0
66.751068 140.0
66.775467 148.0
66.819389 152.0
66.879601 160.0
66.961739 144.0
67.048996 176.0
67.062035 120.0
67.084412 88.0
67.176186 196.0
67.282265 180.0
67.30513 156.0
67.386803 120.0
67.463615 108.0
67.532295 52.0
67.56665 160.0
67.619019 96.0
67.64521 88.0
67.673042 176.0
67.738503 124.0
67.76313 292.0
67.810654 164.0
67.833603 164.0
67.859833 148.0
67.909035 216.0
68.009125 216.0
68.024117 92.0
68.05838 128.0
68.137222 148.0
68.221039 196.0
68.350983 204.0
68.479393 208.0
68.568367 120.0
68.612877 144.0
68.660698 44.0
68.677086 176.0
68.698639 244.0
68.716789 180.0
68.756393 212.0
68.797661 156.0
68.880234 124.0
68.896751 116.0
68.909973 164.0
68.943024 152.0
69.080261 208.0
69.133217 196.0
69.226196 184.0
69.295494 188.0
69.466263 208.0
69.508232 192.0
69.526001 224.0
69.678772 36.0
69.713669 228.0
69.733612 112.0
69.758545 168.0
69.791801 104.0
69.805107 136.0
69.883286 120.0
69.904922 164.0
70.055145 200.0
70.15477 200.0
70.176445 144.0
70.194786 176.0
70.233147 48.0
70.251495 172.0
70.308235 204.0
70.454391 228.0
70.496628 164.0
70.513664 156.0
70.565491 184.0
70.608971 244.0
70.630959 164.0
70.664177 100.0
70.707687 212.0
70.784088 176.0
70.826569 140.0
70.849319 228.0
70.913704 192.0
70.965675 156.0
70.990822 128.0
71.074707 96.0
71.177101 208.0
71.259407 180.0
71.303101 108.0
71.346809 136.0
71.563858 172.0
71.617828 160.0
71.649254 228.0
71.664917 180.0
71.70874 204.0
71.725594 204.0
71.766052 68.0
71.786293 132.0
71.944901 136.0
72.078339 48.0
72.173004 104.0
72.244041 156.0
72.272804 164.0
72.322403 368.0
72.372673 92.0
72.394691 204.0
72.423485 164.0
72.448898 184.0
72.504814 140.0
72.587883 144.0
72.628593 184.0
72.687973 232.0
72.752472 168.0
72.811905 108.0
72.879013 144.0
72.925743 156.0
72.969948 156.0
73.005554 132.0
73.048676 156.0
73.099228 92.0
73.230324 224.0
73.252464 156.0
73.305679 172.0
73.368355 156.0
73.40416 188.0
73.417801 92.0
73.45192 60.0
73.474098 172.0
73.557724 240.0
73.579918 168.0
73.610649 44.0
73.670433 92.0
73.721695 144.0
73.750748 100.0
73.769554 128.0
73.814011 48.0
73.860191 112.0
73.942322 132.0
74.043343 140.0
74.070747 196.0
74.111862 172.0
74.196938 172.0
74.208885 252.0
74.226715 120.0
74.255867 204.0
74.33651 136.0
74.388 156.0
74.410316 212.0
74.506683 220.0
74.546211 184.0
74.568367 176.0
74.628532 132.0
74.717972 160.0
74.735184 144.0
74.747223 148.0
74.819519 168.0
74.83329 184.0
74.852234 168.0
74.878975 152.0
74.976273 180.0
75.008026 200.0
75.165817 168.0
75.229843 148.0
75.27301 132.0
75.3974 284.0
75.447525 180.0
75.489029 212.0
75.508049 156.0
75.568596 212.0
75.620514 216.0
75.646484 136.0
75.667259 96.0
75.711205 180.0
75.726135 156.0
75.772911 84.0
75.789566 196.0
75.82663 148.0
75.869965 208.0
75.944305 148.0
75.980965 168.0
76.017403 200.0
76.133163 236.0
76.139366 160.0
76.211899 132.0
76.281418 164.0
76.293587 136.0
76.347496 116.0
76.420555 164.0
76.558678 152.0
76.608589 248.0
76.640862 48.0
76.748032 180.0
76.786392 196.0
76.863159 168.0
76.87886 208.0
76.89283 184.0
77.027283 172.0
77.069679 148.0
77.093674 112.0
77.109406 296.0
77.17234 272.0
77.279037 68.0
77.307037 128.0
77.340294 108.0
77.363052 176.0
77.375305 156.0
77.461121 172.0
77.525345 184.0
77.582047 304.0
77.603973 112.0
77.650436 208.0
77.725868 188.0
77.841728 200.0
77.869835 112.0
77.894424 440.0
77.954163 172.0
77.973495 96.0
78.031509 180.0
78.073708 204.0
78.179268 120.0
78.210953 220.0
78.249687 172.0
78.3078 224.0
78.339508 164.0
78.378265 148.0
78.491089 168.0
78.512253 148.0
78.52636 176.0
78.607513 200.0
78.644577 192.0
78.657524 156.0
78.6772 152.0
78.84417 148.0
78.939529 196.0
78.966164 200.0
79.017464 128.0
79.042236 100.0
79.056396 176.0
79.086487 92.0
79.104187 164.0
79.118347 116.0
79.176788 168.0
79.206902 124.0
79.224617 108.0
79.245872 168.0
79.260048 188.0
79.274231 120.0
79.297264 140.0
79.313217 124.0
79.332718 164.0
79.368179 160.0
79.43203 124.0
79.476387 88.0
79.495911 84.0
79.547379 108.0
79.57756 252.0
79.77655 136.0
79.965111 200.0
79.979355 172.0
80.002495 168.0
80.084412 116.0
80.134293 156.0
80.209145 160.0
80.246063 192.0
80.276901 180.0
80.331612 196.0
80.392738 120.0
80.471405 140.0
80.494614 128.0
80.574997 148.0
80.612526 164.0
80.77523 180.0
80.793121 56.0
80.807434 148.0
80.826813 140.0
80.859329 228.0
80.878006 148.0
80.997612 212.0
81.05233 156.0
81.074249 184.0
81.099342 144.0
81.237427 104.0
81.3228 132.0
81.381012 144.0
81.48159 208.0
81.508545 128.0
81.621796 168.0
81.639778 184.0
81.708138 188.0
81.734695 216.0
81.852135 216.0
81.87735 124.0
82.009872 116.0
82.127884 216.0
82.23056 164.0
82.240112 184.0
82.308365 184.0
82.326424 212.0
82.39035 92.0
82.417015 248.0
82.490852 76.0
82.514359 116.0
82.537865 168.0
82.686211 212.0
82.858246 44.0
82.94886 112.0
82.985115 96.0
83.00325 144.0
83.017761 168.0
83.048592 108.0
83.12661 160.0
83.159279 180.0
83.315453 144.0
83.342705 144.0
83.36451 176.0
83.424492 148.0
83.509453 128.0
83.604568 144.0
83.675568 136.0
83.694748 192.0
83.724434 148.0
83.777557 144.0
83.788826 124.0
83.859558 204.0
83.897842 200.0
83.937958 56.0
84.009087 76.0
84.07843 148.0
84.147797 176.0
84.162018 224.0
84.248253 168.0
84.290276 176.0
84.30307 168.0
84.335968 196.0
84.372528 80.0
84.485924 68.0
84.564606 192.0
84.583382 188.0
84.63784 128.0
84.665306 260.0
84.932915 132.0
84.978165 156.0
85.002632 176.0
85.039337 352.0
85.063202 100.0
85.127464 248.0
85.197266 164.0
85.243202 232.0
85.259743 144.0
85.301842 208.0
85.358963 132.0
85.396835 228.0
85.428909 152.0
85.620346 68.0
85.679298 136.0
85.745636 196.0
85.7696 128.0
85.80278 192.0
85.830437 160.0
85.942963 132.0
85.976181 168.0
86.021317 132.0
86.069504 152.0
86.12574 44.0
86.205185 148.0
86.397491 188.0
86.484467 120.0
86.554817 64.0
86.580994 212.0
86.614082 152.0
86.639183 140.0
86.792007 84.0
86.873619 152.0
86.910728 52.0
87.040665 172.0
87.06295 92.0
87.176277 236.0
87.191147 196.0
87.213448 112.0
87.226463 200.0
87.25621 284.0
87.269226 180.0
87.383827 164.0
87.405014 76.0
87.427101 152.0
87.559532 52.0
87.594925 144.0
87.65641 68.0
87.693687 160.0
87.717918 48.0
87.766396 144.0
87.822968 204.0
87.847 320.0
87.930565 164.0
88.003372 128.0
88.050056 76.0
88.07621 132.0
88.089287 128.0
88.2388 120.0
88.386566 160.0
88.440842 68.0
88.534462 192.0
88.600021 124.0
88.637497 144.0
88.682678 188.0
88.766846 68.0
88.818558 212.0
88.838982 200.0
88.926315 60.0
89.035217 148.0
89.106598 228.0
89.12252 152.0
89.140785 228.0
89.179893 144.0
89.230652 196.0
89.253212 220.0
89.416885 172.0
89.577904 188.0
89.657959 148.0
89.714516 156.0
89.763535 56.0
89.797485 204.0
89.869171 64.0
89.895592 196.0
90.061737 204.0
90.287277 172.0
90.347191 96.0
90.362328 188.0
90.385033 144.0
90.496719 32.0
90.536484 168.0
90.559212 160.0
90.595154 140.0
90.63401 176.0
90.667213 308.0
90.744682 180.0
90.76149 60.0
90.843559 92.0
90.932289 200.0
90.995392 128.0
91.010582 444.0
91.054802 224.0
91.090347 176.0
91.118843 148.0
91.137848 172.0
91.17585 152.0
91.264938 160.0
91.271538 120.0
91.301338 140.0
91.322258 172.0
91.350792 48.0
91.371719 176.0
91.396454 156.0
91.411674 164.0
91.455452 248.0
91.5 140.0
91.539223 140.0
91.558266 196.0
91.636375 72.0
91.686752 140.0
91.828262 176.0
91.891869 108.0
91.918587 156.0
91.947212 160.0
92.086594 112.0
92.172562 192.0
92.26622 184.0
92.359932 148.0
92.434547 168.0
92.465164 172.0
92.620262 144.0
92.700142 116.0
92.78891 116.0
92.901901 352.0
92.913879 176.0
92.95771 184.0
93.056206 320.0
93.132423 140.0
93.145752 124.0
93.210289 200.0
93.278473 204.0
93.374611 144.0
93.418854 232.0
93.449638 144.0
93.463104 184.0
93.488129 164.0
93.503525 128.0
93.53817 204.0
93.576675 164.0
93.680603 104.0
93.751968 236.0
93.769318 48.0
93.786667 164.0
93.863785 196.0
93.972122 220.0
93.989174 196.0
94.027771 160.0
94.077957 208.0
94.189964 80.0
94.292374 180.0
94.313637 212.0
94.346497 116.0
94.379372 128.0
94.418045 184.0
94.545738 180.0
94.70063 396.0
94.749062 204.0
94.772316 124.0
94.808197 176.0
94.840141 136.0
94.930176 144.0
94.944847 172.0
94.970062 200.0
94.999161 152.0
95.056572 212.0
95.107681 156.0
95.183548 144.0
95.205338 220.0
95.247643 144.0
95.393387 116.0
95.442581 160.0
95.535355 152.0
95.640442 216.0
95.673538 136.0
95.702393 200.0
95.750702 140.0
95.807915 80.0
95.821556 164.0
95.858582 120.0
95.872223 120.0
95.907303 164.0
95.926796 192.0
95.948242 152.0
96.052788 184.0
96.117943 144.0
96.145264 220.0
96.188202 112.0
96.246773 52.0
96.268257 248.0
96.303413 160.0
96.319038 96.0
96.387421 172.0
96.405006 96.0
96.442146 92.0
96.465965 172.0
96.528503 140.0
96.549683 188.0
96.723824 136.0
96.780602 248.0
96.847191 124.0
96.945152 164.0
97.000038 220.0
97.02356 228.0
97.053391 188.0
97.070625 124.0
97.129463 124.0
97.202057 196.0
97.2472 140.0
97.439651 132.0
97.52076 116.0
97.53791 164.0
97.552467 148.0
97.59697 108.0
97.648026 124.0
97.693268 124.0
97.740494 108.0
97.756233 132.0
97.805641 176.0
97.923584 148.0
98.012238 148.0
98.033913 136.0
98.049683 144.0
98.102905 168.0
98.13839 152.0
98.254761 80.0
98.32383 180.0
98.400818 184.0
98.471909 184.0
98.485733 200.0
98.521294 128.0
98.618126 156.0
98.643127 68.0
98.695229 180.0
98.730827 180.0
98.825775 72.0
98.966316 224.0
99.011864 108.0
99.039597 180.0
99.085159 56.0
99.107391 200.0
99.160461 176.0
99.192551 212.0
99.237778 148.0
99.257607 196.0
99.32901 160.0
99.477165 208.0
99.53344 200.0
99.583084 36.0
99.636726 68.0
99.682571 160.0
99.698326 204.0
99.716209 200.0
99.74366 168.0
99.81395 124.0
99.86335 148.0
99.879257 168.0
100.120102 212.0
100.142006 132.0
100.293442 212.0
100.319359 60.0
100.359383 220.0
100.389145 164.0
100.486893 128.0
100.70649 108.0
100.730461 200.0
100.768417 128.0
100.816376 120.0
100.896332 212.0
100.988327 164.0
101.01033 104.0
101.078354 108.0
101.092361 200.0
101.149773 88.0
101.170425 188.0
101.205078 208.0
101.250526 128.0
101.286575 148.0
101.328918 208.0
101.400795 176.0
101.458923 164.0
101.523094 144.0
101.56321 132.0
101.617371 120.0
101.647469 180.0
101.669548 224.0
101.686478 212.0
101.73481 156.0
101.787994 208.0
101.814102 108.0
101.934082 172.0
102.044159 924.0
102.07737 192.0
102.099495 68.0
102.14978 100.0
102.192024 204.0
102.210136 184.0
102.250389 204.0
102.268501 164.0
102.298698 188.0
102.381866 276.0
102.397369 120.0
102.433624 116.0
102.467873 128.0
102.5243 108.0
102.538406 84.0
102.623077 176.0
102.669456 52.0
102.70871 192.0
102.790031 208.0
102.851997 216.0
102.885368 120.0
102.935844 124.0
103.053253 1384.0
103.0914 92.0
103.241005 64.0
103.259209 132.0
103.327988 152.0
103.344177 144.0
103.421082 32.0
103.437271 292.0
103.491936 228.0
103.57618 168.0
103.593208 132.0
103.608841 156.0
103.649933 188.0
103.712769 92.0
103.747231 132.0
103.804001 232.0
103.889191 200.0
104.019073 144.0
104.050957 148.0
104.079979 60.0
104.111702 148.0
104.126106 320.0
104.161224 172.0
104.240463 192.0
104.27095 100.0
104.329895 208.0
104.346161 136.0
104.374626 176.0
104.407166 172.0
104.464119 188.0
104.540283 204.0
104.614716 212.0
104.651367 160.0
104.741844 188.0
104.827461 168.0
104.88398 204.0
104.908081 212.0
105.012077 180.0
105.055435 332.0
105.150826 160.0
105.189606 184.0
105.320297 108.0
105.515068 156.0
105.622833 288.0
105.682159 144.0
105.719215 188.0
105.770164 36.0
105.792686 228.0
106.008781 164.0
106.061043 488.0
106.087692 152.0
106.141006 172.0
106.220993 204.0
106.249718 220.0
106.266129 184.0
106.325638 192.0
106.360535 160.0
106.393379 64.0
106.41597 284.0
106.491951 136.0
106.506332 160.0
106.522766 212.0
106.598785 156.0
106.648109 132.0
106.836639 152.0
106.959732 220.0
107.057549 192.0
107.115227 196.0
107.247108 204.0
107.292458 100.0
107.399284 160.0
107.404404 128.0
107.412788 196.0
107.434761 184.0
107.461586 188.0
107.519363 212.0
107.544266 184.0
107.558586 228.0
107.606064 264.0
107.624649 68.0
107.70726 148.0
107.727921 80.0
107.754776 132.0
107.882919 148.0
107.901527 160.0
108.0401 172.0
108.118729 368.0
108.267792 128.0
108.346504 168.0
108.377586 132.0
108.448051 164.0
108.546234 168.0
108.603569 236.0
108.70108 176.0
108.721832 76.0
108.827705 164.0
108.871307 48.0
108.90107 208.0
109.070778 136.0
109.111504 204.0
109.168503 188.0
109.341179 52.0
109.423943 232.0
109.451515 124.0
109.48484 168.0
109.513161 160.0
109.576492 152.0
109.693199 112.0
109.713463 184.0
109.766174 88.0
109.964378 128.0
109.995682 180.0
110.054146 156.0
110.100082 128.0
110.175934 216.0
110.205727 200.0
110.323669 192.0
110.338303 188.0
110.411957 180.0
110.442871 152.0
110.501442 176.0
110.543297 60.0
110.572594 184.0
110.607109 168.0
110.63958 108.0
110.72963 96.0
110.755531 196.0
110.808983 172.0
111.041924 60.0
111.148918 228.0
111.169083 244.0
111.240791 240.0
111.278183 152.0
111.321053 248.0
111.348358 72.0
111.436592 184.0
111.468109 100.0
111.590027 208.0
111.640495 144.0
111.712013 100.0
111.753731 164.0
111.9646 72.0
111.979347 152.0
112.114189 140.0
112.168991 148.0
112.192177 152.0
112.217476 188.0
112.257545 252.0
112.312378 128.0
112.363014 204.0
112.593109 224.0
112.608978 124.0
112.673141 160.0
112.762131 208.0
112.847351 180.0
112.890282 176.0
112.98951 132.0
113.100563 284.0
113.121552 188.0
113.202187 176.0
113.253021 184.0
113.305984 128.0
113.348358 136.0
113.600594 204.0
113.608643 196.0
113.653717 44.0
113.766205 92.0
113.880798 208.0
113.940361 172.0
114.028641 180.0
114.047195 204.0
114.286934 156.0
114.36142 172.0
114.414642 144.0
114.456711 180.0
114.580765 128.0
114.789658 156.0
114.864311 108.0
114.911247 92.0
114.998741 172.0
115.051765 2740.0
115.163155 40.0
115.178108 148.0
115.263573 68.0
115.389687 148.0
115.421753 80.0
115.448944 168.0
115.492332 136.0
115.507309 236.0
115.568398 184.0
115.583488 244.0
115.680649 136.0
115.747017 188.0
115.833595 276.0
115.860542 96.0
115.884109 136.0
115.924828 160.0
116.052818 684.0
116.128502 136.0
116.14566 140.0
116.190712 176.0
116.259384 176.0
116.329056 148.0
116.353828 188.0
116.40773 156.0
116.433281 184.0
116.450462 120.0
116.489128 224.0
116.693039 192.0
116.727707 172.0
116.75782 40.0
116.772873 200.0
116.813744 176.0
117.00959 36.0
117.056694 1820.0
117.125885 208.0
117.196976 232.0
117.24884 124.0
117.291809 176.0
117.341393 112.0
117.375893 196.0
117.431969 176.0
117.533363 232.0
117.783806 172.0
117.820534 200.0
117.922096 124.0
117.941856 200.0
117.967255 180.0
118.028252 160.0
118.065796 772.0
118.177284 172.0
118.2855 152.0
118.346123 96.0
118.374268 220.0
118.395927 152.0
118.426247 64.0
118.509644 180.0
118.692825 164.0
118.799103 232.0
118.890236 104.0
118.949944 128.0
118.970551 104.0
118.999809 176.0
119.066055 400.0
119.091431 96.0
119.1595 144.0
119.302948 64.0
119.330193 124.0
119.416023 144.0
119.453003 176.0
119.498093 188.0
119.51651 168.0
119.566154 168.0
119.581383 176.0
119.661934 196.0
119.773003 104.0
119.851433 128.0
119.897202 264.0
119.964775 128.0
120.005745 192.0
120.043266 344.0
120.079422 388.0
120.132698 52.0
120.180695 160.0
120.261444 108.0
120.40992 156.0
120.678322 164.0
120.709328 288.0
120.755257 104.0
120.809937 100.0
120.839294 228.0
120.9767 180.0
121.052406 384.0
121.101082 60.0
121.144897 144.0
121.164612 128.0
121.188713 84.0
121.208435 160.0
121.274185 172.0
121.348724 96.0
121.383804 216.0
121.436844 176.0
121.48909 144.0
121.517609 232.0
121.549187 144.0
121.562927 160.0
121.6269 120.0
121.655876 204.0
121.715164 72.0
121.783249 180.0
121.821999 168.0
121.910675 132.0
121.945839 148.0
122.000801 60.0
122.099243 156.0
122.165741 168.0
122.240555 184.0
122.315384 128.0
122.330795 212.0
122.357491 224.0
122.623764 172.0
122.65242 40.0
122.70533 112.0
122.769279 100.0
122.853096 112.0
122.87957 56.0
122.911674 168.0
123.106934 192.0
123.159943 136.0
123.175407 96.0
123.208542 196.0
123.241684 116.0
123.327873 136.0
123.389954 148.0
123.427368 132.0
123.507332 180.0
123.602119 180.0
123.667877 152.0
123.699883 164.0
123.719429 136.0
123.734924 56.0
123.781425 140.0
123.86116 180.0
123.949783 180.0
123.967514 76.0
123.985245 280.0
124.020706 240.0
124.054909 196.0
124.118256 156.0
124.133781 164.0
124.293495 160.0
124.411133 116.0
124.679916 212.0
124.704361 180.0
124.822197 140.0
124.885025 208.0
125.026863 180.0
125.135941 168.0
125.274025 104.0
125.320816 152.0
125.380981 172.0
125.728905 136.0
125.860619 168.0
125.980148 108.0
126.039322 152.0
126.057198 152.0
126.088486 176.0
126.256165 140.0
126.312088 200.0
126.381439 116.0
126.417244 168.0
126.513496 108.0
126.553795 136.0
126.576187 200.0
126.605301 96.0
126.722473 156.0
126.833336 208.0
126.862984 100.0
126.878677 172.0
127.050659 756.0
127.07605 172.0
127.181534 140.0
127.35218 220.0
127.388123 132.0
127.435303 192.0
127.486992 152.0
127.61776 256.0
127.642105 132.0
127.700577 244.0
127.741066 100.0
127.944092 228.0
127.979637 116.0
128.00441 128.0
128.049408 1032.0
128.090485 164.0
128.130554 152.0
128.166595 188.0
128.202652 136.0
128.225189 80.0
128.333405 120.0
128.362717 224.0
128.425995 204.0
128.518372 144.0
128.606384 120.0
128.63121 52.0
128.692169 268.0
128.728302 112.0
128.796051 40.0
128.859314 152.0
128.913544 148.0
129.026245 144.0
129.05603 1144.0
129.134491 92.0
129.177628 212.0
129.218079 172.0
129.231155 212.0
129.30722 180.0
129.351578 204.0
129.397614 220.0
129.449005 156.0
129.488205 40.0
129.551636 108.0
129.585617 204.0
129.626404 120.0
129.689865 136.0
129.708618 116.0
129.768356 192.0
129.812286 156.0
129.841782 148.0
129.880341 168.0
129.948395 164.0
129.975616 104.0
130.005127 176.0
130.040756 520.0
130.063553 16848.0
130.105896 172.0
130.137924 176.0
130.176407 132.0
130.24353 116.0
130.297424 176.0
130.350311 192.0
130.366211 172.0
130.436676 140.0
130.493515 168.0
130.527618 108.0
130.563934 132.0
130.567062 128.0
130.58873 124.0
130.659546 164.0
130.689133 152.0
130.721558 184.0
130.771881 208.0
130.785782 144.0
130.806549 176.0
130.862122 212.0
130.881287 276.0
130.899292 172.0
130.937271 164.0
130.953217 132.0
131.071869 26940.0
131.13974 180.0
131.167557 124.0
131.194763 64.0
131.212997 80.0
131.258606 88.0
131.274567 40.0
131.33905 160.0
131.361237 128.0
131.409149 96.0
131.440689 184.0
131.486862 76.0
131.511841 28.0
131.532394 56.0
131.566635 244.0
131.600876 164.0
131.621429 72.0
131.639694 32.0
131.689026 268.0
131.733353 144.0
131.763046 60.0
131.804184 80.0
131.843033 68.0
131.886459 68.0
131.920746 252.0
131.973831 112.0
131.999603 196.0
132.044128 488.0
132.075439 2200.0
132.170044 112.0
132.245575 44.0
132.362335 156.0
132.489456 160.0
132.508926 172.0
132.534134 164.0
132.600601 176.0
132.618927 156.0
132.669357 88.0
132.692291 56.0
132.710632 44.0
132.858948 144.0
132.976746 124.0
133.049835 176.0
133.083191 424.0
133.158142 88.0
133.176514 184.0
133.226181 160.0
133.275299 212.0
133.307465 128.0
133.329254 100.0
133.394806 84.0
133.452286 208.0
133.468384 52.0
133.539673 92.0
133.736404 180.0
133.756348 152.0
133.864197 116.0
133.924072 168.0
133.949249 176.0
134.056763 452.0
134.163742 132.0
134.209854 156.0
134.28215 216.0
134.392075 216.0
134.449768 212.0
134.478302 208.0
134.542099 176.0
134.756897 128.0
134.773071 128.0
134.865509 228.0
134.911743 228.0
134.980713 164.0
135.004242 224.0
135.102646 132.0
135.140717 196.0
135.233047 260.0
135.632858 248.0
135.770813 196.0
135.803299 124.0
135.84227 184.0
135.931992 208.0
135.968033 184.0
135.984268 52.0
136.074814 132.0
136.095703 144.0
136.153763 216.0
136.304764 164.0
136.334976 168.0
136.376816 136.0
136.407639 140.0
136.448883 112.0
136.581436 136.0
136.863052 152.0
136.946884 180.0
136.974838 164.0
137.009781 136.0
137.042404 152.0
137.137955 208.0
137.18924 132.0
137.254532 92.0
137.282516 168.0
137.389801 120.0
137.436478 296.0
137.473816 164.0
137.567169 168.0
137.639557 176.0
137.751663 76.0
137.828766 172.0
138.007431 196.0
138.156097 160.0
138.202896 116.0
138.266083 56.0
138.350357 168.0
138.465088 160.0
138.48851 108.0
138.504913 136.0
138.53302 168.0
138.625595 196.0
138.701752 224.0
138.728836 212.0
138.823669 116.0
138.851822 144.0
138.945648 164.0
138.992569 204.0
139.011353 88.0
139.052185 160.0
139.180359 136.0
139.238358 132.0
139.297806 196.0
139.398834 132.0
139.436432 176.0
139.495193 176.0
139.530457 124.0
139.67627 136.0
139.753906 108.0
139.93515 180.0
139.965759 180.0
139.99527 144.0
140.022278 216.0
140.048996 1420.0
140.137711 156.0
140.394424 200.0
140.448914 152.0
140.590485 168.0
140.819489 200.0
140.844238 160.0
140.937622 144.0
141.021179 180.0
141.058105 868.0
141.110168 136.0
141.175522 188.0
141.375107 124.0
141.467422 72.0
141.50502 208.0
141.618973 88.0
141.635544 268.0
141.67453 176.0
141.70372 176.0
141.768173 168.0
141.801422 176.0
141.834595 76.0
141.852951 268.0
141.900986 208.0
141.94603 116.0
142.021927 168.0
142.063858 3332.0
142.097198 248.0
142.142929 172.0
142.180893 216.0
142.361572 160.0
142.418335 224.0
142.487228 72.0
142.513367 136.0
142.57515 156.0
142.615555 68.0
142.651215 40.0
142.705887 212.0
142.751068 208.0
142.779617 284.0
142.803391 40.0
142.874756 228.0
142.905685 100.0
142.93187 164.0
143.004013 140.0
143.035767 140.0
143.070923 14592.0
143.12352 124.0
143.143723 60.0
143.198166 140.0
143.240005 264.0
143.279709 92.0
143.355743 140.0
143.474365 100.0
143.496384 88.0
143.516815 88.0
143.56337 44.0
143.668793 224.0
143.722992 168.0
143.804443 156.0
143.899841 176.0
143.95932 136.0
144.009476 164.0
144.078979 10460.0
144.204529 160.0
144.286682 48.0
144.310593 212.0
144.353638 56.0
144.379944 168.0
144.399078 84.0
144.470474 132.0
144.528259 84.0
144.554581 64.0
144.709229 68.0
144.74855 168.0
144.796387 112.0
144.821655 116.0
144.856262 168.0
144.894592 108.0
144.918564 160.0
144.989304 168.0
145.027664 76.0
145.056763 500.0
145.086014 2588.0
145.119904 184.0
145.158264 172.0
145.175049 92.0
145.204132 96.0
145.266205 100.0
145.366974 76.0
145.419769 156.0
145.466476 44.0
145.503799 192.0
145.645477 96.0
145.759827 236.0
145.840118 144.0
145.888199 180.0
145.929062 160.0
145.966339 104.0
146.030807 224.0
146.056854 452.0
146.089752 644.0
146.1147 224.0
146.152771 88.0
146.169617 196.0
146.186462 96.0
146.210526 52.0
146.261063 120.0
146.352554 88.0
146.379044 76.0
146.422394 164.0
146.444077 56.0
146.516342 56.0
146.610321 192.0
146.841766 164.0
146.861069 168.0
146.985565 132.0
147.071198 372.0
147.086929 616.0
147.295563 156.0
147.329391 48.0
147.37529 212.0
147.653305 164.0
147.750061 132.0
147.892838 156.0
148.071152 352.0
148.219788 176.0
148.299774 64.0
148.5466 192.0
148.617462 104.0
148.889359 180.0
149.079803 216.0
149.171951 188.0
149.314682 148.0
149.431458 204.0
149.465515 116.0
149.558746 144.0
149.762543 172.0
149.811264 128.0
149.848434 200.0
149.942841 64.0
150.096436 144.0
150.325745 60.0
150.406845 172.0
150.44046 92.0
150.464874 120.0
150.567429 144.0
150.671173 172.0
150.970688 176.0
151.002487 160.0
151.068527 144.0
151.181091 152.0
151.222687 160.0
151.318161 152.0
151.496948 132.0
151.695465 104.0
151.877838 212.0
152.029037 168.0
152.057465 152.0
152.110046 100.0
152.171539 168.0
152.286835 372.0
152.304031 48.0
152.49324 172.0
152.652985 164.0
152.724365 140.0
152.776031 160.0
152.803085 44.0
152.982758 96.0
153.027069 196.0
153.054504 328.0
153.103409 120.0
153.133911 384.0
153.374435 184.0
153.423737 128.0
153.608704 136.0
153.72467 136.0
153.741943 236.0
153.766617 108.0
153.877045 152.0
153.966614 48.0
153.996979 188.0
154.064117 4388.0
154.093491 176.0
154.119766 116.0
154.149368 160.0
154.193909 128.0
154.211212 140.0
154.230988 136.0
154.307617 188.0
154.325546 80.0
154.404068 160.0
154.433746 156.0
154.457489 100.0
154.542603 44.0
154.564865 144.0
154.596512 160.0
154.651489 192.0
154.710907 176.0
154.735657 232.0
154.812424 152.0
154.923889 180.0
155.027954 124.0
155.07016 6580.0
155.134537 40.0
155.151886 172.0
155.204376 152.0
155.236206 124.0
155.256042 84.0
155.307114 128.0
155.327072 200.0
155.389999 52.0
155.439621 40.0
155.499176 64.0
155.519043 32.0
155.593506 80.0
155.61586 116.0
155.680161 388.0
155.700287 72.0
155.856796 124.0
155.931351 68.0
155.951233 60.0
156.042007 400.0
156.068085 5524.0
156.112839 48.0
156.130249 28.0
156.247162 52.0
156.264587 76.0
156.306793 112.0
156.315552 108.0
156.337662 260.0
156.43631 172.0
156.483612 132.0
156.512375 92.0
156.600662 176.0
156.680374 72.0
156.794998 144.0
156.849838 232.0
156.868759 88.0
156.894714 140.0
156.942078 152.0
156.989471 76.0
157.074432 17460.0
157.13913 144.0
157.172928 52.0
157.211502 56.0
157.233719 40.0
157.239502 36.0
157.248734 48.0
157.298859 72.0
157.32132 52.0
157.356277 92.0
157.437424 140.0
157.467712 32.0
157.49614 56.0
157.583572 52.0
157.663544 140.0
157.689056 172.0
157.751022 144.0
157.823532 48.0
157.866592 72.0
158.019165 188.0
158.060333 2468.0
158.076065 1480.0
158.128738 44.0
158.16127 56.0
158.181305 80.0
158.218857 148.0
158.243896 72.0
158.286453 40.0
158.320206 160.0
158.436737 80.0
158.536972 124.0
158.624695 56.0
158.67009 152.0
158.709946 160.0
158.767624 148.0
158.821503 100.0
158.911697 204.0
158.931503 116.0
159.000946 40.0
159.066223 15668.0
159.114044 152.0
159.137283 116.0
159.169891 68.0
159.209061 272.0
159.254547 152.0
159.385178 64.0
159.593811 44.0
159.644104 228.0
159.762802 412.0
159.818573 180.0
159.870529 128.0
159.920868 64.0
159.973724 160.0
160.072006 2804.0
160.158768 100.0
160.185272 168.0
160.240173 116.0
160.274887 140.0
160.354095 148.0
160.376007 72.0
160.40451 112.0
160.480148 108.0
160.507874 132.0
160.707153 84.0
160.785385 88.0
160.815674 28.0
160.840912 136.0
160.901505 148.0
160.931808 52.0
161.005035 164.0
161.050003 164.0
161.082642 400.0
161.255157 168.0
161.280441 56.0
161.300659 148.0
161.384094 156.0
161.419281 92.0
161.472916 96.0
161.508621 100.0
161.594025 152.0
161.854645 192.0
161.968719 144.0
161.999115 116.0
162.032974 164.0
162.100464 244.0
162.163834 256.0
162.252548 124.0
162.317657 172.0
162.780334 156.0
162.843826 48.0
162.907333 120.0
163.034378 184.0
163.066345 228.0
163.095383 32.0
163.171646 84.0
163.385284 216.0
163.777328 112.0
163.841003 184.0
164.047104 152.0
164.072937 204.0
164.276962 144.0
164.305023 172.0
164.391785 196.0
164.410599 204.0
164.532166 72.0
164.567917 192.0
164.657288 104.0
164.728821 228.0
165.038071 148.0
165.067047 204.0
165.112228 184.0
165.191528 132.0
165.593414 152.0
165.729187 216.0
165.759933 40.0
165.785568 176.0
165.84964 48.0
165.870148 148.0
166.062012 500.0
166.134293 152.0
166.193298 120.0
166.213821 44.0
166.284836 240.0
166.294983 160.0
166.300568 180.0
166.417648 268.0
166.475677 176.0
166.683762 132.0
166.840546 104.0
166.861115 88.0
166.909973 152.0
166.930542 100.0
167.070282 2692.0
167.129395 120.0
167.156921 40.0
167.187805 168.0
167.218689 100.0
167.386032 72.0
167.568909 204.0
167.597763 164.0
167.648788 148.0
167.733322 96.0
167.796539 348.0
167.821503 120.0
167.922089 128.0
168.004639 80.0
168.039642 160.0
168.0737 1040.0
168.133652 88.0
168.159454 60.0
168.265305 232.0
168.394424 156.0
168.425415 228.0
168.461578 72.0
168.502914 164.0
168.550613 140.0
168.619202 44.0
168.64505 140.0
168.751053 276.0
168.820862 228.0
168.913986 164.0
168.989487 196.0
169.041809 120.0
169.075409 1784.0
169.110641 144.0
169.159821 152.0
169.203156 228.0
169.276337 204.0
169.346268 64.0
169.382523 100.0
169.439529 212.0
169.485214 152.0
169.537994 48.0
169.600189 52.0
169.740204 168.0
169.768723 200.0
169.90361 88.0
169.968475 36.0
170.03595 148.0
170.083557 1484.0
170.111221 132.0
170.130478 172.0
170.170944 88.0
170.204697 160.0
170.326767 224.0
170.362305 164.0
170.396042 320.0
170.585236 156.0
170.70253 220.0
170.814468 192.0
170.843842 124.0
170.850372 212.0
170.87204 128.0
170.901337 344.0
170.945572 120.0
171.001877 432.0
171.0905 55592.0
171.185486 200.0
171.21991 212.0
171.228165 80.0
171.240234 176.0
171.299438 88.0
171.309708 80.0
171.333542 120.0
171.423782 76.0
171.43956 152.0
171.475952 148.0
171.521454 268.0
171.550537 152.0
171.5681 128.0
171.644821 132.0
171.667145 252.0
171.714386 80.0
171.741928 164.0
171.751129 56.0
171.783768 144.0
171.843018 148.0
171.881714 236.0
171.902634 360.0
171.922852 172.0
171.962769 148.0
171.986847 140.0
172.021759 472.0
172.098541 113440.0
172.178558 140.0
172.20694 88.0
172.23587 144.0
172.254715 220.0
172.289841 112.0
172.319473 72.0
172.32988 92.0
172.357651 344.0
172.394836 88.0
172.434753 88.0
172.47084 104.0
172.496262 80.0
172.528641 320.0
172.556976 308.0
172.605927 40.0
172.624725 60.0
172.650833 188.0
172.723251 60.0
172.775909 208.0
172.814621 232.0
172.854187 116.0
172.873032 168.0
172.929092 36.0
172.948532 48.0
172.976212 112.0
173.031189 88.0
173.100357 11164.0
173.13623 212.0
173.164902 68.0
173.219742 112.0
173.266785 184.0
173.277084 172.0
173.333588 124.0
173.373108 144.0
173.431595 104.0
173.455185 124.0
173.49382 96.0
173.527252 160.0
173.576874 108.0
173.651062 132.0
173.694931 208.0
173.722122 164.0
173.759811 84.0
173.805191 68.0
173.829071 112.0
173.924774 64.0
173.972641 132.0
174.010788 116.0
174.052216 268.0
174.090515 31824.0
174.172058 140.0
174.193924 180.0
174.22226 140.0
174.241119 100.0
174.258667 128.0
174.277069 60.0
174.300095 168.0
174.31517 124.0
174.349014 112.0
174.377899 152.0
174.384033 80.0
174.417786 244.0
174.428299 132.0
174.443176 172.0
174.534088 348.0
174.56282 68.0
174.577667 204.0
174.624084 172.0
174.642502 72.0
174.679321 32.0
174.697739 64.0
174.742462 64.0
174.781937 44.0
174.808243 52.0
174.837189 48.0
174.876678 188.0
174.908264 72.0
174.957352 68.0
174.965942 44.0
175.003036 92.0
175.023056 60.0
175.051819 184.0
175.093765 1812.0
175.121552 108.0
175.174225 204.0
175.226929 104.0
175.290161 112.0
175.333542 52.0
175.377136 132.0
175.453781 52.0
175.540604 72.0
175.591675 76.0
175.614441 232.0
175.748993 60.0
175.793854 48.0
175.849274 80.0
175.907349 80.0
175.946945 52.0
176.023972 96.0
176.060501 148.0
176.098541 304.0
176.152939 208.0
176.270142 152.0
176.303558 48.0
176.388138 36.0
176.427795 96.0
176.522049 80.0
176.589096 228.0
176.644638 164.0
176.681686 68.0
176.885452 64.0
177.020493 168.0
177.068756 212.0
177.171478 100.0
177.229767 96.0
177.296005 44.0
177.367569 48.0
177.388779 124.0
177.486877 92.0
177.627457 64.0
177.919373 160.0
178.073792 552.0
178.139801 80.0
178.211533 92.0
178.248734 220.0
178.344406 152.0
178.509247 112.0
178.663528 52.0
178.79657 180.0
178.860458 48.0
179.12941 140.0
179.321274 104.0
179.377243 72.0
179.430557 116.0
179.571899 128.0
179.702621 224.0
180.087036 80.0
180.167191 204.0
180.356918 180.0
180.391678 56.0
180.491486 72.0
180.579239 136.0
180.60025 164.0
180.688538 84.0
180.70726 116.0
180.795563 64.0
180.84642 40.0
180.97493 212.0
181.071335 212.0
181.827408 176.0
181.875717 228.0
181.92482 180.0
181.961624 132.0
182.01265 80.0
182.060715 1104.0
182.093216 132.0
182.165741 68.0
182.488251 52.0
182.714188 92.0
182.746475 196.0
182.792221 44.0
182.951019 136.0
183.065918 3124.0
183.091553 2312.0
183.128754 96.0
183.166458 52.0
183.27095 148.0
183.301178 72.0
183.342941 136.0
183.405106 128.0
183.511429 60.0
183.651657 112.0
183.762268 120.0
183.924194 56.0
183.982651 196.0
184.066483 1996.0
184.140213 120.0
184.19693 84.0
184.28717 200.0
184.413101 96.0
184.450943 56.0
184.591537 224.0
184.656448 60.0
184.721359 200.0
184.74173 152.0
184.943253 160.0
185.005524 152.0
185.032593 152.0
185.069611 9884.0
185.135498 140.0
185.17305 60.0
185.211334 68.0
185.298019 160.0
185.403702 176.0
185.756195 64.0
185.926651 132.0
185.986847 40.0
186.086212 668.0
186.178513 116.0
186.274689 36.0
186.296432 48.0
186.315445 76.0
186.394241 108.0
186.493668 144.0
186.524704 48.0
186.880981 148.0
186.991699 64.0
187.078186 344.0
187.122147 368.0
187.165207 44.0
187.214539 112.0
187.286621 168.0
187.510056 52.0
187.545486 120.0
187.706345 120.0
187.752701 188.0
187.876465 108.0
188.003693 136.0
188.025528 32.0
188.066467 176.0
188.104294 872.0
188.358658 40.0
188.555389 148.0
188.659256 84.0
188.812393 136.0
188.839737 80.0
188.869827 96.0
189.107635 396.0
189.305008 84.0
189.754395 108.0
189.795517 68.0
190.056107 140.0
190.272949 56.0
190.341599 212.0
190.391022 112.0
190.553101 132.0
190.838959 56.0
191.491165 96.0
191.703308 212.0
192.674591 84.0
193.244156 160.0
193.446198 172.0
194.005798 196.0
194.036301 132.0
194.077896 168.0
194.113937 192.0
194.161087 72.0
194.346954 156.0
194.618973 104.0
194.90509 104.0
195.196381 96.0
195.235901 128.0
195.419495 172.0
195.795303 84.0
195.931793 68.0
196.032104 96.0
196.079483 160.0
196.165894 188.0
196.193771 100.0
196.226181 148.0
196.288574 176.0
196.386185 144.0
196.66243 36.0
196.690338 180.0
196.776886 160.0
196.916519 152.0
197.08284 352.0
197.49231 80.0
197.567841 232.0
197.634979 168.0
197.744125 148.0
197.976501 240.0
198.088745 3448.0
198.126755 200.0
198.161392 68.0
198.24826 56.0
198.332336 72.0
198.385605 184.0
198.405228 64.0
198.497757 48.0
198.553848 104.0
198.640808 172.0
198.744614 80.0
198.767059 244.0
198.882126 192.0
198.921432 208.0
199.033737 360.0
199.085159 8392.0
199.25563 80.0
199.289352 88.0
199.351166 220.0
199.376465 84.0
199.414032 76.0
199.443924 164.0
199.472031 32.0
199.533875 80.0
199.570435 88.0
199.651978 92.0
199.696976 152.0
199.754471 64.0
199.805557 168.0
199.84108 72.0
199.88829 68.0
199.91362 168.0
199.962219 104.0
199.985886 160.0
200.014938 168.0
200.042862 144.0
200.093262 35400.0
200.186691 64.0
200.234573 228.0
200.299759 84.0
200.337784 144.0
200.397964 44.0
200.433685 144.0
200.492554 52.0
200.514145 140.0
200.543808 32.0
200.581223 144.0
200.60878 80.0
200.63295 96.0
200.677002 196.0
200.695755 68.0
200.721466 188.0
200.799988 168.0
200.834229 128.0
200.930847 28.0
201.017014 120.0
201.038086 92.0
201.094986 4236.0
201.266739 100.0
201.299805 180.0
201.424896 124.0
201.478577 32.0
201.546387 52.0
201.568985 48.0
201.606125 116.0
201.639648 64.0
201.701828 80.0
201.741409 64.0
201.820572 52.0
201.967636 88.0
202.0327 100.0
202.100052 360.0
202.154373 64.0
202.181351 68.0
202.242111 156.0
202.366669 72.0
202.485611 104.0
202.542267 68.0
202.562088 108.0
202.609039 128.0
202.686752 164.0
202.717926 96.0
202.916351 68.0
203.091278 164.0
203.216995 36.0
203.347549 28.0
203.424179 100.0
203.946869 52.0
204.091858 68.0
204.897369 100.0
205.133911 88.0
206.038589 212.0
207.36351 168.0
207.879745 52.0
208.678314 176.0
208.721436 48.0
208.896881 80.0
208.965942 104.0
210.470566 156.0
211.44191 216.0
211.858887 60.0
212.969925 92.0
213.099152 1592.0
213.158768 176.0
213.437836 44.0
213.527985 144.0
213.714172 108.0
213.772369 124.0
213.906265 40.0
214.108322 492.0
214.24408 100.0
214.314011 100.0
214.923431 112.0
215.022659 56.0
215.116882 35556.0
215.317535 64.0
215.411011 128.0
215.534866 92.0
215.595581 100.0
215.659393 124.0
215.733536 104.0
215.755859 52.0
215.776321 64.0
215.861115 56.0
216.027847 88.0
216.119339 3604.0
216.168289 132.0
216.241455 92.0
216.267792 92.0
216.311707 68.0
216.367325 72.0
216.402466 200.0
216.469818 80.0
216.757523 88.0
216.797928 76.0
216.894638 72.0
216.926895 36.0
216.970871 152.0
217.091095 120.0
217.123047 532.0
217.14975 104.0
217.264145 52.0
217.352173 164.0
217.378586 28.0
217.430145 140.0
217.463593 64.0
217.528275 160.0
217.654526 100.0
217.705276 128.0
217.810181 136.0
217.865997 80.0
217.892441 72.0
217.995285 36.0
218.395142 120.0
218.537888 52.0
218.606979 84.0
218.78064 64.0
218.939651 100.0
218.974991 52.0
219.139954 68.0
219.372787 40.0
219.850632 60.0
221.062302 100.0
222.117096 36.0
222.74939 144.0
223.575989 56.0
224.577087 40.0
225.084442 36.0
227.446686 68.0
228.035416 52.0
228.128601 64.0
228.501526 84.0
228.585785 136.0
228.7724 72.0
228.87175 56.0
229.133804 44.0
230.361694 100.0
232.897171 76.0
232.988312 60.0
241.050186 84.0
242.154678 52.0
245.651688 100.0
246.776031 56.0
249.632706 80.0
251.939987 92.0
254.381683 68.0
255.204559 64.0
256.391968 84.0
259.124146 180.0
259.335663 76.0
261.22702 56.0
261.455475 108.0
261.477997 128.0
267.404327 92.0
267.430359 84.0
268.424042 144.0
271.658844 80.0
272.772125 148.0
273.85141 100.0
289.15152 64.0
289.720398 72.0
294.892883 60.0
295.621368 72.0
297.067291 32.0
300.066284 40.0
304.645111 96.0
305.956238 56.0
306.374176 48.0
309.801422 84.0
316.118256 160.0
323.786926 68.0
325.519104 80.0
331.004089 120.0
334.933838 108.0
335.655487 44.0
335.99472 64.0
339.311981 80.0
339.763092 68.0
340.313629 96.0
341.511688 40.0
343.109924 56.0
343.493469 104.0
345.862122 76.0
349.78952 68.0
351.392059 68.0
356.834229 32.0
360.207245 104.0
361.88266 60.0
362.295502 128.0
364.188416 64.0
365.496246 60.0
367.760071 92.0
371.525574 88.0
383.147522 68.0
385.109741 68.0
390.825745 112.0
394.908936 72.0
397.369049 48.0
397.599213 48.0
410.195251 76.0
414.556427 100.0
415.704102 56.0
416.67865 80.0
428.206635 52.0
430.507996 56.0
430.896271 44.0
435.752197 92.0
438.694641 144.0
439.983765 44.0
447.733032 52.0
462.500824 56.0
462.693481 44.0
469.284454 96.0
470.060883 96.0
471.632996 84.0
478.291443 56.0
482.759277 76.0
502.675171 36.0
519.46283 44.0
520.157104 140.0
529.32605 92.0
530.269836 84.0
532.311401 52.0
533.133728 112.0
538.686035 92.0
547.927612 80.0
548.528809 80.0
556.500977 148.0
562.494263 76.0
585.940186 100.0
591.784424 92.0
596.111389 56.0
609.599365 80.0
614.360779 84.0
630.129333 52.0
633.571533 108.0
641.51709 88.0
641.794373 176.0
655.944885 72.0
658.756714 140.0
667.449402 52.0
672.844116 36.0
688.923523 224.0
695.002258 64.0
700.701904 224.0
706.72113 132.0
725.833923 64.0
729.495667 104.0
741.446472 132.0
746.538879 156.0
754.25946 136.0
756.797974 180.0
757.833191 156.0
761.734009 248.0
763.410461 172.0
773.640442 136.0
789.336792 92.0
804.168884 80.0
806.699524 140.0
812.260559 160.0
816.361389 192.0
818.711792 84.0
825.222839 140.0
829.424988 212.0
836.364075 40.0
837.521484 116.0
841.050415 180.0
843.320496 244.0
846.050903 224.0
853.390442 152.0
855.857605 148.0
858.882324 116.0
863.251099 96.0
863.75415 208.0
864.444519 40.0
868.651428 92.0
878.157227 56.0
880.453125 36.0
880.9198 92.0
881.977539 84.0
882.361816 164.0
883.426331 204.0
883.639343 48.0
883.775452 168.0
888.034973 56.0
888.628235 56.0
892.976746 224.0
900.803345 188.0
903.493042 200.0
906.139893 212.0
908.946106 140.0
917.095398 168.0
918.084167 200.0
918.964905 112.0
928.741394 212.0
932.822083 256.0
933.880127 116.0
937.191956 188.0
948.473999 172.0
949.964172 176.0
953.832947 164.0
968.798157 220.0
970.440613 224.0
972.369873 160.0
979.570435 140.0
987.954651 56.0
990.471252 200.0
995.708679 128.0
995.922241 68.0
997.876709 204.0
998.241394 128.0
998.373474 180.0
998.675354 160.0
1001.041809 128.0
1002.868958 136.0
1003.846191 148.0
1012.751404 140.0
1013.803162 180.0
1021.575073 212.0
1027.072632 196.0
1027.11731 212.0
1028.891479 108.0
1031.293335 124.0
1031.651367 144.0
1033.346191 160.0
1033.486938 28.0
1033.627808 164.0
1033.768555 176.0
1037.656738 76.0
1038.952271 196.0
1049.326416 80.0
1050.493774 148.0
1054.717041 128.0
1059.55127 36.0
1060.439087 196.0
1062.436401 128.0
1063.851196 124.0
1065.526855 64.0
1065.968628 56.0
1068.211792 252.0
1069.103271 240.0
1069.949463 172.0
1073.265869 136.0
1076.613647 68.0
1080.980713 212.0
1087.777588 152.0
1088.8479 256.0
1089.150024 160.0
1090.976929 220.0
1096.519531 232.0
1102.2677 216.0
1104.085693 144.0
1106.342163 196.0
1106.59375 168.0
1106.931396 172.0
1108.554443 112.0
1114.374023 128.0
1116.042358 140.0
1120.068848 232.0
1121.348267 68.0
1122.314941 144.0
1124.676636 164.0
1131.836914 180.0
1132.33252 168.0
1137.697021 164.0
1139.248413 100.0
1140.814331 124.0
1141.022705 140.0
1141.453003 208.0
1144.070435 60.0
1145.861938 164.0
1147.25708 204.0
1148.841919 168.0
1150.549438 156.0
1154.772949 184.0
1155.638794 48.0
1156.220825 144.0
1157.364868 188.0
1157.838867 236.0
1158.733154 208.0
1160.122437 124.0
1162.720459 116.0
1162.767944 68.0
1166.218384 108.0
1171.573975 100.0
1172.057739 136.0
1173.789185 156.0
1175.228394 152.0
1176.238525 148.0
1178.034546 216.0
1179.120972 220.0
1180.994507 224.0
1183.499268 180.0
1186.932373 132.0
1188.928589 176.0
1190.830444 136.0
1191.249512 200.0
1192.025879 88.0
1193.111938 132.0
1194.074585 40.0
1194.157227 144.0
1194.783203 76.0
1195.739624 132.0
1197.095947 144.0
1197.888062 172.0
1200.934814 248.0
1201.63855 116.0
1202.991211 124.0
1203.591919 192.0
1205.353394 84.0
1206.853394 152.0
1207.946167 124.0
1208.984131 176.0
1210.548706 52.0
1210.804932 40.0
1212.710327 200.0
1212.758789 164.0
1214.811401 64.0
1218.887085 132.0
1219.582031 88.0
1221.849121 56.0
1222.336182 52.0
1223.213135 148.0
1223.644775 164.0
1224.571045 196.0
1225.420898 144.0
1225.504517 188.0
1225.978394 224.0
1230.13562 176.0
1231.874512 136.0
1232.146973 228.0
1232.286621 160.0
1232.454346 156.0
1236.363525 188.0
1237.476562 136.0
1243.358032 96.0
1245.309937 36.0
1246.96814 140.0
1247.692139 152.0
1247.881958 88.0
1248.950928 148.0
1250.280762 208.0
1250.745361 224.0
1251.653564 168.0
1252.472168 248.0
1253.470947 140.0
1256.136108 140.0
1256.72168 228.0
1257.766235 108.0
1257.872192 216.0
1257.928589 140.0
1258.415771 152.0
1259.07251 128.0
1259.263184 200.0
1260.718628 180.0
1261.74353 148.0
1261.991089 232.0
1263.186279 168.0
1264.063599 128.0
1264.34668 156.0
1265.551758 140.0
1266.414185 168.0
1266.71875 200.0
1266.867554 76.0
1267.469849 200.0
1267.753296 120.0
1269.958252 180.0
1270.227783 276.0
1270.525757 164.0
1270.923096 152.0
1271.987671 160.0
1273.798584 196.0
1274.835938 148.0
1275.098877 104.0
1276.37146 52.0
1276.826538 124.0
1277.772705 40.0
1278.591064 144.0
1278.747559 136.0
1278.897095 184.0
1279.003784 152.0
1280.420776 152.0
1281.895508 124.0
1282.123535 136.0
1284.055664 176.0
1287.645752 192.0
1288.37439 148.0
1288.453003 224.0
1289.97522 196.0
1290.990601 164.0
1292.335449 60.0
1294.603882 180.0
1295.935547 132.0
1296.890259 144.0
1297.62146 164.0
1298.489136 172.0
1299.845093 248.0
1299.91687 212.0
1300.290039 196.0
1300.404907 156.0
1300.692017 144.0
1301.28064 196.0
1301.855103 244.0
1302.717041 196.0
1303.212891 184.0
1303.306274 160.0
1303.586548 184.0
1303.845215 204.0
1304.585571 224.0
1305.153564 132.0
1305.743286 108.0
1306.851196 160.0
1307.945068 140.0
1309.932617 216.0
1310.091064 128.0
1313.645264 172.0
1314.75647 208.0
1315.925903 228.0
1316.12085 40.0
1316.496338 224.0
1318.38916 108.0
1319.155396 148.0
1319.878418 180.0
1320.153198 120.0
1320.681152 168.0
1320.861938 132.0
1321.723022 196.0
1322.055908 148.0
1322.149902 124.0
1322.475586 88.0
1322.873779 208.0
1323.778809 148.0
1324.452393 176.0
1325.198608 212.0
1325.358032 160.0
1325.570312 208.0
1325.952271 188.0
1326.09729 132.0
1326.510498 208.0
1326.648193 176.0
1328.511963 128.0
1328.654053 48.0
1330.420654 184.0
1330.8927 140.0
1331.299316 240.0
1332.388916 204.0
1333.166382 144.0
1333.980469 212.0
1335.260254 160.0
1335.783936 172.0
1335.914917 180.0
1336.204346 148.0
1336.26416 144.0
1336.591553 116.0
1337.355713 204.0
1337.523193 160.0
1338.091064 172.0
1338.592651 192.0
1340.604126 208.0
1341.173828 124.0
1341.91626 200.0
1342.258911 172.0
1343.08313 124.0
1345.440186 192.0
1346.601318 180.0
1346.878906 96.0
1349.743896 152.0
1350.533691 232.0
1351.455566 220.0
1354.303467 208.0
1354.611084 164.0
1355.526978 96.0
1356.795044 236.0
1357.161621 152.0
1359.20813 188.0
1359.442993 208.0
1359.91272 184.0
1360.419189 176.0
1361.395874 180.0
1361.564697 168.0
1362.33606 152.0
1362.505005 56.0
1363.445557 132.0
1364.349731 148.0
1364.776123 108.0
1365.357178 180.0
1365.820557 172.0
1366.806396 220.0
1367.277344 168.0
1367.733765 100.0
1369.633545 112.0
1370.362915 92.0
1370.583984 176.0
1371.357788 88.0
1372.028687 108.0
1372.496826 304.0
1372.699585 176.0
1373.149536 164.0
1374.986694 116.0
1375.289307 160.0
1375.495972 148.0
1375.879883 40.0
1376.322876 116.0
1376.928467 188.0
1377.209106 52.0
1377.563721 36.0
1377.84021 212.0
1377.94043 160.0
1379.270752 140.0
1379.33728 208.0
1380.1875 192.0
1380.483276 132.0
1381.037964 164.0
1381.104614 64.0
1381.393066 268.0
1383.124634 124.0
1383.250488 128.0
1384.583374 132.0
1385.657471 152.0
1386.14917 188.0
1386.30957 248.0
1386.761597 200.0
1388.55603 96.0
1389.512939 200.0
1391.650513 168.0
1392.259521 200.0
1392.467407 168.0
1392.927979 196.0
1393.098877 220.0
1394.599854 68.0
1395.575928 168.0
1395.953003 136.0
1397.314331 144.0
1397.582153 140.0
1398.676147 204.0
1399.621704 188.0
1399.986572 208.0
1400.589966 148.0
1400.805908 216.0
1400.865601 180.0
1401.849121 152.0
1401.916138 156.0
1402.116455 140.0
1402.765869 64.0
1403.161011 216.0
1403.421997 160.0
1403.891724 152.0
1404.231079 192.0
1404.354248 76.0
1406.607666 132.0
1407.772461 176.0
1407.989136 160.0
1408.287842 152.0
1408.369995 220.0
1409.430908 120.0
1409.670044 184.0
1413.18457 116.0
1413.468872 132.0
1413.760742 124.0
1413.820679 212.0
1414.486816 208.0
1414.681396 116.0
1414.786255 264.0
1415.078247 212.0
1415.250488 196.0
1415.57251 80.0
1415.624878 132.0
1415.707275 172.0
1416.09668 132.0
1416.523682 156.0
1416.68103 164.0
1417.842407 192.0
1418.194702 232.0
1419.256226 136.0
1420.114258 188.0
1420.346802 156.0
1420.429321 48.0
1420.481812 164.0
1420.556885 172.0
1422.447998 100.0
1422.980957 200.0
1423.787964 256.0
1424.002319 236.0
1425.054077 180.0
1425.66272 136.0
1426.053589 204.0
1426.173828 164.0
1427.43689 216.0
1427.579834 168.0
1427.730225 156.0
1428.046997 172.0
1428.911255 72.0
1430.634766 176.0
1431.903076 108.0
1432.216187 164.0
1433.037354 88.0
1433.790894 208.0
1434.748169 128.0
1435.916992 112.0
1437.290039 128.0
1437.954224 116.0
1438.074951 192.0
1438.512817 156.0
1439.600098 216.0
1439.819092 140.0
1440.582031 72.0
1440.687744 156.0
1440.854004 148.0
1441.413086 124.0
1443.147827 164.0
1445.14856 152.0
1445.935669 192.0
1446.170288 104.0
1447.472412 128.0
1447.97229 112.0
1448.056641 152.0
1448.612671 184.0
1448.7677 140.0
1449.199585 156.0
1449.2771 236.0
1451.337036 200.0
1451.397705 160.0
1452.194092 144.0
1452.558105 68.0
1452.975464 156.0
1453.491333 100.0
1453.931519 172.0
1455.776367 56.0
1456.057373 112.0
1456.976562 240.0
1457.067749 168.0
1457.4552 140.0
1457.652832 168.0
1457.994751 192.0
1461.367554 164.0
1461.766846 136.0
1461.820068 132.0
1462.05603 264.0
1462.703003 152.0
1462.99231 200.0
1463.098877 196.0
1463.281616 196.0
1463.42627 164.0
1464.043091 140.0
1464.61438 168.0
1464.682861 124.0
1465.825806 164.0
1466.313477 208.0
1467.334961 148.0
1468.456055 120.0
1468.565918 156.0
1469.279907 188.0
1470.004761 164.0
1470.210815 164.0
1470.41687 140.0
1470.592407 48.0
1471.836914 176.0
1471.890381 136.0
1473.272827 128.0
1473.540161 220.0
1474.205078 156.0
1474.694214 60.0
1474.923462 136.0
1477.701172 232.0
1477.860229 248.0
1478.21228 148.0
1478.908691 48.0
1479.567139 152.0
1480.309814 136.0
1480.700439 140.0
1480.907227 184.0
1480.991455 204.0
1482.033447 160.0
1482.148315 100.0
1482.554443 100.0
1483.297974 196.0
1483.551025 168.0
1483.711914 168.0
1484.072388 196.0
1484.926758 216.0
1485.649292 228.0
1486.711182 140.0
1486.933838 120.0
1487.187134 216.0
1487.747437 176.0
1490.089966 220.0
1490.88916 132.0
1491.019775 52.0
1491.511719 156.0
1492.080566 104.0
1492.303589 176.0
1493.857178 196.0
1495.226807 104.0
1495.634766 196.0
1496.389282 160.0
1496.643311 132.0
1497.169434 188.0
1497.698486 144.0
1498.183716 108.0
1498.977417 176.0
1499.093018 192.0
1499.216309 48.0
1499.432129 180.0
1499.601685 192.0
1501.189941 264.0
1501.48291 152.0
1501.876343 204.0
1502.555176 136.0
1502.76355 176.0
1502.917847 92.0
1503.018188 248.0
1503.11853 376.0
1503.419434 116.0
1503.488892 128.0
1503.928833 80.0
1505.001953 172.0
