>compound MLS002153926-01!Retrorsine480-54-6
>formula C18H25NO6
>ionization [M+H]+
>parentmass 352.175903
#inchi InChI=1S/C18H25NO6/c1-3-12-8-11(2)18(23,10-20)17(22)24-9-13-4-6-19-7-5-14(15(13)19)25-16(12)21/h3-4,11,14-15,20,23H,5-10H2,1-2H3/b12-3-/t11-,14-,15-,18-/m1/s1
#inchikey BCJMNZRQJAVDLD
#Ion_Source LC-ESI
#Instrument qTof
#Compound_Source NIH Pharmacologically Active Library
#PI Dorrestein
#Data_Collector VP/LMS
#Scan -1
#Precursor_MZ 352.182
#ExactMass 351.168
#Charge 1
#CAS_Number N/A
#Pubmed_ID N/A
#Smiles C/C=C\1/C[C@@H](C)[C@](O)(CO)C(=O)OCC2=CCN3CC[C@@H](OC1=O)[C@H]32
#INCHI_AUX N/A
#Library_Class 1
#SpectrumID CCMSLIB00000086128
#IonMode Positive
#UpdateWorkflowName UPDATE-SINGLE-ANNOTATED-GOLD
#LibraryQualityString Gold
#TaskID d252d724072548979f1f6f1ced849daf
##Scan# 1174
#SpectrumFile p5-F03_GF3_01_18466.mzXML
#LibraryName Pharm_Active_Library.mgf
#MQScore -1
#Organism Pharm_Active_Library
#TIC_Query 0
#RT_Query -1
#MZErrorPPM -1
#SharedPeaks 0
#MassDiff 0
#LibMZ -1
#SpecMZ 352.182
#SpecCharge 0
#internalFilename spec-00000.mgf

>collision 10
45.003418 56.0
45.141048 180.0
45.556538 144.0
46.444756 148.0
46.697388 192.0
47.203342 184.0
47.223854 80.0
47.240269 184.0
47.27858 184.0
47.342922 176.0
47.368946 232.0
47.479965 112.0
47.556797 264.0
47.819313 184.0
47.903305 224.0
48.060471 52.0
48.103252 128.0
48.180588 156.0
48.321606 212.0
49.362026 164.0
49.566395 160.0
49.581913 216.0
49.702408 160.0
49.736088 228.0
49.757145 140.0
49.823151 196.0
49.884987 160.0
49.937012 196.0
50.217598 92.0
50.275135 104.0
50.388096 84.0
50.446037 96.0
50.668217 140.0
50.697971 180.0
50.920708 132.0
51.023018 136.0
51.316303 140.0
51.397602 160.0
51.517532 168.0
51.573261 196.0
51.742058 116.0
51.849487 116.0
51.964203 188.0
52.094845 184.0
52.11496 184.0
52.168133 156.0
52.198326 124.0
52.238598 184.0
52.255859 164.0
52.809799 56.0
52.874908 204.0
52.944397 196.0
53.04002 132.0
53.158947 220.0
53.208298 164.0
53.520893 112.0
53.538368 152.0
53.678261 104.0
53.724934 108.0
53.759953 124.0
53.884064 176.0
53.914749 168.0
54.072697 220.0
54.40984 172.0
54.845264 120.0
55.172974 84.0
55.341633 40.0
55.49128 168.0
55.580269 176.0
55.66785 200.0
56.072495 176.0
56.127655 204.0
56.193279 136.0
56.761658 172.0
57.113083 148.0
57.134144 92.0
57.179283 164.0
57.353996 132.0
57.722366 212.0
57.808559 180.0
58.223969 184.0
58.315125 356.0
58.344006 168.0
58.400269 88.0
58.436779 176.0
58.714012 96.0
58.84066 160.0
58.909386 240.0
59.100487 192.0
59.331757 116.0
59.46981 140.0
59.894184 64.0
59.946568 176.0
60.265976 124.0
60.293793 188.0
60.842121 84.0
60.974152 180.0
61.313423 164.0
61.511509 184.0
61.74744 200.0
61.784981 44.0
62.179852 104.0
62.451256 220.0
62.664173 144.0
62.752434 188.0
62.843914 216.0
63.014431 60.0
63.125072 88.0
63.21999 184.0
63.452831 156.0
63.471859 168.0
63.611473 176.0
63.63052 196.0
63.988239 156.0
64.036011 80.0
64.671471 120.0
64.882919 196.0
65.052963 124.0
65.199127 136.0
65.424316 176.0
65.527382 68.0
65.914627 160.0
66.05043 52.0
66.066605 176.0
66.658401 200.0
67.042442 164.0
67.083191 188.0
67.46682 160.0
67.494614 124.0
68.947807 176.0
69.119789 104.0
69.383133 188.0
69.789902 156.0
69.817993 184.0
69.894691 144.0
70.064522 156.0
70.111176 164.0
70.162842 156.0
70.311302 228.0
70.336334 212.0
70.46492 164.0
70.498337 92.0
70.888245 168.0
70.936852 36.0
70.970383 96.0
71.143188 172.0
71.203636 116.0
71.602226 144.0
71.704994 168.0
71.720161 212.0
71.737015 184.0
71.805023 168.0
72.113426 164.0
72.128639 64.0
72.143852 156.0
72.184433 196.0
72.497604 208.0
72.877701 212.0
73.007774 324.0
73.030701 160.0
73.069824 224.0
73.18045 156.0
73.345695 124.0
73.396843 160.0
73.702377 140.0
73.799805 160.0
73.881897 208.0
74.106178 168.0
74.217064 192.0
74.34967 108.0
74.397728 156.0
74.731148 180.0
74.770721 164.0
74.979111 172.0
75.027374 76.0
75.041168 188.0
75.548912 64.0
75.642357 176.0
75.805161 164.0
75.961205 152.0
76.386787 196.0
76.61483 180.0
76.651421 136.0
76.714165 136.0
76.845001 180.0
76.874626 64.0
77.336006 164.0
77.350014 156.0
77.784729 168.0
77.976181 116.0
78.086945 132.0
78.308708 192.0
78.536072 252.0
78.687836 240.0
78.724915 100.0
78.756706 204.0
79.272232 132.0
79.489647 180.0
79.65831 124.0
79.70784 232.0
79.802261 356.0
79.87027 164.0
80.054932 168.0
80.463249 52.0
80.479317 128.0
80.697296 116.0
81.058861 220.0
81.45356 168.0
81.644081 68.0
81.802414 96.0
81.984322 104.0
82.211548 136.0
82.224182 68.0
82.245842 212.0
82.495117 136.0
82.596382 196.0
82.715805 164.0
82.773743 228.0
83.016563 60.0
83.372375 136.0
83.419632 140.0
83.714378 248.0
84.144691 116.0
84.212257 120.0
84.512062 196.0
84.609062 96.0
84.764748 204.0
84.863724 140.0
84.979279 224.0
85.076546 212.0
85.563721 68.0
85.587662 84.0
85.794006 208.0
86.544106 120.0
86.590401 144.0
86.73307 100.0
86.779411 100.0
87.226814 76.0
87.286308 104.0
87.464912 200.0
87.504005 164.0
87.731293 128.0
88.196091 156.0
88.812111 228.0
88.975372 136.0
89.056114 128.0
89.343719 188.0
89.411453 152.0
89.498047 176.0
89.733566 144.0
89.786362 176.0
90.086472 152.0
90.315193 160.0
90.417366 116.0
90.451431 144.0
90.483612 152.0
90.891113 164.0
91.054749 1568.0
91.077164 44.0
91.227638 148.0
91.573586 204.0
91.645973 132.0
91.729828 148.0
92.05024 332.0
92.053276 172.0
92.087296 152.0
92.264351 172.0
92.552162 148.0
92.599213 120.0
92.73716 188.0
92.938515 148.0
93.009521 156.0
93.057297 1264.0
93.061935 196.0
93.068367 956.0
93.301514 120.0
93.32843 92.0
93.389969 64.0
93.459221 176.0
93.541977 72.0
93.592033 92.0
93.69989 232.0
93.863724 120.0
93.938934 104.0
94.065895 5272.0
94.151253 84.0
94.245903 68.0
94.590149 92.0
94.650162 196.0
94.716011 116.0
94.747002 180.0
94.774132 184.0
94.913689 212.0
94.944717 120.0
95.08419 1016.0
95.109627 76.0
95.132919 124.0
95.327148 120.0
95.476837 44.0
95.513786 140.0
95.537132 88.0
95.572151 76.0
95.630684 52.0
95.81942 196.0
96.022148 180.0
96.047501 156.0
96.081879 1960.0
96.101334 168.0
96.186043 56.0
96.227036 180.0
96.279755 112.0
96.293427 164.0
96.451691 196.0
96.825394 56.0
97.033104 152.0
97.064476 160.0
97.084908 328.0
97.125267 188.0
97.237648 216.0
97.618225 196.0
97.64576 120.0
97.675262 148.0
97.728378 176.0
97.782677 128.0
97.940987 60.0
97.958717 180.0
98.063148 200.0
98.55452 136.0
98.90258 152.0
99.045929 212.0
99.078819 100.0
99.225479 152.0
99.536987 92.0
99.968346 140.0
100.043976 152.0
100.759926 136.0
101.219955 164.0
101.247986 152.0
101.950142 188.0
102.336349 156.0
102.485397 180.0
102.999832 36.0
103.053711 2260.0
103.090752 44.0
103.21608 192.0
103.313156 96.0
103.424454 172.0
103.665123 192.0
103.799248 136.0
104.050484 316.0
104.282417 204.0
104.333229 40.0
104.590012 224.0
104.858398 144.0
104.952164 128.0
105.007225 52.0
105.070251 1212.0
105.2174 68.0
105.427788 108.0
105.765251 216.0
105.845093 136.0
106.066078 1180.0
106.152458 204.0
106.216042 164.0
106.468491 176.0
107.013405 140.0
107.045593 356.0
107.075386 688.0
107.353394 112.0
107.4524 180.0
107.757957 180.0
107.786888 72.0
107.844749 60.0
107.970871 48.0
108.048706 152.0
108.081703 2372.0
108.117752 92.0
108.285446 56.0
108.345055 140.0
108.37867 168.0
108.687614 152.0
108.716667 108.0
108.810074 320.0
108.988693 172.0
109.028175 120.0
109.063957 796.0
109.085915 760.0
109.099083 348.0
109.117554 204.0
109.319313 112.0
109.4338 156.0
109.552505 72.0
109.877724 180.0
109.913193 124.0
110.063568 368.0
110.097122 2348.0
110.213875 156.0
110.458473 76.0
110.619606 184.0
110.709633 180.0
110.875137 260.0
110.92334 140.0
111.04303 204.0
111.08168 496.0
111.149841 164.0
111.338776 168.0
111.458511 56.0
111.618263 44.0
111.721321 56.0
111.895996 116.0
112.053955 124.0
112.074158 340.0
112.13192 136.0
112.403961 204.0
113.059052 124.0
113.215706 224.0
113.909264 136.0
113.951752 172.0
114.002747 160.0
114.047379 180.0
114.604942 188.0
114.828773 176.0
115.055084 200.0
115.270676 124.0
115.640656 208.0
115.931915 144.0
116.058388 160.0
116.305092 164.0
117.057472 288.0
117.160942 156.0
117.190147 208.0
117.341972 140.0
117.607307 124.0
117.726051 132.0
118.065147 1988.0
118.223259 160.0
118.279533 88.0
118.307671 120.0
118.552429 140.0
118.662971 60.0
118.784416 84.0
118.810448 56.0
119.075897 592.0
119.325157 136.0
119.779984 152.0
119.813622 196.0
119.836624 188.0
119.958664 196.0
119.993546 72.0
120.008804 164.0
120.080795 13752.0
120.183296 36.0
120.20813 84.0
120.277138 144.0
120.338264 60.0
120.379753 72.0
120.515175 164.0
120.565437 60.0
120.602592 68.0
120.729401 56.0
120.84095 152.0
120.87159 96.0
121.018234 152.0
121.035751 212.0
121.063599 920.0
121.086174 956.0
121.511375 100.0
121.533318 48.0
121.880234 128.0
121.908806 100.0
122.014305 180.0
122.042885 80.0
122.097046 3236.0
122.133057 32.0
122.320084 56.0
122.377327 240.0
122.447792 36.0
122.549126 68.0
122.5998 108.0
122.619637 180.0
122.671875 80.0
122.687965 156.0
122.714424 104.0
122.796013 120.0
122.875427 52.0
122.957069 124.0
123.01178 220.0
123.080666 3444.0
123.250771 60.0
123.299385 84.0
123.354645 92.0
123.679802 64.0
123.74324 116.0
123.761719 56.0
124.083565 412.0
124.118454 156.0
124.537888 176.0
124.584778 144.0
124.611191 44.0
124.938004 44.0
125.051491 192.0
125.09668 668.0
125.225151 52.0
125.269699 80.0
125.715622 228.0
126.066223 180.0
126.088547 184.0
126.403885 48.0
126.905624 44.0
127.075226 368.0
127.246651 144.0
128.062943 196.0
128.626633 216.0
129.055878 212.0
129.073959 180.0
129.248138 72.0
130.067795 636.0
130.145721 64.0
130.381958 196.0
130.504715 172.0
130.591125 76.0
130.618423 164.0
131.066925 152.0
131.08638 184.0
131.178589 164.0
131.607498 212.0
131.993652 76.0
132.039383 160.0
132.082565 248.0
132.387253 68.0
132.802063 128.0
133.065033 256.0
133.087616 284.0
133.279572 160.0
133.325516 208.0
133.769424 148.0
134.068817 188.0
134.10112 140.0
134.617889 124.0
134.913635 156.0
135.101791 384.0
135.383331 76.0
135.624283 80.0
135.807449 88.0
135.942017 144.0
136.009323 56.0
136.074326 1108.0
136.111465 160.0
136.878815 36.0
137.061081 524.0
137.083023 436.0
137.117706 232.0
137.291275 44.0
137.594604 176.0
137.676331 136.0
137.713486 176.0
137.919312 124.0
138.064407 132.0
138.0914 12148.0
138.155487 32.0
138.183563 40.0
138.209305 48.0
138.235046 32.0
138.272476 104.0
138.298233 132.0
138.333344 40.0
138.478516 60.0
138.506622 64.0
138.808945 40.0
138.970795 236.0
138.993378 112.0
139.093002 1472.0
139.217255 100.0
139.372299 68.0
139.602661 76.0
139.974457 96.0
140.107407 488.0
140.136978 224.0
141.092987 556.0
141.114822 212.0
142.142075 152.0
142.265488 40.0
142.581406 100.0
142.754944 144.0
142.888138 128.0
142.9048 204.0
143.084549 236.0
143.188461 160.0
144.07962 244.0
144.086014 188.0
145.087708 256.0
146.062668 120.0
146.098007 540.0
147.033646 92.0
147.081009 368.0
147.112045 260.0
147.149521 168.0
147.403122 108.0
148.071701 212.0
148.110779 368.0
148.427048 160.0
148.468262 124.0
148.679321 208.0
149.093369 320.0
149.126205 168.0
149.364487 92.0
149.405838 112.0
150.089523 236.0
150.121338 212.0
150.175583 172.0
150.204849 120.0
150.922852 120.0
151.028015 168.0
151.075256 2900.0
151.280045 48.0
151.333908 108.0
152.044785 220.0
152.087677 236.0
152.295212 176.0
152.322235 96.0
152.541748 72.0
153.072357 220.0
153.092056 152.0
153.131454 36.0
154.085571 476.0
154.120682 160.0
154.315933 196.0
154.795959 196.0
155.075897 200.0
155.105652 192.0
155.328812 108.0
155.395798 76.0
155.922226 160.0
156.058945 84.0
156.100861 784.0
156.141006 104.0
156.340027 120.0
157.062546 160.0
157.094971 288.0
157.11058 188.0
157.182297 104.0
157.819244 220.0
157.911774 44.0
158.063339 184.0
158.099396 504.0
158.224548 76.0
158.550186 112.0
158.612839 60.0
158.632889 148.0
159.076904 96.0
159.102234 180.0
159.154724 128.0
159.451157 84.0
159.534103 92.0
160.06749 172.0
160.114731 464.0
160.521057 128.0
161.1082 160.0
161.670456 76.0
162.086685 340.0
162.232758 240.0
162.265701 140.0
162.77063 196.0
162.978912 152.0
163.034821 168.0
163.096848 128.0
163.299225 104.0
163.701324 64.0
163.757095 208.0
164.109009 224.0
164.144821 172.0
165.04863 192.0
165.084427 188.0
165.12175 128.0
165.624451 68.0
165.803787 220.0
166.06958 144.0
166.124298 124.0
167.067093 152.0
167.705688 100.0
167.984161 88.0
168.095108 96.0
168.115753 140.0
168.68396 188.0
169.004654 112.0
169.086975 1044.0
169.898483 160.0
170.087692 180.0
171.078323 160.0
171.11264 132.0
172.944702 136.0
173.114288 160.0
173.138443 128.0
174.088959 256.0
174.126724 144.0
174.776474 144.0
175.110794 164.0
175.495544 128.0
176.104752 316.0
176.126266 176.0
176.144745 136.0
176.43544 92.0
176.543839 100.0
176.562363 76.0
176.980453 204.0
177.113968 256.0
177.791595 160.0
178.091614 188.0
178.124054 352.0
178.229752 168.0
179.131653 184.0
179.158279 128.0
179.632797 160.0
180.105545 148.0
180.131973 84.0
181.068115 220.0
181.089539 160.0
181.250275 232.0
181.893936 156.0
182.081879 88.0
182.541412 100.0
183.069122 140.0
183.117325 120.0
183.588943 92.0
183.926193 180.0
184.074692 224.0
184.115662 208.0
185.125809 192.0
185.622498 72.0
185.853073 60.0
185.893768 96.0
185.963867 164.0
186.097351 312.0
186.132645 156.0
186.822983 144.0
186.997131 168.0
187.127792 132.0
187.315704 136.0
188.110489 180.0
188.150162 208.0
188.177475 212.0
188.420532 32.0
189.093216 164.0
189.701279 172.0
189.981003 108.0
190.129166 132.0
190.263657 124.0
190.769135 196.0
191.044144 148.0
192.101959 128.0
192.133377 184.0
193.035492 160.0
193.088028 176.0
193.899216 220.0
194.115189 44.0
194.154266 48.0
194.517731 160.0
195.123352 140.0
195.437637 172.0
195.57399 248.0
196.086472 160.0
196.111557 176.0
196.131058 220.0
196.407104 160.0
196.476852 88.0
196.702881 116.0
197.130203 136.0
198.541107 228.0
198.978836 148.0
199.147324 144.0
199.560425 132.0
199.802292 112.0
200.106247 128.0
200.542877 192.0
200.703568 124.0
201.056168 212.0
201.105209 240.0
201.262238 148.0
201.33284 104.0
201.426041 168.0
202.123672 168.0
203.098907 220.0
203.530273 144.0
204.107285 156.0
204.139862 328.0
204.169647 160.0
204.391525 160.0
205.119186 176.0
206.116638 132.0
206.15094 196.0
206.199524 148.0
206.697113 152.0
207.120819 400.0
207.238266 132.0
207.40448 48.0
207.745728 148.0
208.084824 152.0
208.115952 72.0
208.136047 112.0
208.236557 132.0
208.949432 176.0
209.053024 48.0
209.389847 136.0
209.862442 208.0
211.054916 76.0
211.11853 132.0
211.705994 156.0
212.111618 172.0
212.514725 124.0
213.115738 140.0
213.156418 176.0
214.108795 176.0
214.853867 112.0
214.961823 108.0
215.020187 160.0
216.138657 124.0
216.1716 120.0
216.21257 124.0
216.42041 196.0
216.686935 204.0
217.798752 112.0
217.933884 204.0
218.148636 108.0
218.207214 168.0
218.734009 172.0
220.054504 136.0
220.096588 460.0
220.132065 2472.0
220.170837 200.0
220.314407 192.0
220.784363 160.0
221.106842 164.0
221.139053 332.0
221.242996 160.0
221.441391 116.0
221.752472 120.0
221.906616 176.0
221.977783 144.0
222.113403 312.0
222.164642 132.0
222.262543 124.0
222.709915 104.0
222.805878 96.0
222.892044 44.0
222.97525 156.0
223.034698 80.0
223.11496 116.0
223.260651 80.0
223.537308 140.0
223.558136 68.0
224.126892 180.0
224.970917 180.0
225.159027 52.0
225.46077 204.0
226.10675 116.0
227.167419 116.0
228.513321 112.0
228.934723 132.0
229.465042 136.0
230.105408 160.0
230.152954 192.0
230.237503 128.0
230.627258 132.0
230.996155 84.0
231.120193 184.0
231.156494 204.0
232.131302 456.0
232.283539 164.0
232.583954 116.0
233.085052 216.0
233.136703 144.0
234.101044 108.0
234.152817 156.0
235.055176 132.0
235.216919 156.0
235.659744 64.0
236.020401 236.0
236.127869 784.0
236.161087 128.0
236.262024 32.0
236.292618 40.0
236.387466 208.0
236.760941 40.0
237.13147 264.0
237.582397 68.0
237.763428 148.0
237.975235 148.0
238.061218 156.0
238.107285 128.0
238.143631 148.0
238.230148 168.0
239.044907 112.0
239.137238 184.0
239.435867 92.0
239.639175 168.0
239.94429 136.0
240.101547 120.0
240.135483 80.0
240.218765 208.0
240.839203 164.0
240.916428 104.0
241.1698 168.0
241.516098 164.0
242.036026 72.0
242.147263 160.0
242.596786 140.0
242.863464 132.0
243.027878 164.0
244.136826 176.0
244.161697 120.0
244.345215 140.0
244.603516 60.0
245.248291 64.0
246.240448 168.0
247.269043 144.0
247.375473 160.0
247.763794 128.0
248.167786 312.0
248.40329 176.0
248.591537 40.0
249.031067 40.0
249.169281 140.0
250.109528 40.0
250.56929 148.0
250.736298 152.0
250.997955 140.0
251.067322 96.0
251.161942 180.0
251.18718 168.0
252.159668 148.0
252.365143 124.0
252.757355 108.0
253.124542 144.0
254.135681 160.0
254.157883 64.0
255.218765 144.0
255.501831 152.0
256.326477 148.0
257.423798 120.0
258.152496 324.0
258.917236 104.0
260.165375 120.0
261.90097 196.0
262.140686 504.0
262.603607 76.0
263.471924 124.0
264.163727 176.0
265.378174 132.0
265.423584 80.0
265.459229 144.0
266.194946 216.0
267.193695 52.0
267.900146 220.0
268.121704 112.0
269.025208 164.0
269.283173 192.0
269.812531 188.0
270.872803 140.0
270.95105 212.0
271.036621 72.0
272.999603 156.0
273.565521 136.0
273.967255 188.0
274.191315 136.0
274.329773 152.0
274.707642 148.0
275.481445 76.0
275.795349 72.0
276.003632 96.0
276.159546 1016.0
276.235687 168.0
276.658722 208.0
276.771271 184.0
276.825073 100.0
276.903748 68.0
277.102509 96.0
277.160278 464.0
277.520111 180.0
278.050873 36.0
278.100647 64.0
278.15863 144.0
278.485779 100.0
279.241669 76.0
279.383301 96.0
279.513031 164.0
279.669464 108.0
279.702728 204.0
280.388855 188.0
280.838959 108.0
281.276062 164.0
281.449677 124.0
283.279053 116.0
283.372864 40.0
284.21109 36.0
285.131195 140.0
285.21521 156.0
285.326141 144.0
286.207642 148.0
286.413086 124.0
289.577881 100.0
290.011566 136.0
291.212677 52.0
291.620392 152.0
292.155579 172.0
292.283539 324.0
292.947418 92.0
293.142914 168.0
293.622314 116.0
294.168701 168.0
294.284302 88.0
294.93338 232.0
295.179535 132.0
296.185699 116.0
296.425537 116.0
297.001495 76.0
299.235199 140.0
299.359131 68.0
300.099976 240.0
300.179291 148.0
302.103058 136.0
302.310669 200.0
302.462952 36.0
302.892303 268.0
303.010101 40.0
303.422516 188.0
303.602814 96.0
303.800537 248.0
303.82431 140.0
304.153778 280.0
304.977661 168.0
305.158447 148.0
305.311432 76.0
305.88205 120.0
306.129242 60.0
306.172394 652.0
306.815643 188.0
307.164368 168.0
307.40509 168.0
307.89035 68.0
308.117371 112.0
308.185638 300.0
309.192383 316.0
309.712524 160.0
310.585297 116.0
310.739655 124.0
311.206451 148.0
311.29776 180.0
311.336365 244.0
311.891479 48.0
312.763794 212.0
313.9758 112.0
314.194489 156.0
315.677979 248.0
316.477661 160.0
317.274811 184.0
317.469818 220.0
318.8508 128.0
320.747864 148.0
321.293488 72.0
321.982391 144.0
322.163177 2880.0
322.371765 228.0
322.450409 140.0
322.500427 160.0
322.5755 184.0
322.84787 220.0
322.958099 120.0
323.174011 480.0
323.204956 72.0
323.459045 180.0
324.039185 92.0
324.125183 172.0
324.180115 8364.0
324.28064 52.0
324.423889 116.0
324.515869 84.0
324.61087 80.0
324.709503 32.0
324.756134 44.0
324.831451 100.0
324.885254 160.0
324.912872 184.0
324.989319 268.0
325.185089 2712.0
325.226166 120.0
325.434357 76.0
325.491821 60.0
325.833038 76.0
326.193298 396.0
326.386536 88.0
326.566345 112.0
326.706635 64.0
326.897308 44.0
326.965698 36.0
327.059265 144.0
327.948456 124.0
328.410431 148.0
328.471771 128.0
329.168304 124.0
329.208038 112.0
329.255859 212.0
332.742004 36.0
333.250458 144.0
334.170319 164.0
334.872894 84.0
335.182556 148.0
336.298492 212.0
336.769501 152.0
339.037811 96.0
339.404388 192.0
339.459381 48.0
339.510712 68.0
339.734467 84.0
340.299652 228.0
341.596924 200.0
342.067932 208.0
342.981445 96.0
344.23584 136.0
345.94397 144.0
346.140198 136.0
346.495758 212.0
347.604401 72.0
347.674896 80.0
348.012695 144.0
348.116669 204.0
348.320923 48.0
348.421234 168.0
348.525269 108.0
349.041931 124.0
349.082825 116.0
349.127441 72.0
349.514313 96.0
349.640839 156.0
349.684235 132.0
349.998199 60.0
350.165771 140.0
350.203033 180.0
350.6203 72.0
350.650116 168.0
350.739563 68.0
350.892426 176.0
350.925964 72.0
350.970703 52.0
351.124054 168.0
351.179688 116.0
351.224304 136.0
351.28772 100.0
351.313843 128.0
351.556366 212.0
351.583282 132.0
351.626099 124.0
351.657135 140.0
351.713104 164.0
351.739227 108.0
351.903503 88.0
351.968018 152.0
352.033417 168.0
352.10733 192.0
352.175903 45092.0
352.246826 432.0
352.323181 196.0
352.389038 44.0
352.433868 32.0
352.482452 76.0
352.516083 92.0
352.564453 76.0
352.578156 72.0
352.644165 88.0
352.691376 44.0
352.740326 96.0
352.791534 96.0
352.822571 92.0
352.854828 108.0
352.8703 68.0
352.923523 104.0
353.005768 60.0
353.083923 84.0
353.179413 7488.0
353.297821 96.0
353.33493 56.0
353.368591 76.0
353.419189 40.0
353.44342 76.0
353.517609 68.0
353.531616 56.0
353.544769 100.0
353.623047 64.0
353.656738 56.0
353.709137 44.0
353.752686 76.0
353.791504 56.0
353.821442 64.0
353.851379 60.0
353.989929 52.0
354.048126 76.0
354.113525 84.0
354.179413 1256.0
354.283112 72.0
354.341797 72.0
354.390717 84.0
354.452515 172.0
354.557129 108.0
354.638062 40.0
354.739258 64.0
354.793213 144.0
354.86673 68.0
354.904205 48.0
354.949219 52.0
354.981171 100.0
355.01297 48.0
355.190186 344.0
355.224884 56.0
355.260498 84.0
355.339294 100.0
355.366516 156.0
355.429352 76.0
355.455597 88.0
355.485626 156.0
355.568176 56.0
355.83847 88.0
355.864746 112.0
356.116333 40.0
356.168915 52.0
356.202728 72.0
356.281616 52.0
356.585968 92.0
356.631073 76.0
356.773926 92.0
356.901764 48.0
356.92807 60.0
357.063446 48.0
357.112335 40.0
357.417053 68.0
357.57135 116.0
357.831085 32.0
358.542999 32.0
358.938812 72.0
360.097382 76.0
361.280487 72.0
361.564636 84.0
363.371735 68.0
364.902313 92.0
365.320648 76.0
365.518494 88.0
365.655487 104.0
366.30658 40.0
367.15271 48.0
369.302948 60.0
369.432983 108.0
375.729523 40.0
390.249542 100.0
390.46582 44.0
392.308563 84.0
398.82016 108.0
401.826691 52.0
421.822266 84.0
425.303986 60.0
425.418915 88.0
451.686859 64.0
454.699371 64.0
469.105591 80.0
474.288422 92.0
485.839966 100.0
490.990662 96.0
491.361206 108.0
494.941254 128.0
497.046722 116.0
502.501678 64.0
505.401398 80.0
510.047516 60.0
514.19574 72.0
535.902771 100.0
555.635071 100.0
555.691406 116.0
560.454285 152.0
564.598877 48.0
568.744446 88.0
586.982117 96.0
626.685181 80.0
642.039307 104.0
648.667786 72.0
660.082397 48.0
675.573975 92.0
707.525024 124.0
710.169189 76.0
713.392334 44.0
736.136963 68.0
739.18573 100.0
756.044617 108.0
774.804565 72.0
776.683777 96.0
777.343994 216.0
781.177551 172.0
783.075623 96.0
791.530579 128.0
819.46228 136.0
843.063416 216.0
852.730225 200.0
863.463562 152.0
871.406372 160.0
871.494507 164.0
886.997864 136.0
902.560242 40.0
904.660217 184.0
915.925354 188.0
919.790466 140.0
925.073608 164.0
933.555725 136.0
933.908447 248.0
939.262451 188.0
939.707825 184.0
945.433289 136.0
950.12677 144.0
951.200684 204.0
951.526062 156.0
952.342773 148.0
964.196716 80.0
968.391418 200.0
970.367371 152.0
976.130188 136.0
977.16272 148.0
977.361816 212.0
979.422424 120.0
985.080078 80.0
987.861816 52.0
990.904297 156.0
995.621338 164.0
997.29248 60.0
997.820557 148.0
1002.131775 220.0
1002.799744 204.0
1004.767151 164.0
1013.40979 120.0
1016.42157 148.0
1017.437073 164.0
1018.846924 172.0
1024.693604 160.0
1037.13562 140.0
1038.822021 180.0
1040.991333 224.0
1047.480835 164.0
1048.112183 208.0
1057.391846 116.0
1058.609009 60.0
1064.198364 192.0
1067.986938 160.0
1071.54126 172.0
1071.723633 212.0
1073.170654 160.0
1073.216309 184.0
1075.231934 208.0
1077.543457 144.0
1097.100708 100.0
1099.521362 184.0
1099.74585 48.0
1100.313477 68.0
1103.101318 100.0
1103.821899 168.0
1104.046753 156.0
1107.872437 180.0
1109.947021 72.0
1116.042358 96.0
1116.634277 220.0
1119.362671 136.0
1125.250244 64.0
1126.14502 108.0
1126.953369 136.0
1132.043579 188.0
1133.336426 160.0
1134.918213 184.0
1138.864258 144.0
1149.251587 80.0
1151.398193 164.0
1151.57373 56.0
1154.560913 192.0
1159.719971 188.0
1161.041992 120.0
1162.005127 196.0
1165.080566 228.0
1165.189331 164.0
1168.881226 212.0
1170.215332 96.0
1170.834961 188.0
1172.827637 156.0
1173.703857 172.0
1176.781128 196.0
1179.089844 144.0
1181.291504 168.0
1181.46936 152.0
1184.275879 168.0
1184.693726 152.0
1184.88562 228.0
1185.008911 128.0
1186.338501 76.0
1188.183228 252.0
1194.400146 152.0
1196.044556 208.0
1196.244263 132.0
1199.302612 68.0
1199.922974 140.0
1201.033203 72.0
1203.897461 184.0
1204.000977 44.0
1207.062256 160.0
1209.822876 120.0
1213.869141 216.0
1214.285278 140.0
1216.151611 136.0
1219.909424 128.0
1222.76123 116.0
1224.188354 164.0
1225.05896 224.0
1225.281982 100.0
1226.139038 184.0
1226.222656 172.0
1226.550171 152.0
1226.940552 212.0
1227.289185 64.0
1236.377197 48.0
1238.806763 140.0
1239.577515 188.0
1241.000366 152.0
1241.932983 176.0
1242.522339 148.0
1244.522583 60.0
1250.385132 160.0
1251.398804 180.0
1254.61145 68.0
1257.291748 148.0
1257.609375 92.0
1259.501587 176.0
1260.766357 208.0
1261.805298 184.0
1263.276367 148.0
1265.831299 132.0
1266.610352 184.0
1267.503052 164.0
1269.743164 132.0
1270.161621 184.0
1270.906494 128.0
1271.687134 68.0
1273.355591 100.0
1274.25769 112.0
1275.025146 140.0
1280.446289 68.0
1284.223633 124.0
1284.323486 172.0
1285.900269 68.0
1289.021118 120.0
1292.274414 156.0
1297.022339 160.0
1297.6604 176.0
1297.796631 228.0
1299.474976 120.0
1301.140015 164.0
1310.143921 160.0
1312.2771 184.0
1312.817017 232.0
1313.697876 220.0
1315.754639 260.0
1316.028931 160.0
1321.377319 92.0
1324.982666 172.0
1326.46106 80.0
1326.917725 144.0
1327.338257 164.0
1328.28833 132.0
1329.282349 192.0
1329.695923 92.0
1330.087891 112.0
1331.648926 176.0
1333.007446 204.0
1335.239258 212.0
1335.755615 140.0
1336.010254 180.0
1338.97998 132.0
1339.562744 224.0
1340.451538 212.0
1343.389771 232.0
1343.586792 136.0
1344.44043 128.0
1345.104614 208.0
1352.780029 188.0
1354.112671 212.0
1354.896484 208.0
1355.196777 172.0
1356.794556 128.0
1357.014526 160.0
1357.916382 172.0
1360.168945 172.0
1360.63147 160.0
1361.73291 180.0
1362.078125 136.0
1362.555542 116.0
1363.687256 172.0
1367.592773 64.0
1369.654419 200.0
1371.422729 168.0
1372.255737 188.0
1373.516724 200.0
1375.641968 188.0
1376.158691 124.0
1377.90918 176.0
1378.574097 228.0
1381.243164 212.0
1386.907593 148.0
1387.989868 172.0
1388.219849 164.0
1389.562378 68.0
1391.402954 120.0
1391.922607 168.0
1393.839111 188.0
1395.987305 48.0
1397.534546 132.0
1398.814575 224.0
1400.713379 160.0
1403.64978 184.0
1406.208496 140.0
1407.485107 196.0
1407.686646 200.0
1408.000366 188.0
1409.651245 184.0
1410.787354 176.0
1415.508423 148.0
1415.837891 32.0
1416.991455 208.0
1419.772339 124.0
1420.424805 148.0
1421.269897 228.0
1424.959106 136.0
1425.86084 148.0
1432.429321 124.0
1434.200073 204.0
1434.471436 140.0
1434.682495 44.0
1435.293213 104.0
1435.466675 132.0
1436.567749 124.0
1438.009033 188.0
1438.190186 76.0
1440.123047 116.0
1440.319458 212.0
1440.379883 164.0
1441.7323 156.0
1442.299072 144.0
1442.850952 156.0
1444.968506 152.0
1446.27771 156.0
1448.026611 168.0
1451.982788 180.0
1454.289185 176.0
1455.245728 128.0
1457.326782 96.0
1457.68396 132.0
1459.50061 192.0
1460.755493 140.0
1462.170654 144.0
1462.596924 176.0
1465.658325 192.0
1466.10791 108.0
1467.342773 104.0
1470.050537 192.0
1471.577148 132.0
1474.456909 144.0
1474.510376 92.0
1475.848145 200.0
1476.092896 152.0
1477.370117 152.0
1478.61731 36.0
1478.869873 32.0
1481.159302 116.0
1486.572021 180.0
1486.648804 48.0
1487.85376 240.0
1488.022705 240.0
1490.411377 104.0
1492.955811 48.0
1493.278809 72.0
1494.455688 132.0
1494.517334 192.0
1497.119019 164.0
1498.613403 140.0
1500.20105 204.0
1500.62439 232.0
1501.650635 180.0
1502.614868 148.0
1504.03479 160.0
