>compound MLS001335956-01!Naringin10236-47-2
>formula C27H32O14
>ionization [M+H]+
>parentmass 581.188
#inchi InChI=1S/C27H32O14/c1-10-20(32)22(34)24(36)26(37-10)41-25-23(35)21(33)18(9-28)40-27(25)38-13-6-14(30)19-15(31)8-16(39-17(19)7-13)11-2-4-12(29)5-3-11/h2-7,10,16,18,20-30,32-36H,8-9H2,1H3/t10-,16?,18+,20-,21+,22+,23-,24+,25+,26-,27+/m0/s1
#inchikey DFPMSGMNTNDNHN
#Ion_Source LC-ESI
#Instrument qTof
#Compound_Source NIH Pharmacologically Active Library
#PI Dorrestein
#Data_Collector VP/LMS
#Scan -1
#Precursor_MZ 581.188
#ExactMass 580.179
#Charge 1
#CAS_Number N/A
#Pubmed_ID N/A
#Smiles C[C@@H]1O[C@@H](O[C@@H]2[C@@H](O)[C@H](O)[C@@H](CO)O[C@H]2Oc3cc(O)c4C(=O)CC(Oc4c3)c5ccc(O)cc5)[C@H](O)[C@H](O)[C@H]1O
#INCHI_AUX N/A
#Library_Class 1
#SpectrumID CCMSLIB00000084948
#IonMode Positive
#UpdateWorkflowName UPDATE-SINGLE-ANNOTATED-GOLD
#LibraryQualityString Gold
#TaskID d252d724072548979f1f6f1ced849daf
##Scan# 1455
#SpectrumFile p3-C11_GC11_01_18256.mzXML
#LibraryName Pharm_Active_Library.mgf
#MQScore -1
#Organism Pharm_Active_Library
#TIC_Query 0
#RT_Query -1
#MZErrorPPM -1
#SharedPeaks 0
#MassDiff 0
#LibMZ -1
#SpecMZ 581.188
#SpecCharge 0
#internalFilename spec-00000.mgf

>collision 10
45.306042 248.0
45.356964 208.0
45.419991 132.0
46.799896 212.0
47.273575 192.0
47.459877 132.0
47.509254 32.0
47.913452 156.0
48.141048 112.0
49.345825 152.0
52.019451 132.0
52.660236 240.0
53.632408 148.0
55.799507 140.0
57.139622 176.0
57.29771 232.0
59.681362 168.0
59.861401 208.0
60.824635 76.0
61.611065 204.0
61.967785 136.0
63.666725 208.0
63.749336 36.0
64.735229 128.0
65.006149 60.0
66.168327 420.0
66.939606 84.0
68.469215 192.0
73.148094 92.0
74.238182 120.0
76.839828 152.0
79.434822 124.0
81.443024 48.0
81.944939 164.0
84.814568 184.0
87.860397 124.0
90.060516 172.0
92.085274 124.0
92.358231 104.0
92.944839 104.0
94.976372 124.0
96.395676 184.0
97.02594 156.0
98.211739 236.0
98.727226 136.0
99.480156 192.0
105.138695 152.0
107.047173 156.0
108.684464 76.0
111.04612 156.0
113.84243 152.0
114.086777 172.0
115.566925 96.0
116.824165 188.0
117.23542 180.0
118.935394 164.0
119.046776 384.0
119.648422 144.0
120.914474 88.0
121.064041 376.0
121.159721 56.0
122.934158 112.0
123.0439 204.0
124.044464 176.0
126.06543 180.0
126.868973 132.0
127.044373 168.0
127.331207 192.0
129.048935 172.0
129.725266 140.0
130.353973 144.0
131.289612 96.0
132.425491 148.0
134.39563 176.0
134.917603 204.0
136.050476 120.0
136.887512 144.0
137.491287 232.0
138.105774 188.0
139.684402 168.0
140.95755 104.0
141.506302 140.0
142.49295 220.0
143.02803 144.0
143.044693 204.0
143.733459 172.0
143.895767 148.0
144.055786 172.0
144.215881 136.0
145.05365 212.0
145.245483 132.0
145.857803 180.0
147.042099 2120.0
148.045685 372.0
149.317856 140.0
149.799789 56.0
151.036163 220.0
151.524551 216.0
151.850586 156.0
152.683167 44.0
152.702835 168.0
153.017868 7248.0
153.043549 152.0
153.234558 40.0
153.320801 64.0
153.426788 64.0
153.646286 80.0
153.777557 60.0
154.021683 592.0
154.073395 72.0
154.951675 192.0
155.024582 168.0
155.050781 32.0
155.189606 44.0
155.306168 96.0
157.93399 224.0
158.487259 40.0
158.529861 124.0
159.89856 176.0
163.034607 112.0
163.060028 160.0
165.019028 660.0
165.171219 84.0
165.276108 132.0
170.786789 96.0
171.02861 708.0
172.016708 168.0
177.010773 324.0
177.036728 180.0
178.059769 144.0
178.99054 160.0
179.034149 616.0
179.166321 56.0
179.248917 68.0
180.030533 132.0
180.516891 140.0
181.253036 60.0
184.115311 112.0
188.204956 248.0
189.027725 120.0
189.055099 88.0
190.129379 84.0
190.972839 132.0
191.039398 208.0
192.024979 200.0
192.751038 72.0
193.014893 176.0
193.622437 116.0
195.028473 1892.0
195.215393 36.0
196.032562 136.0
196.142517 152.0
197.647842 144.0
199.220718 168.0
203.025589 192.0
203.073807 204.0
203.402939 96.0
206.077103 168.0
206.417252 216.0
207.038239 116.0
207.081192 180.0
207.926987 60.0
208.056152 140.0
208.947067 60.0
209.151382 52.0
209.946579 104.0
210.295685 40.0
212.074493 120.0
213.552368 124.0
217.045151 136.0
217.517502 172.0
218.752121 244.0
219.027237 516.0
219.061325 148.0
219.117294 76.0
220.043381 60.0
221.033554 148.0
222.236557 180.0
225.141876 60.0
231.023987 300.0
231.066589 332.0
232.032715 180.0
232.39061 168.0
233.03125 84.0
234.644318 176.0
236.896667 180.0
237.98848 56.0
238.089813 216.0
240.133392 128.0
241.041016 80.0
243.028931 164.0
243.528732 76.0
244.256073 204.0
245.038361 192.0
246.041046 172.0
248.257019 84.0
249.029068 144.0
255.065399 248.0
256.474335 148.0
256.589081 36.0
260.047089 180.0
260.239685 172.0
261.039734 204.0
262.040833 176.0
262.234161 104.0
262.995361 148.0
263.053741 724.0
264.056213 220.0
265.058685 268.0
266.586273 208.0
269.04953 232.0
270.690887 180.0
271.061462 340.0
271.752899 32.0
272.26825 164.0
272.781555 184.0
272.912323 152.0
272.964935 132.0
273.016846 172.0
273.073975 7940.0
273.13266 148.0
273.208344 136.0
273.293884 92.0
273.474884 64.0
273.544006 32.0
273.902924 96.0
273.962219 80.0
274.07959 2092.0
274.130249 40.0
274.159912 140.0
274.206055 52.0
274.311523 76.0
274.539032 52.0
274.713837 104.0
275.077332 372.0
275.433472 32.0
275.608551 108.0
275.66803 124.0
275.803528 60.0
275.942383 120.0
275.99881 128.0
276.034973 68.0
276.345886 48.0
276.402008 96.0
277.061005 88.0
277.226685 132.0
277.424774 68.0
279.045685 184.0
279.338348 72.0
280.900635 124.0
281.057465 116.0
281.802032 44.0
285.035461 108.0
285.073303 392.0
286.037689 120.0
286.067993 108.0
295.075409 156.0
297.077667 216.0
302.291901 132.0
311.089233 192.0
313.061737 116.0
315.08844 244.0
316.090546 140.0
317.149445 68.0
317.716827 128.0
329.040375 140.0
329.615082 184.0
335.090363 140.0
339.091522 568.0
340.081085 152.0
347.069305 168.0
349.584106 68.0
351.081665 208.0
351.208496 92.0
353.068481 64.0
357.066376 112.0
359.070007 180.0
363.0914 204.0
363.640411 64.0
365.117462 148.0
370.105896 60.0
381.096558 140.0
382.086548 128.0
383.118225 124.0
384.127869 104.0
399.094147 72.0
402.141693 128.0
403.999756 64.0
410.663849 68.0
413.649902 44.0
417.101898 144.0
418.13092 116.0
439.737244 48.0
486.617706 80.0
488.419464 48.0
500.982605 124.0
505.433929 108.0
508.225464 60.0
525.382385 92.0
526.295166 112.0
530.082642 44.0
533.598572 96.0
533.929626 104.0
545.675049 96.0
560.282043 144.0
581.375549 72.0
896.385071 108.0
1082.292236 120.0
1125.445068 172.0
1163.656494 108.0
1182.683105 204.0
1191.927856 160.0
1198.244141 180.0
1207.943726 148.0
1234.303223 144.0
1249.207153 120.0
1257.980591 180.0
1310.271851 184.0
1323.503784 60.0
1336.671265 136.0
1338.301758 228.0
1350.927856 108.0
1372.439697 64.0
1387.233765 48.0
1394.768188 108.0
1417.34436 148.0
1434.07312 136.0
1443.381592 144.0
1451.203247 172.0
1459.221069 188.0
1473.901245 120.0
1481.973633 140.0
1495.30481 156.0
1499.039917 200.0
