>compound MLS002153291-01!R(+)-3-(3-Hydroxyphenyl)-N-propylpiperidine hydrochloride
>formula C14H21NO
>ionization [M+H]+
>parentmass 220.168457
#inchi InChI=1S/C14H21NO/c1-2-8-15-9-4-6-13(11-15)12-5-3-7-14(16)10-12/h3,5,7,10,13,16H,2,4,6,8-9,11H2,1H3/t13-/m0/s1
#inchikey HTSNFXAICLXZMA
#origInchi InChI=1S/C14H21NO.ClH/c1-2-8-15-9-4-6-13(11-15)12-5-3-7-14(16)10-12;/h3,5,7,10,13,16H,2,4,6,8-9,11H2,1H3;1H/t13-;/m0./s1
#Ion_Source LC-ESI
#Instrument qTof
#Compound_Source NIH Pharmacologically Active Library
#PI Dorrestein
#Data_Collector VP/LMS
#Scan -1
#Precursor_MZ 220.171
#ExactMass 219.162
#Charge 1
#CAS_Number N/A
#Pubmed_ID N/A
#Smiles CCCN1CCC[C@@H](C1)c2cccc(O)c2.Cl
#INCHI_AUX N/A
#Library_Class 1
#SpectrumID CCMSLIB00000085109
#IonMode Positive
#UpdateWorkflowName UPDATE-SINGLE-ANNOTATED-GOLD
#LibraryQualityString Gold
#TaskID d252d724072548979f1f6f1ced849daf
##Scan# 1245
#SpectrumFile p3-E11_GE11_01_18280.mzXML
#LibraryName Pharm_Active_Library.mgf
#MQScore -1
#Organism Pharm_Active_Library
#TIC_Query 0
#RT_Query -1
#MZErrorPPM -1
#SharedPeaks 0
#MassDiff 0
#LibMZ -1
#SpecMZ 220.171
#SpecCharge 0
#internalFilename spec-00000.mgf

>collision 10
45.008846 216.0
45.213387 64.0
45.300426 124.0
45.43047 188.0
45.525772 172.0
45.705914 184.0
45.765141 188.0
45.858101 144.0
45.88641 100.0
46.032143 184.0
46.182167 116.0
46.247116 152.0
46.318913 212.0
46.397491 120.0
46.59293 148.0
46.660889 124.0
46.697609 196.0
46.713627 144.0
46.929123 56.0
47.054653 132.0
47.125683 156.0
47.319912 208.0
47.451447 108.0
47.993202 184.0
48.008373 156.0
48.041477 160.0
48.069077 72.0
48.080116 96.0
48.193356 160.0
48.364849 180.0
48.825512 180.0
49.291153 36.0
49.510796 60.0
49.537411 52.0
49.604679 96.0
49.66077 184.0
49.729523 212.0
49.853119 72.0
49.912163 104.0
50.051476 180.0
50.185341 192.0
50.576691 172.0
50.887852 208.0
51.324005 52.0
51.472412 168.0
51.553844 156.0
51.592438 184.0
51.602448 96.0
51.931831 160.0
52.045208 160.0
52.086857 248.0
52.209034 196.0
52.316956 60.0
52.637054 120.0
52.710728 156.0
52.83942 164.0
53.02478 124.0
53.213371 208.0
53.493969 268.0
53.533283 168.0
53.544933 168.0
53.765091 148.0
53.782604 72.0
54.06031 168.0
54.545807 44.0
54.663471 248.0
54.759171 212.0
54.948429 220.0
55.122105 164.0
55.354359 176.0
55.647964 220.0
55.751125 60.0
55.814388 212.0
56.057037 188.0
56.249447 268.0
56.313656 48.0
56.325603 152.0
56.356979 212.0
57.886864 148.0
57.926247 60.0
58.241772 192.0
58.500294 276.0
58.638912 164.0
58.660252 92.0
58.928864 144.0
59.08482 188.0
59.095531 92.0
59.354401 140.0
59.464863 172.0
59.490959 192.0
59.676865 168.0
59.95858 180.0
60.058804 72.0
60.140587 256.0
60.219334 160.0
60.415657 128.0
60.596802 188.0
60.618496 228.0
60.753395 100.0
60.972343 184.0
61.000324 236.0
61.020535 184.0
61.109192 132.0
61.126308 228.0
61.305401 204.0
61.409863 192.0
61.640926 168.0
61.78791 220.0
61.847378 184.0
62.906906 164.0
62.962173 152.0
63.227787 196.0
63.295864 220.0
63.465416 180.0
63.757515 160.0
63.862453 140.0
64.061432 92.0
64.367676 160.0
64.588234 96.0
64.604233 136.0
65.342255 192.0
65.680565 160.0
65.791924 164.0
65.892052 208.0
66.048874 160.0
66.123306 288.0
66.1492 156.0
66.351715 220.0
66.785309 200.0
66.868294 200.0
66.938301 128.0
66.96273 172.0
67.060493 148.0
67.570007 220.0
67.715698 176.0
67.763206 176.0
68.257286 164.0
68.382324 164.0
68.984413 128.0
69.308815 140.0
69.534355 204.0
69.645607 160.0
69.833435 212.0
69.87336 148.0
69.896652 224.0
70.020798 204.0
70.224861 228.0
70.58226 188.0
70.744553 132.0
71.037834 212.0
71.688545 284.0
72.318527 164.0
72.44384 204.0
72.545517 196.0
72.764381 40.0
73.257591 164.0
73.453636 180.0
73.499702 116.0
73.537247 132.0
73.677277 80.0
73.778114 208.0
74.053627 48.0
74.180428 152.0
74.290184 156.0
74.312485 156.0
74.353676 196.0
74.42749 84.0
74.5718 100.0
74.599304 200.0
75.281639 144.0
75.726128 180.0
75.909836 228.0
75.925446 160.0
76.191032 236.0
76.477966 184.0
76.746262 148.0
77.053459 164.0
77.067436 148.0
77.128609 208.0
77.186302 212.0
77.377022 68.0
77.697762 72.0
77.868042 260.0
78.103577 220.0
78.115891 28.0
78.55983 244.0
78.678078 248.0
78.916595 184.0
78.97142 144.0
79.059883 168.0
79.105904 152.0
79.252907 192.0
80.05407 132.0
80.301804 132.0
80.501694 136.0
80.94519 144.0
81.379135 176.0
81.391701 112.0
81.918694 188.0
82.093529 176.0
82.322723 192.0
82.905258 96.0
83.068451 84.0
83.092033 312.0
83.46257 188.0
83.826645 124.0
84.370445 152.0
84.780609 184.0
85.210007 172.0
85.46006 240.0
85.568657 92.0
85.845062 172.0
85.961281 120.0
86.068352 172.0
86.090508 180.0
86.236465 172.0
86.425102 176.0
86.530609 168.0
86.992249 120.0
87.086952 192.0
87.417892 120.0
87.618988 188.0
87.633896 160.0
87.766235 168.0
87.904282 120.0
88.090996 180.0
88.130226 232.0
88.571754 108.0
88.858589 56.0
89.386963 124.0
89.678513 192.0
90.069107 164.0
90.24865 148.0
90.479485 204.0
90.543869 156.0
90.595871 168.0
90.782661 184.0
90.909775 168.0
91.038864 144.0
91.05571 392.0
91.318253 180.0
91.407669 152.0
91.822983 240.0
91.851601 208.0
91.973724 136.0
92.143692 132.0
92.264099 116.0
92.457298 188.0
92.687103 144.0
92.712013 76.0
92.736931 192.0
93.06115 140.0
93.303238 188.0
93.405159 96.0
93.447487 172.0
93.477386 148.0
93.622658 184.0
93.641922 112.0
93.80378 180.0
93.996651 212.0
94.330795 204.0
94.435211 168.0
94.700386 132.0
94.731384 148.0
94.816643 184.0
94.971756 36.0
95.156113 140.0
95.204659 132.0
95.229912 152.0
95.360092 96.0
95.402855 56.0
95.4748 36.0
95.519539 164.0
95.881706 44.0
95.953835 136.0
96.111824 152.0
96.615921 144.0
96.911568 148.0
97.003685 140.0
97.158615 132.0
97.195473 204.0
97.20134 160.0
97.225327 80.0
97.239067 164.0
97.719391 208.0
98.089958 248.0
98.171623 184.0
98.603996 184.0
99.332672 160.0
99.425926 80.0
100.054077 152.0
100.17556 136.0
100.406776 160.0
100.490562 176.0
100.538452 140.0
101.042015 196.0
101.372406 192.0
101.466614 76.0
101.713371 148.0
101.777618 116.0
102.014702 108.0
102.047455 164.0
102.882996 160.0
102.981949 180.0
103.053894 1468.0
103.517906 224.0
103.554359 104.0
103.592842 200.0
103.945641 232.0
104.058403 312.0
104.321396 224.0
104.4963 156.0
104.644882 196.0
104.783386 88.0
104.881126 208.0
104.966835 152.0
105.001503 176.0
105.03006 140.0
105.069435 5104.0
105.111671 160.0
105.140244 180.0
105.250481 52.0
105.422073 76.0
105.632675 64.0
105.675636 156.0
105.792297 168.0
105.970558 144.0
106.072014 604.0
106.191879 220.0
106.711441 36.0
106.732002 132.0
106.758736 200.0
106.779305 68.0
106.828674 100.0
106.884224 148.0
106.916466 204.0
106.950081 208.0
107.003792 224.0
107.02626 408.0
107.048454 32168.0
107.108879 68.0
107.138908 52.0
107.222481 96.0
107.238449 140.0
107.263763 104.0
107.299576 96.0
107.360092 68.0
107.384285 44.0
107.477684 44.0
107.638695 100.0
107.654663 60.0
107.678917 92.0
107.721306 76.0
107.80809 112.0
107.859764 104.0
107.896973 140.0
107.915581 60.0
107.998306 72.0
108.051895 1940.0
108.23838 48.0
108.261162 56.0
108.302582 36.0
108.52433 68.0
108.673676 84.0
108.698578 128.0
108.764992 116.0
108.845963 144.0
108.887497 92.0
108.939423 72.0
108.98098 140.0
109.05558 188.0
109.419846 104.0
109.555222 60.0
109.880455 88.0
110.018204 64.0
110.450783 184.0
110.493805 216.0
110.78154 188.0
110.951294 136.0
111.194626 184.0
111.352097 56.0
111.808334 76.0
112.084206 216.0
112.112045 4056.0
112.153755 52.0
112.510269 48.0
112.689796 240.0
112.968872 84.0
113.114891 292.0
113.816666 120.0
113.867638 64.0
113.961105 120.0
114.050369 132.0
114.115234 140.0
115.055344 936.0
115.076477 184.0
115.288696 132.0
115.320755 136.0
115.337852 188.0
115.579529 80.0
115.975739 112.0
116.060051 380.0
116.312508 60.0
116.359741 164.0
116.381271 144.0
116.568092 88.0
117.014099 312.0
117.067703 992.0
117.112411 68.0
117.306351 196.0
117.953972 212.0
118.071007 188.0
118.193352 164.0
118.217842 112.0
118.477676 136.0
118.876648 108.0
118.985176 100.0
119.046333 684.0
119.089417 48.0
119.291504 52.0
119.739754 100.0
119.761528 148.0
120.055519 176.0
120.084122 180.0
120.422432 164.0
120.645325 92.0
120.842163 156.0
120.905624 76.0
121.063011 560.0
121.273582 232.0
121.409523 140.0
121.545532 192.0
121.650887 40.0
121.683815 176.0
121.771652 144.0
121.855133 52.0
122.06118 216.0
122.881157 164.0
124.668152 188.0
124.819321 248.0
125.202087 200.0
125.605522 196.0
126.124931 160.0
126.358398 176.0
126.994606 104.0
127.048088 196.0
127.382942 72.0
127.641418 140.0
128.010468 168.0
128.061401 1404.0
128.355255 56.0
128.45224 136.0
128.508636 164.0
128.610184 40.0
128.951263 140.0
129.065323 416.0
129.338043 180.0
129.396912 224.0
129.480698 76.0
129.562241 164.0
130.067947 140.0
130.138336 56.0
130.911484 128.0
131.047455 1808.0
131.085037 456.0
131.127914 92.0
131.365051 116.0
131.661789 184.0
131.744019 72.0
132.055618 2312.0
132.081985 196.0
132.115402 116.0
132.425705 148.0
132.519623 156.0
132.716751 248.0
132.838303 64.0
132.909424 52.0
133.062607 6416.0
133.097855 804.0
133.322784 152.0
133.467606 28.0
133.520508 224.0
133.612518 52.0
133.640121 192.0
133.693054 68.0
133.817352 64.0
133.849594 100.0
134.065308 1012.0
134.204453 164.0
134.296707 156.0
134.816177 148.0
134.867035 240.0
134.952576 224.0
134.971069 340.0
135.077652 196.0
135.139923 132.0
135.874405 240.0
136.070038 156.0
136.166885 128.0
136.306274 60.0
136.499222 40.0
136.522476 192.0
137.430969 188.0
138.340149 76.0
138.534515 136.0
141.068909 1196.0
141.343445 188.0
142.073792 164.0
142.132538 52.0
143.057098 156.0
143.084305 720.0
143.454941 64.0
144.056946 348.0
144.092163 68.0
144.362259 64.0
144.625443 200.0
144.851593 164.0
145.061661 1520.0
145.154922 244.0
145.258057 220.0
145.848785 240.0
145.966583 160.0
145.997314 200.0
146.071686 2852.0
146.209564 36.0
146.445511 32.0
146.467194 40.0
146.522598 68.0
146.987961 68.0
147.080231 724.0
147.212463 56.0
147.284927 100.0
147.761169 112.0
147.962051 164.0
148.07103 228.0
148.218811 88.0
148.764526 132.0
149.085144 44.0
149.216415 60.0
149.389084 112.0
152.219482 68.0
152.354568 176.0
154.135986 192.0
155.058807 380.0
156.973389 156.0
157.59494 104.0
158.435608 56.0
158.528305 244.0
158.696259 252.0
159.002304 40.0
159.077179 552.0
159.203156 64.0
159.409149 40.0
159.88446 136.0
160.083344 128.0
160.438629 124.0
160.955872 164.0
161.095337 3884.0
161.37027 52.0
161.544769 88.0
161.995392 88.0
162.098312 240.0
162.17276 52.0
162.281769 72.0
162.309662 56.0
162.531143 196.0
162.997589 76.0
163.107422 168.0
163.139923 56.0
163.661499 136.0
164.27063 64.0
165.597275 196.0
166.086853 72.0
166.235657 132.0
166.310089 148.0
166.641373 52.0
167.11705 44.0
169.264664 136.0
172.857071 180.0
173.066483 140.0
174.023529 48.0
174.091797 112.0
176.103989 160.0
177.101166 148.0
177.878113 124.0
178.120392 836.0
178.414734 112.0
179.123962 120.0
181.075195 164.0
181.745392 156.0
182.87413 160.0
182.906433 168.0
187.034515 112.0
187.44577 108.0
187.562973 68.0
189.662292 112.0
189.769211 52.0
189.873428 152.0
190.120346 128.0
190.35643 72.0
190.664124 128.0
191.016068 64.0
191.572159 204.0
194.325836 160.0
198.333374 156.0
198.942108 72.0
199.119019 196.0
201.858337 152.0
203.578506 220.0
204.303314 160.0
204.738831 152.0
204.986679 64.0
206.268188 180.0
206.316788 96.0
208.331497 68.0
209.741562 136.0
210.096268 156.0
211.657059 68.0
216.965866 140.0
217.470428 52.0
217.913864 92.0
218.490128 144.0
219.7659 136.0
219.883942 68.0
220.03743 204.0
220.090591 44.0
220.168457 12428.0
220.321228 92.0
220.383011 124.0
220.415512 48.0
220.58989 148.0
220.874435 72.0
221.172241 1624.0
221.203964 220.0
221.235382 164.0
221.362122 76.0
221.388779 28.0
221.421356 68.0
221.501328 48.0
221.551697 40.0
221.727203 52.0
221.762085 80.0
222.172775 300.0
222.221741 132.0
222.325607 116.0
222.399796 208.0
222.471039 72.0
222.717514 88.0
222.818527 116.0
222.901718 56.0
222.969193 108.0
223.71669 32.0
223.859604 108.0
224.291626 40.0
225.563263 132.0
227.552521 36.0
228.144394 60.0
230.462128 64.0
231.11525 72.0
237.320023 80.0
251.583649 84.0
265.419708 144.0
274.233917 84.0
297.819092 68.0
322.069794 56.0
324.743591 60.0
368.221222 96.0
391.363861 56.0
404.873962 108.0
428.270905 88.0
430.543488 112.0
442.82135 52.0
457.959808 32.0
554.822632 52.0
620.439514 76.0
700.390747 140.0
732.594788 80.0
814.461304 140.0
840.453979 64.0
854.039551 176.0
869.775696 140.0
887.356262 180.0
890.257935 208.0
898.311157 136.0
917.176758 192.0
925.096252 132.0
930.516296 212.0
954.96698 68.0
963.053894 200.0
985.456055 148.0
994.448914 232.0
1007.711426 224.0
1010.392151 176.0
1019.82196 144.0
1026.360229 176.0
1027.457275 192.0
1029.480713 172.0
1034.05835 196.0
1037.203369 128.0
1043.63623 160.0
1047.459106 200.0
1047.51709 192.0
1048.335449 156.0
1051.534302 188.0
1052.276733 52.0
1052.754517 192.0
1053.678223 164.0
1055.151855 152.0
1059.805542 148.0
1065.918091 76.0
1070.256836 164.0
1072.458862 164.0
1076.477783 160.0
1078.915039 144.0
1087.522827 196.0
1091.096436 148.0
1092.582764 152.0
1093.003906 72.0
1095.025024 220.0
1095.901123 152.0
1105.072388 196.0
1106.919189 204.0
1107.435791 160.0
1109.509888 136.0
1109.655762 56.0
1110.597534 176.0
1112.568359 224.0
1112.734375 240.0
1116.428955 200.0
1117.054199 172.0
1117.107422 200.0
1118.138794 228.0
1128.585693 144.0
1128.812988 164.0
1129.930054 156.0
1133.425293 128.0
1137.409058 264.0
1137.791748 184.0
1139.450684 152.0
1139.968018 216.0
1146.239868 124.0
1148.066772 92.0
1152.981689 192.0
1157.080933 104.0
1157.466919 92.0
1161.072144 220.0
1162.883667 104.0
1169.960083 168.0
1170.164429 236.0
1171.008789 144.0
1171.458374 56.0
1172.023926 192.0
1172.310059 152.0
1177.932251 124.0
1179.175903 144.0
1181.364014 132.0
1182.493042 144.0
1184.218506 204.0
1185.102295 224.0
1188.812012 172.0
1198.618286 232.0
1202.998047 252.0
1203.074829 160.0
1207.088379 180.0
1209.682983 168.0
1210.174561 204.0
1210.423828 200.0
1211.96167 132.0
1212.432861 224.0
1214.526733 116.0
1215.477295 188.0
1216.199097 132.0
1219.192627 252.0
1220.993286 164.0
1221.779297 164.0
1222.635132 200.0
1224.494019 212.0
1225.20459 132.0
1228.571899 140.0
1230.19873 164.0
1235.55835 172.0
1235.698242 48.0
1239.633545 232.0
1244.803711 140.0
1245.618408 160.0
1245.808105 144.0
1247.248657 260.0
1256.452881 256.0
1257.659668 148.0
1258.11853 48.0
1258.70459 164.0
1262.626709 156.0
1264.416748 48.0
1266.760498 216.0
1268.035889 144.0
1273.165405 96.0
1273.605835 120.0
1276.370483 240.0
1276.974976 168.0
1277.643677 132.0
1277.99231 116.0
1278.71106 68.0
1279.985352 204.0
1280.633423 152.0
1280.797241 68.0
1282.642822 172.0
1285.517212 104.0
1285.859741 144.0
1286.566406 224.0
1286.673584 136.0
1287.116211 248.0
1287.951904 216.0
1290.288696 160.0
1290.839233 204.0
1292.777954 204.0
1294.975952 84.0
1295.950195 196.0
1296.34436 140.0
1297.476807 136.0
1298.265625 124.0
1300.102173 120.0
1305.533447 208.0
1305.806763 168.0
1306.166382 208.0
1306.821045 148.0
1307.267212 140.0
1308.15979 36.0
1310.111328 196.0
1313.254272 36.0
1314.603516 160.0
1314.993164 128.0
1316.740479 160.0
1318.105835 200.0
1320.079346 156.0
1321.265625 148.0
1323.885986 180.0
1324.233643 184.0
1324.907349 152.0
1326.827881 200.0
1329.874634 180.0
1330.883789 96.0
1331.0 168.0
1334.007935 164.0
1337.878174 168.0
1341.564575 76.0
1345.50415 140.0
1345.891113 204.0
1347.001221 88.0
1347.081665 164.0
1347.132812 32.0
1348.711182 64.0
1348.915894 180.0
1349.325317 120.0
1351.197632 176.0
1354.030518 160.0
1354.118408 144.0
1354.24292 164.0
1361.239624 172.0
1366.237793 112.0
1366.414429 144.0
1366.546875 200.0
1368.607788 124.0
1371.9823 180.0
1372.513184 112.0
1373.82605 136.0
1373.907227 420.0
1374.64502 132.0
1375.139526 36.0
1376.261597 136.0
1377.546753 200.0
1378.921143 120.0
1379.054199 192.0
1380.392334 184.0
1385.321777 164.0
1389.636719 164.0
1390.349121 208.0
1391.462646 120.0
1391.603638 144.0
1393.230225 248.0
1393.282227 204.0
1396.062256 220.0
1398.748169 172.0
1400.386353 216.0
1401.682739 100.0
1402.025513 148.0
1403.076538 128.0
1403.270386 148.0
1403.456787 152.0
1405.306641 148.0
1405.73938 72.0
1408.389893 132.0
1410.280273 116.0
1415.659668 196.0
1416.041626 156.0
1416.131592 156.0
1416.251343 212.0
1416.640869 128.0
1423.158447 208.0
1426.945312 112.0
1428.998657 184.0
1430.932983 216.0
1431.015869 92.0
1431.595703 180.0
1434.353271 148.0
1436.283691 240.0
1436.834473 32.0
1438.011719 172.0
1439.227051 140.0
1440.193848 124.0
1443.549438 52.0
1444.177246 136.0
1444.290649 172.0
1448.870728 184.0
1448.931274 192.0
1451.713135 108.0
1454.019531 220.0
1459.53479 292.0
1460.561523 212.0
1461.086426 44.0
1462.022339 140.0
1462.128906 192.0
1462.737915 156.0
1465.144409 200.0
1468.796021 160.0
1469.757324 144.0
1471.802979 188.0
1472.90271 176.0
1473.605591 116.0
1473.934204 64.0
1475.546997 188.0
1475.646362 140.0
1476.388062 180.0
1480.07666 228.0
1480.160889 76.0
1484.851074 116.0
1485.288208 168.0
1485.564453 176.0
1487.805298 172.0
1489.017212 136.0
1489.733032 148.0
1492.384521 156.0
1492.738281 128.0
1493.830444 144.0
1493.891968 148.0
1497.15564 168.0
1498.118408 180.0
1502.127197 188.0
1503.940552 140.0
1505.361206 160.0
