>compound MLS002472935-01!8-prop-1-en-2-ylfuro[2,3-h]chromen-2-one
>formula C14H10O3
>ionization [M+H]+
>parentmass 227.070984
#inchi InChI=1S/C14H10O3/c1-8(2)12-7-10-11(16-12)5-3-9-4-6-13(15)17-14(9)10/h3-7H,1H2,2H3
#inchikey FQCPXIJRWHRHIP
#Ion_Source LC-ESI
#Instrument qTof
#Compound_Source NIH Natural Product Library
#PI Dorrestein
#Data_Collector VVP/LMS
#Scan -1
#Precursor_MZ 227.071
#ExactMass 226.063
#Charge 1
#CAS_Number N/A
#Pubmed_ID N/A
#Smiles CC(=C)c1cc2c(ccc3ccc(=O)oc23)o1
#INCHI_AUX N/A
#Library_Class 1
#SpectrumID CCMSLIB00000080225
#IonMode Positive
#UpdateWorkflowName UPDATE-SINGLE-ANNOTATED-GOLD
#LibraryQualityString Gold
#TaskID b1d8e8f6646f4e71acdff9ca3d919d08
##Scan# 2370
#SpectrumFile p2-G05_GG5_01_18053.mzXML
#LibraryName NIH_Natural_Products_Library.mgf
#MQScore -1
#Organism NIH_Natural_Products_Library
#TIC_Query 0
#RT_Query -1
#MZErrorPPM -1
#SharedPeaks 0
#MassDiff 0
#LibMZ -1
#SpecMZ 227.071
#SpecCharge 0
#internalFilename spec-00000.mgf

>collision 10
95.124916 136.0
95.945877 180.0
96.025826 144.0
96.250252 180.0
96.26783 120.0
96.543373 168.0
96.564888 208.0
96.907471 88.0
97.064278 188.0
97.093697 136.0
97.244766 216.0
97.531532 172.0
97.547264 144.0
97.566917 140.0
97.990067 128.0
98.396355 188.0
98.441765 152.0
98.534607 148.0
98.692726 164.0
98.791611 92.0
98.965782 152.0
99.102448 180.0
99.518974 180.0
99.590469 212.0
99.876694 124.0
100.093628 184.0
100.16732 184.0
100.25499 128.0
100.51223 128.0
100.711876 140.0
100.793785 140.0
100.915718 224.0
100.991707 300.0
101.065727 80.0
101.85965 100.0
101.889778 156.0
101.974182 44.0
102.046257 1136.0
102.229599 164.0
102.247711 196.0
102.509514 180.0
102.565941 188.0
102.937172 156.0
103.028061 164.0
103.053535 2584.0
103.133141 68.0
103.224121 100.0
103.334488 228.0
103.377861 184.0
103.493248 196.0
103.750557 120.0
104.063866 112.0
104.396248 120.0
104.489815 148.0
104.644493 184.0
105.036186 220.0
105.180656 64.0
105.254158 152.0
105.460495 112.0
105.771408 168.0
105.884018 180.0
106.074577 204.0
106.719223 224.0
107.157631 160.0
107.652679 148.0
107.751831 168.0
108.252388 96.0
108.362175 112.0
108.389107 196.0
108.506607 256.0
108.579834 288.0
108.754112 136.0
108.822624 220.0
109.031555 192.0
109.396431 176.0
109.963402 68.0
110.10746 168.0
110.703491 72.0
110.9151 92.0
111.036713 228.0
111.544838 236.0
111.797234 128.0
111.856171 204.0
112.007057 220.0
112.146851 204.0
112.212196 188.0
112.319756 196.0
112.397812 128.0
112.968269 208.0
113.7481 176.0
113.843643 208.0
114.073112 120.0
114.102875 220.0
114.311325 152.0
114.999702 48.0
115.053879 4072.0
115.174789 176.0
115.196152 168.0
115.367119 44.0
115.857193 64.0
115.919327 192.0
115.955765 152.0
116.055931 280.0
116.614677 216.0
116.655518 132.0
117.034172 200.0
117.070213 408.0
117.506195 152.0
118.043571 184.0
118.074318 204.0
118.606949 156.0
118.632965 224.0
118.750053 120.0
118.980072 84.0
119.02784 136.0
119.045212 224.0
119.797783 144.0
120.246964 148.0
120.468521 232.0
120.592056 120.0
120.928886 140.0
121.114998 156.0
121.176338 220.0
121.274956 124.0
121.492043 72.0
121.511787 156.0
122.067505 144.0
122.148888 180.0
122.516518 140.0
122.675186 220.0
122.798668 200.0
123.021538 152.0
123.266701 144.0
123.293221 144.0
123.381638 168.0
123.934082 172.0
123.95047 200.0
124.050209 148.0
124.101196 156.0
124.13224 156.0
124.185471 256.0
124.500626 144.0
124.831749 120.0
125.475243 148.0
126.045189 880.0
126.592468 144.0
126.67086 192.0
126.794098 220.0
126.892723 172.0
126.955513 188.0
127.054123 5116.0
127.303352 120.0
127.348274 112.0
127.543755 216.0
127.714645 148.0
127.741638 180.0
127.795631 52.0
127.829384 180.0
127.872147 88.0
127.901314 100.0
127.935173 124.0
127.955238 184.0
127.989204 252.0
128.014069 316.0
128.062454 38992.0
128.130264 128.0
128.16626 100.0
128.215302 44.0
128.245148 132.0
128.267609 112.0
128.351837 56.0
128.397095 40.0
128.432114 248.0
128.448486 116.0
128.466385 100.0
128.485626 48.0
128.529022 132.0
128.557266 48.0
128.629852 76.0
128.652069 80.0
128.672394 48.0
128.724319 68.0
128.792068 40.0
128.816925 68.0
128.866623 84.0
128.905045 104.0
129.065201 5940.0
129.137894 80.0
129.194443 44.0
129.275909 68.0
129.307587 56.0
129.42305 56.0
129.452484 136.0
129.624649 80.0
129.667709 32.0
129.769714 84.0
129.803345 48.0
129.863632 184.0
129.935287 128.0
129.964783 128.0
129.981232 144.0
130.041916 244.0
130.069046 316.0
130.157715 128.0
130.232666 68.0
130.307632 120.0
130.826157 152.0
130.901291 76.0
130.958237 116.0
131.012909 100.0
131.048508 3432.0
131.161026 84.0
131.288712 48.0
131.480347 112.0
131.660706 52.0
131.708664 76.0
131.889175 68.0
132.055893 276.0
132.060104 404.0
132.443939 36.0
132.500183 224.0
132.699585 148.0
133.02594 188.0
134.111084 76.0
134.514755 168.0
134.586319 76.0
136.514282 84.0
136.670135 88.0
136.812103 200.0
137.2742 200.0
137.506744 152.0
137.544083 96.0
137.70166 148.0
137.751923 44.0
138.957596 104.0
139.05365 1020.0
139.131271 56.0
139.587097 88.0
140.059814 692.0
140.373611 76.0
140.488022 188.0
140.680328 120.0
140.840912 92.0
141.032303 132.0
141.070099 3392.0
141.124496 128.0
141.16893 92.0
141.1978 36.0
141.216721 40.0
141.292419 40.0
141.716232 132.0
142.076965 2228.0
142.181015 72.0
142.347183 132.0
142.375687 60.0
142.392303 68.0
142.998581 156.0
143.047379 372.0
143.085266 5272.0
143.144211 92.0
143.162857 76.0
143.231934 72.0
143.458313 76.0
144.055588 740.0
144.08902 584.0
144.279556 100.0
144.451736 52.0
144.829941 64.0
145.019226 204.0
145.037094 124.0
145.063538 1284.0
145.146286 96.0
145.225433 96.0
145.359787 48.0
145.683914 176.0
145.977158 148.0
146.063477 228.0
146.347717 76.0
147.902451 68.0
148.004135 144.0
148.064667 96.0
148.273026 148.0
148.544586 196.0
149.96463 28.0
150.040207 160.0
150.567276 52.0
150.750504 160.0
150.777374 156.0
150.821381 148.0
150.845825 152.0
151.052612 872.0
152.061737 3608.0
152.308731 72.0
152.45369 32.0
152.997284 220.0
153.068878 2128.0
153.25589 56.0
153.381577 160.0
154.075272 796.0
154.510147 180.0
154.638824 40.0
154.737839 160.0
154.757645 64.0
154.78241 180.0
155.056976 2152.0
155.106964 100.0
155.129272 64.0
155.218521 56.0
155.280533 100.0
155.310287 132.0
155.36734 128.0
155.454193 44.0
155.699966 72.0
156.056976 1952.0
156.085663 192.0
156.107529 64.0
156.15976 140.0
157.062439 176.0
158.037628 200.0
158.103302 76.0
159.041397 208.0
159.068283 84.0
160.036209 180.0
164.059586 184.0
164.618362 100.0
165.072495 432.0
165.969467 132.0
166.069489 124.0
167.91362 132.0
168.056381 364.0
168.902863 64.0
169.034821 52.0
169.065186 968.0
169.107269 160.0
169.125397 144.0
169.364853 108.0
169.871674 152.0
170.029953 204.0
170.072449 520.0
170.196091 44.0
170.494827 108.0
170.539017 76.0
170.565002 128.0
171.044266 456.0
171.08107 5876.0
171.126938 56.0
171.186829 36.0
171.348328 44.0
171.556808 48.0
171.85936 48.0
171.940247 100.0
172.026382 164.0
172.083496 692.0
172.133438 88.0
172.577637 36.0
172.68486 52.0
173.043365 176.0
173.082642 120.0
173.103592 196.0
173.355072 64.0
174.249847 76.0
175.821884 68.0
178.944534 88.0
179.057739 400.0
180.064529 184.0
180.922867 92.0
181.06749 888.0
182.073578 312.0
182.928238 196.0
182.990158 132.0
183.040634 172.0
183.081894 656.0
183.877029 148.0
184.003906 152.0
184.052094 1540.0
184.081467 180.0
184.674072 116.0
185.054474 644.0
186.028931 40.0
186.542358 48.0
188.234314 36.0
192.543182 80.0
192.869217 196.0
193.037857 120.0
193.480576 204.0
196.579758 40.0
197.044754 156.0
197.06842 216.0
197.110748 244.0
198.063309 204.0
198.327759 104.0
199.033722 168.0
199.074661 964.0
200.076477 248.0
201.081345 32.0
204.468216 144.0
210.058517 180.0
210.110443 132.0
210.988403 56.0
211.033813 244.0
211.989899 52.0
212.044952 124.0
214.052399 164.0
216.915634 212.0
220.76387 72.0
225.060776 116.0
225.529816 92.0
225.577637 72.0
226.047211 136.0
226.538239 104.0
226.780945 120.0
226.822922 56.0
227.070984 4064.0
227.155762 52.0
227.194763 64.0
228.068253 472.0
228.273056 68.0
229.073654 136.0
229.290604 108.0
233.526337 44.0
241.025208 84.0
257.766632 96.0
269.33017 48.0
299.323242 48.0
310.594543 124.0
312.217224 32.0
316.189728 76.0
346.976929 108.0
393.946442 64.0
423.529297 36.0
423.631714 48.0
455.647583 56.0
512.615173 68.0
555.276978 100.0
627.177979 164.0
682.149597 124.0
687.530029 124.0
712.080444 116.0
713.717224 56.0
720.929504 192.0
858.484497 168.0
864.197266 132.0
877.471008 176.0
882.554565 260.0
901.702393 220.0
901.839844 168.0
915.061279 212.0
923.515686 120.0
936.066223 152.0
947.034668 188.0
950.455505 104.0
958.33197 168.0
959.848267 120.0
965.38739 184.0
968.364197 212.0
970.66333 184.0
977.807495 176.0
989.62439 144.0
1007.11322 92.0
1016.901855 32.0
1019.620117 60.0
1025.889771 176.0
1026.546387 68.0
1033.291504 160.0
1040.835449 200.0
1044.170654 120.0
1044.768799 164.0
1046.178223 72.0
1056.160767 108.0
1056.917725 56.0
1068.095825 164.0
1076.092041 52.0
1079.561646 292.0
1079.679321 56.0
1081.923706 104.0
1088.683838 140.0
1088.802002 124.0
1090.470825 156.0
1090.911133 160.0
1092.798706 176.0
1097.119019 164.0
1097.91687 180.0
1099.044922 152.0
1101.071411 188.0
1103.999146 88.0
1108.255371 136.0
1112.88501 108.0
1116.327026 148.0
1119.567871 188.0
1123.000122 88.0
1138.433228 192.0
1140.650391 228.0
1141.20166 204.0
1145.710938 56.0
1148.879395 144.0
1149.338257 200.0
1150.364014 184.0
1150.762329 144.0
1151.606445 208.0
1152.275269 80.0
1161.414062 92.0
1163.911499 48.0
1167.853027 152.0
1168.859985 148.0
1172.251099 148.0
1172.646362 164.0
1172.857666 180.0
1180.729858 152.0
1181.74231 176.0
1182.898804 244.0
1184.049072 196.0
1185.494629 204.0
1190.296387 196.0
1191.615234 52.0
1192.164917 128.0
1192.3573 100.0
1196.298584 216.0
1198.226807 156.0
1201.756836 88.0
1207.538818 116.0
1219.318115 88.0
1220.666748 116.0
1222.969482 176.0
1223.888428 212.0
1230.896118 120.0
1232.628418 164.0
1234.571777 236.0
1236.733643 192.0
1236.852661 184.0
1240.675537 236.0
1243.834106 176.0
1247.810303 156.0
1248.203979 164.0
1248.464233 160.0
1249.09021 144.0
1250.954956 192.0
1253.060669 224.0
1257.813721 232.0
1268.693481 160.0
1272.190796 124.0
1272.339966 200.0
1273.341187 204.0
1274.804565 80.0
1278.716064 144.0
1280.040161 168.0
1280.196777 228.0
1280.939331 248.0
1283.92395 192.0
1284.622925 156.0
1286.630493 212.0
1287.156616 208.0
1287.863647 72.0
1288.527954 52.0
1288.963745 216.0
1289.463989 32.0
1292.646362 156.0
1300.565674 200.0
1301.089722 188.0
1301.161499 156.0
1305.551758 100.0
1306.832153 228.0
1311.89502 180.0
1312.680908 176.0
1313.423828 140.0
1320.870972 156.0
1324.084595 176.0
1328.35376 96.0
1328.484375 172.0
1330.31311 232.0
1333.727173 140.0
1335.08667 216.0
1336.10498 212.0
1336.876221 152.0
1337.706055 152.0
1337.887939 168.0
1340.247681 164.0
1341.282593 228.0
1341.340942 80.0
1342.645996 132.0
1344.506348 40.0
1344.900513 120.0
1348.537842 196.0
1349.495483 184.0
1349.809814 140.0
1349.934204 128.0
1350.438843 148.0
1351.375122 212.0
1351.426392 112.0
1354.127563 164.0
1355.270386 228.0
1359.237183 152.0
1364.202026 200.0
1366.643799 152.0
1366.916016 172.0
1367.607788 248.0
1368.071533 180.0
1371.909546 204.0
1373.605713 184.0
1373.731079 180.0
1376.351074 140.0
1377.9021 80.0
1380.259888 44.0
1382.286743 172.0
1386.832764 104.0
1386.907959 136.0
1387.58252 128.0
1388.109009 156.0
1390.238037 220.0
1394.329956 168.0
1395.281494 160.0
1397.311768 128.0
1398.204712 204.0
1398.494995 160.0
1400.177612 208.0
1400.900146 148.0
1401.406738 148.0
1403.493652 184.0
1403.717407 224.0
1404.120117 104.0
1404.202148 296.0
1404.776489 84.0
1407.119751 48.0
1407.627441 192.0
1408.180176 256.0
1409.778931 56.0
1411.0271 216.0
1411.266357 132.0
1412.979126 64.0
1414.03418 124.0
1414.206299 128.0
1415.928345 140.0
1416.430176 128.0
1417.216797 160.0
1417.359131 184.0
1418.213501 140.0
1418.498291 208.0
1419.113037 148.0
1420.0354 172.0
1420.470459 164.0
1420.650513 172.0
1421.393311 168.0
1421.573364 152.0
1428.019287 168.0
1428.447998 180.0
1429.704468 180.0
1430.013062 196.0
1433.273804 228.0
1434.939575 184.0
1436.824951 152.0
1438.726807 148.0
1439.119385 160.0
1440.108643 212.0
1442.571899 168.0
1447.141479 204.0
1448.322754 176.0
1449.118164 116.0
1449.489502 192.0
1450.429199 148.0
1451.376953 176.0
1451.528564 212.0
1451.695312 152.0
1454.806152 180.0
1456.324829 176.0
1457.1604 252.0
1458.999634 128.0
1464.067139 92.0
1464.194336 132.0
1464.684082 88.0
1466.57373 40.0
1467.747681 96.0
1468.060425 44.0
1470.295654 180.0
1470.791748 216.0
1471.76123 44.0
1473.097778 188.0
1474.511353 128.0
1476.957886 192.0
1481.244507 92.0
1482.485596 144.0
1483.259766 204.0
1483.397705 28.0
1483.926636 164.0
1485.55249 156.0
1486.396484 136.0
1486.972046 192.0
1489.920654 168.0
1491.104004 148.0
1491.726562 116.0
1492.387695 60.0
1492.518433 200.0
1493.402832 132.0
1493.71106 148.0
1494.22583 208.0
1496.966064 240.0
1497.361816 280.0
1498.005737 60.0
1499.770386 164.0
1500.047852 176.0
1502.361328 136.0
1503.526367 136.0
1503.958618 140.0
