>compound NCGC00160199-01!PRECOCENE II
>formula C13H16O3
>ionization [M+H]+
>parentmass 221.117691
#inchi InChI=1S/C13H16O3/c1-13(2)6-5-9-7-11(14-3)12(15-4)8-10(9)16-13/h5-8H,1-4H3
#inchikey PTIDGSWTMLSGAH
#Ion_Source LC-ESI
#Instrument qTOF
#Compound_Source Prestwick Phytochem Lib
#PI Dorrestein
#Data_Collector VVP/LMS
#Scan -1
#Precursor_MZ 221.118
#ExactMass 220.11
#Charge 1
#CAS_Number N/A
#Pubmed_ID N/A
#Smiles COC1=CC2=C(C=CC(C)(C)O2)C=C1OC
#INCHI_AUX N/A
#Library_Class 1
#SpectrumID CCMSLIB00000078724
#IonMode Positive
#UpdateWorkflowName UPDATE-SINGLE-ANNOTATED-GOLD
#LibraryQualityString Gold
#TaskID 67c915c6594c435cadc1fe2b5358144d
##Scan# 2250
#SpectrumFile p1-G02_GG2_01_17946.mzXML
#LibraryName phytochem_lib.mgf
#MQScore -1
#Organism phytochem_lib
#TIC_Query 0
#RT_Query -1
#MZErrorPPM -1
#SharedPeaks 0
#MassDiff 0
#LibMZ -1
#SpecMZ 221.118
#SpecCharge 0
#internalFilename spec-00000.mgf

>collision 10
95.050774 160.0
96.36116 208.0
96.59967 208.0
96.799301 148.0
98.862366 108.0
99.036591 188.0
99.189156 84.0
99.357719 48.0
99.512527 164.0
100.001541 128.0
100.041351 212.0
102.708534 204.0
103.053787 748.0
103.104263 132.0
104.057045 360.0
105.068375 352.0
106.045341 140.0
106.983955 248.0
107.012779 224.0
107.048157 644.0
107.330086 200.0
108.051537 204.0
108.088158 164.0
109.023392 140.0
109.07119 180.0
109.177231 112.0
109.451912 152.0
110.03154 144.0
110.050331 196.0
110.403473 172.0
110.497597 136.0
111.042953 236.0
111.642876 160.0
112.091255 140.0
113.681465 124.0
115.053169 652.0
116.058731 340.0
116.932076 124.0
117.07222 516.0
118.008499 192.0
118.043098 252.0
118.075531 152.0
118.36335 116.0
118.792473 128.0
119.050591 196.0
119.08551 232.0
119.174576 260.0
119.700958 200.0
119.955872 156.0
120.010376 212.0
120.057976 188.0
120.211052 84.0
120.792213 40.0
121.028526 184.0
121.064934 304.0
121.409859 100.0
122.075256 40.0
122.775558 156.0
122.907913 172.0
123.047256 148.0
123.342979 176.0
123.792107 176.0
123.936089 64.0
124.052666 180.0
124.456871 96.0
124.595032 136.0
125.055252 136.0
125.088722 104.0
125.512024 104.0
126.945381 192.0
127.054253 260.0
127.886711 192.0
128.061951 580.0
128.359818 160.0
129.066116 996.0
129.333527 212.0
129.49881 184.0
129.727676 64.0
130.075882 368.0
130.435913 208.0
130.661041 152.0
131.047211 956.0
131.078827 164.0
131.128922 196.0
132.055008 592.0
132.579086 52.0
132.790009 184.0
132.847351 172.0
133.021744 184.0
133.061966 376.0
134.068253 148.0
134.153534 128.0
134.195038 64.0
135.04538 644.0
135.078979 540.0
135.792953 72.0
136.047974 544.0
136.46405 188.0
136.687347 180.0
136.729233 48.0
137.057083 248.0
138.066788 836.0
139.031219 136.0
139.066803 248.0
139.134491 52.0
139.305923 60.0
139.404602 108.0
139.475113 176.0
139.538589 192.0
140.04924 156.0
140.426346 192.0
140.650497 100.0
141.073334 88.0
141.771561 208.0
141.849777 180.0
141.977814 40.0
142.858871 340.0
143.051773 136.0
143.523499 244.0
143.585495 112.0
144.061264 148.0
144.356857 112.0
144.524307 72.0
145.029602 160.0
145.069504 316.0
145.499771 176.0
145.828857 120.0
146.069687 332.0
146.399048 196.0
146.753265 188.0
146.946213 208.0
147.043228 372.0
147.079086 308.0
147.098251 244.0
147.770081 112.0
147.891083 64.0
148.049881 1996.0
148.087204 180.0
148.259216 52.0
148.356171 116.0
148.618103 176.0
148.8414 136.0
149.022232 452.0
149.060364 464.0
149.188843 52.0
149.290955 84.0
150.023834 360.0
150.065292 148.0
151.03717 148.0
151.074417 1880.0
151.137543 36.0
151.757217 184.0
152.041763 176.0
152.078583 276.0
153.055679 184.0
154.602325 240.0
154.857315 192.0
155.06601 224.0
156.068344 56.0
156.483856 200.0
157.007126 184.0
157.063034 380.0
158.066895 320.0
158.339188 144.0
159.021133 168.0
159.042755 144.0
159.080917 176.0
160.04866 988.0
160.081451 204.0
160.518005 120.0
161.059433 664.0
161.096573 248.0
161.379028 56.0
161.520645 36.0
162.032318 164.0
162.06633 284.0
162.091675 180.0
162.602539 136.0
163.039078 520.0
163.077316 424.0
163.102905 168.0
163.16391 56.0
164.042923 452.0
164.085541 196.0
165.055099 212.0
165.088821 180.0
165.782761 156.0
166.552444 108.0
167.06987 196.0
167.1875 172.0
168.030075 124.0
170.710953 88.0
172.047592 44.0
173.066879 120.0
174.011124 176.0
174.064209 336.0
174.931244 172.0
175.033356 216.0
175.072357 1756.0
175.479218 52.0
175.874924 128.0
175.975235 124.0
176.009552 160.0
176.046295 2168.0
176.107269 156.0
176.688828 176.0
177.047592 504.0
177.087173 132.0
177.409164 80.0
177.438324 120.0
177.494003 76.0
177.942398 244.0
178.059509 736.0
178.098785 184.0
179.063232 160.0
179.099182 104.0
179.141815 132.0
179.47229 56.0
181.415955 180.0
181.944443 128.0
182.508667 120.0
183.178787 180.0
185.494598 272.0
185.622025 232.0
186.156616 152.0
186.749069 40.0
187.032043 172.0
188.086075 168.0
189.060516 356.0
189.086639 300.0
189.350098 28.0
189.651489 52.0
190.060043 244.0
190.10675 164.0
191.068695 3832.0
191.861588 64.0
192.071335 232.0
193.043335 196.0
193.076523 128.0
193.12265 296.0
193.256317 116.0
193.55249 76.0
204.11235 176.0
205.085754 1000.0
205.605072 60.0
206.056229 52.0
206.088394 308.0
206.230545 52.0
221.117691 152.0
221.139038 164.0
233.829788 120.0
249.049652 56.0
353.76178 100.0
407.552673 100.0
473.407684 20.0
563.820312 112.0
595.001099 72.0
654.059387 172.0
719.713623 260.0
785.944153 64.0
813.25592 180.0
845.91272 160.0
872.609192 140.0
890.04541 208.0
911.357483 212.0
938.181519 204.0
961.650696 188.0
963.744141 44.0
1049.052124 160.0
1059.851685 164.0
1108.587524 240.0
1110.476929 56.0
1111.85022 180.0
1117.664795 144.0
1127.98877 96.0
1131.273193 168.0
1136.561157 116.0
1171.24353 40.0
1179.164917 160.0
1194.812866 188.0
1203.5177 168.0
1203.793823 64.0
1206.066895 48.0
1210.81311 164.0
1214.160522 160.0
1221.668945 176.0
1240.488892 56.0
1253.751953 184.0
1271.346924 124.0
1275.700928 136.0
1277.699219 208.0
1277.749023 184.0
1284.131592 212.0
1293.44165 168.0
1295.045532 180.0
1329.094604 172.0
1330.822144 212.0
1335.298462 112.0
1347.676392 128.0
1349.869263 64.0
1349.986206 44.0
1357.19165 152.0
1366.7771 164.0
1372.824829 64.0
1375.473511 120.0
1381.495972 144.0
1381.747559 120.0
1392.161743 200.0
1397.171387 144.0
1399.404175 100.0
1405.941406 188.0
1406.105591 192.0
1408.662109 52.0
1417.577515 144.0
1418.686768 140.0
1419.609009 136.0
1420.186523 192.0
1420.944214 152.0
1428.298584 208.0
1438.327759 168.0
1447.119873 204.0
1447.892212 180.0
1458.909546 104.0
1463.702759 136.0
1466.696899 140.0
1474.619507 140.0
1475.689697 144.0
1481.184448 176.0
1494.034912 180.0
1500.511719 216.0
