>compound MLS002153442-01!U-101958 maleate salt
>formula C21H29N3O
>ionization [M+H]+
>parentmass 340.237671
#inchi InChI=1S/C21H29N3O/c1-17(2)25-20-10-7-13-22-21(20)23(3)19-11-14-24(15-12-19)16-18-8-5-4-6-9-18/h4-10,13,17,19H,11-12,14-16H2,1-3H3
#inchikey WFLHEXUTTRRXFJ
#origInchi InChI=1S/C21H29N3O.C4H4O4/c1-17(2)25-20-10-7-13-22-21(20)23(3)19-11-14-24(15-12-19)16-18-8-5-4-6-9-18;5-3(6)1-2-4(7)8/h4-10,13,17,19H,11-12,14-16H2,1-3H3;1-2H,(H,5,6)(H,7,8)/p-2/b;2-1-
#Ion_Source LC-ESI
#Instrument qTof
#Compound_Source NIH Pharmacologically Active Library
#PI Dorrestein
#Data_Collector VP/LMS
#Scan -1
#Precursor_MZ 340.244
#ExactMass 339.231
#Charge 1
#CAS_Number N/A
#Pubmed_ID N/A
#Smiles CC(C)Oc1cccnc1N(C)C2CCN(Cc3ccccc3)CC2.[O-]C(=O)/C=C\C(=O)[O-]
#INCHI_AUX N/A
#Library_Class 1
#SpectrumID CCMSLIB00000085595
#IonMode Positive
#UpdateWorkflowName UPDATE-SINGLE-ANNOTATED-GOLD
#LibraryQualityString Gold
#TaskID d252d724072548979f1f6f1ced849daf
##Scan# 1279
#SpectrumFile p4-D02_GD2_01_18362.mzXML
#LibraryName Pharm_Active_Library.mgf
#MQScore -1
#Organism Pharm_Active_Library
#TIC_Query 0
#RT_Query -1
#MZErrorPPM -1
#SharedPeaks 0
#MassDiff 0
#LibMZ -1
#SpecMZ 340.244
#SpecCharge 0
#internalFilename spec-00000.mgf

>collision 10
44.994167 108.0
45.187958 64.0
45.378143 196.0
45.465332 144.0
45.946918 208.0
46.014526 176.0
46.029381 120.0
46.393333 184.0
46.673016 124.0
46.916725 128.0
47.002651 60.0
47.162437 188.0
47.591228 204.0
49.629593 160.0
49.893547 168.0
50.604614 152.0
51.590549 176.0
51.647747 184.0
52.35244 48.0
52.630745 144.0
52.714527 140.0
52.841766 148.0
53.073509 168.0
53.122818 212.0
53.278152 192.0
54.12994 260.0
54.263275 88.0
54.468727 136.0
55.287018 116.0
57.337582 96.0
57.575951 92.0
58.462341 180.0
58.625763 120.0
59.493011 188.0
59.657387 140.0
59.817371 172.0
61.714787 132.0
61.846195 60.0
61.919781 200.0
62.263245 384.0
63.441925 204.0
64.334381 228.0
64.510109 216.0
64.556473 184.0
64.614059 196.0
65.511475 104.0
65.680733 136.0
66.141243 148.0
66.351837 128.0
67.248138 148.0
67.96492 132.0
69.072021 208.0
69.590736 160.0
69.73027 172.0
70.378288 180.0
70.486862 148.0
72.106888 224.0
72.29969 212.0
73.085365 192.0
73.199409 156.0
73.989944 200.0
74.851868 164.0
75.5924 240.0
76.637718 144.0
77.119362 184.0
78.476357 164.0
78.55748 160.0
78.751648 168.0
79.346222 104.0
79.960823 196.0
80.067642 168.0
81.480759 144.0
83.289055 168.0
83.645447 192.0
83.701889 56.0
84.935509 132.0
85.014397 164.0
85.137398 160.0
85.346878 200.0
86.709236 176.0
87.25869 168.0
87.329353 108.0
87.748337 164.0
88.213181 200.0
88.48819 156.0
88.795502 176.0
89.475723 160.0
89.92247 212.0
90.156654 208.0
90.762405 56.0
90.988182 220.0
91.054482 5168.0
91.098335 28.0
91.114616 56.0
91.202843 48.0
91.221848 64.0
91.423462 48.0
91.549103 88.0
91.611961 52.0
91.676743 52.0
91.905563 76.0
92.020081 240.0
92.057655 396.0
92.083099 244.0
92.178612 104.0
92.513321 72.0
92.536293 128.0
92.739349 100.0
92.77002 36.0
92.835213 124.0
92.917686 224.0
92.938797 196.0
93.17495 40.0
93.374863 44.0
94.327354 200.0
94.569138 268.0
95.3974 256.0
95.512131 252.0
98.049637 160.0
98.233009 60.0
98.987999 136.0
99.398323 220.0
101.090134 124.0
101.286339 180.0
101.558937 148.0
101.7034 196.0
101.974548 104.0
104.181114 156.0
104.349792 136.0
104.86277 180.0
104.889267 120.0
105.205452 224.0
105.311638 188.0
106.056938 200.0
106.705093 144.0
106.84906 208.0
106.978706 136.0
107.017822 248.0
108.410057 136.0
110.049652 176.0
111.502953 196.0
111.631187 148.0
115.048866 140.0
117.051414 128.0
117.070793 196.0
118.069984 168.0
118.585251 148.0
119.069069 172.0
119.832588 160.0
120.077049 296.0
120.561386 224.0
120.644447 180.0
121.801468 88.0
121.983856 132.0
122.061493 204.0
123.069977 152.0
123.642502 156.0
124.056702 124.0
124.822678 156.0
125.069862 632.0
125.158676 76.0
125.356918 40.0
125.867744 76.0
125.903473 124.0
126.006218 164.0
126.073257 296.0
126.576576 224.0
127.296379 160.0
127.435646 40.0
128.058762 180.0
129.067017 164.0
129.687805 60.0
129.864655 124.0
129.934982 140.0
130.082489 172.0
130.291412 132.0
130.723419 144.0
131.081207 312.0
132.076324 156.0
133.080078 136.0
134.058578 260.0
134.099152 196.0
134.622849 112.0
134.978714 220.0
135.092499 200.0
135.935394 180.0
136.053757 228.0
137.028214 96.0
137.168045 212.0
138.359436 168.0
138.680344 196.0
139.09317 128.0
139.349136 52.0
141.547455 224.0
142.268219 124.0
142.96701 120.0
143.086029 244.0
143.357559 192.0
144.597015 172.0
145.016144 260.0
145.047302 124.0
145.096588 388.0
145.241531 164.0
145.318298 136.0
146.522812 156.0
147.248871 124.0
147.930725 88.0
148.054214 92.0
149.068222 124.0
151.08197 324.0
152.647003 180.0
153.126892 116.0
155.25972 192.0
155.358932 108.0
156.584366 148.0
156.748779 224.0
157.100647 156.0
157.542191 132.0
160.481079 204.0
160.806488 156.0
161.215622 76.0
161.372345 188.0
163.085281 188.0
165.089905 288.0
165.816971 220.0
165.988724 212.0
166.512238 140.0
167.11853 448.0
167.399475 76.0
167.574631 80.0
168.074829 40.0
168.116257 144.0
168.733444 60.0
168.986908 52.0
169.080063 96.0
169.427032 124.0
170.223297 120.0
170.753433 128.0
171.424805 144.0
171.915344 64.0
172.006699 76.0
172.11113 124.0
172.147675 64.0
172.330521 136.0
173.034073 152.0
173.267166 124.0
173.353622 96.0
173.403412 112.0
173.571198 112.0
173.92012 144.0
173.977859 112.0
173.998871 140.0
174.046127 132.0
174.069763 172.0
174.127899 15716.0
174.20108 32.0
174.245743 60.0
174.316681 104.0
174.372543 172.0
174.561142 20.0
174.587448 76.0
174.834732 224.0
174.961075 84.0
175.000565 144.0
175.043396 60.0
175.090103 112.0
175.131348 1652.0
175.184921 132.0
175.224442 84.0
175.258698 100.0
175.27713 48.0
175.466904 36.0
175.617218 60.0
176.126633 220.0
176.158585 84.0
176.200592 52.0
176.266647 148.0
176.361786 80.0
177.097351 144.0
177.160919 44.0
177.221848 132.0
178.1026 136.0
179.116028 148.0
179.161316 68.0
191.117844 348.0
192.117996 148.0
193.130585 360.0
193.558853 144.0
194.718033 96.0
199.645157 76.0
200.024994 48.0
203.014206 80.0
203.479553 80.0
205.908493 44.0
212.062729 168.0
215.119827 152.0
216.136887 176.0
219.158279 188.0
227.029861 136.0
227.933411 104.0
228.143799 148.0
242.929016 144.0
260.161743 116.0
263.966858 112.0
265.97226 60.0
266.25473 44.0
269.401184 72.0
281.319885 52.0
284.238373 80.0
298.190613 984.0
299.149567 60.0
299.194214 212.0
304.387543 44.0
307.810486 28.0
314.205566 64.0
314.844452 92.0
321.886444 136.0
331.219421 140.0
340.237671 128.0
341.23703 92.0
341.59375 84.0
342.2341 160.0
357.127899 88.0
357.511658 56.0
359.954407 92.0
362.299377 40.0
438.932495 36.0
469.722961 132.0
504.941467 52.0
746.233337 220.0
759.22937 132.0
831.587646 148.0
835.834534 116.0
836.024414 92.0
851.36731 188.0
859.096924 172.0
868.74939 156.0
895.437622 192.0
935.036926 220.0
937.613098 196.0
957.161133 172.0
986.051758 164.0
986.601868 172.0
996.202515 212.0
996.422363 160.0
1002.05957 176.0
1041.052856 112.0
1041.528076 164.0
1055.810669 176.0
1076.868042 212.0
1088.164062 152.0
1091.173096 128.0
1105.022095 208.0
1111.861694 184.0
1112.69812 168.0
1113.780518 116.0
1117.742798 168.0
1126.16272 188.0
1126.93103 160.0
1134.071289 112.0
1135.023315 148.0
1135.539673 212.0
1136.418457 72.0
1137.787598 172.0
1145.74353 172.0
1156.141846 196.0
1156.872803 168.0
1165.33667 200.0
1167.87915 132.0
1178.917114 136.0
1180.762939 236.0
1182.131104 88.0
1189.560669 196.0
1191.366699 180.0
1192.026245 152.0
1197.3302 220.0
1204.821167 172.0
1209.938721 188.0
1210.838989 164.0
1216.774536 156.0
1217.149536 152.0
1218.23291 172.0
1219.150146 56.0
1219.713135 204.0
1221.381836 180.0
1234.346924 208.0
1238.440918 180.0
1242.25415 64.0
1256.140137 176.0
1259.994629 236.0
1264.838745 164.0
1267.494507 236.0
1274.199463 172.0
1281.741455 120.0
1291.743774 128.0
1299.710571 176.0
1304.299561 200.0
1306.399292 124.0
1308.767212 40.0
1312.167847 168.0
1312.232788 220.0
1321.42688 208.0
1325.604858 88.0
1334.162231 168.0
1342.980469 164.0
1350.342651 188.0
1357.380371 156.0
1358.143066 152.0
1358.766602 156.0
1359.551758 140.0
1362.062744 236.0
1365.15686 128.0
1365.502563 196.0
1370.294678 172.0
1377.339722 120.0
1377.613037 96.0
1381.834351 184.0
1381.886108 192.0
1388.671631 168.0
1392.709351 200.0
1395.882812 196.0
1417.305908 184.0
1447.382935 160.0
1452.255859 164.0
1455.427979 204.0
1459.302979 128.0
1462.39917 236.0
1463.879761 224.0
1466.001465 196.0
1466.519653 196.0
1468.6698 164.0
1471.065796 64.0
1473.876343 148.0
1474.533569 28.0
1476.276611 96.0
1476.712524 180.0
1477.814087 148.0
1479.22229 208.0
1481.79541 144.0
1482.768555 140.0
1488.253418 168.0
1500.479004 224.0
1500.964722 216.0
