>compound MLS001140910-01!4-[[2-(2-oxochromen-7-yl)oxypropanoylamino]methyl]cyclohexane-1-carboxylic acid
>formula C20H23NO6
>ionization [M+H]+
>parentmass 374.16
#inchi InChI=1S/C20H23NO6/c1-12(19(23)21-11-13-2-4-15(5-3-13)20(24)25)26-16-8-6-14-7-9-18(22)27-17(14)10-16/h6-10,12-13,15H,2-5,11H2,1H3,(H,21,23)(H,24,25)/t12?,13-,15-
#inchikey SCMRAVQXCAHESR
#Ion_Source LC-ESI
#Instrument qTof
#Compound_Source NIH Natural Product Library
#PI Dorrestein
#Data_Collector VVP/LMS
#Scan -1
#Precursor_MZ 374.16
#ExactMass 373.153
#Charge 1
#CAS_Number N/A
#Pubmed_ID N/A
#Smiles CC(Oc1ccc2ccc(=O)oc2c1)C(=O)NC[C@H]3CC[C@@H](CC3)C(=O)O
#INCHI_AUX N/A
#Library_Class 1
#SpectrumID CCMSLIB00000079399
#IonMode Positive
#UpdateWorkflowName UPDATE-SINGLE-ANNOTATED-GOLD
#LibraryQualityString Gold
#TaskID b1d8e8f6646f4e71acdff9ca3d919d08
##Scan# 1728
#SpectrumFile p1-G05_GG5_01_17949.mzXML
#LibraryName NIH_Natural_Products_Library.mgf
#MQScore -1
#Organism NIH_Natural_Products_Library
#TIC_Query 0
#RT_Query -1
#MZErrorPPM -1
#SharedPeaks 0
#MassDiff 0
#LibMZ -1
#SpecMZ 374.16
#SpecCharge 0
#internalFilename spec-00000.mgf

>collision 10
95.085518 2008.0
95.222076 108.0
95.595337 176.0
96.082985 580.0
96.11367 128.0
96.160507 192.0
96.817406 168.0
96.903595 172.0
97.099617 36.0
97.335106 240.0
97.362602 136.0
97.481682 188.0
97.716415 224.0
97.879784 184.0
97.976295 168.0
97.994026 124.0
98.258217 76.0
98.277946 216.0
98.942024 144.0
99.041039 100.0
99.062828 124.0
99.116318 32.0
99.249123 168.0
99.366142 124.0
100.107552 216.0
100.165306 192.0
100.193199 204.0
100.388535 172.0
100.558105 36.0
100.669907 108.0
101.743126 48.0
101.785286 104.0
101.970108 124.0
102.21344 168.0
103.005768 152.0
103.057304 324.0
103.116898 164.0
103.641022 48.0
103.764664 232.0
103.957359 172.0
104.083214 208.0
104.518196 200.0
104.973434 124.0
105.069633 1292.0
105.121361 64.0
105.26017 152.0
105.746719 80.0
106.074448 176.0
106.273376 188.0
106.636856 248.0
107.04818 1316.0
107.435799 192.0
107.660782 156.0
107.67524 200.0
107.689697 208.0
107.792992 256.0
108.054817 152.0
108.080414 144.0
108.330925 108.0
108.666489 144.0
108.697899 152.0
108.778839 180.0
108.809982 140.0
109.06134 152.0
109.098755 384.0
109.188431 188.0
109.3442 120.0
109.454536 64.0
109.531593 132.0
109.81089 152.0
109.950676 144.0
110.05825 292.0
110.097412 544.0
110.188721 224.0
110.349648 48.0
110.418655 64.0
110.437477 64.0
110.56929 196.0
110.699081 68.0
111.068184 176.0
111.101097 172.0
111.17495 168.0
111.494164 108.0
111.57193 120.0
111.677071 124.0
111.895927 284.0
112.110664 1668.0
112.220383 136.0
112.441879 180.0
112.585434 140.0
112.741768 168.0
113.109779 172.0
113.173294 152.0
113.245293 92.0
113.673538 240.0
113.896461 108.0
113.924072 116.0
114.013313 108.0
114.104721 100.0
114.404686 144.0
114.449394 156.0
114.713577 132.0
114.751953 192.0
114.965256 136.0
115.014343 212.0
115.052422 684.0
115.197983 176.0
115.456612 44.0
115.673607 276.0
116.058159 152.0
116.180588 120.0
116.384483 68.0
116.803558 56.0
116.988617 132.0
117.031837 164.0
117.071419 340.0
117.117821 48.0
117.542526 104.0
117.624542 60.0
118.032867 148.0
118.048004 204.0
118.063141 184.0
118.193985 148.0
118.257851 64.0
118.641258 132.0
118.665108 44.0
118.695465 176.0
119.020943 220.0
119.048164 820.0
119.153435 92.0
119.251221 188.0
119.28817 80.0
120.052399 164.0
120.541382 120.0
121.026085 192.0
121.045395 156.0
121.064552 912.0
121.276718 200.0
121.408264 84.0
121.489418 176.0
121.781364 196.0
122.093925 560.0
122.192436 152.0
122.7519 36.0
123.078712 152.0
123.222046 84.0
123.757286 84.0
124.072739 396.0
124.453506 212.0
125.077904 204.0
126.095291 244.0
126.16011 60.0
126.582985 132.0
126.919098 156.0
127.716339 180.0
128.93158 168.0
129.071732 152.0
129.091293 148.0
129.918808 164.0
130.045868 144.0
130.152573 188.0
130.182098 208.0
130.279755 176.0
130.302689 200.0
130.648041 156.0
130.679886 108.0
130.775467 200.0
131.068542 232.0
131.408981 124.0
131.45462 168.0
131.606537 160.0
132.08519 156.0
132.750076 52.0
133.066193 1492.0
133.118835 176.0
133.288818 164.0
133.472702 124.0
133.543991 100.0
133.755692 152.0
134.063965 416.0
134.165726 200.0
135.049271 200.0
135.378769 172.0
135.666077 128.0
135.914246 176.0
136.457748 204.0
137.24472 128.0
137.347336 172.0
137.43132 28.0
138.091248 876.0
138.126328 1800.0
138.532486 168.0
138.558258 76.0
138.72699 160.0
138.888779 184.0
139.099854 152.0
139.133484 688.0
139.649796 180.0
139.958084 128.0
140.078201 216.0
140.106216 8440.0
140.155304 240.0
140.210434 96.0
140.276138 208.0
140.352829 68.0
140.427048 36.0
140.681885 136.0
140.953491 80.0
140.977127 100.0
141.055115 220.0
141.109436 956.0
141.841003 112.0
142.018829 68.0
142.111359 168.0
142.201523 28.0
142.360596 48.0
143.051773 196.0
143.624359 228.0
143.65538 140.0
144.21637 188.0
144.651855 48.0
144.819473 172.0
145.028137 1104.0
145.063477 596.0
146.031204 168.0
146.065216 120.0
146.173492 44.0
147.002426 244.0
147.041656 172.0
147.200378 168.0
147.441956 180.0
148.429626 60.0
148.757172 148.0
149.406006 48.0
149.527679 212.0
149.581223 208.0
149.824738 176.0
150.075775 120.0
150.097717 144.0
150.139175 240.0
150.52475 76.0
150.749481 140.0
151.07222 148.0
151.704041 48.0
151.833221 252.0
151.94928 72.0
151.971359 180.0
152.027802 136.0
152.047424 168.0
152.069519 60.0
152.104095 500.0
152.167709 40.0
152.644379 136.0
153.028229 144.0
153.06517 76.0
153.104568 176.0
153.826996 124.0
153.886246 124.0
154.130768 184.0
154.471954 252.0
154.782593 216.0
154.838272 236.0
158.112152 256.0
158.262344 164.0
158.743454 92.0
159.534348 48.0
159.644974 124.0
159.743073 124.0
160.140762 128.0
160.317123 128.0
160.771057 268.0
161.05864 2824.0
161.263535 204.0
161.286285 116.0
161.336838 80.0
162.056183 404.0
162.258362 56.0
162.316681 84.0
162.410522 148.0
162.438416 120.0
162.45871 176.0
162.768356 80.0
162.80368 184.0
162.875015 116.0
162.892807 108.0
162.925827 196.0
162.963943 208.0
162.984268 208.0
163.038727 16908.0
163.118958 136.0
163.192688 32.0
163.284225 104.0
163.337646 112.0
163.37326 80.0
163.410904 40.0
163.452133 72.0
163.47757 100.0
163.59465 64.0
163.615021 60.0
163.767807 68.0
164.040359 1416.0
164.129257 192.0
164.226593 56.0
164.377121 36.0
164.484314 44.0
164.737106 36.0
164.93898 220.0
165.041061 168.0
165.071655 344.0
165.164001 68.0
165.217712 96.0
165.345657 72.0
165.391724 96.0
165.576065 92.0
166.084885 256.0
166.116943 452.0
166.28624 108.0
166.924927 92.0
167.018509 128.0
167.130127 2540.0
167.172882 76.0
167.214951 208.0
167.577148 112.0
167.79422 88.0
168.051544 40.0
168.132462 484.0
168.276093 168.0
168.412491 164.0
168.567978 228.0
168.725632 32.0
168.803207 176.0
169.134369 140.0
169.261215 188.0
170.303757 112.0
170.493423 196.0
170.729996 48.0
170.888672 236.0
171.043488 324.0
172.040604 32.0
172.687256 152.0
173.026779 72.0
173.959473 72.0
174.592163 80.0
175.04097 140.0
175.298203 88.0
176.010422 48.0
176.042114 152.0
177.425934 160.0
178.235443 96.0
178.41272 200.0
180.281982 84.0
180.723206 32.0
181.05513 172.0
181.537506 84.0
181.591141 140.0
181.907761 164.0
183.317108 92.0
183.527359 56.0
183.891541 104.0
184.097443 264.0
184.131088 628.0
184.204758 40.0
184.269592 84.0
184.353348 72.0
184.472275 44.0
185.094543 280.0
185.132614 296.0
185.981064 64.0
186.633057 188.0
187.686798 108.0
188.22435 232.0
188.661499 104.0
188.686096 132.0
188.940445 128.0
188.961655 176.0
188.997894 184.0
189.053818 15628.0
189.133698 84.0
189.159378 32.0
189.181274 48.0
189.30722 44.0
189.337341 76.0
189.522598 68.0
189.581161 48.0
189.627747 72.0
189.709991 68.0
189.822403 128.0
189.937592 52.0
190.057358 1680.0
190.089462 212.0
190.124161 32.0
190.154343 80.0
190.255905 48.0
190.384949 44.0
190.43988 96.0
190.904343 76.0
191.054092 476.0
191.311554 128.0
191.4272 56.0
191.465759 96.0
191.521881 84.0
191.553894 128.0
192.359085 36.0
194.116089 960.0
194.157547 164.0
194.376709 52.0
195.007111 104.0
195.119141 316.0
195.911453 68.0
196.625259 180.0
197.841171 108.0
199.819733 64.0
199.878815 144.0
200.413803 136.0
201.116013 124.0
201.579178 40.0
201.96933 60.0
202.628922 104.0
203.224319 76.0
206.042969 156.0
207.697571 76.0
209.062286 164.0
211.912308 120.0
213.130936 160.0
215.003357 112.0
215.146378 220.0
216.066116 180.0
216.731583 64.0
217.050598 428.0
217.133194 68.0
217.218246 64.0
217.259323 72.0
218.07048 180.0
223.142456 120.0
226.691483 60.0
229.704086 120.0
232.229782 76.0
233.091965 60.0
233.867462 148.0
234.076019 2216.0
234.248077 92.0
234.494888 108.0
234.580231 36.0
235.079941 288.0
235.92955 72.0
236.082428 272.0
236.446487 56.0
236.813873 152.0
236.893524 84.0
245.021744 140.0
246.063416 152.0
259.918457 172.0
263.986938 164.0
265.427948 56.0
266.180756 140.0
273.576569 40.0
278.872437 40.0
284.537933 120.0
285.495575 84.0
291.519806 96.0
297.078369 168.0
297.493622 48.0
298.747925 192.0
299.116119 76.0
300.161346 128.0
302.415955 56.0
314.32309 60.0
318.589508 56.0
322.344849 56.0
325.802399 72.0
326.017975 84.0
327.601105 84.0
328.154755 1280.0
328.228241 128.0
328.520386 84.0
328.68634 84.0
329.134888 316.0
329.160553 668.0
329.53125 84.0
329.61795 132.0
330.158142 268.0
330.196381 48.0
330.369995 60.0
330.847687 60.0
342.493256 80.0
346.160614 164.0
352.331207 88.0
361.494415 132.0
371.005249 80.0
376.279755 144.0
380.06897 108.0
412.309753 20.0
415.447784 96.0
427.78949 48.0
430.10199 68.0
435.563629 72.0
437.597198 76.0
504.219971 40.0
536.819397 108.0
594.906921 48.0
611.7005 64.0
637.297607 88.0
644.609009 44.0
714.669556 36.0
779.683289 212.0
801.908264 100.0
818.780518 92.0
826.218079 96.0
828.909119 144.0
836.225525 164.0
855.314819 168.0
872.484192 260.0
881.685303 140.0
882.879517 200.0
888.465088 196.0
900.847595 20.0
907.160889 48.0
908.522217 136.0
915.103088 184.0
916.843933 176.0
921.151917 164.0
927.638916 196.0
932.567688 184.0
944.757202 128.0
954.306274 172.0
955.708618 188.0
964.088745 196.0
971.872498 152.0
976.146057 156.0
1008.111023 156.0
1008.237427 180.0
1010.38092 168.0
1026.335571 164.0
1033.828491 152.0
1034.410889 172.0
1041.79187 140.0
1051.359985 240.0
1074.172852 168.0
1107.970093 212.0
1110.562012 148.0
1111.291748 116.0
1115.668335 232.0
1116.539429 184.0
1121.806152 132.0
1125.168457 92.0
1126.056641 120.0
1126.203491 148.0
1126.363892 196.0
1128.856812 84.0
1131.727417 144.0
1133.087036 120.0
1133.569458 172.0
1133.991577 120.0
1141.61145 136.0
1150.059937 144.0
1156.135864 200.0
1167.376709 188.0
1167.825562 172.0
1173.804932 188.0
1174.10498 132.0
1174.398315 48.0
1177.592529 48.0
1177.783813 52.0
1179.410034 132.0
1180.585938 180.0
1189.685059 80.0
1198.536621 212.0
1201.653198 132.0
1203.468384 168.0
1203.703125 132.0
1206.363159 168.0
1208.894531 160.0
1210.278931 68.0
1213.091797 200.0
1219.429077 160.0
1221.535889 168.0
1223.185059 108.0
1225.741089 76.0
1226.737671 216.0
1228.536865 108.0
1243.49707 252.0
1244.739624 180.0
1249.941406 152.0
1259.254028 124.0
1266.050537 116.0
1268.679199 204.0
1270.856567 156.0
1271.651367 248.0
1274.690796 116.0
1279.790894 60.0
1282.04187 168.0
1282.212891 172.0
1287.028076 136.0
1287.149414 168.0
1287.392212 148.0
1289.206787 244.0
1290.236084 64.0
1300.838501 116.0
1303.143799 160.0
1306.004883 164.0
1310.295288 196.0
1313.409424 164.0
1315.24939 168.0
1326.642578 164.0
1330.618164 124.0
1334.381592 164.0
1335.617798 124.0
1336.359863 136.0
1341.39209 188.0
1342.493042 148.0
1343.791504 176.0
1344.345947 156.0
1344.761963 172.0
1347.894897 112.0
1350.892578 184.0
1358.320435 116.0
1363.393799 204.0
1363.673096 136.0
1374.107666 140.0
1374.262573 136.0
1382.679321 188.0
1384.611572 32.0
1387.738647 188.0
1388.124268 220.0
1389.607666 188.0
1393.981201 128.0
1394.835815 100.0
1396.114624 176.0
1403.263062 240.0
1405.008179 196.0
1406.769409 120.0
1407.769897 128.0
1414.199463 128.0
1417.10498 180.0
1421.303833 120.0
1427.583618 164.0
1429.042847 204.0
1430.630859 172.0
1430.879272 184.0
1435.234253 176.0
1436.297607 152.0
1438.636841 152.0
1440.64563 188.0
1440.766479 76.0
1441.355835 124.0
1442.315674 276.0
1445.106201 232.0
1445.953613 184.0
1447.225464 236.0
1448.474976 108.0
1449.800903 164.0
1451.172852 136.0
1451.832642 60.0
1455.490234 148.0
1457.495483 168.0
1458.179443 124.0
1459.304443 204.0
1460.688599 160.0
1462.621338 184.0
1466.505981 256.0
1467.184326 164.0
1468.480713 220.0
1470.739136 212.0
1473.832031 208.0
1478.565552 152.0
1481.689697 136.0
1483.490601 200.0
1484.732788 236.0
1485.093262 168.0
1490.182495 96.0
1490.736084 36.0
1491.781372 176.0
1492.296387 172.0
1493.442261 200.0
1496.066162 196.0
1496.143188 164.0
1500.388062 172.0
1501.182251 132.0
1504.021362 160.0
