>compound MLS000697750-01!(7S,8R)-7-(1,3-benzodioxol-5-yl)-9-hydroxy-3,6-dimethoxy-8-methyl-1-prop-2-enyl-5-oxabicyclo[4.2.1]non-2-en-4-one
>formula C21H24O7
>ionization [M+H]+
>parentmass 389.16
#inchi InChI=1S/C21H24O7/c1-5-8-20-10-16(24-3)18(22)28-21(25-4,19(20)23)17(12(20)2)13-6-7-14-15(9-13)27-11-26-14/h5-7,9-10,12,17,19,23H,1,8,11H2,2-4H3/t12-,17+,19?,20?,21?/m1/s1
#inchikey IUHQIKDZBFIBHL
#Ion_Source LC-ESI
#Instrument qTof
#Compound_Source NIH Natural Product Library
#PI Dorrestein
#Data_Collector VVP/LMS
#Scan -1
#Precursor_MZ 389.16
#ExactMass 388.152
#Charge 1
#CAS_Number N/A
#Pubmed_ID N/A
#Smiles COC1=CC2(CC=C)[C@H](C)[C@@H](c3ccc4OCOc4c3)C(OC)(OC1=O)C2O
#INCHI_AUX N/A
#Library_Class 1
#SpectrumID CCMSLIB00000080325
#IonMode Positive
#UpdateWorkflowName UPDATE-SINGLE-ANNOTATED-GOLD
#LibraryQualityString Gold
#TaskID b1d8e8f6646f4e71acdff9ca3d919d08
##Scan# 2309
#SpectrumFile p2-C07_GC7_01_18007.mzXML
#LibraryName NIH_Natural_Products_Library.mgf
#MQScore -1
#Organism NIH_Natural_Products_Library
#TIC_Query 0
#RT_Query -1
#MZErrorPPM -1
#SharedPeaks 0
#MassDiff 0
#LibMZ -1
#SpecMZ 389.16
#SpecCharge 0
#internalFilename spec-00000.mgf

>collision 10
95.620369 172.0
96.093887 128.0
96.361359 148.0
96.601822 184.0
96.936615 164.0
97.032654 152.0
97.071304 152.0
97.209183 140.0
97.572556 224.0
97.686615 112.0
98.037071 132.0
98.240158 104.0
98.607422 192.0
99.16951 172.0
99.260704 148.0
99.357887 168.0
99.415428 216.0
99.522621 216.0
99.556374 180.0
99.922112 180.0
100.545792 124.0
100.625641 140.0
101.175423 220.0
101.57621 180.0
101.644424 160.0
101.744774 156.0
101.901428 176.0
102.003914 248.0
102.154732 236.0
102.360016 56.0
103.056633 468.0
103.156944 44.0
103.48671 188.0
103.85553 184.0
104.060486 184.0
104.654175 140.0
105.049545 144.0
105.07196 200.0
105.564232 180.0
106.03508 72.0
106.227821 80.0
106.747437 156.0
106.874969 200.0
107.051453 508.0
107.346672 44.0
107.488998 68.0
107.980667 68.0
108.00135 88.0
108.057198 328.0
108.171021 148.0
108.485893 204.0
108.608231 124.0
108.93412 196.0
109.065529 200.0
109.402016 132.0
109.569595 176.0
109.639458 188.0
109.769745 20.0
109.902199 184.0
110.033691 152.0
111.061157 244.0
111.155563 96.0
111.319298 160.0
111.788071 136.0
112.08287 136.0
112.200897 216.0
112.753922 196.0
112.796196 248.0
112.923058 132.0
113.753654 180.0
114.374336 132.0
114.536163 144.0
115.054649 796.0
115.890579 176.0
115.993446 52.0
116.063347 464.0
116.225067 52.0
116.882568 92.0
116.981567 156.0
117.032341 240.0
117.070465 600.0
117.36937 152.0
117.619621 200.0
117.639046 176.0
117.658478 40.0
117.714615 148.0
118.038742 188.0
118.149048 188.0
119.024666 220.0
119.049751 520.0
119.083694 256.0
119.100677 104.0
119.361465 168.0
119.539833 156.0
119.881721 100.0
120.056557 220.0
120.088829 172.0
120.486107 168.0
120.512329 80.0
121.028511 256.0
121.048218 208.0
121.072311 148.0
121.50631 168.0
122.038376 156.0
122.07299 200.0
122.475739 180.0
122.676254 164.0
122.722557 220.0
122.899002 156.0
123.042465 200.0
123.08049 144.0
123.150665 176.0
123.577309 48.0
123.78537 196.0
123.995827 180.0
124.046806 148.0
124.162102 168.0
124.321831 148.0
124.759384 216.0
124.77401 192.0
125.060287 204.0
125.186577 116.0
126.806259 36.0
126.934036 196.0
127.041695 168.0
127.969864 128.0
128.061172 680.0
128.454391 120.0
128.826859 168.0
129.071579 916.0
129.099045 84.0
129.120697 120.0
129.607391 152.0
129.81366 200.0
130.05188 320.0
130.08139 148.0
130.344833 172.0
131.059311 168.0
131.089462 164.0
131.494858 44.0
131.839706 232.0
132.058365 188.0
133.02861 320.0
133.064255 356.0
133.099609 52.0
134.035202 160.0
134.091095 96.0
134.460098 108.0
134.801468 160.0
135.002991 124.0
135.0448 4228.0
135.083939 320.0
135.164917 108.0
135.421875 144.0
135.68605 168.0
135.783432 196.0
136.048782 604.0
136.092056 188.0
136.564911 176.0
136.631256 164.0
136.959488 184.0
137.022079 160.0
137.054993 40.0
137.180847 76.0
137.213486 100.0
137.493393 88.0
138.03067 128.0
138.051727 116.0
138.082123 152.0
138.126572 68.0
138.547928 100.0
138.930054 116.0
139.035629 84.0
139.057159 204.0
139.08519 176.0
139.176483 148.0
139.658234 136.0
139.987717 188.0
140.032455 164.0
140.07486 56.0
140.173813 100.0
140.329376 140.0
141.011581 156.0
141.037567 264.0
141.071747 256.0
141.153412 132.0
141.605423 112.0
141.683578 144.0
142.008331 72.0
142.075928 376.0
142.594757 132.0
142.730255 136.0
143.051437 152.0
143.084549 304.0
143.246704 80.0
144.05217 124.0
144.086426 156.0
144.337387 140.0
144.957352 116.0
145.031647 176.0
145.064056 1460.0
145.689133 68.0
145.999191 132.0
146.070145 464.0
146.844513 212.0
147.04776 512.0
147.078201 160.0
147.329681 96.0
147.590714 180.0
147.646332 108.0
147.856796 60.0
147.997208 72.0
148.0504 140.0
148.705383 144.0
149.023468 1160.0
149.060059 704.0
149.096054 192.0
149.144669 40.0
149.251633 56.0
149.302704 152.0
149.560593 36.0
149.638489 152.0
150.030396 828.0
150.41127 92.0
150.547989 108.0
150.648132 68.0
150.787415 152.0
151.039322 284.0
151.079514 364.0
151.117523 152.0
151.269257 128.0
151.965256 152.0
152.062424 496.0
152.110046 168.0
152.198425 100.0
152.23526 132.0
152.273407 172.0
152.522705 196.0
152.552567 132.0
152.569199 240.0
152.741791 176.0
152.922516 188.0
152.989761 132.0
153.070541 560.0
153.189545 124.0
153.961548 164.0
154.033173 140.0
154.074127 116.0
154.760254 156.0
155.058121 320.0
155.083649 532.0
155.186401 48.0
155.859039 104.0
156.054245 196.0
156.079681 204.0
156.57547 176.0
157.063705 616.0
157.100098 208.0
157.156281 88.0
157.378418 48.0
157.575729 136.0
157.66568 48.0
158.074234 276.0
158.271042 116.0
158.363693 240.0
159.018082 56.0
159.04744 296.0
159.081467 460.0
159.326935 48.0
159.533005 164.0
159.678833 108.0
159.736679 156.0
159.884796 148.0
160.046234 176.0
160.086517 180.0
160.434219 184.0
160.643524 96.0
160.726791 48.0
161.060303 196.0
161.093018 264.0
161.740204 192.0
162.031921 148.0
162.064346 144.0
162.094757 136.0
162.477615 180.0
162.741562 208.0
162.904099 240.0
163.036407 372.0
163.077896 120.0
163.112457 496.0
163.254166 76.0
163.313339 92.0
164.047943 168.0
164.118057 116.0
164.75354 160.0
165.057632 820.0
165.156311 156.0
165.254639 116.0
166.074234 276.0
166.105164 128.0
166.510696 156.0
166.582611 56.0
166.731644 120.0
166.798462 252.0
166.934723 144.0
167.046722 248.0
167.084061 836.0
167.292358 64.0
168.055801 436.0
168.085999 128.0
168.322006 216.0
169.061996 412.0
169.102539 324.0
169.280396 172.0
170.042572 172.0
170.065765 328.0
170.239868 188.0
170.299606 44.0
170.44249 136.0
170.507446 104.0
171.039627 164.0
171.081177 264.0
172.033798 52.0
172.054672 72.0
172.078613 192.0
172.140839 168.0
172.349808 128.0
172.624268 200.0
172.687027 120.0
172.82045 184.0
173.060944 612.0
173.0979 172.0
173.296967 96.0
173.331024 76.0
173.561691 132.0
173.69281 152.0
174.061798 256.0
175.034012 84.0
175.071167 480.0
175.354523 136.0
175.520615 140.0
176.077133 224.0
176.154007 132.0
176.357468 180.0
176.841492 60.0
177.056381 224.0
177.127441 84.0
177.426895 28.0
178.055756 288.0
178.078537 1084.0
178.114182 100.0
178.433075 120.0
178.589966 244.0
178.629868 160.0
178.675079 68.0
179.086105 1016.0
179.116989 64.0
179.170258 96.0
179.215546 80.0
179.338135 40.0
179.423431 180.0
180.049026 132.0
180.057526 140.0
180.091202 296.0
180.122589 144.0
181.064056 580.0
181.102829 292.0
181.160492 28.0
181.522308 176.0
182.069595 444.0
182.108566 160.0
182.725616 44.0
182.792877 176.0
182.892456 136.0
182.940903 60.0
182.992065 136.0
183.040634 188.0
183.078384 596.0
183.112793 172.0
183.172012 136.0
183.178528 180.0
183.266785 104.0
183.428482 48.0
184.045517 156.0
184.054092 80.0
184.06076 176.0
184.084839 220.0
184.876129 160.0
185.057755 488.0
185.093399 556.0
185.309372 80.0
185.410339 108.0
185.452988 84.0
185.702438 148.0
186.02652 116.0
186.065079 456.0
186.113174 224.0
187.04126 356.0
187.074463 204.0
188.044861 348.0
188.077484 164.0
188.118683 192.0
189.074493 328.0
189.085785 160.0
189.151062 84.0
189.182068 196.0
189.29277 148.0
189.51619 144.0
190.048096 156.0
190.081802 352.0
190.253937 44.0
190.861115 108.0
191.087784 380.0
191.488541 44.0
191.662094 68.0
191.772324 88.0
192.096268 432.0
192.522736 228.0
192.90126 188.0
193.061859 468.0
193.101608 664.0
193.266312 108.0
193.587402 176.0
193.861649 32.0
194.074234 396.0
194.10025 308.0
195.074417 676.0
195.117615 508.0
195.381393 120.0
195.608612 96.0
196.060364 140.0
196.091263 184.0
196.119385 88.0
197.058838 508.0
197.100204 248.0
197.15657 52.0
197.306244 124.0
198.020645 200.0
198.06691 300.0
198.247971 140.0
198.304016 132.0
199.033051 132.0
199.077072 1584.0
199.114822 160.0
199.22644 172.0
199.359238 68.0
199.702225 88.0
199.840057 112.0
200.050705 184.0
200.084534 688.0
200.386261 136.0
201.017853 88.0
201.049759 316.0
201.091705 168.0
201.280365 140.0
201.950134 152.0
202.082031 624.0
202.119873 180.0
202.67485 152.0
203.079941 680.0
203.145462 52.0
204.034332 176.0
204.072342 128.0
204.093338 484.0
204.7827 112.0
205.067154 172.0
205.071304 324.0
205.100967 996.0
205.700821 80.0
205.726517 188.0
206.076752 860.0
206.111908 196.0
206.269272 48.0
206.359344 180.0
206.655334 96.0
207.040482 176.0
207.082001 1072.0
207.116791 388.0
207.147736 84.0
207.279526 32.0
208.087738 344.0
208.127136 112.0
208.516159 260.0
209.063339 1172.0
209.095032 492.0
209.128983 268.0
209.238373 92.0
209.304581 52.0
210.067535 568.0
210.102417 412.0
210.963516 248.0
211.040634 280.0
211.07579 904.0
211.112762 432.0
211.805573 112.0
212.083908 420.0
213.052765 308.0
213.087952 400.0
213.695435 56.0
214.027237 124.0
214.068588 176.0
214.097885 348.0
214.811203 176.0
215.071625 736.0
215.108841 140.0
215.766129 76.0
215.941574 160.0
216.090759 144.0
216.781769 52.0
217.063477 424.0
217.089294 124.0
217.186356 120.0
217.682343 128.0
217.788055 112.0
218.069412 344.0
218.10614 268.0
218.761353 172.0
218.811401 44.0
219.080673 436.0
219.114899 144.0
220.087143 736.0
220.107224 208.0
220.16481 68.0
221.095627 1832.0
221.123169 248.0
221.149307 96.0
221.291397 68.0
221.374313 60.0
221.472046 60.0
221.940277 124.0
222.066986 416.0
222.103714 408.0
223.075943 612.0
223.107986 128.0
223.660355 56.0
224.049957 100.0
224.082031 568.0
225.055527 588.0
225.087173 484.0
225.133713 152.0
225.327316 48.0
225.419937 56.0
225.703903 44.0
226.065598 700.0
226.100632 472.0
226.655746 92.0
227.033447 160.0
227.070282 1980.0
227.104797 220.0
227.549545 40.0
227.765762 92.0
228.039185 124.0
228.079788 580.0
228.123337 40.0
229.047134 124.0
229.085709 676.0
229.334717 36.0
230.094498 304.0
230.295853 76.0
230.359283 96.0
230.637283 92.0
230.718903 112.0
231.083725 324.0
231.211929 68.0
231.293655 92.0
231.766083 172.0
231.844864 144.0
231.911545 156.0
232.093536 244.0
232.114655 312.0
232.764008 36.0
232.921936 92.0
233.095367 824.0
233.681931 152.0
233.718445 100.0
234.066528 300.0
234.098938 208.0
234.525452 80.0
235.078323 392.0
235.108994 108.0
235.954056 128.0
236.085052 692.0
236.119186 32.0
236.157272 184.0
236.46489 44.0
236.682236 56.0
236.795547 56.0
236.865997 144.0
237.053223 420.0
237.090576 772.0
237.27356 104.0
237.387009 72.0
237.555695 84.0
237.650803 272.0
237.776611 92.0
238.062378 496.0
238.100021 524.0
238.89386 52.0
239.069443 1056.0
239.108795 624.0
239.202759 36.0
239.285873 68.0
239.344376 72.0
239.372086 56.0
239.556885 52.0
239.914352 68.0
240.027985 168.0
240.078522 544.0
240.112778 136.0
240.485001 132.0
241.051331 308.0
241.084549 480.0
241.125824 184.0
241.897568 180.0
242.095322 412.0
242.808487 56.0
243.068298 444.0
243.101868 676.0
244.07547 136.0
244.10968 164.0
244.978027 104.0
245.015411 208.0
245.082397 240.0
246.066422 132.0
247.077728 128.0
247.113403 64.0
247.319946 168.0
247.639313 104.0
247.739548 48.0
248.081833 404.0
248.115601 176.0
249.054611 100.0
249.089767 944.0
249.154373 36.0
250.06311 296.0
250.103699 240.0
250.264587 196.0
250.692963 136.0
250.83165 72.0
251.068695 200.0
251.104019 668.0
251.14064 96.0
251.232117 40.0
251.560318 76.0
251.648712 60.0
251.71817 60.0
251.759216 96.0
252.080643 188.0
252.115616 240.0
252.214172 36.0
252.236298 48.0
253.053696 388.0
253.088104 744.0
253.123108 720.0
254.093002 624.0
254.555405 116.0
255.066559 1144.0
255.101257 396.0
255.337173 148.0
255.429413 52.0
255.553482 48.0
255.871735 56.0
256.076569 600.0
256.104614 344.0
256.145599 40.0
257.081146 1104.0
257.137207 136.0
257.16275 64.0
257.443665 68.0
257.785492 108.0
258.085297 172.0
258.11792 116.0
259.073883 368.0
259.34726 52.0
259.610138 124.0
260.081757 172.0
261.094269 288.0
261.54425 84.0
262.062714 156.0
262.098328 440.0
262.891388 108.0
263.106384 432.0
263.256165 104.0
263.285248 36.0
263.705231 48.0
264.022064 108.0
264.077698 492.0
264.109375 320.0
264.37793 168.0
264.481476 120.0
264.983429 84.0
265.044983 184.0
265.083191 428.0
265.125 332.0
265.862122 60.0
266.053131 152.0
266.095032 280.0
266.12146 148.0
266.511566 68.0
267.060974 124.0
267.096985 272.0
267.790009 92.0
267.812805 160.0
268.047363 40.0
268.109528 276.0
268.996429 60.0
269.083679 576.0
269.113922 292.0
269.352356 56.0
270.028931 44.0
270.089081 420.0
270.127747 144.0
270.378998 80.0
270.778412 52.0
270.893036 80.0
271.096893 672.0
271.126556 320.0
271.401031 60.0
272.072113 180.0
272.109497 700.0
272.134247 252.0
272.753571 120.0
273.039612 200.0
273.071411 264.0
273.114075 132.0
273.338989 168.0
273.490356 52.0
274.091248 360.0
275.095642 204.0
275.293732 140.0
277.08725 140.0
278.058014 160.0
278.095886 336.0
279.101166 724.0
279.563446 64.0
280.066162 48.0
280.107269 436.0
280.349365 32.0
280.992889 44.0
281.077393 332.0
281.111938 1008.0
281.159729 168.0
281.339966 136.0
282.049896 152.0
282.106628 156.0
283.062225 372.0
283.131134 848.0
283.26947 76.0
283.302979 64.0
283.670746 128.0
284.053864 104.0
284.080688 128.0
284.127533 120.0
285.03418 136.0
285.082367 224.0
285.107208 356.0
285.898407 40.0
286.114624 116.0
286.223511 232.0
287.0914 348.0
287.137695 208.0
288.09964 660.0
289.075439 232.0
289.090027 108.0
289.10257 208.0
289.388641 44.0
291.06488 128.0
291.092468 148.0
292.093384 260.0
293.119537 544.0
294.318787 84.0
295.091064 140.0
295.127289 424.0
295.586914 140.0
295.648499 96.0
295.710114 80.0
296.102722 248.0
296.143768 176.0
296.730896 80.0
296.809753 60.0
297.076813 212.0
297.110107 360.0
297.15274 260.0
297.657288 92.0
297.729401 140.0
298.087585 664.0
298.112915 236.0
298.18631 36.0
298.791504 96.0
299.09314 128.0
300.058868 144.0
301.072388 472.0
301.681427 56.0
302.068726 140.0
302.889099 84.0
303.443542 48.0
305.082153 132.0
305.756958 152.0
306.084167 112.0
307.087189 184.0
307.304077 128.0
308.110565 188.0
309.334534 44.0
309.660156 56.0
309.835297 160.0
310.111542 124.0
311.127136 604.0
311.582397 40.0
312.132782 160.0
312.647797 108.0
313.139771 188.0
313.22168 120.0
314.124054 80.0
315.085541 240.0
315.285645 52.0
315.741699 64.0
316.090912 352.0
316.605194 112.0
317.103577 216.0
317.647217 96.0
321.117401 164.0
322.350342 40.0
322.836487 108.0
323.090454 200.0
324.103668 120.0
325.107697 116.0
327.1492 176.0
327.188812 264.0
327.21402 104.0
328.129089 164.0
328.168762 152.0
329.117584 144.0
329.142975 480.0
330.100525 168.0
330.134979 152.0
331.113708 244.0
332.277344 128.0
335.382812 44.0
339.123596 132.0
343.14856 188.0
344.169098 168.0
351.059845 96.0
351.421661 76.0
356.848663 100.0
358.124329 124.0
358.859161 60.0
368.610352 80.0
371.148132 116.0
371.769562 160.0
373.867767 20.0
388.277374 112.0
389.26236 132.0
398.79126 56.0
400.279114 80.0
438.346588 64.0
503.204041 128.0
540.984009 20.0
565.749329 64.0
637.950317 108.0
665.584656 172.0
709.467346 100.0
714.427307 92.0
722.643127 52.0
727.187195 60.0
736.112915 124.0
748.955261 216.0
763.640076 92.0
789.154602 52.0
809.059448 148.0
818.398682 144.0
828.049194 104.0
832.085999 172.0
846.378906 180.0
856.145996 80.0
863.212708 80.0
881.25177 132.0
887.472229 116.0
899.256531 48.0
907.91333 80.0
917.684509 228.0
925.605652 116.0
928.514404 68.0
929.934082 164.0
943.010315 20.0
957.569214 224.0
971.656372 96.0
978.735474 108.0
985.802734 176.0
1039.485962 204.0
1041.707275 152.0
1064.226807 100.0
1078.532471 132.0
1126.212891 220.0
1131.067139 176.0
1139.657715 192.0
1140.013794 144.0
1160.337158 72.0
1169.262451 148.0
1183.385498 84.0
1188.99939 124.0
1194.84668 212.0
1197.489868 156.0
1202.79895 124.0
1210.92981 192.0
1216.296265 192.0
1217.330688 172.0
1256.386475 168.0
1262.800171 224.0
1273.53772 148.0
1286.147217 160.0
1287.439453 84.0
1296.087524 228.0
1298.940918 20.0
1301.201294 136.0
1302.738159 40.0
1311.329224 140.0
1323.870605 164.0
1328.647095 164.0
1333.294067 188.0
1338.480591 116.0
1340.199463 192.0
1346.187988 184.0
1352.394775 124.0
1359.114624 184.0
1360.096924 220.0
1366.505859 172.0
1368.824463 168.0
1369.531372 60.0
1384.264526 136.0
1385.708862 156.0
1387.895264 200.0
1391.419434 160.0
1396.04834 164.0
1397.208618 212.0
1397.878296 136.0
1400.118896 188.0
1403.666016 156.0
1407.605835 124.0
1411.356689 156.0
1415.262329 180.0
1421.288452 224.0
1424.216187 224.0
1425.299438 188.0
1430.321655 176.0
1440.349976 172.0
1445.854004 160.0
1449.397949 172.0
1454.721924 140.0
1472.271484 200.0
1474.66272 144.0
1477.966187 184.0
1485.266968 160.0
1490.241333 40.0
1497.318115 200.0
1503.261597 80.0
