>compound MLS000028828-01!
>formula C18H26O5
>ionization [M+H]+
>parentmass 323.1853003840905
#inchi InChI=1S/C18H26O5/c1-12-6-5-9-14(19)8-4-2-3-7-13-10-15(20)11-16(21)17(13)18(22)23-12/h10-12,14,19-21H,2-9H2,1H3/t12?,14-/m1/s1
#inchikey DWTTZBARDOXEAM
#Ion_Source LC-ESI
#Instrument qTof
#Compound_Source NIH Pharmacologically Active Library
#PI Dorrestein
#Data_Collector VP/LMS
#Scan -1
#Precursor_MZ 323.191
#ExactMass 322.178
#Charge 1
#CAS_Number N/A
#Pubmed_ID N/A
#Smiles CC1CCC[C@H](O)CCCCCc2cc(O)cc(O)c2C(=O)O1
#INCHI_AUX N/A
#Library_Class 3
#SpectrumID CCMSLIB00000085505
#IonMode Positive
#UpdateWorkflowName UPDATE-SINGLE-ANNOTATED-BRONZE
#LibraryQualityString Bronze
#TaskID d252d724072548979f1f6f1ced849daf
##Scan# 1994
#SpectrumFile p4-B09_GB9_01_18345.mzXML
#LibraryName Pharm_Active_Library.mgf
#MQScore -1
#Organism Pharm_Active_Library
#TIC_Query 0
#RT_Query -1
#MZErrorPPM -1
#SharedPeaks 0
#MassDiff 0
#LibMZ -1
#SpecMZ 323.191
#SpecCharge 0
#internalFilename spec-00000.mgf

>collision 10
45.198605 184.0
45.438435 220.0
46.513988 196.0
46.532993 140.0
46.916641 152.0
46.979374 108.0
47.264915 168.0
48.114311 192.0
48.53907 176.0
48.615364 216.0
48.994949 180.0
49.715031 148.0
50.83551 212.0
51.596104 156.0
51.783554 192.0
52.143665 160.0
52.681114 96.0
52.979118 156.0
53.173416 40.0
53.259075 136.0
53.388424 148.0
53.570358 180.0
53.916157 88.0
53.970242 180.0
54.238148 176.0
54.312927 172.0
54.396564 104.0
54.558155 188.0
54.591972 208.0
55.137428 132.0
55.602455 204.0
55.890739 188.0
56.497967 172.0
56.559319 68.0
57.01376 172.0
57.099453 160.0
57.165646 120.0
57.37048 196.0
58.348457 188.0
58.492973 228.0
58.57901 144.0
59.193737 152.0
59.228962 116.0
59.265728 128.0
60.241123 128.0
60.350849 188.0
60.736458 120.0
61.566002 40.0
61.946064 180.0
62.007172 108.0
62.076149 100.0
62.140457 196.0
63.603352 164.0
63.739929 176.0
63.817814 104.0
63.986458 124.0
64.043785 80.0
64.279732 132.0
64.480949 156.0
64.663269 236.0
65.086479 116.0
65.22464 232.0
65.44664 124.0
65.544899 148.0
65.985527 152.0
66.278473 184.0
66.672798 144.0
67.712021 216.0
67.837662 152.0
68.013695 156.0
68.797241 160.0
70.407845 184.0
70.421204 148.0
71.492493 164.0
71.96109 276.0
72.062424 148.0
72.344849 176.0
72.809433 188.0
72.82132 200.0
72.862091 104.0
73.534691 168.0
73.789207 188.0
74.008209 196.0
74.186378 148.0
74.225815 156.0
74.25325 196.0
74.402534 52.0
74.696388 220.0
75.139114 180.0
75.455162 128.0
75.596992 196.0
75.887993 204.0
76.579613 184.0
76.60051 160.0
77.041847 196.0
77.218391 252.0
77.551041 144.0
77.752731 184.0
78.075981 172.0
78.119957 88.0
78.257225 108.0
78.283638 68.0
78.378761 144.0
78.424576 172.0
80.482445 208.0
81.300491 68.0
81.352539 180.0
81.744949 168.0
82.749718 168.0
83.014259 228.0
83.442764 196.0
83.928886 64.0
84.883369 104.0
85.199059 168.0
85.653419 96.0
85.846931 176.0
86.133003 132.0
86.217987 172.0
86.304871 152.0
86.423515 136.0
86.949509 184.0
86.966209 72.0
87.155632 128.0
87.771729 144.0
88.496689 204.0
88.674652 152.0
88.948494 152.0
88.999176 188.0
89.386383 164.0
89.972549 148.0
90.235146 40.0
90.422417 112.0
90.494347 224.0
90.604195 168.0
90.621246 168.0
90.850639 392.0
91.056938 292.0
91.268463 128.0
91.361656 148.0
91.980972 212.0
92.05925 172.0
92.288544 176.0
92.330612 220.0
92.728828 176.0
93.071365 212.0
93.087563 224.0
93.283531 152.0
93.462387 40.0
94.048233 160.0
94.081047 168.0
94.131248 180.0
94.852882 140.0
95.050697 168.0
95.08493 384.0
95.266205 160.0
95.303116 212.0
95.921982 192.0
96.054573 172.0
96.085785 136.0
96.390373 88.0
96.429459 200.0
96.601524 136.0
96.940231 148.0
97.063728 152.0
97.104904 168.0
97.124519 124.0
97.216728 196.0
97.745323 152.0
98.052528 188.0
98.539917 132.0
98.674309 144.0
98.698036 224.0
98.882004 140.0
99.123604 164.0
99.581863 224.0
99.834259 228.0
100.918999 136.0
101.040993 204.0
101.313263 188.0
102.140297 108.0
102.420082 148.0
102.819283 116.0
103.057701 556.0
103.364899 200.0
104.060051 140.0
104.08448 80.0
104.259171 68.0
105.034882 328.0
105.071175 1076.0
105.226707 112.0
105.279793 216.0
105.316559 260.0
105.87899 116.0
106.071579 104.0
106.133087 188.0
106.895142 196.0
107.050201 844.0
107.085167 228.0
107.115433 60.0
107.352448 52.0
108.03196 188.0
108.056786 128.0
108.156113 236.0
108.228569 68.0
109.018883 52.0
109.064606 176.0
109.102852 312.0
109.230949 52.0
109.422401 60.0
109.878815 116.0
109.912201 196.0
110.100075 160.0
110.679306 180.0
110.700249 68.0
111.045891 364.0
111.684525 64.0
111.770782 260.0
112.048698 216.0
112.263695 140.0
112.314308 156.0
112.943748 88.0
113.526161 172.0
113.742569 84.0
115.053802 172.0
116.061554 180.0
116.084427 168.0
116.434937 176.0
117.068428 540.0
118.038231 200.0
118.490585 216.0
118.618446 184.0
118.837479 208.0
119.05127 684.0
119.084396 468.0
119.380501 144.0
119.979263 260.0
120.049034 60.0
120.210457 156.0
120.898819 168.0
121.028214 372.0
121.064491 664.0
121.099472 480.0
121.551834 44.0
121.797714 232.0
122.028458 132.0
122.103218 104.0
122.477379 104.0
122.827843 144.0
122.860931 120.0
122.977882 96.0
123.045677 4304.0
123.116966 144.0
123.17218 92.0
123.444023 136.0
123.492676 136.0
124.046616 420.0
124.117165 144.0
124.703232 88.0
124.723228 76.0
124.783249 116.0
124.863304 88.0
125.012352 124.0
125.051926 164.0
125.056442 128.0
125.090775 188.0
125.522461 172.0
126.344383 232.0
127.056786 188.0
127.645241 220.0
127.825195 284.0
128.062943 528.0
128.805893 180.0
128.837524 204.0
129.071304 648.0
129.199234 168.0
129.667938 88.0
130.037613 216.0
130.160202 160.0
130.278305 236.0
130.391907 168.0
131.045898 968.0
131.086868 332.0
131.40065 208.0
131.681412 184.0
132.05661 240.0
132.074539 220.0
132.117996 124.0
132.394943 144.0
132.970383 152.0
133.023773 212.0
133.065277 1224.0
133.09549 184.0
133.12648 44.0
133.183899 124.0
133.696594 76.0
133.719604 176.0
133.777145 180.0
134.528641 132.0
135.043381 1024.0
135.083328 636.0
135.117722 388.0
135.627396 104.0
136.044922 196.0
136.149399 140.0
136.646835 92.0
136.819046 208.0
136.937805 108.0
137.020386 132.0
137.059891 432.0
137.10321 40.0
137.132309 328.0
137.198776 44.0
137.238419 60.0
137.315369 60.0
137.614044 92.0
138.065033 144.0
138.086075 96.0
139.037247 168.0
139.107651 124.0
139.166351 92.0
139.389481 164.0
140.68486 76.0
141.069901 252.0
141.093552 180.0
141.292206 84.0
142.074539 240.0
142.190247 144.0
142.755646 172.0
142.793686 232.0
143.048355 204.0
143.085007 148.0
143.772842 116.0
144.053253 160.0
144.315079 76.0
144.372452 176.0
145.064713 268.0
145.107559 212.0
145.373795 144.0
145.878159 144.0
146.035507 340.0
146.352112 36.0
147.045135 344.0
147.081512 764.0
147.116348 124.0
147.88501 136.0
148.050873 868.0
148.082642 232.0
148.869293 260.0
149.022873 1652.0
149.059372 2736.0
149.114655 68.0
149.170563 80.0
149.228912 44.0
149.309158 32.0
149.333481 48.0
149.379684 60.0
149.450241 76.0
149.547577 64.0
149.630341 64.0
149.654694 40.0
149.754532 72.0
149.795944 100.0
149.817856 64.0
149.990875 104.0
150.032654 176.0
150.063934 592.0
150.103027 56.0
150.420181 92.0
150.652161 52.0
150.677902 112.0
150.894104 52.0
151.036972 312.0
151.065292 308.0
151.148468 100.0
151.532867 184.0
152.040451 60.0
152.067444 224.0
152.320343 260.0
152.566071 244.0
152.602951 68.0
153.065628 204.0
153.437561 180.0
154.284332 88.0
154.420334 244.0
154.620728 120.0
155.08139 232.0
155.733917 88.0
156.489883 120.0
157.063828 336.0
157.664749 132.0
157.83223 108.0
159.032196 192.0
159.049759 204.0
159.082458 308.0
159.120056 128.0
160.053192 888.0
160.395462 184.0
160.531601 108.0
160.753586 116.0
160.801529 156.0
161.000977 124.0
161.059967 2676.0
161.091904 132.0
161.124741 236.0
161.15506 180.0
161.233398 68.0
161.526672 156.0
162.031876 168.0
162.064011 380.0
162.212891 64.0
162.639038 196.0
162.715179 64.0
162.750732 48.0
162.842148 116.0
163.038651 656.0
163.075455 4524.0
163.114578 180.0
163.286911 92.0
163.419189 128.0
163.531158 112.0
163.566788 56.0
163.729736 108.0
164.043533 208.0
164.080185 416.0
164.321091 56.0
165.01683 148.0
165.052704 1068.0
165.087372 144.0
165.115494 168.0
165.187119 100.0
165.348312 108.0
165.430222 92.0
165.957962 52.0
166.024643 160.0
166.059967 200.0
166.101166 168.0
166.27092 44.0
166.992844 40.0
167.033691 1972.0
167.08049 148.0
168.036041 176.0
168.059326 224.0
168.521484 44.0
169.061905 164.0
169.465851 152.0
171.081665 140.0
172.052429 156.0
172.077103 104.0
173.061401 968.0
173.098099 152.0
173.138702 104.0
173.859634 132.0
173.983002 56.0
174.001373 132.0
174.030258 112.0
174.070801 520.0
174.229858 80.0
175.040604 1304.0
175.075806 1440.0
176.042786 576.0
176.083527 168.0
176.218307 200.0
176.446228 88.0
177.05603 2216.0
177.090424 1132.0
177.126312 36.0
177.264084 100.0
178.05629 248.0
178.094421 160.0
178.118362 60.0
178.190079 200.0
178.716507 56.0
178.916122 168.0
179.069351 308.0
179.106918 288.0
179.419617 72.0
179.68364 140.0
180.054672 164.0
181.051819 348.0
181.41658 60.0
181.475555 72.0
182.014862 180.0
182.056046 156.0
182.525406 148.0
183.077042 144.0
184.042374 216.0
184.061279 64.0
185.058624 140.0
185.094833 272.0
185.129608 148.0
186.060898 304.0
187.040726 172.0
187.075745 368.0
188.079727 240.0
188.215729 152.0
188.387787 164.0
188.52713 92.0
188.704803 64.0
188.726669 124.0
189.054916 2204.0
189.091187 2656.0
189.134277 80.0
189.223068 92.0
189.301285 44.0
189.513489 136.0
189.76709 176.0
190.060928 484.0
190.091797 272.0
190.400955 56.0
190.626205 196.0
191.000107 184.0
191.027618 200.0
191.071472 480.0
191.107834 568.0
191.184448 176.0
191.379883 116.0
191.595474 72.0
192.079529 132.0
192.146072 108.0
192.317154 100.0
193.049942 480.0
193.125275 216.0
193.372955 84.0
194.050735 308.0
195.07695 176.0
195.51268 232.0
195.91362 80.0
196.084808 160.0
197.05275 176.0
197.138474 152.0
198.089737 40.0
198.754166 180.0
199.074768 664.0
199.164032 108.0
200.082809 148.0
201.08786 292.0
202.092377 224.0
203.069916 480.0
203.104874 564.0
204.075485 212.0
204.108704 356.0
205.089859 200.0
205.126068 204.0
206.142105 160.0
206.202118 68.0
206.711151 148.0
207.064362 468.0
207.101074 292.0
207.243729 68.0
208.066193 200.0
208.104172 128.0
208.995163 136.0
209.110275 144.0
209.723755 96.0
210.086517 144.0
211.074951 180.0
211.876526 168.0
212.083954 516.0
213.087448 476.0
213.135712 52.0
214.097137 172.0
215.086914 240.0
215.11084 144.0
215.881577 124.0
217.084625 676.0
217.120209 204.0
219.102859 148.0
219.145248 160.0
219.228119 60.0
220.104218 136.0
221.073776 372.0
221.116196 312.0
221.221756 52.0
221.663055 60.0
221.802353 132.0
221.903137 92.0
221.929825 112.0
223.099548 348.0
223.141174 184.0
223.200638 48.0
223.542709 36.0
224.117386 176.0
225.093277 168.0
225.119629 176.0
225.221176 64.0
225.845856 96.0
226.091553 408.0
226.465424 88.0
227.109955 152.0
228.109711 192.0
231.099091 120.0
231.135101 176.0
233.461273 84.0
234.097275 44.0
235.09697 604.0
235.185654 120.0
236.09993 188.0
237.296402 48.0
239.105637 148.0
240.112808 152.0
241.10405 172.0
241.159683 180.0
241.233871 152.0
245.110245 240.0
245.15387 224.0
247.117889 116.0
251.160919 140.0
252.138809 224.0
253.250153 76.0
258.903259 40.0
259.140289 196.0
259.169128 180.0
260.172974 108.0
260.208282 152.0
261.140167 152.0
264.162476 148.0
267.153351 172.0
269.155396 612.0
270.07605 120.0
270.157806 148.0
272.183533 180.0
277.177216 184.0
278.176697 184.0
279.075775 108.0
279.18219 140.0
281.104279 148.0
286.512482 72.0
287.1604 144.0
287.264221 84.0
287.922394 40.0
293.221649 40.0
296.348297 76.0
301.202393 164.0
305.168518 184.0
307.068146 172.0
318.127533 156.0
323.252686 200.0
326.236725 144.0
365.918793 96.0
380.319427 52.0
394.899109 64.0
416.009216 140.0
457.636078 124.0
535.993103 124.0
578.595398 76.0
601.114746 40.0
610.077698 48.0
704.548584 220.0
763.175964 60.0
816.848999 180.0
850.795288 80.0
901.1604 188.0
905.892517 188.0
934.995911 168.0
958.412781 244.0
962.773926 112.0
981.688904 228.0
985.927612 192.0
990.964783 44.0
1024.2323 172.0
1027.177246 172.0
1031.225342 120.0
1033.585083 52.0
1045.958374 152.0
1049.359741 176.0
1051.565796 156.0
1065.981567 140.0
1070.32666 212.0
1080.744019 272.0
1085.906006 84.0
1092.796753 244.0
1095.970337 192.0
1096.154785 80.0
1112.258789 120.0
1116.444458 64.0
1116.66394 184.0
1143.412109 204.0
1154.786987 72.0
1155.388916 288.0
1156.789795 140.0
1162.958008 164.0
1166.286133 192.0
1168.50293 64.0
1182.026245 116.0
1187.863403 88.0
1189.105225 176.0
1218.966553 100.0
1221.733765 244.0
1224.469238 92.0
1234.931152 208.0
1237.898438 156.0
1247.067749 248.0
1253.866333 132.0
1260.372681 148.0
1265.012085 48.0
1266.435303 180.0
1268.646118 144.0
1271.440674 188.0
1271.511597 160.0
1271.75293 84.0
1274.025146 192.0
1276.015137 176.0
1303.001831 168.0
1305.035767 196.0
1312.358154 188.0
1313.497559 216.0
1314.644775 240.0
1318.862427 116.0
1319.223877 204.0
1319.62146 164.0
1320.120361 216.0
1327.702515 212.0
1328.478516 40.0
1333.125244 48.0
1334.07019 160.0
1343.230835 172.0
1343.551758 148.0
1350.293701 48.0
1354.846558 196.0
1354.905151 136.0
1360.706177 148.0
1361.26416 168.0
1361.881104 116.0
1363.703247 88.0
1364.489746 68.0
1367.947388 144.0
1370.200806 144.0
1375.532471 156.0
1379.669189 112.0
1384.767456 108.0
1390.186768 132.0
1391.099609 220.0
1397.438843 144.0
1402.4729 140.0
1404.098267 48.0
1410.945312 84.0
1411.274292 116.0
1415.966187 140.0
1416.632812 76.0
1419.68335 204.0
1420.313232 256.0
1423.743164 276.0
1425.162964 128.0
1428.184937 180.0
1428.508423 224.0
1434.886963 188.0
1437.753174 232.0
1438.304199 192.0
1447.512451 212.0
1449.74707 200.0
1450.148804 160.0
1452.795166 172.0
1459.242798 180.0
1464.333496 140.0
1464.600098 184.0
1465.255249 92.0
1474.335205 132.0
1474.510986 108.0
1479.505859 76.0
1483.887939 112.0
1488.460938 144.0
1490.196777 176.0
1491.579956 168.0
