>compound MLS001032302-01!(2S)-2-[[(2S)-3-methyl-2-[[(2S)-3-oxo-2-propan-2-yl-2,4-dihydroquinoxaline-1-carbonyl]amino]pentanoyl]amino]-3-phenylpropanoic acid
>formula C27H34N4O5
>ionization [M+H]+
>parentmass 495.261
#inchi InChI=1S/C27H34N4O5/c1-5-17(4)22(24(32)29-20(26(34)35)15-18-11-7-6-8-12-18)30-27(36)31-21-14-10-9-13-19(21)28-25(33)23(31)16(2)3/h6-14,16-17,20,22-23H,5,15H2,1-4H3,(H,28,33)(H,29,32)(H,30,36)(H,34,35)/t17?,20-,22-,23-/m0/s1
#inchikey LQSGRURSAZWYKP
#Ion_Source LC-ESI
#Instrument qTof
#Compound_Source NIH Natural Product Library
#PI Dorrestein
#Data_Collector VVP/LMS
#Scan -1
#Precursor_MZ 495.261
#ExactMass 494.253
#Charge 1
#CAS_Number N/A
#Pubmed_ID N/A
#Smiles CCC(C)[C@H](NC(=O)N1[C@@H](C(C)C)C(=O)Nc2ccccc12)C(=O)N[C@@H](Cc3ccccc3)C(=O)O
#INCHI_AUX N/A
#Library_Class 1
#SpectrumID CCMSLIB00000079939
#IonMode Positive
#UpdateWorkflowName UPDATE-SINGLE-ANNOTATED-GOLD
#LibraryQualityString Gold
#TaskID b1d8e8f6646f4e71acdff9ca3d919d08
##Scan# 2092
#SpectrumFile p2-A02_GA2_01_17979.mzXML
#LibraryName NIH_Natural_Products_Library.mgf
#MQScore -1
#Organism NIH_Natural_Products_Library
#TIC_Query 0
#RT_Query -1
#MZErrorPPM -1
#SharedPeaks 0
#MassDiff 0
#LibMZ -1
#SpecMZ 495.261
#SpecCharge 0
#internalFilename spec-00000.mgf

>collision 10
95.054985 204.0
95.18116 68.0
95.262733 132.0
95.402313 160.0
95.43486 92.0
95.443184 52.0
95.448112 84.0
95.472649 108.0
95.530998 116.0
95.570969 244.0
95.692535 196.0
95.758743 164.0
95.875641 224.0
95.908775 164.0
95.926315 192.0
95.99456 164.0
96.008209 156.0
96.105743 140.0
96.127213 200.0
96.176003 224.0
96.197472 168.0
96.408417 164.0
96.422104 248.0
96.504204 260.0
96.556999 184.0
96.570694 160.0
96.590256 240.0
96.643074 164.0
96.742889 188.0
96.770302 128.0
96.8536 232.0
97.032845 120.0
97.050484 148.0
97.107361 156.0
97.191711 52.0
97.274147 104.0
97.405708 192.0
97.60421 192.0
97.623878 176.0
97.757652 156.0
97.773392 100.0
97.976418 228.0
98.074738 236.0
98.17923 144.0
98.220917 176.0
98.317329 156.0
98.331146 192.0
98.429855 172.0
98.524658 104.0
98.603523 180.0
98.633347 136.0
98.720345 68.0
98.775726 124.0
98.797485 140.0
98.865997 224.0
98.900383 128.0
98.981552 104.0
99.0933 164.0
99.120216 232.0
99.18364 152.0
99.231216 244.0
99.463326 124.0
99.545952 84.0
99.749519 160.0
99.793106 152.0
99.944977 132.0
99.968155 48.0
99.992035 132.0
100.017906 180.0
100.031845 132.0
100.074059 196.0
100.089584 160.0
100.159386 156.0
100.240974 204.0
100.372536 60.0
100.452316 188.0
100.48822 212.0
100.51815 200.0
100.578949 188.0
100.695831 260.0
100.72979 48.0
101.289886 72.0
101.41613 204.0
101.442184 128.0
101.596603 176.0
101.638733 160.0
101.741096 140.0
101.841499 184.0
101.875648 180.0
101.909805 232.0
101.964066 196.0
102.111366 136.0
102.197334 208.0
102.219467 52.0
102.404686 136.0
102.453865 48.0
102.594101 84.0
102.680801 140.0
102.795799 136.0
102.957298 192.0
103.052834 352.0
103.088615 192.0
103.288773 52.0
103.340157 200.0
103.396011 116.0
103.428391 256.0
103.450661 148.0
103.501274 152.0
103.88636 152.0
103.949203 152.0
104.006088 184.0
104.032478 152.0
104.048721 172.0
104.150253 216.0
104.199013 164.0
104.215263 260.0
104.231522 132.0
104.344025 160.0
104.396179 128.0
104.521416 156.0
104.526001 88.0
104.533234 140.0
104.636284 148.0
104.858322 172.0
104.917435 100.0
104.968987 156.0
105.020271 232.0
105.040955 344.0
105.084671 144.0
105.113243 64.0
105.182632 164.0
105.360298 112.0
105.407455 196.0
105.638329 52.0
105.707893 128.0
105.779526 164.0
105.836853 212.0
105.855278 48.0
105.894196 152.0
105.933113 208.0
105.965889 80.0
105.992981 108.0
106.0289 832.0
106.064255 120.0
106.107307 160.0
106.150368 48.0
106.168823 44.0
106.29158 124.0
106.324745 172.0
106.351425 272.0
106.622536 132.0
106.645149 152.0
106.762337 152.0
106.922806 140.0
106.968086 172.0
107.007202 124.0
107.031914 168.0
107.059731 2692.0
107.229683 84.0
107.60099 180.0
107.636093 276.0
107.679459 216.0
107.770828 52.0
107.846817 140.0
107.884026 116.0
107.927444 200.0
107.945999 288.0
107.997757 120.0
108.036369 216.0
108.067421 2068.0
108.106644 68.0
108.145943 204.0
108.188133 96.0
108.275101 164.0
108.33931 136.0
108.360031 192.0
108.397644 52.0
108.469872 124.0
108.48645 152.0
108.574158 80.0
108.600502 176.0
108.652428 120.0
108.731216 128.0
108.816322 60.0
108.853699 188.0
108.893158 104.0
108.920158 44.0
109.067467 340.0
109.071312 124.0
109.183296 204.0
109.241234 360.0
109.296455 60.0
109.346405 144.0
109.427589 176.0
109.598381 76.0
109.694252 184.0
109.76931 112.0
109.833969 44.0
109.919502 52.0
109.952896 132.0
109.9767 236.0
110.06562 52.0
110.249451 44.0
110.274536 192.0
110.405739 164.0
110.535057 224.0
110.625946 132.0
110.690857 156.0
110.749496 252.0
110.829102 40.0
110.952766 132.0
110.973732 76.0
111.055519 168.0
111.168808 196.0
111.238075 164.0
111.564369 136.0
111.588913 168.0
111.664619 44.0
111.700378 84.0
111.98243 156.0
112.049843 152.0
112.07795 600.0
112.117271 156.0
112.202415 204.0
112.484268 200.0
112.561943 188.0
112.613075 228.0
112.636307 208.0
112.674339 196.0
112.720818 160.0
112.900513 228.0
113.016853 192.0
113.076462 168.0
113.109978 160.0
113.19043 296.0
113.220078 104.0
113.234901 112.0
113.26667 204.0
113.28997 188.0
113.461632 52.0
113.656769 160.0
113.852066 220.0
114.028404 80.0
114.097488 144.0
114.20488 160.0
114.279335 76.0
114.487946 152.0
114.532669 368.0
114.628548 188.0
114.718063 140.0
114.758568 136.0
114.803352 136.0
114.818275 168.0
114.939873 204.0
114.98658 176.0
115.036896 156.0
115.072212 124.0
115.115524 196.0
115.33284 176.0
115.347801 196.0
115.394836 168.0
115.450432 52.0
115.467537 152.0
115.48893 144.0
115.636559 212.0
115.683655 132.0
115.724327 128.0
115.970688 144.0
116.00499 232.0
116.026428 128.0
116.065018 244.0
116.352524 172.0
116.4599 132.0
116.52005 168.0
116.547981 72.0
116.633942 188.0
116.687691 192.0
116.744354 136.0
116.82476 228.0
116.864052 128.0
116.98027 168.0
117.016869 168.0
117.043831 804.0
117.094391 148.0
117.184868 136.0
117.238739 144.0
117.303398 76.0
117.447876 72.0
117.465134 108.0
117.577332 204.0
117.610031 264.0
117.73925 120.0
117.942345 152.0
118.039635 152.0
118.06974 304.0
118.074051 140.0
118.275459 60.0
118.448692 168.0
118.557022 80.0
118.578697 116.0
118.626381 108.0
118.678413 40.0
118.749977 88.0
118.80529 312.0
118.825905 172.0
118.84977 152.0
118.901855 92.0
119.025589 216.0
119.060127 17796.0
119.099434 152.0
119.129303 192.0
119.231972 124.0
119.292831 160.0
119.453751 144.0
119.573425 44.0
119.636551 56.0
119.658318 200.0
119.791168 104.0
119.880501 120.0
119.92627 120.0
120.038216 160.0
120.079582 4360.0
120.135605 56.0
120.275261 64.0
120.308006 32.0
120.415001 72.0
120.439026 104.0
120.570122 196.0
120.615814 168.0
120.64444 92.0
120.72097 192.0
120.753769 100.0
120.795959 112.0
120.83252 76.0
120.849762 164.0
121.081253 864.0
121.112732 152.0
121.147781 32.0
121.167496 124.0
121.182831 136.0
121.215698 124.0
121.316521 140.0
121.360374 152.0
121.443703 164.0
121.777328 180.0
121.819061 188.0
121.845428 44.0
121.90036 128.0
122.036644 176.0
122.140434 124.0
122.214806 92.0
122.267616 120.0
122.368874 60.0
122.415115 148.0
122.443748 64.0
122.461365 160.0
122.487801 160.0
122.541893 168.0
122.560501 132.0
122.578133 192.0
122.617798 132.0
122.653069 132.0
122.710381 140.0
122.769402 220.0
122.880211 140.0
122.901573 176.0
122.926544 172.0
123.025871 164.0
123.061195 128.0
123.100945 128.0
123.139526 184.0
123.244698 236.0
123.430199 108.0
123.481064 192.0
123.671341 144.0
123.715614 240.0
123.919373 56.0
123.996613 140.0
124.136597 80.0
124.165428 72.0
124.187607 156.0
124.331818 52.0
124.393967 36.0
124.43615 144.0
124.522751 140.0
124.547188 120.0
124.651604 204.0
124.671608 140.0
124.702721 180.0
124.833893 140.0
124.871696 152.0
125.087532 128.0
125.112015 248.0
125.147644 180.0
125.207764 36.0
125.250084 144.0
125.287956 204.0
125.303551 148.0
125.354797 96.0
125.443954 112.0
125.477394 188.0
125.542053 76.0
125.620125 196.0
125.673332 160.0
125.818741 224.0
125.87233 96.0
125.957199 68.0
126.010811 156.0
126.124443 156.0
126.158318 132.0
126.30143 144.0
126.41777 196.0
126.464775 144.0
126.5476 176.0
126.771599 176.0
126.897125 164.0
126.944214 120.0
127.069824 132.0
127.101242 148.0
127.195503 220.0
127.361664 84.0
127.397606 212.0
127.417824 120.0
127.465012 76.0
127.505463 180.0
127.581886 96.0
127.626854 228.0
127.642593 76.0
127.671829 168.0
127.831551 176.0
128.007141 204.0
128.048965 460.0
128.122009 192.0
128.137787 132.0
128.205383 172.0
128.252716 124.0
128.354935 140.0
128.4534 100.0
128.523331 36.0
128.64296 164.0
128.704742 152.0
128.773926 128.0
128.825882 180.0
129.011337 176.0
129.046814 364.0
129.78096 228.0
129.844467 184.0
129.863708 172.0
130.023697 100.0
130.050934 200.0
130.069672 172.0
130.103134 132.0
130.402985 104.0
130.432526 104.0
130.487091 92.0
130.615402 188.0
130.639465 52.0
130.669037 128.0
130.745636 140.0
130.787384 192.0
130.840027 156.0
130.859512 232.0
130.877243 152.0
130.921707 72.0
130.944489 140.0
131.033325 200.0
131.053513 116.0
131.072052 712.0
131.193481 264.0
131.236176 204.0
131.272659 172.0
131.304581 164.0
131.452866 212.0
131.473755 132.0
131.605804 332.0
131.647263 156.0
131.761124 84.0
131.779404 128.0
131.827377 152.0
131.868515 88.0
131.906311 192.0
131.957672 184.0
132.028564 176.0
132.065262 168.0
132.332901 164.0
132.431381 144.0
132.458862 80.0
132.571136 148.0
132.690475 188.0
132.715546 164.0
132.736176 240.0
132.775162 184.0
132.800018 148.0
132.87381 132.0
133.002319 116.0
133.039948 11956.0
133.076736 708.0
133.112518 192.0
133.133179 160.0
133.158447 164.0
133.204956 48.0
133.287094 216.0
133.328461 192.0
133.344543 60.0
133.468689 180.0
133.514679 36.0
133.58139 148.0
133.615891 156.0
133.69873 76.0
133.740158 196.0
133.78389 228.0
133.841446 144.0
133.933578 76.0
133.956604 84.0
133.995773 156.0
134.042664 1424.0
134.076416 60.0
134.325439 124.0
134.378494 192.0
134.416 156.0
134.526199 196.0
134.593155 112.0
134.723099 204.0
134.751785 224.0
134.801056 140.0
134.868088 216.0
134.960556 108.0
135.004486 176.0
135.02327 152.0
135.055313 18276.0
135.096069 256.0
135.131042 140.0
135.154846 60.0
135.177994 144.0
135.204788 196.0
135.239532 236.0
135.269821 160.0
135.342346 64.0
135.365494 52.0
135.39328 68.0
135.419128 108.0
135.448883 44.0
135.478989 144.0
135.518372 40.0
135.536911 172.0
135.571671 44.0
135.630692 196.0
135.752502 156.0
135.905594 124.0
136.019318 232.0
136.058441 1636.0
136.205078 80.0
136.249222 84.0
136.284073 216.0
136.31427 84.0
136.423508 40.0
136.635147 112.0
136.677032 140.0
136.947083 152.0
136.992767 152.0
137.027008 192.0
137.058899 124.0
137.20108 160.0
137.343323 108.0
137.604691 204.0
137.644394 228.0
137.663071 184.0
137.733139 196.0
137.749496 132.0
137.82962 128.0
137.852295 184.0
137.927078 156.0
137.983185 172.0
138.046326 192.0
138.327087 44.0
138.42308 180.0
138.458206 60.0
138.516769 208.0
138.59642 216.0
138.725845 236.0
138.816772 204.0
138.851227 144.0
139.304962 168.0
139.375443 68.0
139.429489 216.0
139.460052 36.0
139.638733 48.0
139.676376 180.0
139.706955 80.0
139.782242 196.0
140.048279 132.0
140.093033 84.0
140.144867 176.0
140.313477 148.0
140.35701 308.0
140.486725 256.0
140.507965 140.0
140.616501 152.0
140.663712 80.0
140.741623 152.0
140.762878 156.0
140.932953 236.0
141.129135 176.0
141.228836 204.0
141.273407 84.0
141.289963 164.0
141.417755 220.0
141.450882 120.0
141.694809 188.0
141.799072 140.0
141.82515 176.0
141.882034 112.0
141.912857 180.0
142.005341 188.0
142.036179 120.0
142.064651 116.0
142.159561 192.0
142.347092 204.0
142.411224 120.0
142.522873 48.0
142.632202 96.0
142.674988 180.0
142.80101 60.0
143.036285 100.0
143.103241 172.0
143.153244 112.0
143.501129 204.0
143.555984 128.0
143.644226 180.0
143.680008 196.0
143.768295 128.0
144.026154 28.0
144.079758 280.0
144.155167 124.0
144.210129 68.0
144.401413 136.0
144.477951 104.0
144.497757 304.0
144.719681 188.0
144.894531 108.0
144.975998 48.0
145.072617 172.0
145.208557 268.0
145.321304 132.0
145.563736 120.0
145.628571 148.0
145.796753 32.0
145.819611 236.0
145.91214 140.0
145.953003 140.0
146.023514 164.0
146.058517 1336.0
146.095963 1996.0
146.179123 36.0
146.455994 152.0
146.472855 168.0
146.498306 148.0
146.547531 172.0
146.716248 156.0
146.771698 164.0
146.789734 92.0
146.844055 188.0
146.860931 208.0
146.877823 204.0
146.918823 116.0
146.940536 208.0
146.957428 76.0
147.00267 188.0
147.022812 216.0
147.055786 54140.0
147.106491 196.0
147.138657 276.0
147.181259 164.0
147.213089 136.0
147.24469 108.0
147.264008 48.0
147.286102 56.0
147.3255 88.0
147.366287 264.0
147.406769 128.0
147.452133 104.0
147.47789 192.0
147.518127 96.0
147.555588 140.0
147.586929 72.0
147.641052 120.0
147.677322 208.0
147.723282 100.0
147.810379 184.0
147.849289 104.0
147.877213 196.0
147.921722 124.0
147.93866 132.0
147.9814 116.0
148.025818 68.0
148.060028 8636.0
148.100616 308.0
148.121277 52.0
148.160889 84.0
148.200226 28.0
148.222031 68.0
148.27002 140.0
148.333527 136.0
148.382004 52.0
148.401398 44.0
148.420807 64.0
148.452332 28.0
148.484848 92.0
148.515381 108.0
148.610443 152.0
148.668228 48.0
148.711914 200.0
148.750763 144.0
148.784744 216.0
148.827393 156.0
148.896439 132.0
148.913437 116.0
148.949341 224.0
148.983887 164.0
149.001221 176.0
149.06192 616.0
149.098083 60.0
149.132111 128.0
149.185944 340.0
149.206757 68.0
149.24881 132.0
149.28125 172.0
149.329056 132.0
149.35582 136.0
149.523697 148.0
149.58699 160.0
149.652725 48.0
149.672195 48.0
149.789093 132.0
149.880402 184.0
150.018173 84.0
150.047424 216.0
150.066925 176.0
150.119141 232.0
150.166916 152.0
150.203491 120.0
150.244965 120.0
150.391388 96.0
150.540314 140.0
150.564728 164.0
151.166122 160.0
151.408478 40.0
151.481964 40.0
151.501556 176.0
151.60202 56.0
151.736832 176.0
151.793228 152.0
151.820206 132.0
152.082733 88.0
152.213135 172.0
152.583862 260.0
152.778152 172.0
152.844589 140.0
152.874115 152.0
153.06366 160.0
153.095673 180.0
153.277969 112.0
153.314926 132.0
153.771194 124.0
153.872406 132.0
154.005753 164.0
154.067505 148.0
154.341339 152.0
154.482834 88.0
154.789734 156.0
155.077316 256.0
155.238266 168.0
155.269547 240.0
155.312668 48.0
155.337479 184.0
155.451599 96.0
155.703827 136.0
155.766922 180.0
155.853882 48.0
155.911026 108.0
155.970688 144.0
156.19696 128.0
156.256668 72.0
156.333801 252.0
156.45079 160.0
156.513031 152.0
156.625107 132.0
156.762985 164.0
156.881775 92.0
156.961563 112.0
157.07103 152.0
157.088699 176.0
157.123688 48.0
157.166107 252.0
157.213516 216.0
157.395752 148.0
157.448181 240.0
157.683029 76.0
157.790527 144.0
157.853027 208.0
157.908051 144.0
158.063156 188.0
158.083176 164.0
158.1082 148.0
158.320999 124.0
158.356064 232.0
158.416183 168.0
158.631699 172.0
158.827286 164.0
159.050613 52.0
159.092606 352.0
159.346939 72.0
159.548004 148.0
159.620911 220.0
159.756729 140.0
159.859894 128.0
159.914627 224.0
159.990784 220.0
160.028549 192.0
160.051208 124.0
160.092194 148.0
160.245148 144.0
160.471985 104.0
160.51152 136.0
160.585464 128.0
160.623306 156.0
160.683853 180.0
160.751968 64.0
160.863037 212.0
160.917786 168.0
160.936249 384.0
161.034805 13896.0
161.07106 2872.0
161.107391 908.0
161.163971 152.0
161.18631 124.0
161.282349 44.0
161.317474 188.0
161.46225 156.0
161.491089 152.0
161.517502 48.0
161.781616 120.0
161.930084 148.0
161.966156 116.0
162.037384 940.0
162.073685 652.0
162.102798 332.0
162.230972 156.0
162.312759 164.0
162.353333 192.0
162.399933 180.0
162.421814 140.0
162.533432 72.0
162.553741 188.0
162.57579 104.0
162.632416 84.0
162.706482 188.0
162.746658 136.0
162.766968 152.0
162.80983 132.0
162.8965 180.0
162.947311 116.0
162.967636 188.0
163.000656 124.0
163.030121 156.0
163.074554 308.0
163.12326 65484.0
163.169739 92.0
163.203445 124.0
163.222885 104.0
163.262009 56.0
163.300644 72.0
163.326401 340.0
163.361694 28.0
163.402405 100.0
163.458389 184.0
163.476196 192.0
163.50853 220.0
163.541397 164.0
163.58844 40.0
163.616074 184.0
163.646744 104.0
163.666885 180.0
163.701218 92.0
163.761337 264.0
163.807327 76.0
163.842987 220.0
163.919296 80.0
163.954575 204.0
163.990646 76.0
164.028885 192.0
164.056931 152.0
164.126328 7900.0
164.184647 136.0
164.226593 108.0
164.328903 100.0
164.33699 64.0
164.466339 76.0
164.505905 96.0
164.559525 60.0
164.614548 88.0
164.655975 108.0
164.677002 52.0
164.730637 40.0
164.807281 64.0
164.896729 92.0
164.924835 124.0
165.090561 44.0
165.126389 296.0
165.208679 80.0
165.234268 68.0
165.280319 100.0
165.330292 80.0
165.378448 140.0
165.423645 84.0
165.451813 116.0
165.500458 80.0
165.543991 76.0
165.561905 88.0
165.846298 36.0
166.088608 392.0
166.141205 104.0
166.197647 52.0
166.354202 76.0
166.392715 192.0
166.433792 152.0
166.531372 96.0
166.580185 80.0
166.6978 180.0
166.736923 128.0
166.991455 148.0
167.089081 160.0
167.324646 100.0
167.508835 224.0
167.635071 72.0
167.962509 80.0
168.130219 176.0
168.349655 76.0
168.61058 52.0
168.651932 80.0
168.70105 136.0
168.941559 136.0
169.055405 192.0
169.446396 164.0
169.467133 188.0
169.752258 140.0
170.175217 108.0
170.240128 140.0
170.341415 64.0
170.770309 116.0
170.856155 236.0
171.059143 108.0
171.090576 264.0
171.514999 136.0
171.624496 132.0
171.732513 136.0
171.929703 132.0
172.064926 104.0
172.090744 208.0
172.222122 52.0
172.784149 80.0
172.868988 160.0
172.94902 32.0
173.105331 1220.0
173.195145 188.0
173.336624 88.0
173.373306 168.0
173.656464 64.0
173.714172 124.0
173.811249 136.0
173.837479 132.0
174.079346 456.0
174.107346 528.0
174.331177 84.0
174.462601 136.0
174.517822 88.0
174.675613 292.0
174.880859 112.0
174.91507 76.0
175.012482 156.0
175.050995 1312.0
175.086243 7228.0
175.125031 136.0
175.165237 124.0
175.187149 176.0
175.228455 60.0
175.296967 176.0
175.364471 216.0
175.554428 48.0
175.647629 368.0
175.684555 28.0
175.800659 76.0
175.820694 176.0
175.914154 52.0
176.050735 396.0
176.090805 752.0
176.115768 132.0
176.175583 84.0
176.431931 60.0
176.654083 192.0
176.72287 144.0
176.770493 124.0
176.789017 132.0
177.011383 144.0
177.072296 124.0
177.091934 204.0
177.127914 124.0
177.273636 108.0
177.517532 120.0
177.658096 252.0
177.934113 60.0
178.186417 52.0
178.287399 156.0
178.369797 160.0
178.391052 180.0
178.460175 44.0
178.518677 116.0
178.912888 152.0
178.947083 224.0
178.971054 60.0
179.003006 172.0
179.045303 13492.0
179.083038 144.0
179.14949 40.0
179.186783 68.0
179.360016 148.0
179.450653 76.0
179.498642 40.0
179.805435 72.0
179.840134 132.0
179.85881 84.0
180.013535 156.0
180.047028 1096.0
180.195297 96.0
180.219345 88.0
180.248749 36.0
180.481293 92.0
180.596283 36.0
180.724701 76.0
181.045929 124.0
181.193253 88.0
181.284348 84.0
181.305786 88.0
181.44249 200.0
181.713379 116.0
181.780457 64.0
181.928085 124.0
182.040848 132.0
182.067703 148.0
182.137543 180.0
182.400879 52.0
182.470764 132.0
183.043884 140.0
183.386032 104.0
183.733887 280.0
183.758179 92.0
183.812134 124.0
183.963287 196.0
184.017273 180.0
184.109085 220.0
184.338715 148.0
184.357635 124.0
184.441422 84.0
184.552261 60.0
184.725342 152.0
184.80043 172.0
184.928284 104.0
184.985138 208.0
185.212601 132.0
185.261948 164.0
185.456451 148.0
186.077682 160.0
186.17543 72.0
186.235184 116.0
187.083588 148.0
187.138046 64.0
187.162552 144.0
187.459473 188.0
187.494888 64.0
187.595749 68.0
187.742981 152.0
187.783295 216.0
187.933929 148.0
188.144028 436.0
188.430847 112.0
188.452713 104.0
188.510086 168.0
188.578415 148.0
188.734238 136.0
188.794403 112.0
188.87645 140.0
188.901077 120.0
188.921814 56.0
188.963989 164.0
189.028595 244.0
189.102203 26012.0
189.179474 88.0
189.196243 28.0
189.229477 88.0
189.351837 200.0
189.481461 88.0
189.566391 40.0
189.593796 68.0
189.623947 52.0
189.673279 76.0
189.692474 40.0
189.725372 44.0
189.76207 192.0
189.796661 48.0
189.986328 152.0
190.059479 152.0
190.105606 2388.0
190.222885 228.0
190.32074 72.0
190.348206 220.0
190.400375 88.0
190.419601 148.0
190.45256 192.0
190.482773 36.0
190.633896 72.0
190.941803 120.0
190.988556 168.0
191.022446 120.0
191.117783 2556.0
191.181152 228.0
191.273193 180.0
191.38739 148.0
191.448181 104.0
191.547348 164.0
191.709488 136.0
191.753998 228.0
191.878036 152.0
191.971786 80.0
191.996613 96.0
192.05278 176.0
192.120544 424.0
192.203506 216.0
192.225586 152.0
192.305618 48.0
192.36911 28.0
192.686691 160.0
193.09581 216.0
193.115173 104.0
193.21199 60.0
193.557968 84.0
194.128815 172.0
194.212021 164.0
194.306335 128.0
194.342407 204.0
194.436752 140.0
194.656067 84.0
194.808823 108.0
195.718292 136.0
196.468033 188.0
197.126968 168.0
197.761826 128.0
197.837402 100.0
198.134262 128.0
198.299591 112.0
198.493027 84.0
199.085358 524.0
199.259293 68.0
199.309875 128.0
200.044662 216.0
200.085693 168.0
200.390335 136.0
200.449509 232.0
200.80191 264.0
201.501968 228.0
201.954269 188.0
201.974075 84.0
202.056641 128.0
202.455231 92.0
202.475052 156.0
202.52887 200.0
202.826385 88.0
203.981705 188.0
204.061295 212.0
204.729996 188.0
205.442581 108.0
206.062103 188.0
206.127441 2268.0
206.159256 168.0
206.184982 88.0
206.468018 168.0
206.553818 180.0
206.605316 148.0
206.877182 68.0
206.957352 40.0
207.132736 432.0
207.16069 192.0
207.481659 160.0
207.516068 176.0
207.539001 164.0
207.771317 152.0
208.08989 84.0
208.138702 236.0
208.368484 52.0
208.466187 60.0
208.520782 72.0
208.960754 140.0
209.061462 64.0
209.231293 144.0
209.352234 148.0
209.764252 176.0
209.968964 36.0
210.147812 72.0
210.234375 172.0
210.421997 132.0
210.471085 164.0
211.2659 124.0
211.401886 164.0
212.511703 100.0
213.563324 180.0
213.831009 156.0
214.792542 232.0
215.069748 164.0
215.122284 204.0
215.236145 92.0
215.361237 164.0
215.475662 116.0
215.674377 140.0
215.706528 144.0
216.03215 164.0
216.057449 52.0
216.121826 164.0
216.159866 40.0
216.180344 68.0
216.224243 164.0
216.251205 132.0
216.408661 36.0
216.496506 196.0
216.581451 92.0
216.630463 208.0
216.692764 92.0
216.748444 236.0
216.871536 204.0
216.894974 76.0
216.951416 176.0
216.974136 76.0
217.009949 92.0
217.050369 68.0
217.097412 43488.0
217.173538 48.0
217.210495 60.0
217.258606 108.0
217.299118 84.0
217.348511 56.0
217.383499 156.0
217.454102 180.0
217.4823 104.0
217.528595 32.0
217.557938 124.0
217.584366 48.0
217.660706 100.0
217.75174 64.0
217.840591 48.0
217.886871 76.0
218.099487 5740.0
218.198395 36.0
218.395432 84.0
218.454254 112.0
218.571167 168.0
218.716156 64.0
218.919296 80.0
218.960526 124.0
218.99588 80.0
219.101944 492.0
219.193268 76.0
219.252197 76.0
219.396637 72.0
219.446747 124.0
219.485092 84.0
219.562256 96.0
219.664993 40.0
219.744644 72.0
219.844971 140.0
219.92897 96.0
220.109253 156.0
220.216965 120.0
220.3871 108.0
220.630661 240.0
220.745514 100.0
220.787384 172.0
221.13353 48.0
221.216415 64.0
221.571793 132.0
221.755524 156.0
222.111328 176.0
222.853516 136.0
223.516586 200.0
223.638611 80.0
223.847015 156.0
224.276031 108.0
224.410172 212.0
224.771088 160.0
225.0905 180.0
225.200989 124.0
225.287613 60.0
225.556564 88.0
225.619339 128.0
226.118881 56.0
226.51413 148.0
227.227615 152.0
227.278625 52.0
227.332642 60.0
228.131592 88.0
228.633911 144.0
228.667007 48.0
229.450211 44.0
229.99321 180.0
230.204544 136.0
230.881485 132.0
231.047852 48.0
231.148407 1512.0
231.185318 612.0
231.220337 40.0
231.447372 36.0
231.577591 32.0
231.874512 68.0
231.910889 140.0
232.059433 120.0
232.148499 1020.0
232.186783 236.0
232.347549 108.0
232.380936 48.0
232.53569 48.0
233.149185 148.0
233.194778 124.0
233.927841 180.0
233.949142 92.0
234.019165 88.0
234.06485 176.0
234.12352 2296.0
234.192749 44.0
234.382141 48.0
234.439529 64.0
234.52182 136.0
234.726089 176.0
234.91124 204.0
235.12532 428.0
235.168457 52.0
235.206421 64.0
235.461548 88.0
235.61734 116.0
235.715118 144.0
236.785843 124.0
237.00029 196.0
237.089157 80.0
237.199493 200.0
237.319061 60.0
238.77771 148.0
238.977661 136.0
239.573624 224.0
240.148285 184.0
240.953979 152.0
241.128571 96.0
241.869354 32.0
242.547714 216.0
242.765381 236.0
242.981873 120.0
243.006699 120.0
243.118408 144.0
243.484268 160.0
243.528229 240.0
244.585403 164.0
244.61937 200.0
244.971542 240.0
245.205231 168.0
246.122833 372.0
246.422241 188.0
247.117844 168.0
248.037064 212.0
248.482376 124.0
248.64241 100.0
250.123322 220.0
251.342484 160.0
253.793884 108.0
253.984177 84.0
254.098373 200.0
254.212601 176.0
254.441147 192.0
254.803192 52.0
254.89534 164.0
255.330872 64.0
256.174347 112.0
256.384644 196.0
257.086243 176.0
257.156464 144.0
257.402283 76.0
258.135956 68.0
258.178833 104.0
259.04303 32.0
259.143097 3752.0
259.329437 52.0
259.587891 64.0
259.718597 112.0
260.145844 844.0
260.191132 104.0
261.000793 208.0
261.14621 128.0
261.251648 156.0
261.393219 76.0
261.457581 28.0
261.811737 68.0
262.143524 64.0
262.662628 212.0
263.333984 200.0
264.090302 80.0
264.983795 64.0
265.262482 152.0
266.138458 32.0
266.161194 152.0
266.578186 152.0
266.71347 52.0
266.739471 152.0
267.214294 148.0
269.653473 188.0
271.090179 132.0
271.63446 172.0
272.343475 176.0
272.366455 104.0
272.491302 160.0
273.017212 120.0
273.155365 72.0
273.352783 112.0
273.609497 76.0
273.774139 148.0
273.886108 168.0
273.921783 164.0
274.06073 100.0
274.191528 10160.0
274.271637 184.0
274.321106 72.0
274.436493 64.0
274.495819 60.0
274.533173 112.0
274.641785 104.0
274.805878 60.0
274.898285 80.0
274.937897 72.0
275.086426 120.0
275.148132 172.0
275.192444 1488.0
275.469482 84.0
275.618164 48.0
275.657806 48.0
275.760254 84.0
275.836273 72.0
275.985046 48.0
276.199341 276.0
276.461395 100.0
276.507721 236.0
276.583862 116.0
276.613647 72.0
276.752686 88.0
276.888458 164.0
277.59436 36.0
277.627502 168.0
277.667297 104.0
277.763489 64.0
277.995758 120.0
278.121857 84.0
278.159729 108.0
278.839294 136.0
279.627533 36.0
280.06369 192.0
280.59021 200.0
281.040497 108.0
281.240723 52.0
281.668121 156.0
283.531769 168.0
283.85025 232.0
284.810608 132.0
285.162903 152.0
286.149292 108.0
286.663879 60.0
286.768372 56.0
287.140442 176.0
287.415863 72.0
287.665619 104.0
289.160034 164.0
289.207001 136.0
290.528564 124.0
290.691437 68.0
291.448669 80.0
291.64917 240.0
291.95517 64.0
292.14566 76.0
293.020599 104.0
293.058075 88.0
293.45813 96.0
293.825195 144.0
294.016296 96.0
294.046326 192.0
295.061523 60.0
295.133331 104.0
295.184631 136.0
296.903748 76.0
297.10614 92.0
298.180908 224.0
298.321838 136.0
298.971893 76.0
298.996002 120.0
299.38501 152.0
299.527283 92.0
300.212097 180.0
300.284546 124.0
300.374207 72.0
300.647491 80.0
300.688202 76.0
300.812469 52.0
300.912567 160.0
301.150848 188.0
301.199219 68.0
301.437592 156.0
301.475616 144.0
301.510162 136.0
301.624237 80.0
301.738312 168.0
301.830078 104.0
301.931061 100.0
301.95813 112.0
301.995514 180.0
302.110901 152.0
302.187134 37200.0
302.257629 140.0
302.302124 32.0
302.330261 60.0
302.433228 148.0
302.439392 60.0
302.466064 172.0
302.509796 156.0
302.553162 68.0
302.59082 152.0
302.64444 72.0
302.767578 124.0
302.811035 56.0
302.887238 28.0
302.977295 48.0
303.011963 68.0
303.057007 72.0
303.100372 200.0
303.13324 132.0
303.18988 8024.0
303.325134 80.0
303.395782 64.0
303.542267 76.0
303.597748 72.0
303.647919 56.0
303.743439 120.0
303.871796 92.0
303.903015 64.0
304.083466 112.0
304.152893 60.0
304.189911 736.0
304.334717 96.0
304.406342 64.0
304.545258 60.0
304.642517 64.0
304.668732 96.0
304.744659 120.0
304.793945 48.0
304.833618 60.0
304.903107 80.0
305.007385 52.0
305.042145 108.0
305.09082 84.0
305.155548 424.0
305.184692 144.0
305.235565 152.0
305.261169 92.0
305.298187 136.0
305.372467 104.0
305.413849 172.0
305.74823 68.0
306.07196 124.0
306.144775 168.0
306.730438 52.0
306.855927 28.0
306.991913 200.0
307.107025 60.0
307.222137 80.0
307.257019 64.0
307.29538 132.0
307.480347 72.0
307.675812 48.0
307.895782 56.0
308.04248 68.0
308.087921 96.0
311.391083 44.0
311.521057 156.0
311.615906 68.0
311.802155 36.0
312.892609 116.0
313.076691 128.0
313.287048 80.0
313.815704 100.0
314.048462 132.0
316.147064 72.0
316.419495 112.0
316.858795 84.0
319.027191 152.0
320.661011 88.0
320.714478 84.0
325.720428 72.0
326.252289 100.0
327.025665 80.0
330.178772 760.0
330.82309 80.0
331.170349 424.0
331.257629 44.0
331.369934 72.0
331.543884 64.0
333.394714 48.0
338.948853 52.0
341.573883 80.0
344.648621 44.0
347.466248 104.0
349.677246 84.0
351.674988 96.0
355.30481 56.0
357.864288 112.0
363.037354 36.0
364.654663 112.0
366.085144 60.0
372.184357 68.0
380.838959 60.0
383.067841 108.0
385.158661 44.0
389.200317 104.0
393.215698 124.0
395.753601 92.0
395.864471 72.0
405.83844 76.0
406.053894 140.0
408.042694 92.0
409.588013 88.0
411.648956 148.0
413.488373 92.0
421.360901 44.0
422.861633 100.0
426.064178 40.0
428.133148 52.0
431.785553 60.0
436.891724 36.0
437.216278 152.0
443.720062 36.0
444.198151 36.0
447.09726 40.0
454.220917 224.0
455.838501 64.0
461.618927 92.0
463.151642 152.0
467.638031 56.0
468.887024 32.0
473.821747 120.0
474.415466 44.0
486.881805 144.0
491.20401 36.0
494.867676 100.0
498.598297 84.0
512.592285 48.0
515.042114 48.0
526.880493 124.0
528.169617 72.0
531.477295 68.0
535.822205 68.0
544.709106 84.0
545.19696 36.0
552.358582 136.0
553.98761 100.0
555.060913 80.0
558.24469 96.0
561.362122 76.0
562.263184 100.0
573.35144 84.0
580.681763 64.0
581.107605 108.0
586.06958 116.0
586.358704 44.0
593.34845 76.0
595.979065 52.0
613.067078 100.0
616.709412 36.0
630.356689 60.0
638.684143 88.0
671.601318 88.0
681.930847 132.0
683.449341 112.0
685.589539 80.0
698.727295 76.0
713.19043 36.0
714.232605 52.0
728.354858 60.0
733.251099 80.0
744.433533 148.0
748.517334 64.0
765.162598 48.0
766.771057 76.0
769.518127 36.0
782.191284 52.0
793.161926 120.0
811.886536 236.0
814.253113 148.0
821.881226 128.0
823.668152 64.0
840.44928 200.0
860.724731 124.0
861.337952 36.0
862.535828 44.0
871.614014 88.0
872.724915 116.0
873.983643 156.0
876.409546 216.0
887.231262 112.0
887.859802 192.0
889.550781 100.0
889.823853 116.0
917.880554 204.0
921.103394 220.0
924.555725 196.0
925.748352 172.0
928.305603 20.0
928.487549 180.0
932.956482 144.0
934.385681 112.0
943.332092 104.0
944.604004 108.0
948.798889 140.0
955.523804 204.0
957.912415 168.0
964.409912 120.0
967.471863 180.0
971.245667 56.0
971.679932 148.0
978.790405 96.0
983.416138 132.0
988.72229 144.0
992.355469 236.0
1004.827393 164.0
1005.93811 176.0
1010.77301 212.0
1012.488525 156.0
1015.378479 140.0
1016.755188 168.0
1018.310669 208.0
1020.318665 132.0
1028.427856 156.0
1030.675781 128.0
1036.812622 160.0
1044.067017 144.0
1050.80481 140.0
1055.519897 36.0
1055.590942 124.0
1055.726807 56.0
1056.645264 168.0
1058.477051 156.0
1058.736084 160.0
1060.206665 180.0
1061.963623 136.0
1066.63208 100.0
1066.768677 56.0
1069.832642 180.0
1072.314331 144.0
1076.163086 176.0
1077.763306 164.0
1082.77417 56.0
1083.271973 152.0
1087.973999 76.0
1089.215088 36.0
1090.105835 28.0
1090.608032 148.0
1090.945312 192.0
1095.273193 140.0
1099.83606 192.0
1102.220215 228.0
1103.290894 168.0
1103.793335 132.0
1105.3479 188.0
1105.811157 140.0
1107.108765 188.0
1111.921753 216.0
1112.525757 104.0
1112.924194 124.0
1115.395508 216.0
1117.969482 144.0
1122.645996 164.0
1123.59314 136.0
1124.213623 160.0
1124.580688 156.0
1124.747559 168.0
1125.088013 32.0
1126.510498 128.0
1132.276123 72.0
1134.245972 156.0
1134.299561 48.0
1136.499268 88.0
1138.204224 160.0
1140.797607 108.0
1143.225586 44.0
1143.286133 196.0
1143.595825 204.0
1144.44397 164.0
1145.952759 136.0
1146.404175 196.0
1148.345825 208.0
1148.392944 100.0
1148.947998 156.0
1151.517944 84.0
1151.801636 224.0
1153.632812 120.0
1157.821167 228.0
1160.016479 132.0
1160.402832 152.0
1161.379395 204.0
1161.9198 192.0
1162.132324 172.0
1164.875122 76.0
1165.765137 68.0
1166.26123 112.0
1167.24707 284.0
1167.383057 32.0
1168.083618 128.0
1168.165161 56.0
1169.042847 60.0
1169.764404 140.0
1173.627197 192.0
1175.919312 132.0
1176.342529 80.0
1178.514282 244.0
1178.76709 72.0
1179.758179 168.0
1181.187378 216.0
1182.610596 204.0
1185.123779 140.0
1185.226562 112.0
1187.543701 136.0
1190.439819 144.0
1191.016724 72.0
1195.891724 204.0
1199.046021 112.0
1199.404419 140.0
1201.500854 124.0
1204.904419 164.0
1205.726685 156.0
1208.40271 184.0
1209.32312 152.0
1210.645386 156.0
1213.992554 124.0
1214.505737 112.0
1214.609863 172.0
1215.463135 104.0
1216.302856 184.0
1216.393188 204.0
1217.934692 60.0
1218.823853 56.0
1219.074097 72.0
1223.553467 44.0
1226.186401 200.0
1227.064697 160.0
1227.42041 160.0
1227.591187 260.0
1229.073486 172.0
1229.855103 152.0
1231.551758 72.0
1232.900146 152.0
1233.263672 192.0
1233.536255 224.0
1234.165405 164.0
1234.934692 168.0
1235.396362 152.0
1235.977051 152.0
1236.424927 120.0
1237.488892 176.0
1238.980713 168.0
1240.739746 200.0
1245.085571 172.0
1245.911987 128.0
1246.333496 208.0
1247.289307 124.0
1248.94165 168.0
1249.173828 144.0
1250.222168 112.0
1253.602417 112.0
1254.575073 212.0
1256.091187 176.0
1256.359497 168.0
1256.586792 152.0
1257.100098 124.0
1257.339966 168.0
1260.129272 136.0
1262.716431 168.0
1263.169067 100.0
1264.987671 200.0
1265.82312 128.0
1266.885498 80.0
1268.168091 176.0
1268.77771 232.0
1269.990234 208.0
1271.480225 232.0
1272.743774 220.0
1273.056274 32.0
1273.290527 184.0
1275.429199 144.0
1275.564209 192.0
1275.720581 136.0
1277.903931 144.0
1278.259766 172.0
1278.700928 120.0
1279.284668 156.0
1279.754517 140.0
1280.074951 220.0
1280.24585 180.0
1280.651733 180.0
1280.765747 240.0
1281.456787 136.0
1286.605957 200.0
1287.64856 160.0
1288.169922 132.0
1288.448486 156.0
1289.620483 144.0
1291.47229 172.0
1293.167725 108.0
1293.282471 128.0
1293.468628 116.0
1295.165649 88.0
1295.516602 64.0
1297.430054 252.0
1299.488403 140.0
1301.167847 236.0
1301.526733 76.0
1302.855469 168.0
1303.049438 212.0
1304.759888 176.0
1305.191284 136.0
1305.256104 188.0
1306.651367 140.0
1307.255859 80.0
1308.459351 92.0
1308.616211 76.0
1309.552368 180.0
1309.912476 120.0
1311.043701 56.0
1311.130127 172.0
1311.483276 176.0
1312.535889 72.0
1313.834106 148.0
1314.166016 188.0
1314.63501 76.0
1314.829834 160.0
1315.270142 172.0
1315.364014 108.0
1315.47229 240.0
1317.039185 156.0
1318.28186 104.0
1318.823853 180.0
1319.864868 160.0
1322.432983 132.0
1323.699951 164.0
1324.612549 164.0
1326.743042 172.0
1328.737427 164.0
1330.421021 148.0
1331.720825 128.0
1331.916992 156.0
1332.302002 164.0
1332.541748 144.0
1333.551758 180.0
1334.016968 224.0
1334.853149 200.0
1336.11145 52.0
1336.758911 60.0
1337.486694 128.0
1338.185669 156.0
1339.081299 196.0
1339.525635 148.0
1340.2323 160.0
1340.283325 176.0
1341.493164 160.0
1342.440918 220.0
1342.973389 152.0
1345.556519 200.0
1345.855957 52.0
1345.950806 84.0
1346.096924 156.0
1346.264893 124.0
1347.22168 156.0
1347.740356 72.0
1348.873169 68.0
1349.238647 184.0
1351.205933 172.0
1351.440063 148.0
1351.659668 128.0
1352.091431 144.0
1352.186523 236.0
1353.738525 108.0
1355.313477 140.0
1357.373169 188.0
1357.908447 96.0
1358.546631 152.0
1359.302368 80.0
1359.383057 148.0
1361.240234 136.0
1361.600098 172.0
1362.518311 196.0
1362.687256 168.0
1363.50293 108.0
1364.973145 184.0
1365.120239 80.0
1365.406982 100.0
1366.408691 116.0
1366.797363 144.0
1366.92981 224.0
1367.025513 60.0
1369.62439 116.0
1369.985352 224.0
1370.088501 156.0
1370.419922 164.0
1371.363281 72.0
1371.849731 144.0
1372.233032 152.0
1373.339233 144.0
1374.984497 128.0
1375.346191 140.0
1376.571655 92.0
1377.073853 132.0
1377.169922 232.0
1377.694336 136.0
1378.595825 116.0
1379.867188 240.0
1380.318115 228.0
1381.198242 200.0
1383.1073 152.0
1383.8573 152.0
1384.684326 44.0
1386.766235 192.0
1387.262939 80.0
1388.041382 152.0
1389.331909 48.0
1391.640015 176.0
1391.951904 156.0
1392.315796 224.0
1392.516235 152.0
1393.155029 128.0
1393.400269 68.0
1393.542603 176.0
1394.604126 96.0
1395.622559 48.0
1396.40332 180.0
1396.879395 248.0
1396.983521 148.0
1397.764771 136.0
1398.107056 188.0
1398.955566 192.0
1399.342651 144.0
1399.685181 160.0
1401.234375 180.0
1401.77832 128.0
1402.195679 76.0
1402.389404 32.0
1403.269043 144.0
1403.746338 156.0
1404.369873 124.0
1405.812622 148.0
1406.029053 160.0
1406.760498 228.0
1408.373413 120.0
1408.425659 236.0
1408.709595 188.0
1409.344604 116.0
1410.338501 172.0
1411.003784 120.0
1411.15332 136.0
1413.733887 144.0
1414.175537 152.0
1414.247314 140.0
1414.482422 36.0
1414.834229 160.0
1417.006104 108.0
1417.942749 132.0
1418.122681 208.0
1418.707275 148.0
1419.727051 212.0
1419.906982 216.0
1420.281982 164.0
1422.93103 184.0
1423.539185 52.0
1424.004883 164.0
1424.891235 176.0
1425.071533 84.0
1425.4021 136.0
1426.048462 136.0
1426.582153 76.0
1427.460938 172.0
1429.169312 172.0
1429.831421 220.0
1429.989502 176.0
1430.109985 120.0
1430.245483 168.0
1430.960571 180.0
1431.013306 144.0
1431.713623 160.0
1431.880859 136.0
1432.376343 248.0
1434.501343 132.0
1435.986816 284.0
1437.503174 144.0
1438.952393 192.0
1439.752686 152.0
1440.742188 152.0
1441.308838 80.0
1441.467529 232.0
1443.705078 204.0
1444.189209 168.0
1445.255859 116.0
1447.761353 140.0
1450.435913 232.0
1451.800537 160.0
1451.906738 96.0
1452.293579 212.0
1452.468018 232.0
1453.294922 72.0
1454.114502 92.0
1455.412598 132.0
1455.526489 184.0
1456.076172 216.0
1456.187134 184.0
1456.377075 140.0
1457.136719 44.0
1458.352539 212.0
1461.112915 224.0
1461.181274 112.0
1461.53894 64.0
1461.949829 176.0
1463.228638 200.0
1463.396118 200.0
1464.248901 208.0
1464.356079 116.0
1464.561279 80.0
1465.030884 176.0
1465.239258 164.0
1465.643066 164.0
1465.818237 204.0
1467.670532 220.0
1469.859619 60.0
1473.593384 164.0
1474.372803 140.0
1474.82373 116.0
1475.580444 208.0
1475.809814 204.0
1476.130981 156.0
1476.834595 136.0
1477.415894 224.0
1477.530762 136.0
1479.551147 192.0
1481.787354 148.0
1482.208862 176.0
1482.599609 172.0
1483.726318 116.0
1484.063721 164.0
1485.26001 184.0
1485.421143 192.0
1485.597168 172.0
1485.835449 152.0
1487.377808 168.0
1488.50647 256.0
1488.83667 196.0
1489.351196 164.0
1490.657227 96.0
1490.841675 204.0
1491.956177 84.0
1492.525146 228.0
1492.824951 168.0
1492.878784 164.0
1493.755615 64.0
1494.124878 188.0
1496.156616 136.0
1496.310547 172.0
1497.48877 168.0
1497.542603 60.0
1498.09729 128.0
1498.536377 164.0
1498.705933 220.0
1498.921631 164.0
1500.393799 220.0
1500.509399 216.0
1500.586548 140.0
1500.802368 144.0
1501.349854 68.0
1501.411621 180.0
1502.020874 84.0
1502.900391 184.0
1503.355591 148.0
