>compound MLS000584128-01!
>formula C12H8N2
>ionization [M+H]+
>parentmass 181.076157
#inchi InChI=1S/C12H8N2/c1-2-6-10-9(5-1)13-11-7-3-4-8-12(11)14-10/h1-8H
#inchikey PCNDJXKNXGMECE
#Ion_Source LC-ESI
#Instrument qTof
#Compound_Source NIH Natural Product Library
#PI Dorrestein
#Data_Collector VVP/LMS
#Scan -1
#Precursor_MZ 181.077
#ExactMass 180.069
#Charge 1
#CAS_Number N/A
#Pubmed_ID N/A
#Smiles c1ccc2nc3ccccc3nc2c1
#INCHI_AUX N/A
#Library_Class 1
#SpectrumID CCMSLIB00000079664
#IonMode Positive
#UpdateWorkflowName UPDATE-SINGLE-ANNOTATED-GOLD
#LibraryQualityString Gold
#TaskID b1d8e8f6646f4e71acdff9ca3d919d08
##Scan# 1950
#SpectrumFile p1-E09_GE9_01_17929.mzXML
#LibraryName NIH_Natural_Products_Library.mgf
#MQScore -1
#Organism NIH_Natural_Products_Library
#TIC_Query 0
#RT_Query -1
#MZErrorPPM -1
#SharedPeaks 0
#MassDiff 0
#LibMZ -1
#SpecMZ 181.077
#SpecCharge 0
#internalFilename spec-00000.mgf

>collision 10
94.962959 108.0
95.254112 204.0
95.399849 156.0
95.578781 188.0
95.594345 160.0
95.802673 200.0
95.919594 116.0
96.491577 176.0
96.671524 204.0
96.86731 164.0
97.039764 148.0
97.220222 160.0
97.974281 180.0
98.075752 208.0
98.351891 140.0
98.573082 44.0
98.592842 156.0
98.820236 192.0
98.861794 128.0
98.972641 164.0
99.240128 212.0
99.363091 140.0
99.450401 160.0
99.470253 144.0
99.774185 148.0
99.91539 160.0
100.036781 124.0
100.188126 140.0
100.31279 172.0
100.407387 136.0
100.477196 196.0
100.503136 88.0
100.674797 96.0
100.69677 136.0
100.756691 192.0
100.834625 84.0
101.039696 316.0
101.13063 216.0
101.204697 136.0
101.248749 152.0
101.411034 156.0
101.501244 140.0
101.567421 160.0
101.633629 224.0
101.649681 60.0
101.896645 56.0
102.032173 2176.0
102.131836 180.0
102.178108 128.0
102.413628 100.0
102.750267 176.0
102.808784 108.0
102.937973 172.0
103.031319 168.0
103.05439 1224.0
103.293678 156.0
103.334137 212.0
103.396866 144.0
103.63987 212.0
103.676338 72.0
103.911552 116.0
104.023163 216.0
104.055832 136.0
104.104378 204.0
104.496674 236.0
104.543472 192.0
104.567894 140.0
104.647285 192.0
104.85302 128.0
105.03244 460.0
105.500061 124.0
105.716866 44.0
106.027611 252.0
106.11219 124.0
106.13884 68.0
106.245491 80.0
106.446632 128.0
106.520569 84.0
106.541107 248.0
106.894753 172.0
106.968842 192.0
107.032661 120.0
107.080025 160.0
107.135643 132.0
107.385056 176.0
107.415993 208.0
107.589333 72.0
107.692581 120.0
107.984001 36.0
108.42498 148.0
108.439484 208.0
108.460213 140.0
108.485085 172.0
108.563873 176.0
108.699043 124.0
108.760971 172.0
108.785881 228.0
109.37429 224.0
109.436592 224.0
109.494904 160.0
109.605309 164.0
109.897217 232.0
109.911819 148.0
110.183243 180.0
110.701965 220.0
111.020287 184.0
111.048332 188.0
111.29538 208.0
111.602142 196.0
111.997772 172.0
112.058868 88.0
112.221153 64.0
112.339256 100.0
112.379341 68.0
112.634781 48.0
112.873589 108.0
112.939148 160.0
113.038582 132.0
113.06398 132.0
113.288414 216.0
113.631851 168.0
113.916328 168.0
114.035316 112.0
114.269226 156.0
114.739899 128.0
115.046509 160.0
115.480865 120.0
115.515083 64.0
115.624207 192.0
115.686279 40.0
115.753067 184.0
116.024757 172.0
116.041908 144.0
116.110527 144.0
116.275719 44.0
116.298851 180.0
116.43029 100.0
116.456062 176.0
117.006554 92.0
117.061592 208.0
117.396545 144.0
117.543228 216.0
117.599342 136.0
117.672737 148.0
117.944923 84.0
118.031403 268.0
118.143867 220.0
118.267204 176.0
118.438255 160.0
118.572586 96.0
118.615936 128.0
118.710014 204.0
118.737358 44.0
118.780731 188.0
119.054199 112.0
119.125877 84.0
119.306541 148.0
119.499802 88.0
119.573792 56.0
119.898285 192.0
120.039436 196.0
120.168671 196.0
120.205765 128.0
120.231956 108.0
120.332359 80.0
120.38913 168.0
121.051727 184.0
122.102898 136.0
122.722267 192.0
123.242561 136.0
123.271286 196.0
123.40612 108.0
123.618462 224.0
124.183388 28.0
124.582932 128.0
124.980896 116.0
125.003143 224.0
125.039375 512.0
125.285912 104.0
125.623886 72.0
125.888123 188.0
126.015442 224.0
126.047394 648.0
126.245667 208.0
126.36422 156.0
126.644035 148.0
126.812073 120.0
126.881569 224.0
126.950363 240.0
127.053375 2384.0
127.092392 116.0
127.123802 172.0
127.474113 144.0
127.930687 200.0
128.0513 964.0
128.151382 136.0
128.250549 184.0
128.279846 116.0
128.356506 132.0
128.658829 40.0
128.908264 164.0
128.999939 188.0
129.044769 2508.0
129.606476 200.0
129.629135 108.0
129.658295 148.0
129.84996 172.0
129.990768 176.0
130.040268 912.0
130.121323 92.0
130.350739 52.0
130.559875 132.0
130.732758 112.0
130.783081 108.0
130.893097 192.0
130.987762 132.0
131.054977 212.0
131.43428 140.0
131.852493 184.0
131.891342 136.0
131.973648 200.0
131.996506 140.0
132.200104 84.0
132.355759 132.0
132.740707 188.0
132.81868 136.0
133.103256 164.0
133.179047 116.0
133.254852 148.0
133.553696 68.0
133.664124 84.0
133.776901 192.0
133.868988 168.0
133.905838 176.0
134.0625 168.0
134.103973 136.0
134.355316 112.0
134.41069 168.0
135.025177 164.0
135.256546 228.0
135.502014 148.0
135.726837 132.0
135.937912 160.0
136.046997 184.0
136.309448 148.0
136.790878 168.0
137.048203 224.0
137.18689 164.0
137.233505 128.0
137.268494 132.0
137.36644 36.0
137.521286 200.0
137.576462 144.0
137.634827 184.0
137.982956 180.0
138.265991 128.0
138.287048 160.0
138.310455 124.0
138.599167 184.0
138.924393 140.0
139.0159 184.0
139.039368 124.0
139.100388 152.0
139.241272 252.0
139.497375 176.0
139.570251 212.0
139.636093 176.0
140.01265 180.0
140.051514 328.0
140.095093 104.0
140.54776 132.0
140.566635 128.0
140.637436 144.0
140.821594 132.0
140.880646 148.0
140.942078 76.0
141.034241 160.0
141.056046 956.0
141.230484 100.0
141.445801 164.0
141.493149 172.0
141.599701 144.0
142.051437 756.0
142.156815 164.0
142.223267 216.0
142.25412 108.0
142.287354 120.0
142.460724 212.0
142.922745 132.0
143.038559 180.0
143.05928 256.0
143.157608 72.0
143.19809 176.0
143.352936 160.0
144.006607 196.0
144.056778 200.0
144.195358 128.0
144.513397 164.0
144.817413 96.0
145.06308 752.0
145.179306 180.0
145.556046 108.0
145.577652 172.0
145.856354 40.0
146.061249 380.0
146.10643 148.0
146.412125 228.0
146.518112 216.0
146.672333 176.0
146.730194 76.0
146.870056 60.0
147.05101 124.0
147.245361 148.0
147.304535 68.0
147.393921 264.0
147.4785 156.0
147.495422 172.0
147.53894 240.0
147.696121 220.0
148.059158 116.0
148.189957 148.0
148.937454 152.0
149.112076 144.0
149.23848 136.0
149.766556 140.0
150.119934 160.0
150.198715 164.0
150.590942 160.0
150.632462 48.0
150.793732 264.0
150.981979 68.0
151.035782 280.0
151.087158 192.0
151.148315 184.0
152.049744 1224.0
152.084473 100.0
152.339844 108.0
152.706085 200.0
152.735611 136.0
152.806946 224.0
152.865997 44.0
153.055893 1908.0
153.205765 56.0
153.237793 180.0
153.311722 32.0
153.331436 36.0
153.46701 224.0
153.496597 260.0
153.668564 184.0
153.688995 224.0
153.879044 144.0
153.935837 172.0
153.99263 96.0
154.064606 7104.0
154.14827 76.0
154.172974 120.0
154.21994 120.0
154.291626 152.0
154.326233 48.0
154.360855 168.0
154.404724 232.0
154.608231 236.0
154.677536 32.0
154.900391 176.0
155.061401 1972.0
155.095001 184.0
155.197784 28.0
155.22258 140.0
155.264725 64.0
155.282089 92.0
155.34906 60.0
155.413559 192.0
155.433411 52.0
155.48056 204.0
155.562469 44.0
155.592255 236.0
155.717468 76.0
155.982269 144.0
156.064087 552.0
156.201096 52.0
156.313049 200.0
156.561981 148.0
156.965683 168.0
157.050461 152.0
157.120316 136.0
157.245071 148.0
157.754623 92.0
157.982193 160.0
158.049728 172.0
158.385193 144.0
158.485413 40.0
158.5681 124.0
158.688431 168.0
158.726028 236.0
159.059708 164.0
159.361053 160.0
159.989807 108.0
160.261795 208.0
160.634918 92.0
160.720688 60.0
161.051407 148.0
161.344528 172.0
161.476013 72.0
161.501297 180.0
161.744202 188.0
161.972092 92.0
162.233093 156.0
162.273666 144.0
162.448654 144.0
162.839539 120.0
162.895416 184.0
163.406403 120.0
163.762772 144.0
163.961502 124.0
164.002274 164.0
164.050018 192.0
164.315933 120.0
165.240784 56.0
165.483917 148.0
165.535873 220.0
165.819489 184.0
165.896393 292.0
166.053635 340.0
166.086136 156.0
166.268295 64.0
166.288834 128.0
166.324768 144.0
167.064819 156.0
167.734344 148.0
167.997375 52.0
168.067032 208.0
168.110901 104.0
168.374207 184.0
169.046127 184.0
169.052338 268.0
169.155045 192.0
169.193878 176.0
169.680939 212.0
169.987 184.0
170.058411 332.0
170.383942 168.0
170.568756 160.0
170.703934 176.0
170.862595 160.0
170.977097 200.0
171.049973 188.0
171.070786 152.0
171.125458 64.0
171.732635 152.0
171.923401 100.0
172.001389 88.0
172.087524 168.0
172.434952 168.0
172.840286 224.0
173.033966 56.0
173.358765 32.0
173.37973 228.0
173.859634 136.0
174.319199 92.0
174.479523 172.0
174.634674 164.0
174.676758 48.0
175.211136 232.0
175.329712 100.0
175.743713 44.0
176.324661 124.0
176.615494 60.0
176.652527 232.0
176.848328 92.0
176.877441 68.0
177.301208 136.0
177.370117 196.0
177.58754 168.0
177.86348 172.0
177.957932 208.0
178.043793 140.0
178.376144 128.0
178.423996 228.0
178.533005 152.0
178.612793 164.0
178.775085 192.0
178.817673 184.0
178.85759 108.0
178.885849 176.0
178.934799 184.0
178.977386 72.0
179.006683 88.0
179.059875 5280.0
179.093506 164.0
179.169693 60.0
179.206451 72.0
179.427658 68.0
179.454315 56.0
179.678345 168.0
179.97728 160.0
180.067169 8952.0
180.129501 32.0
180.279114 92.0
180.442169 184.0
180.463562 80.0
180.519714 132.0
180.56517 112.0
180.63739 124.0
180.70694 116.0
180.739029 312.0
180.759323 304.0
180.810532 140.0
180.830032 176.0
180.86319 256.0
180.884201 136.0
180.912552 92.0
180.936707 240.0
180.940414 204.0
180.955597 84.0
180.959015 144.0
181.009079 204.0
181.076157 100276.0
181.160858 304.0
181.203247 200.0
181.249069 184.0
181.282196 116.0
181.315826 92.0
181.383865 84.0
181.46489 32.0
181.486526 116.0
181.512741 152.0
181.548019 92.0
181.588058 112.0
181.620667 44.0
181.67067 44.0
181.728745 160.0
181.746033 44.0
181.771454 116.0
181.811188 80.0
181.859924 108.0
181.900497 60.0
181.931702 168.0
182.00235 244.0
182.032806 92.0
182.079239 8748.0
182.142349 152.0
182.173386 92.0
182.1922 72.0
182.240555 144.0
182.259369 36.0
182.282745 80.0
182.330338 68.0
182.383911 104.0
182.435776 56.0
182.456589 52.0
182.505524 100.0
182.541595 68.0
182.600769 40.0
182.667999 52.0
182.702972 104.0
182.722961 72.0
182.767548 60.0
182.848282 116.0
182.9048 48.0
182.962601 68.0
182.981659 44.0
183.001709 32.0
183.079636 924.0
183.137024 212.0
183.172073 68.0
183.22525 160.0
183.24765 216.0
183.306702 228.0
183.354263 132.0
183.428635 136.0
183.455551 236.0
183.483963 104.0
183.532501 96.0
183.564865 120.0
183.620865 52.0
183.67923 52.0
183.845413 80.0
183.891281 84.0
183.988464 44.0
184.123474 168.0
184.207581 56.0
184.280136 76.0
184.369308 68.0
184.40715 60.0
184.469315 136.0
184.507156 120.0
184.934555 88.0
185.042542 148.0
185.118652 132.0
185.305542 60.0
186.04863 68.0
187.465698 48.0
188.183075 48.0
188.77327 140.0
189.14534 100.0
189.323303 68.0
189.401855 168.0
190.016785 120.0
190.324188 92.0
190.43129 108.0
190.826721 40.0
190.85173 40.0
191.253372 100.0
191.448853 40.0
191.818039 112.0
192.375259 64.0
192.45256 52.0
192.485703 64.0
193.279007 112.0
193.334351 32.0
193.521545 96.0
194.223694 72.0
194.576126 80.0
195.060135 204.0
195.154007 72.0
197.038055 76.0
200.007751 80.0
201.149338 80.0
207.063507 160.0
212.068069 120.0
213.06337 144.0
220.843369 100.0
235.531158 116.0
236.647369 68.0
239.826843 56.0
260.029205 80.0
267.027252 124.0
270.345093 56.0
270.52182 56.0
285.651611 88.0
288.86969 52.0
293.945557 112.0
301.023834 28.0
304.10495 84.0
306.37558 80.0
315.86438 64.0
329.163544 68.0
332.835205 112.0
335.283356 100.0
342.029846 68.0
343.976074 88.0
373.262909 40.0
381.222198 36.0
386.38269 140.0
390.346039 120.0
417.404816 52.0
424.214844 52.0
427.179657 92.0
434.599579 80.0
437.700348 152.0
452.348785 88.0
481.800873 96.0
489.075714 28.0
494.190369 120.0
552.043762 148.0
628.963867 92.0
631.658203 48.0
695.469604 112.0
700.543823 128.0
730.036865 112.0
733.822144 52.0
759.852661 64.0
786.504272 48.0
830.098877 112.0
835.687683 36.0
855.655273 204.0
871.928345 136.0
874.086548 48.0
883.970398 160.0
891.828369 208.0
900.682495 80.0
901.202271 208.0
913.720825 48.0
917.514954 60.0
919.62616 184.0
958.357544 92.0
984.428711 184.0
987.985107 80.0
988.122742 160.0
992.055603 88.0
1010.66626 100.0
1021.444885 152.0
1029.583862 252.0
1034.398315 20.0
1045.00647 248.0
1047.974609 196.0
1050.437256 96.0
1054.569702 120.0
1072.80957 156.0
1076.058472 140.0
1083.27832 152.0
1084.477417 104.0
1091.113892 92.0
1093.310791 160.0
1099.4198 172.0
1102.906982 140.0
1105.565674 156.0
1109.57959 148.0
1111.224365 120.0
1116.571655 184.0
1120.658813 172.0
1122.305054 92.0
1126.329224 164.0
1126.877075 180.0
1137.572021 140.0
1145.634888 320.0
1145.904419 184.0
1146.557983 252.0
1150.287842 104.0
1154.179199 104.0
1158.781738 256.0
1159.269531 148.0
1166.694946 108.0
1170.668457 104.0
1171.036133 48.0
1171.437988 116.0
1172.023926 100.0
1172.94397 48.0
1173.605225 200.0
1174.82605 172.0
1175.699341 176.0
1180.323975 212.0
1187.02771 264.0
1188.509277 180.0
1193.544067 140.0
1193.598999 220.0
1202.188965 88.0
1203.976929 176.0
1206.180908 228.0
1209.847168 148.0
1214.183594 128.0
1217.182495 176.0
1218.245117 112.0
1218.710571 212.0
1219.044067 144.0
1221.998413 176.0
1222.708984 120.0
1225.201782 144.0
1226.811523 176.0
1227.041626 212.0
1227.201904 120.0
1234.339722 76.0
1245.902466 108.0
1247.181274 108.0
1248.060059 164.0
1250.796753 92.0
1250.916382 196.0
1251.747192 128.0
1251.796509 108.0
1255.467896 160.0
1257.316162 208.0
1260.86145 164.0
1262.239868 184.0
1265.041626 188.0
1265.508789 144.0
1268.243286 208.0
1276.969238 148.0
1280.000732 136.0
1280.841187 156.0
1282.116455 112.0
1282.415771 192.0
1285.525269 140.0
1286.260376 128.0
1287.859741 152.0
1287.988281 168.0
1290.4823 196.0
1293.200684 140.0
1296.502319 248.0
1298.294434 164.0
1307.648315 124.0
1308.231323 200.0
1311.083618 140.0
1311.44397 148.0
1311.696289 144.0
1315.569946 104.0
1320.21582 148.0
1322.70459 160.0
1323.812378 224.0
1330.490112 204.0
1330.568237 64.0
1333.70813 44.0
1340.979126 124.0
1342.656006 140.0
1348.335815 180.0
1348.942505 148.0
1350.624268 164.0
1353.244141 112.0
1354.445068 152.0
1355.15564 200.0
1356.540771 156.0
1356.731323 248.0
1357.955933 104.0
1358.271362 76.0
1359.819458 156.0
1360.186401 56.0
1361.816528 76.0
1363.202881 208.0
1363.381348 176.0
1366.226807 108.0
1367.816284 164.0
1368.287476 72.0
1370.040161 196.0
1370.496948 152.0
1372.575562 152.0
1375.873535 56.0
1377.261841 160.0
1379.55249 100.0
1380.772461 148.0
1380.912964 212.0
1382.081787 164.0
1384.62085 128.0
1385.487549 140.0
1385.902344 136.0
1387.095581 196.0
1387.191895 192.0
1390.12146 164.0
1392.965088 136.0
1393.239868 100.0
1393.544556 196.0
1394.02002 120.0
1395.328247 172.0
1395.72229 216.0
1398.846924 108.0
1399.315918 244.0
1402.042236 100.0
1402.124146 188.0
1403.011108 100.0
1403.272095 176.0
1403.361572 156.0
1403.95813 168.0
1404.293701 188.0
1405.621582 108.0
1406.502197 68.0
1406.845581 140.0
1410.147095 188.0
1411.761963 128.0
1416.042603 188.0
1416.776733 112.0
1417.870728 132.0
1419.812378 132.0
1422.581055 176.0
1423.391846 136.0
1426.7052 120.0
1428.412231 144.0
1429.224731 160.0
1431.728271 200.0
1432.205811 156.0
1433.388672 140.0
1435.552124 68.0
1439.506226 64.0
1442.029419 88.0
1444.501953 160.0
1445.182739 244.0
1448.021484 76.0
1451.128296 144.0
1455.91626 184.0
1456.318848 64.0
1456.766968 100.0
1457.276001 116.0
1460.156982 248.0
1460.712158 84.0
1463.809692 88.0
1464.601807 120.0
1468.290649 120.0
1468.50415 160.0
1469.106812 168.0
1469.503418 208.0
1470.00708 80.0
1474.099976 112.0
1474.260498 216.0
1475.02478 144.0
1478.5354 152.0
1480.870483 168.0
1484.901855 168.0
1485.34668 164.0
1486.612671 168.0
1488.537354 92.0
1491.704712 116.0
1492.28125 148.0
1492.535034 188.0
1493.096436 76.0
1493.419434 184.0
1499.008545 156.0
1500.974121 132.0
1504.114136 172.0
