>compound MLS002695932-01!
>formula C20H24O11
>ionization [M+H]+
>parentmass 441.13913804009053
#inchi InChI=1S/C20H24O11/c1-5-12(24)28-11-8(22)18-10-6(21)7(16(2,3)4)17(18)9(23)13(25)30-15(17)31-20(18,14(26)29-10)19(5,11)27/h5-11,15,21-23,27H,1-4H3/t5-,6+,7+,8+,9+,10-,11+,15?,17?,18-,19-,20-/m1/s1
#inchikey AMOGMTLMADGEOQ
#Ion_Source LC-ESI
#Instrument qTof
#Compound_Source NIH Pharmacologically Active Library
#PI Dorrestein
#Data_Collector VP/LMS
#Scan -1
#Precursor_MZ 441.147
#ExactMass 440.132
#Charge 1
#CAS_Number N/A
#Pubmed_ID N/A
#Smiles C[C@@H]1C(=O)O[C@H]2[C@H](O)[C@]34[C@@H]5OC(=O)[C@]3(OC6OC(=O)[C@H](O)C46[C@@H]([C@@H]5O)C(C)(C)C)[C@@]12O
#INCHI_AUX N/A
#Library_Class 3
#SpectrumID CCMSLIB00000085528
#IonMode Positive
#UpdateWorkflowName UPDATE-SINGLE-ANNOTATED-BRONZE
#LibraryQualityString Bronze
#TaskID d252d724072548979f1f6f1ced849daf
##Scan# 1407
#SpectrumFile p4-C03_GC3_01_18351.mzXML
#LibraryName Pharm_Active_Library.mgf
#MQScore -1
#Organism Pharm_Active_Library
#TIC_Query 0
#RT_Query -1
#MZErrorPPM -1
#SharedPeaks 0
#MassDiff 0
#LibMZ -1
#SpecMZ 441.147
#SpecCharge 0
#internalFilename spec-00000.mgf

>collision 10
46.432991 120.0
47.011169 104.0
47.764713 116.0
48.05677 160.0
48.182407 264.0
48.786633 168.0
49.023247 80.0
49.087372 180.0
50.085232 160.0
50.946709 164.0
51.483681 208.0
51.539391 60.0
52.319614 176.0
58.944927 180.0
59.433384 172.0
59.474819 244.0
62.609428 176.0
62.67086 148.0
63.635662 168.0
64.750298 124.0
65.887527 36.0
66.423347 212.0
67.367493 88.0
70.104851 216.0
70.256577 208.0
72.128967 120.0
72.947701 208.0
75.627083 196.0
75.82106 88.0
78.474632 180.0
78.742851 176.0
79.28421 164.0
80.393906 208.0
80.672531 132.0
83.071213 228.0
83.716438 60.0
84.95015 176.0
85.122665 204.0
85.820038 240.0
86.559357 144.0
86.792603 148.0
87.751999 152.0
89.274307 60.0
89.792198 108.0
90.474319 212.0
91.316818 48.0
91.57756 64.0
93.442055 188.0
93.472839 104.0
93.542122 80.0
95.014671 164.0
96.309174 112.0
97.05674 180.0
98.477577 212.0
102.048691 136.0
102.68502 276.0
102.701157 220.0
103.05645 188.0
103.258591 156.0
103.655373 256.0
105.070999 208.0
105.131699 188.0
107.048416 136.0
108.008095 148.0
108.629517 128.0
109.032974 208.0
109.057259 148.0
110.537949 292.0
111.078217 228.0
111.864372 168.0
111.973862 212.0
112.043373 148.0
112.230949 124.0
115.364632 180.0
115.963966 164.0
116.46389 188.0
117.862022 180.0
118.517632 208.0
119.085999 72.0
120.891129 236.0
121.030045 296.0
121.067642 372.0
122.029533 112.0
123.036362 188.0
123.083969 180.0
123.460594 168.0
123.626511 200.0
124.935585 140.0
125.017906 180.0
127.051178 208.0
127.601402 172.0
127.756577 160.0
129.06694 136.0
129.585251 136.0
130.832062 136.0
131.050705 128.0
133.030685 168.0
133.066589 176.0
133.155212 160.0
134.998871 108.0
135.044067 228.0
135.079819 228.0
137.021118 180.0
137.062485 176.0
137.44722 156.0
139.043167 136.0
140.806519 132.0
141.213028 136.0
142.084732 120.0
142.298325 200.0
142.497818 204.0
142.66655 152.0
143.051926 140.0
143.266251 196.0
143.316284 132.0
144.960236 204.0
145.02858 152.0
145.07048 276.0
145.97081 220.0
147.050079 256.0
147.0784 144.0
148.911896 164.0
149.024948 264.0
149.063644 316.0
149.836243 160.0
150.959015 212.0
151.036209 184.0
151.076279 152.0
151.113113 188.0
151.16449 160.0
151.512161 200.0
152.083511 152.0
153.093964 156.0
153.929916 172.0
154.018829 164.0
154.07811 140.0
155.053024 148.0
155.087845 156.0
156.09317 120.0
156.110565 160.0
156.361832 240.0
157.067978 192.0
158.532013 172.0
158.639786 160.0
159.078781 216.0
160.046692 204.0
160.124756 84.0
160.374191 84.0
161.027649 124.0
161.058075 168.0
161.096878 296.0
162.551651 148.0
163.039871 332.0
163.077332 160.0
163.095123 160.0
163.830521 200.0
164.049683 200.0
165.017685 228.0
165.058151 160.0
166.159485 176.0
166.665283 204.0
167.030884 168.0
167.715256 136.0
168.349915 144.0
170.105316 136.0
170.765289 48.0
171.083847 348.0
173.05687 196.0
173.096542 308.0
174.073807 196.0
174.712494 196.0
175.034302 260.0
175.075134 472.0
175.107315 168.0
176.773117 196.0
177.025436 252.0
177.05452 2344.0
177.092758 184.0
177.424683 132.0
178.059998 304.0
178.159775 104.0
179.040558 212.0
179.0728 192.0
179.173355 32.0
180.408966 56.0
181.021652 152.0
181.099319 140.0
182.723358 144.0
183.051727 156.0
183.110977 192.0
184.068314 192.0
185.047089 116.0
185.06604 88.0
185.087708 180.0
185.131134 184.0
186.104492 108.0
187.035278 164.0
189.01622 112.0
189.056595 320.0
189.094894 140.0
190.05574 152.0
190.169266 236.0
190.990799 160.0
191.033569 444.0
191.070831 432.0
191.114594 188.0
191.307236 76.0
192.037155 316.0
192.08432 156.0
192.600494 168.0
193.012268 168.0
193.055054 200.0
193.09523 108.0
194.089371 156.0
194.888748 72.0
194.958221 248.0
195.028656 1072.0
195.056686 340.0
195.511627 72.0
196.036118 176.0
197.028458 140.0
199.109634 168.0
201.055511 324.0
201.087158 196.0
201.12677 188.0
202.029755 200.0
202.120285 132.0
203.025131 144.0
203.070374 480.0
203.134537 116.0
204.341904 68.0
204.99678 228.0
205.049011 1268.0
206.048538 280.0
207.065887 144.0
207.101761 140.0
211.015961 164.0
211.070175 156.0
211.125839 160.0
212.118927 184.0
213.059616 196.0
213.094864 108.0
213.128876 132.0
213.722031 192.0
215.034409 192.0
215.068283 116.0
216.03299 140.0
216.06192 112.0
217.050125 380.0
218.052902 132.0
219.029434 564.0
219.071686 268.0
219.101593 204.0
219.368591 120.0
219.548447 120.0
220.0168 164.0
220.064819 100.0
221.04129 144.0
221.073669 172.0
221.099411 200.0
222.0504 136.0
223.054718 272.0
224.050858 160.0
225.052948 172.0
225.088776 168.0
226.087204 108.0
227.070084 156.0
227.099838 60.0
229.044922 428.0
229.088409 176.0
229.121323 188.0
230.051682 168.0
230.269089 44.0
231.033813 180.0
231.06543 188.0
231.136688 100.0
231.808914 116.0
231.966507 64.0
233.044937 972.0
233.697556 80.0
233.901443 72.0
233.971466 120.0
234.040253 352.0
234.09021 104.0
234.114563 144.0
235.019897 52.0
235.060089 160.0
236.064545 128.0
237.037582 612.0
238.956985 56.0
239.052368 176.0
239.112396 260.0
240.71077 188.0
241.082016 176.0
241.121353 132.0
243.066376 132.0
243.11293 148.0
243.147064 48.0
245.061798 224.0
245.083099 128.0
246.020874 184.0
246.257309 80.0
247.023102 184.0
247.06192 436.0
247.088974 212.0
247.320358 52.0
247.799484 164.0
248.037643 136.0
248.065781 156.0
248.150497 188.0
249.035034 128.0
249.117096 116.0
250.579956 160.0
251.011765 208.0
251.055573 1088.0
251.12529 40.0
251.598602 48.0
252.056732 288.0
252.100815 136.0
252.22052 96.0
253.018066 156.0
253.109894 136.0
256.337189 224.0
257.044067 228.0
257.105713 148.0
258.048004 180.0
258.118347 120.0
259.065704 92.0
259.132538 368.0
259.161804 116.0
260.10144 220.0
260.135071 220.0
261.0401 516.0
262.044739 172.0
263.075806 108.0
263.902832 128.0
265.069366 304.0
266.080048 164.0
266.106018 116.0
267.123199 260.0
268.112976 176.0
269.02951 108.0
269.075226 196.0
269.113129 176.0
269.878937 68.0
271.025543 204.0
271.092865 200.0
272.021515 160.0
273.29007 112.0
274.24176 88.0
275.046539 140.0
275.069672 172.0
275.119171 128.0
276.057526 64.0
277.071228 180.0
277.096832 120.0
277.395081 44.0
277.968842 180.0
278.038544 140.0
278.071716 188.0
278.702667 136.0
278.795715 196.0
279.008453 128.0
279.048615 284.0
279.088226 140.0
279.111511 168.0
280.053284 184.0
280.956635 28.0
282.028534 112.0
285.031281 164.0
285.112244 204.0
287.125488 236.0
289.032776 128.0
291.057281 164.0
292.083618 128.0
292.78476 60.0
293.07428 172.0
293.739075 44.0
294.203156 32.0
299.09137 224.0
300.062805 196.0
301.104889 156.0
301.71994 80.0
303.046997 148.0
304.124359 136.0
305.138275 140.0
307.042755 940.0
308.052795 148.0
309.28952 68.0
310.410583 44.0
311.056122 76.0
311.080719 112.0
313.042572 176.0
313.103058 136.0
314.110443 216.0
315.081238 136.0
317.037903 140.0
318.915344 116.0
320.506073 92.0
321.061768 172.0
321.129944 144.0
322.515259 84.0
323.080231 140.0
323.116028 148.0
323.319977 92.0
324.505615 204.0
324.555817 224.0
324.950348 56.0
325.00415 104.0
325.054321 1744.0
326.054047 620.0
326.110229 108.0
326.383423 92.0
327.05069 108.0
327.192963 44.0
327.765625 56.0
329.009918 184.0
329.100159 152.0
331.425873 148.0
333.138275 160.0
334.680298 88.0
335.029572 124.0
348.975281 132.0
349.129608 296.0
352.617218 56.0
353.041046 288.0
353.862854 40.0
354.031342 64.0
359.112457 180.0
366.146698 144.0
367.052063 144.0
368.152649 156.0
369.148254 144.0
372.411377 40.0
373.395294 68.0
377.131256 184.0
385.15097 216.0
395.134064 120.0
399.265198 104.0
405.120728 124.0
408.271362 76.0
414.151703 148.0
420.000641 92.0
441.127228 188.0
441.884155 84.0
445.304688 104.0
459.144318 80.0
460.147095 100.0
510.882507 52.0
702.401062 168.0
745.173401 88.0
813.957703 92.0
1139.932007 212.0
1154.060059 172.0
1232.495361 200.0
1258.942749 164.0
1266.928223 264.0
1342.710205 196.0
1375.227295 132.0
1395.41333 156.0
