>compound MLS002154141-01!
>formula C15H18O3
>ionization [M+H]+
>parentmass 247.133
#inchi InChI=1S/C15H18O3/c1-8-10-4-6-15(3)7-5-11(16)9(2)12(15)13(10)18-14(8)17/h5,7-8,10,13H,4,6H2,1-3H3/t8-,10-,13-,15-/m0/s1
#inchikey XJHDMGJURBVLLE
#Ion_Source LC-ESI
#Instrument qTof
#Compound_Source NIH Natural Product Library
#PI Dorrestein
#Data_Collector VVP/LMS
#Scan -1
#Precursor_MZ 247.133
#ExactMass 246.126
#Charge 1
#CAS_Number N/A
#Pubmed_ID N/A
#Smiles C[C@H]1[C@@H]2CC[C@@]3(C)C=CC(=O)C(=C3[C@H]2OC1=O)C
#INCHI_AUX N/A
#Library_Class 1
#SpectrumID CCMSLIB00000080288
#IonMode Positive
#UpdateWorkflowName UPDATE-SINGLE-ANNOTATED-GOLD
#LibraryQualityString Gold
#TaskID b1d8e8f6646f4e71acdff9ca3d919d08
##Scan# 1893
#SpectrumFile p2-F06_GF6_01_18042.mzXML
#LibraryName NIH_Natural_Products_Library.mgf
#MQScore -1
#Organism NIH_Natural_Products_Library
#TIC_Query 0
#RT_Query -1
#MZErrorPPM -1
#SharedPeaks 0
#MassDiff 0
#LibMZ -1
#SpecMZ 247.133
#SpecCharge 0
#internalFilename spec-00000.mgf

>collision 10
95.180344 140.0
95.256088 204.0
95.409607 168.0
95.693665 212.0
95.831947 168.0
95.927444 104.0
96.161514 160.0
96.190796 80.0
96.6129 60.0
96.873268 180.0
96.981041 200.0
97.379341 92.0
97.463814 204.0
97.745003 188.0
97.898552 160.0
97.983246 116.0
98.073898 164.0
98.594948 80.0
98.677971 100.0
99.196663 132.0
100.030983 168.0
100.443474 232.0
100.615097 112.0
100.922783 140.0
101.535553 104.0
101.969215 140.0
102.139168 176.0
102.427979 220.0
102.760612 184.0
103.010948 184.0
103.056229 292.0
103.15847 124.0
103.328346 112.0
103.824623 104.0
103.85099 120.0
104.053917 148.0
104.810555 124.0
105.026649 172.0
105.069275 1304.0
105.269524 92.0
105.553566 112.0
105.78476 88.0
105.983421 180.0
106.074661 300.0
106.089996 188.0
106.695625 104.0
107.014526 80.0
107.048523 196.0
107.086792 128.0
107.666145 56.0
107.686317 224.0
107.717781 160.0
107.897575 80.0
107.934792 148.0
107.992691 56.0
108.057014 172.0
108.166504 128.0
108.401154 192.0
109.066757 212.0
109.149918 120.0
109.382935 124.0
109.639122 52.0
110.275681 132.0
110.465958 172.0
110.591507 132.0
110.857491 144.0
110.897308 72.0
110.937134 212.0
110.968582 132.0
111.312698 144.0
111.977257 140.0
112.10788 128.0
112.185867 252.0
112.542419 132.0
112.658585 180.0
113.85746 112.0
114.118835 64.0
114.499741 76.0
114.842888 120.0
114.996513 156.0
115.02639 176.0
115.053528 2460.0
115.178001 32.0
115.216454 52.0
115.304062 168.0
115.354027 192.0
115.811142 228.0
116.061897 1284.0
116.327919 112.0
116.949135 88.0
117.022324 128.0
117.069702 1260.0
117.207565 104.0
117.412361 136.0
118.034302 168.0
118.074593 184.0
118.636208 84.0
118.761978 120.0
118.827057 52.0
118.918198 76.0
119.049294 204.0
119.086342 408.0
119.472305 164.0
119.766182 104.0
120.056786 340.0
120.204391 148.0
120.914642 140.0
121.066093 536.0
121.099556 680.0
121.210281 88.0
121.284798 44.0
121.594055 236.0
122.105965 172.0
122.28418 32.0
122.881363 176.0
123.102097 56.0
123.599464 152.0
123.67028 124.0
124.106705 192.0
124.208725 196.0
124.277496 172.0
124.783905 160.0
124.88842 152.0
125.037491 128.0
125.338127 124.0
125.496384 204.0
126.477119 164.0
126.671928 160.0
126.808617 204.0
127.051926 400.0
127.792206 188.0
128.061127 1516.0
128.202026 52.0
128.829285 184.0
129.025665 184.0
129.069931 3148.0
129.111832 124.0
129.186478 180.0
129.202301 108.0
129.374298 32.0
129.589462 148.0
129.829742 208.0
130.028259 136.0
130.076233 2132.0
130.120193 152.0
130.17923 44.0
130.476883 124.0
130.629242 48.0
131.051224 336.0
131.083405 964.0
131.11879 212.0
131.209976 72.0
131.294342 124.0
131.353638 32.0
131.645782 92.0
131.661774 208.0
131.90625 56.0
132.052582 68.0
132.085999 224.0
132.606659 188.0
132.939209 160.0
133.062866 288.0
133.097855 176.0
133.426163 156.0
134.06543 252.0
134.102936 172.0
134.739822 216.0
134.77449 136.0
134.795288 196.0
134.892349 196.0
134.970963 124.0
135.017212 164.0
135.080505 8660.0
135.172211 28.0
135.2509 40.0
135.278671 156.0
135.318024 76.0
135.359711 76.0
135.384018 40.0
135.461609 48.0
135.496368 44.0
135.688721 60.0
136.046005 72.0
136.083359 1168.0
136.368881 128.0
136.524658 152.0
136.596756 60.0
136.694473 92.0
136.908646 208.0
137.022781 144.0
137.081024 200.0
137.216217 156.0
137.638535 56.0
138.11998 200.0
138.344635 108.0
138.801498 156.0
139.226257 168.0
140.061432 376.0
140.280365 152.0
140.815994 156.0
140.929382 96.0
141.067444 404.0
141.288757 36.0
141.459137 148.0
141.492279 36.0
141.650955 144.0
142.074432 268.0
142.165451 88.0
142.24379 92.0
142.42662 128.0
142.478882 180.0
143.045258 200.0
143.084671 336.0
143.278259 156.0
143.421234 36.0
143.843445 176.0
143.919846 152.0
143.986465 208.0
144.058624 724.0
144.081055 216.0
144.08725 156.0
144.219116 188.0
144.251923 52.0
144.526962 180.0
144.584396 48.0
144.917252 64.0
144.945999 160.0
145.001114 32.0
145.062576 1012.0
145.099594 2204.0
145.185715 40.0
145.267273 36.0
145.430435 180.0
145.608109 40.0
145.701797 48.0
145.749847 52.0
146.072433 1068.0
146.10498 264.0
147.043045 148.0
147.078873 348.0
147.110626 108.0
147.202377 88.0
147.267578 132.0
147.344879 164.0
147.680893 68.0
148.092957 212.0
148.322556 92.0
148.412262 52.0
148.698517 196.0
148.999619 164.0
149.067657 144.0
149.095291 576.0
149.308319 44.0
149.919388 100.0
150.098236 164.0
150.758881 184.0
151.133011 72.0
151.348419 136.0
151.463516 172.0
152.057648 356.0
152.860504 136.0
153.070389 1128.0
153.515762 96.0
154.076035 300.0
154.108185 196.0
154.595322 52.0
154.92215 132.0
155.011353 144.0
155.085358 1720.0
155.212143 96.0
155.380798 104.0
155.482529 88.0
155.768066 80.0
155.817764 124.0
155.971832 40.0
156.00415 200.0
156.090088 464.0
156.190659 32.0
157.063446 2620.0
157.096558 160.0
157.539261 216.0
157.599213 60.0
157.6492 96.0
157.70668 204.0
157.896698 156.0
158.010513 88.0
158.072708 11256.0
158.146896 28.0
158.181931 84.0
158.264557 80.0
158.315689 104.0
158.347687 60.0
158.715576 68.0
158.835953 28.0
159.077652 2744.0
159.113525 172.0
159.285278 96.0
159.355621 44.0
159.456146 56.0
159.508926 252.0
159.648788 64.0
159.689957 80.0
159.939056 216.0
160.083862 492.0
160.276093 208.0
160.303162 204.0
160.352127 132.0
160.369781 48.0
160.460526 32.0
160.574005 124.0
161.06871 196.0
161.095062 1152.0
161.997086 172.0
162.060425 152.0
162.090836 184.0
162.686859 80.0
163.401001 88.0
163.515518 104.0
165.973068 124.0
166.668671 56.0
167.081711 340.0
168.089218 312.0
168.108139 48.0
168.149429 224.0
168.852158 80.0
169.056549 172.0
169.32579 184.0
169.356873 196.0
170.568634 172.0
170.857285 152.0
171.082245 1500.0
171.174835 64.0
171.336319 96.0
171.789932 120.0
172.087509 1252.0
172.236313 72.0
172.795746 92.0
173.062347 228.0
173.096359 7156.0
173.130264 160.0
173.196274 32.0
173.290588 80.0
173.340378 100.0
173.358719 28.0
173.40065 64.0
173.578918 216.0
173.665466 48.0
173.749405 68.0
174.009232 92.0
174.068115 524.0
174.101669 1260.0
174.450592 68.0
174.56102 40.0
175.071548 164.0
175.104721 148.0
175.187439 120.0
175.216415 64.0
175.350815 128.0
175.48262 120.0
175.620682 68.0
176.192566 108.0
177.091385 144.0
177.118454 48.0
177.29332 80.0
178.081299 104.0
178.913605 216.0
179.441116 136.0
181.061691 148.0
183.106049 180.0
183.986008 144.0
184.080505 204.0
185.090546 508.0
185.192047 96.0
185.886078 76.0
186.101715 536.0
187.110352 524.0
188.117905 160.0
188.579529 92.0
194.104965 164.0
194.96553 76.0
195.021118 120.0
195.082489 152.0
196.085709 168.0
197.091751 168.0
200.104156 92.0
201.128906 564.0
202.127945 164.0
203.025955 152.0
207.279251 120.0
211.12236 156.0
213.198074 44.0
214.097015 168.0
220.584427 136.0
221.887009 92.0
228.568756 116.0
229.12912 180.0
262.031738 64.0
265.973846 96.0
268.844482 72.0
292.902252 64.0
296.301361 116.0
304.421082 116.0
322.868225 56.0
336.356598 68.0
359.69342 112.0
384.296509 76.0
541.0271 56.0
546.331482 96.0
551.325256 76.0
632.476807 104.0
762.383789 204.0
824.2724 176.0
830.765015 156.0
863.849976 36.0
882.067566 144.0
885.132202 148.0
913.488159 152.0
917.794312 184.0
921.6875 116.0
924.063721 52.0
931.562988 180.0
943.568542 220.0
961.424805 272.0
961.677795 104.0
967.537842 164.0
968.652527 128.0
974.64563 56.0
989.627747 168.0
993.952637 208.0
1005.033325 124.0
1018.41626 180.0
1020.710449 148.0
1030.90979 216.0
1041.262451 92.0
1062.103638 120.0
1062.187988 176.0
1072.103149 168.0
1084.016235 168.0
1092.578003 252.0
1092.814941 208.0
1093.30835 128.0
1096.225708 168.0
1097.128662 124.0
1098.427734 156.0
1102.408936 188.0
1124.68457 56.0
1134.269775 76.0
1139.201904 224.0
1145.491455 28.0
1152.332153 148.0
1152.582153 176.0
1158.759521 172.0
1165.231934 264.0
1173.814941 196.0
1176.673828 120.0
1179.898438 156.0
1180.506958 200.0
1183.052246 132.0
1183.154907 140.0
1185.0177 168.0
1191.315674 136.0
1192.002686 288.0
1192.861816 184.0
1193.349976 232.0
1194.037598 140.0
1200.262817 212.0
1200.869751 148.0
1201.973511 144.0
1205.965088 148.0
1214.779785 48.0
1216.278564 148.0
1217.597778 136.0
1219.890747 236.0
1220.808472 160.0
1222.130127 248.0
1236.393311 136.0
1238.956055 160.0
1239.502563 172.0
1240.553833 168.0
1241.212891 40.0
1242.194702 112.0
1242.973511 164.0
1248.269897 180.0
1250.119995 204.0
1252.823608 32.0
1254.430298 108.0
1256.087402 44.0
1259.334351 212.0
1266.201782 160.0
1280.234863 172.0
1281.851929 208.0
1283.220459 156.0
1285.966797 128.0
1288.494629 32.0
1290.524414 172.0
1290.817505 52.0
1296.730835 180.0
1299.254883 100.0
1315.518677 364.0
1316.609009 144.0
1319.665527 136.0
1321.430298 140.0
1329.291992 164.0
1339.586914 196.0
1340.271851 188.0
1341.095337 204.0
1345.201904 176.0
1345.340576 104.0
1346.837524 152.0
1348.876221 164.0
1349.848633 144.0
1350.265381 164.0
1351.150513 64.0
1356.349731 60.0
1357.119507 164.0
1359.4375 96.0
1361.500244 208.0
1362.976807 120.0
1365.130615 180.0
1366.094116 192.0
1376.988281 212.0
1377.86731 92.0
1378.241089 236.0
1378.717041 164.0
1389.624146 132.0
1391.115845 64.0
1391.657837 168.0
1395.328003 176.0
1396.889771 168.0
1397.209595 148.0
1401.915405 172.0
1403.622437 284.0
1403.82373 44.0
1403.898315 28.0
1408.159668 52.0
1412.749146 168.0
1413.055908 36.0
1413.77417 260.0
1415.795532 160.0
1416.529419 156.0
1419.257446 216.0
1419.549927 136.0
1422.258179 192.0
1422.498413 172.0
1425.592773 164.0
1428.088745 152.0
1428.735718 64.0
1433.765503 156.0
1439.023071 96.0
1439.642212 172.0
1443.027344 120.0
1456.379761 180.0
1457.450928 224.0
1459.632446 116.0
1463.18811 184.0
1464.426758 140.0
1468.588257 148.0
1471.503296 156.0
1472.007324 96.0
1473.611328 144.0
1475.881348 108.0
1477.533325 136.0
1477.877686 192.0
1480.518555 176.0
1481.062256 212.0
1481.851318 148.0
1482.609863 64.0
1482.686523 164.0
1483.008423 132.0
1483.177002 256.0
1483.238403 116.0
1484.380737 196.0
1484.6875 112.0
1485.745972 200.0
1486.628296 128.0
1491.658936 172.0
1493.865967 240.0
1496.682739 188.0
1501.09021 116.0
1501.171143 180.0
1501.637817 208.0
