>compound NCGC00160335-01!4,7,7-Trimethyl-2,3-dioxo-bicyclo[2.2.1]heptane-1-carboxylic acid
>formula C11H14O4
>ionization [M+H]+
>parentmass 211.097
#inchi InChI=1S/C11H14O4/c1-9(2)10(3)4-5-11(9,8(14)15)7(13)6(10)12/h4-5H2,1-3H3,(H,14,15)/t10?,11-/m0/s1
#inchikey MFGSQXUNSUJWPZ
#Ion_Source LC-ESI
#Instrument qTOF
#Compound_Source Prestwick Phytochem Lib
#PI Dorrestein
#Data_Collector VVP/LMS
#Scan -1
#Precursor_MZ 211.097
#ExactMass 210.089
#Charge 1
#CAS_Number N/A
#Pubmed_ID N/A
#Smiles CC1(C)C2(C)CC[C@@]1(C(O)=O)C(=O)C2=O
#INCHI_AUX N/A
#Library_Class 3
#SpectrumID CCMSLIB00000078739
#IonMode Positive
#UpdateWorkflowName UPDATE-SINGLE-ANNOTATED-BRONZE
#LibraryQualityString Bronze
#TaskID 67c915c6594c435cadc1fe2b5358144d
##Scan# 1525
#SpectrumFile p1-A03_GA3_01_17876.mzXML
#LibraryName phytochem_lib.mgf
#MQScore -1
#Organism phytochem_lib
#TIC_Query 0
#RT_Query -1
#MZErrorPPM -1
#SharedPeaks 0
#MassDiff 0
#LibMZ -1
#SpecMZ 211.097
#SpecCharge 0
#internalFilename spec-00000.mgf

>collision 10
94.991455 236.0
95.288467 148.0
95.360359 204.0
95.438118 176.0
95.510071 184.0
95.566483 156.0
95.641464 128.0
95.731926 160.0
95.866341 172.0
95.879982 84.0
96.03009 180.0
96.127632 196.0
96.180328 228.0
96.447914 132.0
96.727615 184.0
96.829422 168.0
96.843132 56.0
96.945007 104.0
97.150871 160.0
97.235237 148.0
97.30983 112.0
97.374626 204.0
97.539665 140.0
97.659599 180.0
97.913483 88.0
98.033646 96.0
98.29985 152.0
98.410385 164.0
98.530853 120.0
98.664116 204.0
98.768059 192.0
98.926361 196.0
98.942192 60.0
99.011497 176.0
99.296867 144.0
99.49926 208.0
99.600533 256.0
99.747566 140.0
99.872833 156.0
99.904655 104.0
100.195297 160.0
100.348755 108.0
100.430511 168.0
100.446465 244.0
100.468407 60.0
100.576164 172.0
100.608101 168.0
100.747887 144.0
100.827805 172.0
100.843796 176.0
100.905762 128.0
100.993744 128.0
101.167824 144.0
101.19986 220.0
101.324028 164.0
101.624748 152.0
101.662872 236.0
101.706657 108.0
101.873688 88.0
102.026405 148.0
102.046509 156.0
102.06662 156.0
102.17321 164.0
102.408714 148.0
102.565872 56.0
102.692894 112.0
102.916885 124.0
103.491089 116.0
103.515381 388.0
103.612602 184.0
103.634888 172.0
103.669334 164.0
104.198898 180.0
104.21312 148.0
104.306892 116.0
104.407082 160.0
104.727768 104.0
104.947853 344.0
105.032867 220.0
105.135513 216.0
105.219193 208.0
105.270241 184.0
105.312325 164.0
105.398918 180.0
105.443878 164.0
105.589027 136.0
105.6688 256.0
105.752693 160.0
105.801819 184.0
106.016876 132.0
106.05172 108.0
106.172676 160.0
106.198189 172.0
106.60376 172.0
106.63459 148.0
106.794952 184.0
106.967789 112.0
107.223175 188.0
107.280891 192.0
107.38192 44.0
107.615089 164.0
107.718346 160.0
108.129791 180.0
108.146347 196.0
108.36792 228.0
108.664391 168.0
108.963341 60.0
109.063087 264.0
109.235664 216.0
109.389641 152.0
109.456261 120.0
109.477089 188.0
109.506241 144.0
109.583313 108.0
109.722946 156.0
109.808434 164.0
110.012909 188.0
110.148643 144.0
110.165352 236.0
110.240562 92.0
110.26355 132.0
110.303261 188.0
110.390236 252.0
110.583527 200.0
110.694481 124.0
110.740555 196.0
110.784538 264.0
110.813866 136.0
110.987823 144.0
111.011459 192.0
111.038155 132.0
111.063507 224.0
111.172409 144.0
111.243767 136.0
111.470589 76.0
111.489502 132.0
112.217781 144.0
112.250145 172.0
112.378067 112.0
112.401276 260.0
112.449814 192.0
112.479362 204.0
112.749702 152.0
112.783516 124.0
112.857506 72.0
112.994606 116.0
113.037445 160.0
113.065155 212.0
113.174866 132.0
113.274399 140.0
113.77272 128.0
113.791832 76.0
113.840668 184.0
113.978729 116.0
114.045227 608.0
114.163658 108.0
114.246613 132.0
114.284904 136.0
114.342354 168.0
114.384926 92.0
114.502022 180.0
114.555267 184.0
114.631966 160.0
114.779045 108.0
114.985962 232.0
115.055046 2528.0
115.105507 84.0
115.208015 128.0
115.494446 176.0
115.59285 180.0
115.734123 240.0
115.766235 68.0
116.054817 356.0
116.079086 160.0
116.272148 136.0
116.30957 240.0
116.411682 172.0
116.452484 176.0
116.504036 56.0
116.602875 108.0
116.691002 204.0
116.749062 156.0
116.930168 300.0
117.011559 200.0
117.060287 200.0
117.108459 244.0
117.306686 272.0
117.420959 116.0
117.455467 116.0
117.882927 176.0
117.915337 172.0
117.99099 228.0
118.023422 192.0
118.373947 136.0
118.566742 136.0
118.675117 212.0
118.701141 196.0
118.863823 96.0
119.154755 256.0
119.18734 292.0
119.276443 36.0
119.387321 192.0
119.574409 148.0
119.737686 148.0
119.91851 164.0
120.038849 220.0
120.136551 176.0
120.34169 140.0
120.411568 164.0
120.453064 168.0
120.481461 192.0
120.651917 80.0
120.724068 124.0
120.756874 196.0
120.791862 60.0
120.955971 184.0
121.063248 204.0
121.302055 148.0
121.339325 132.0
121.534515 196.0
121.567429 144.0
121.833092 164.0
121.870438 168.0
122.041138 108.0
122.112236 200.0
122.334465 44.0
122.733215 156.0
123.069107 204.0
123.088455 116.0
123.143425 148.0
123.181213 160.0
123.20993 136.0
123.300522 52.0
123.444206 196.0
123.802689 120.0
124.186081 168.0
124.412407 84.0
124.46125 52.0
124.621162 56.0
125.008049 68.0
125.137138 140.0
125.348732 212.0
125.529282 188.0
125.763527 132.0
125.868446 136.0
126.069481 180.0
126.181236 200.0
126.301994 160.0
126.436226 172.0
126.617561 88.0
126.653397 208.0
126.738518 144.0
126.969162 148.0
127.056877 184.0
127.117455 68.0
127.541901 48.0
127.748772 332.0
127.768433 108.0
128.049011 472.0
128.088669 188.0
128.108932 32.0
128.165253 40.0
128.332047 256.0
128.36586 256.0
128.54834 196.0
128.643356 164.0
128.853378 136.0
128.957321 156.0
129.156281 156.0
129.588654 88.0
129.962738 152.0
130.005859 128.0
130.033081 104.0
130.062592 120.0
130.087555 92.0
130.237427 96.0
130.357819 168.0
130.505569 132.0
130.703445 212.0
130.773987 148.0
130.799454 212.0
130.820206 224.0
130.945145 188.0
130.987656 160.0
131.002655 168.0
131.085983 128.0
131.270615 132.0
131.316223 176.0
131.46907 200.0
131.601456 160.0
131.716019 224.0
131.871002 88.0
132.010452 52.0
132.081345 152.0
132.223206 152.0
132.52594 132.0
132.605652 184.0
132.69046 180.0
132.958832 164.0
133.018509 140.0
133.04834 160.0
133.280304 72.0
133.422806 160.0
133.908295 64.0
134.053436 172.0
134.182495 240.0
134.422379 108.0
134.586258 160.0
134.715576 208.0
134.757156 148.0
134.921356 168.0
134.943039 220.0
134.96286 224.0
135.140945 48.0
135.228882 64.0
135.346939 164.0
135.372406 116.0
135.604065 148.0
135.63652 256.0
135.743164 144.0
135.828964 156.0
135.924088 192.0
135.97049 160.0
136.04245 384.0
136.232864 112.0
136.311859 184.0
136.330444 104.0
136.61409 68.0
136.728104 188.0
136.751373 196.0
136.85379 168.0
136.912003 192.0
136.99585 124.0
137.366486 108.0
137.483139 248.0
137.508804 40.0
137.578842 148.0
137.709595 72.0
137.746964 192.0
137.789017 120.0
137.814713 200.0
137.83107 72.0
137.968948 156.0
138.116272 180.0
138.163055 116.0
138.191132 156.0
138.312805 164.0
138.338028 140.0
138.427521 84.0
138.540939 204.0
138.610229 192.0
138.70163 168.0
138.947845 144.0
139.053436 176.0
139.079254 244.0
139.196625 188.0
139.344604 156.0
139.621964 80.0
139.638412 196.0
139.779556 152.0
139.82428 116.0
139.857224 112.0
140.050613 752.0
140.092682 56.0
140.21904 128.0
140.225388 188.0
140.283554 212.0
140.625565 180.0
140.67041 144.0
140.708176 96.0
140.802628 160.0
141.056824 1264.0
141.154724 44.0
141.28717 156.0
141.316147 224.0
141.410217 268.0
141.440979 128.0
141.513397 180.0
141.573563 180.0
141.623291 52.0
141.656448 40.0
141.763062 40.0
141.876831 80.0
141.97641 56.0
142.064819 1340.0
142.159073 108.0
142.177109 172.0
142.225525 140.0
142.370331 156.0
142.481689 100.0
142.643555 204.0
142.698242 176.0
143.002716 176.0
143.028885 120.0
143.068909 404.0
143.095535 196.0
143.128876 144.0
143.15506 140.0
143.212219 192.0
143.274002 184.0
143.560165 228.0
143.698502 140.0
143.739059 196.0
143.774857 32.0
144.0784 184.0
144.422287 60.0
144.479706 216.0
144.841156 228.0
144.926682 176.0
145.004074 80.0
145.030441 68.0
145.087967 196.0
145.38298 160.0
145.445374 112.0
145.608643 140.0
145.651871 108.0
145.851288 108.0
146.023514 184.0
146.187988 232.0
146.26741 148.0
146.414276 128.0
146.460022 240.0
146.920425 320.0
147.032379 180.0
147.239029 200.0
147.294571 200.0
147.335648 148.0
147.661942 72.0
147.828873 216.0
147.84581 112.0
148.00798 360.0
148.035004 180.0
148.1315 180.0
148.636993 176.0
149.036377 164.0
149.393753 80.0
149.517838 60.0
149.61763 232.0
149.824631 84.0
150.041519 140.0
150.527039 176.0
150.778641 152.0
150.832413 80.0
150.851974 112.0
151.111191 220.0
151.128311 44.0
151.201721 92.0
151.270248 108.0
151.314117 148.0
151.529831 140.0
151.608246 248.0
151.652359 140.0
151.816605 112.0
151.858292 112.0
152.003036 188.0
152.054565 140.0
152.096283 136.0
152.359024 176.0
152.390961 144.0
152.463882 160.0
152.897491 220.0
153.06488 144.0
153.205261 200.0
153.326004 136.0
153.345718 168.0
153.417191 112.0
153.459106 116.0
153.982224 136.0
154.031616 152.0
154.064789 340.0
154.137848 96.0
154.335587 176.0
154.377625 232.0
154.402344 196.0
154.446869 172.0
154.553238 236.0
154.783432 256.0
154.860199 152.0
154.895889 184.0
154.944412 136.0
155.058823 1112.0
155.199677 164.0
155.465088 156.0
155.551956 204.0
155.698441 188.0
155.760529 116.0
156.075882 232.0
156.082886 112.0
156.456787 164.0
156.81546 132.0
157.3992 120.0
157.576523 140.0
157.748962 100.0
157.886475 92.0
158.056564 204.0
158.314392 124.0
158.404556 132.0
158.509766 136.0
158.587463 188.0
158.700256 156.0
159.036407 136.0
159.247299 116.0
159.556366 136.0
159.844376 148.0
159.981506 176.0
160.419815 152.0
160.510574 232.0
160.677032 236.0
160.856201 244.0
161.015259 196.0
161.055664 196.0
161.270432 204.0
161.293167 72.0
161.548553 72.0
161.616165 204.0
161.664948 220.0
161.953552 168.0
161.999146 180.0
162.097946 180.0
162.452881 168.0
162.493469 156.0
162.630508 140.0
163.011429 120.0
163.029221 172.0
163.237656 128.0
163.334305 164.0
163.420792 72.0
163.469131 184.0
163.682953 216.0
163.749161 120.0
163.812836 188.0
163.907089 136.0
164.118652 160.0
164.381363 128.0
164.474686 164.0
164.514084 220.0
164.904877 144.0
165.273102 72.0
165.475296 176.0
165.703232 204.0
165.877487 156.0
165.944138 112.0
166.045883 212.0
166.090302 144.0
166.208313 204.0
166.249619 200.0
166.536896 104.0
166.698746 164.0
166.732147 132.0
166.801712 192.0
167.062439 2204.0
167.220779 156.0
167.246506 132.0
167.367508 156.0
167.419006 128.0
167.539139 168.0
167.60704 140.0
167.867371 160.0
168.004074 160.0
168.068436 6328.0
168.152634 104.0
168.192978 172.0
168.303436 32.0
168.600677 168.0
168.719391 136.0
168.768127 164.0
168.796951 160.0
168.864182 56.0
169.011047 320.0
169.049332 152.0
169.075012 5980.0
169.139984 72.0
169.169495 52.0
169.195389 224.0
169.240509 48.0
169.286011 76.0
169.311905 104.0
169.353333 72.0
169.388275 180.0
169.500992 76.0
169.775772 116.0
169.853577 184.0
169.930511 116.0
169.95993 220.0
170.012207 136.0
170.022903 104.0
170.055557 132.0
170.080109 608.0
170.219498 28.0
170.393097 204.0
170.414291 92.0
170.61441 184.0
170.645599 100.0
170.924255 204.0
170.991562 156.0
171.053955 148.0
171.083664 212.0
171.116501 212.0
171.270126 128.0
171.288361 84.0
171.416016 96.0
171.515045 88.0
171.554153 136.0
171.595856 76.0
171.646988 112.0
171.697556 156.0
171.731461 232.0
172.002808 92.0
172.068069 32.0
172.10672 164.0
172.162064 48.0
172.658585 164.0
172.894012 212.0
173.098206 168.0
173.483322 64.0
173.554108 116.0
173.661621 64.0
174.044754 136.0
174.204956 140.0
174.27063 180.0
174.29953 268.0
174.357346 156.0
174.472992 128.0
174.588669 144.0
174.633377 96.0
174.809647 72.0
174.991257 192.0
175.096573 176.0
175.46283 136.0
175.505005 236.0
175.650055 148.0
175.774048 72.0
176.122513 152.0
176.244034 92.0
176.341812 268.0
176.44754 140.0
176.687073 180.0
176.778152 128.0
176.878723 128.0
176.907837 208.0
177.005798 164.0
177.768906 184.0
178.061203 328.0
178.414597 176.0
179.058487 152.0
179.077133 160.0
179.495514 192.0
179.594193 128.0
179.73291 136.0
179.927734 208.0
180.007828 176.0
180.034531 108.0
180.06572 276.0
180.085327 192.0
180.24823 244.0
180.288315 180.0
180.451355 128.0
180.480759 132.0
180.518204 204.0
180.560989 204.0
180.627853 168.0
180.946289 48.0
181.077286 572.0
181.514297 88.0
181.710083 148.0
181.787888 144.0
181.879135 132.0
182.045593 176.0
182.091187 204.0
182.147644 128.0
182.492188 188.0
182.706772 56.0
182.739044 132.0
182.776718 136.0
183.01088 156.0
183.054962 5612.0
183.089096 268.0
183.109665 204.0
183.282913 40.0
183.390701 80.0
183.490433 60.0
183.582108 192.0
183.654922 192.0
183.85997 212.0
184.008423 52.0
184.057281 796.0
184.113724 224.0
184.267685 96.0
184.554169 96.0
184.77594 188.0
184.827347 104.0
184.968063 152.0
185.069199 172.0
185.322815 164.0
185.406815 28.0
185.488129 176.0
185.64537 168.0
185.734863 108.0
185.813538 184.0
185.966324 220.0
185.986877 168.0
186.150085 164.0
186.294022 200.0
186.419006 196.0
186.492386 196.0
186.698471 164.0
186.968307 88.0
186.992798 136.0
187.058121 212.0
187.07991 112.0
187.335876 108.0
187.676529 176.0
188.151245 80.0
188.809723 188.0
188.839813 140.0
188.995728 72.0
189.513199 108.0
189.58992 52.0
189.768082 176.0
189.809219 176.0
190.045059 192.0
190.078018 224.0
190.176819 68.0
190.264648 168.0
190.366241 156.0
190.401932 140.0
190.445877 136.0
190.814087 180.0
191.054886 632.0
191.177155 80.0
191.27623 144.0
191.510269 184.0
191.780273 104.0
192.050476 156.0
192.087189 180.0
192.215988 112.0
192.260147 92.0
192.30632 208.0
192.469925 144.0
192.773773 188.0
193.080475 488.0
193.218903 176.0
193.282547 100.0
193.429214 216.0
193.465195 92.0
193.503952 168.0
193.57872 64.0
193.721313 152.0
193.877884 168.0
193.958252 208.0
194.085205 136.0
194.119049 148.0
194.218887 144.0
194.257721 252.0
194.304886 64.0
194.396439 148.0
194.415863 68.0
194.443619 180.0
194.515778 96.0
194.568527 212.0
194.682358 48.0
194.717575 164.0
194.749008 128.0
194.796173 140.0
194.805542 292.0
194.838943 180.0
194.865738 172.0
194.911133 316.0
194.948425 184.0
195.01416 204.0
195.041382 192.0
195.091888 117672.0
195.138153 160.0
195.148315 132.0
195.157059 144.0
195.184448 52.0
195.189377 180.0
195.211716 64.0
195.230591 104.0
195.262024 136.0
195.288849 84.0
195.340332 80.0
195.350708 84.0
195.363129 140.0
195.374481 244.0
195.403458 228.0
195.448502 80.0
195.472656 196.0
195.522644 116.0
195.549545 424.0
195.594254 112.0
195.622086 116.0
195.649918 152.0
195.705597 64.0
195.730835 124.0
195.75885 132.0
195.779938 128.0
195.848221 312.0
195.884933 152.0
195.93306 172.0
195.983994 184.0
196.041534 152.0
196.097366 44884.0
196.172882 60.0
196.18129 64.0
196.192871 84.0
196.235214 168.0
196.267883 52.0
196.297684 160.0
196.324188 120.0
196.368988 120.0
196.42598 72.0
196.460846 72.0
196.480377 48.0
196.535477 48.0
196.564285 108.0
196.603134 48.0
196.658951 72.0
196.709198 40.0
196.731522 40.0
196.760971 44.0
196.809692 48.0
196.851578 100.0
196.887878 48.0
196.946533 60.0
196.98587 92.0
197.023849 180.0
197.051086 56.0
197.100342 4904.0
197.186798 120.0
197.23175 100.0
197.259476 84.0
197.292938 140.0
197.365707 64.0
197.388077 196.0
197.410095 92.0
197.4384 64.0
197.483154 116.0
197.5047 236.0
197.569489 120.0
197.59668 96.0
197.644821 96.0
197.684921 184.0
197.694656 140.0
197.77832 64.0
197.835052 120.0
197.88768 92.0
198.0177 44.0
198.106232 288.0
198.147675 160.0
198.177368 84.0
198.210999 104.0
198.275452 148.0
198.324905 68.0
198.348312 64.0
198.404373 56.0
198.446426 84.0
198.483765 136.0
198.538712 208.0
198.572617 124.0
198.639923 136.0
198.670776 76.0
198.712006 104.0
198.808258 88.0
198.900879 76.0
198.92894 116.0
198.996323 64.0
199.105835 44.0
199.136719 48.0
199.333359 48.0
199.418442 88.0
199.490753 140.0
199.583527 76.0
199.791641 52.0
199.909805 56.0
199.977341 48.0
200.022385 64.0
200.065369 312.0
200.143433 36.0
200.382828 76.0
200.444809 104.0
200.503998 244.0
200.740784 28.0
200.924118 56.0
201.401154 136.0
201.505676 84.0
202.456039 48.0
202.475861 68.0
202.85553 52.0
202.923569 96.0
203.306473 44.0
203.627274 48.0
203.752243 188.0
204.053497 80.0
204.68512 84.0
204.713593 64.0
204.987045 116.0
205.066833 68.0
205.443207 148.0
205.811371 52.0
206.225571 68.0
206.871994 88.0
207.086746 112.0
207.688629 96.0
208.007111 132.0
208.110458 192.0
208.480988 72.0
208.759827 196.0
208.943909 184.0
209.061874 112.0
209.125183 152.0
209.19426 88.0
209.450531 84.0
209.507965 124.0
209.634918 192.0
209.83667 104.0
209.917404 44.0
210.113525 108.0
210.188538 120.0
210.644684 220.0
210.77179 76.0
210.852707 140.0
210.878708 212.0
211.051682 120.0
211.122498 18216.0
211.161316 140.0
211.227646 88.0
211.237244 52.0
211.335602 36.0
211.457138 84.0
211.530853 76.0
211.630814 52.0
211.7061 40.0
211.735062 80.0
211.772705 56.0
211.801666 40.0
211.848007 76.0
212.000778 132.0
212.042145 92.0
212.091415 132.0
212.12648 2548.0
212.19577 80.0
212.384247 84.0
212.453873 112.0
212.47998 52.0
212.72084 60.0
213.137314 408.0
213.23201 88.0
213.423019 96.0
213.44017 172.0
213.482986 96.0
213.51918 144.0
213.78746 140.0
213.822388 44.0
213.94754 120.0
214.151367 108.0
215.05809 40.0
215.160263 60.0
215.449371 108.0
215.601303 84.0
219.337433 108.0
221.186447 56.0
230.270035 120.0
230.466385 128.0
231.915894 88.0
233.230103 44.0
235.231277 124.0
237.332977 52.0
238.548676 28.0
240.341034 84.0
243.861938 100.0
258.771179 124.0
264.03537 56.0
273.766968 92.0
276.665833 56.0
282.465271 64.0
283.476959 72.0
283.681396 72.0
287.988281 92.0
289.994568 60.0
295.402069 132.0
299.334595 44.0
299.799622 108.0
299.834076 108.0
301.511261 188.0
303.952545 132.0
305.397675 68.0
316.997131 96.0
317.053833 116.0
318.064606 92.0
320.030457 68.0
322.041656 96.0
323.053192 52.0
342.72113 112.0
344.336792 152.0
346.952759 52.0
346.978699 60.0
350.159363 84.0
353.856018 56.0
354.040131 92.0
359.260071 68.0
359.33551 80.0
363.36084 136.0
366.943329 76.0
367.050079 136.0
373.176147 88.0
374.792664 76.0
377.506165 92.0
377.564178 40.0
377.862 160.0
380.128601 56.0
390.465149 52.0
419.634216 40.0
421.12973 80.0
421.489227 52.0
432.353394 120.0
432.605865 100.0
439.558929 48.0
445.222565 56.0
467.951263 92.0
468.437866 56.0
477.127258 68.0
481.436371 68.0
503.41098 68.0
516.181641 108.0
550.104919 60.0
570.193665 96.0
571.891479 40.0
579.872192 80.0
587.150757 88.0
619.262085 52.0
625.951233 52.0
631.395447 36.0
631.588013 20.0
651.029297 108.0
653.896484 80.0
654.980957 76.0
674.194824 144.0
682.732788 68.0
718.434937 80.0
750.640198 64.0
755.583008 72.0
764.669556 84.0
779.89563 152.0
781.463745 100.0
829.366333 116.0
831.539978 248.0
834.411987 68.0
868.716553 88.0
880.257751 236.0
902.001831 164.0
923.91449 220.0
925.106628 232.0
934.579956 296.0
942.891174 164.0
960.111145 232.0
967.234619 80.0
972.27948 180.0
996.95929 108.0
1005.700562 156.0
1006.117126 164.0
1006.312866 64.0
1044.395508 56.0
1060.510864 124.0
1066.741943 148.0
1071.023438 60.0
1071.668335 148.0
1083.15271 216.0
1099.338867 64.0
1102.059204 152.0
1105.59021 232.0
1120.996094 192.0
1122.269165 228.0
1132.004395 64.0
1134.829956 180.0
1144.769531 168.0
1146.871338 164.0
1148.820068 196.0
1150.237061 184.0
1151.918457 116.0
1166.616089 132.0
1170.473511 228.0
1174.637451 172.0
1181.393188 184.0
1185.672363 72.0
1187.886108 160.0
1189.698486 172.0
1196.049927 152.0
1196.153198 144.0
1204.979858 176.0
1207.039551 108.0
1212.071533 56.0
1216.433716 152.0
1217.614014 144.0
1224.499023 108.0
1227.223633 176.0
1231.522095 140.0
1233.003174 140.0
1242.574951 156.0
1245.467041 116.0
1251.324585 176.0
1254.6427 116.0
1257.238281 140.0
1258.078125 140.0
1261.539551 156.0
1262.621338 180.0
1270.220825 188.0
1270.852173 128.0
1271.568848 176.0
1272.342529 128.0
1278.398071 196.0
1278.504883 232.0
1278.604492 132.0
1280.904175 192.0
1283.476807 92.0
1285.752319 180.0
1285.966431 48.0
1287.522705 184.0
1292.454956 68.0
1294.072388 168.0
1297.059692 228.0
1298.988403 68.0
1299.118652 132.0
1300.653076 160.0
1304.690063 144.0
1306.336792 148.0
1309.871094 136.0
1311.68689 156.0
1317.365723 84.0
1317.452393 184.0
1323.527344 232.0
1327.744629 176.0
1329.028564 220.0
1330.044434 152.0
1331.431152 152.0
1333.952271 56.0
1334.112183 200.0
1334.344849 200.0
1334.737427 184.0
1335.806519 32.0
1337.327148 88.0
1338.877808 108.0
1339.314819 192.0
1341.231079 116.0
1343.134155 224.0
1345.228271 96.0
1345.549438 76.0
1356.493042 160.0
1363.634521 144.0
1366.848145 80.0
1367.068848 164.0
1370.382202 128.0
1373.979858 164.0
1378.919678 124.0
1379.370483 144.0
1384.083008 84.0
1384.290283 188.0
1386.334717 208.0
1388.254639 124.0
1392.143066 176.0
1392.477295 148.0
1394.542603 164.0
1396.520264 104.0
1397.115356 180.0
1397.286377 48.0
1397.762573 164.0
1398.14209 140.0
1406.354858 72.0
1408.86377 168.0
1413.588867 120.0
1414.329834 148.0
1415.048462 168.0
1415.894531 204.0
1416.201538 180.0
1416.793335 164.0
1417.490112 140.0
1419.386475 120.0
1422.18457 84.0
1425.278564 44.0
1426.932007 144.0
1427.082397 76.0
1428.285522 164.0
1428.706787 160.0
1432.44043 160.0
1433.223999 180.0
1437.89917 208.0
1438.065186 208.0
1443.201904 220.0
1446.295898 64.0
1446.765137 132.0
1447.105835 128.0
1448.697144 140.0
1449.99939 164.0
1451.394165 136.0
1453.631714 148.0
1457.344604 200.0
1459.191406 112.0
1459.761719 164.0
1460.978516 168.0
1461.861084 108.0
1462.355713 232.0
1463.025635 136.0
1463.111572 68.0
1466.407471 160.0
1467.306885 176.0
1467.91687 212.0
1468.915894 156.0
1471.525757 152.0
1474.886841 156.0
1476.920654 136.0
1477.777466 160.0
1486.550537 184.0
1486.941895 148.0
1488.945557 144.0
1491.411743 124.0
1495.464966 132.0
1498.190674 108.0
1499.469727 160.0
1500.317627 152.0
1500.64917 52.0
1501.06543 124.0
1501.898315 100.0
1503.549316 216.0
1503.657349 128.0
