>compound MLS001157888-01!1-[2-(4-butyl-7-methyl-2-oxochromen-5-yl)oxyacetyl]piperidine-4-carboxylic acid
>formula C22H27NO6
>ionization [M+H]+
>parentmass 402.192352
#inchi InChI=1S/C22H27NO6/c1-3-4-5-16-12-20(25)29-18-11-14(2)10-17(21(16)18)28-13-19(24)23-8-6-15(7-9-23)22(26)27/h10-12,15H,3-9,13H2,1-2H3,(H,26,27)
#inchikey AOSOHBROROWIHR
#Ion_Source LC-ESI
#Instrument qTof
#Compound_Source NIH Natural Product Library
#PI Dorrestein
#Data_Collector VVP/LMS
#Scan -1
#Precursor_MZ 402.192
#ExactMass 401.184
#Charge 1
#CAS_Number N/A
#Pubmed_ID N/A
#Smiles CCCCc1cc(=O)oc2cc(C)cc(OCC(=O)N3CCC(CC3)C(=O)O)c12
#INCHI_AUX N/A
#Library_Class 1
#SpectrumID CCMSLIB00000080247
#IonMode Positive
#UpdateWorkflowName UPDATE-SINGLE-ANNOTATED-GOLD
#LibraryQualityString Gold
#TaskID b1d8e8f6646f4e71acdff9ca3d919d08
##Scan# 2088
#SpectrumFile p2-A06_GA6_01_17983.mzXML
#LibraryName NIH_Natural_Products_Library.mgf
#MQScore -1
#Organism NIH_Natural_Products_Library
#TIC_Query 0
#RT_Query -1
#MZErrorPPM -1
#SharedPeaks 0
#MassDiff 0
#LibMZ -1
#SpecMZ 402.192
#SpecCharge 0
#internalFilename spec-00000.mgf

>collision 10
95.04686 224.0
95.070778 332.0
95.110901 56.0
95.192444 172.0
95.400345 176.0
95.44117 136.0
95.474014 180.0
95.705795 200.0
95.875275 328.0
95.900612 136.0
96.021492 248.0
96.054649 184.0
96.080246 1256.0
96.111229 308.0
96.157547 196.0
96.206863 92.0
96.343575 124.0
96.445183 140.0
96.515564 140.0
96.575981 168.0
96.672981 228.0
96.722046 332.0
96.74839 192.0
96.795387 164.0
96.858055 144.0
96.907036 40.0
96.993263 180.0
97.028549 356.0
97.046196 188.0
97.089066 184.0
97.146217 60.0
97.273773 176.0
97.454453 236.0
97.54879 96.0
97.678574 168.0
97.712021 236.0
97.802544 160.0
97.896233 184.0
97.936432 144.0
98.040855 176.0
98.145332 184.0
98.257759 224.0
98.285385 168.0
98.378143 152.0
98.658669 160.0
98.874275 168.0
98.907921 116.0
98.943016 176.0
98.992256 148.0
99.044106 3448.0
99.2174 108.0
99.23877 96.0
99.329994 100.0
99.353798 116.0
99.373642 176.0
99.393478 148.0
99.57016 128.0
99.677437 224.0
99.75296 116.0
99.866302 72.0
99.908081 148.0
99.947868 48.0
100.045174 212.0
100.340248 40.0
100.431984 152.0
100.445946 104.0
100.461906 172.0
100.527748 160.0
100.552719 184.0
100.569656 28.0
100.645523 228.0
100.7314 120.0
100.775352 164.0
100.809319 216.0
100.935257 104.0
101.02726 136.0
101.059273 176.0
101.123314 124.0
101.153336 56.0
101.167351 80.0
101.221649 200.0
101.239433 68.0
101.267471 116.0
101.401711 180.0
101.443802 172.0
101.459839 52.0
101.542053 164.0
101.594208 108.0
101.688515 100.0
101.847137 152.0
101.947594 160.0
101.961662 140.0
101.997841 172.0
102.080276 188.0
102.11245 192.0
102.247246 148.0
102.549362 152.0
102.571533 196.0
102.615883 184.0
102.714699 168.0
102.83577 140.0
102.928635 72.0
103.05452 292.0
103.144806 124.0
103.359184 180.0
103.450264 44.0
103.853508 60.0
104.059502 180.0
104.092987 120.0
104.121422 56.0
104.249413 128.0
104.375443 168.0
104.777519 132.0
104.815125 164.0
105.041428 200.0
105.069992 728.0
105.088356 136.0
105.267982 228.0
105.300659 136.0
105.362793 248.0
105.47229 164.0
105.568382 248.0
105.674751 216.0
105.707489 204.0
105.889694 140.0
105.977776 60.0
106.072868 200.0
106.139709 192.0
106.17662 164.0
106.55423 176.0
106.751648 100.0
106.790718 212.0
106.945038 164.0
106.982094 108.0
107.031502 152.0
107.054276 180.0
107.086197 388.0
107.16333 124.0
107.301422 156.0
107.414841 40.0
107.574638 212.0
107.687309 184.0
107.825737 128.0
107.846405 140.0
107.887207 168.0
107.916695 44.0
107.982864 160.0
108.086304 164.0
108.154602 132.0
108.193932 48.0
108.218773 172.0
108.247765 124.0
108.30368 32.0
108.414497 156.0
108.874046 196.0
108.967522 128.0
109.011154 52.0
109.029564 364.0
109.06385 316.0
109.098457 136.0
109.150436 216.0
109.246109 140.0
109.300201 184.0
109.339317 156.0
109.379288 116.0
109.39386 84.0
109.585464 140.0
109.681328 112.0
109.818947 172.0
109.896133 144.0
109.910355 132.0
110.031853 152.0
110.058083 1032.0
110.32428 176.0
110.384911 344.0
110.401642 220.0
110.602501 192.0
110.694618 168.0
110.728127 180.0
110.933472 84.0
111.044388 524.0
111.062485 204.0
111.111732 160.0
111.169823 216.0
111.225052 152.0
111.34053 204.0
111.416153 192.0
111.458168 184.0
111.575874 48.0
111.645264 148.0
111.773582 176.0
111.855888 192.0
111.99675 172.0
112.017815 160.0
112.076385 2808.0
112.10144 156.0
112.154778 76.0
112.220131 196.0
112.27285 92.0
112.289719 156.0
112.334015 132.0
112.492287 136.0
112.705597 220.0
112.823959 128.0
112.940262 144.0
113.056679 156.0
113.079796 348.0
113.24929 164.0
113.323441 52.0
113.423042 212.0
113.488762 92.0
113.951469 124.0
114.004585 148.0
114.03009 260.0
114.054672 2296.0
114.089272 324.0
114.224167 176.0
114.434273 64.0
114.470467 100.0
114.519455 140.0
114.589752 136.0
114.625977 128.0
114.677124 100.0
114.694176 184.0
114.958641 132.0
114.999474 208.0
115.055702 364.0
115.082863 124.0
115.170006 148.0
115.214867 196.0
115.278969 116.0
115.36232 212.0
115.454262 96.0
115.5056 48.0
115.548386 172.0
115.711044 176.0
115.845963 56.0
115.923096 164.0
115.944885 192.0
116.000252 164.0
116.062508 312.0
116.096741 188.0
116.337051 156.0
116.631348 148.0
116.667892 188.0
116.682938 132.0
116.69799 144.0
116.837791 192.0
117.031494 168.0
117.071152 332.0
117.113327 188.0
117.147797 112.0
117.173645 148.0
117.218895 116.0
117.294327 152.0
117.337448 220.0
117.432327 188.0
117.583359 204.0
117.756081 200.0
117.900833 56.0
117.918121 128.0
117.937576 152.0
118.132187 124.0
118.35511 200.0
118.36982 192.0
118.413582 116.0
118.441734 188.0
118.474228 100.0
118.51973 184.0
118.706146 140.0
118.743019 200.0
118.792908 180.0
119.031883 188.0
119.059883 176.0
119.085152 704.0
119.214127 56.0
119.248901 168.0
119.377167 96.0
119.455467 140.0
119.564262 176.0
119.588203 148.0
119.649155 124.0
119.699234 160.0
119.799423 168.0
119.901833 272.0
119.921448 28.0
120.089333 160.0
120.132957 180.0
120.218056 184.0
120.300995 144.0
120.425461 160.0
120.449486 148.0
120.602448 212.0
120.66803 184.0
120.792679 212.0
120.930534 152.0
121.026855 120.0
121.066612 1580.0
121.102409 168.0
121.184563 160.0
121.460793 232.0
121.510841 196.0
121.581467 208.0
121.65609 32.0
121.792236 136.0
121.840569 212.0
121.855949 176.0
121.902092 164.0
122.06691 180.0
122.253227 156.0
122.352997 128.0
122.423462 96.0
122.573257 112.0
122.639374 188.0
122.888565 96.0
122.968353 108.0
123.039864 152.0
123.085014 164.0
123.279404 148.0
123.323608 116.0
123.431938 184.0
123.473953 248.0
123.655373 232.0
123.721786 204.0
123.903389 244.0
123.974289 104.0
124.047432 160.0
124.075012 1864.0
124.218185 148.0
124.275864 192.0
124.497849 156.0
124.660019 116.0
124.808952 108.0
124.855652 192.0
124.929054 36.0
124.957977 160.0
124.991348 180.0
125.053665 144.0
125.081955 348.0
125.153839 148.0
125.485832 80.0
125.505898 136.0
125.532654 68.0
125.626183 176.0
125.766914 84.0
125.914276 168.0
125.974586 152.0
126.030922 240.0
126.05735 360.0
126.091263 5932.0
126.356873 52.0
126.381485 104.0
126.535927 52.0
126.605339 200.0
126.784561 180.0
126.800247 188.0
126.894402 180.0
127.093498 708.0
127.116463 164.0
127.174812 68.0
127.305031 228.0
127.372406 60.0
127.439804 84.0
127.592636 192.0
127.637611 44.0
127.655098 144.0
127.669998 188.0
127.702827 128.0
127.725319 168.0
127.769829 204.0
127.835564 84.0
127.887329 124.0
127.943604 68.0
128.038177 396.0
128.070786 28616.0
128.137527 112.0
128.177841 144.0
128.20546 176.0
128.281525 108.0
128.30246 96.0
128.35141 40.0
128.421494 108.0
128.439377 32.0
128.547668 44.0
128.583771 52.0
128.608597 40.0
128.660522 84.0
128.692139 44.0
128.72374 84.0
128.800537 72.0
128.872833 28.0
128.8909 144.0
128.958694 164.0
128.981308 108.0
129.073959 2260.0
129.116959 40.0
129.158661 120.0
129.176697 88.0
129.277588 160.0
129.479645 112.0
129.642197 132.0
129.750107 176.0
129.785004 112.0
129.823547 164.0
129.855301 184.0
129.907471 60.0
129.972443 188.0
130.017181 68.0
130.039078 212.0
130.086502 2140.0
130.222992 52.0
130.266144 92.0
130.363846 144.0
130.563904 52.0
130.884766 128.0
130.907547 64.0
130.95993 140.0
131.048508 172.0
131.086792 808.0
131.128525 152.0
131.16272 188.0
131.263031 192.0
131.349701 52.0
131.445526 136.0
131.502579 220.0
131.555084 144.0
131.614441 144.0
131.639557 144.0
131.657822 152.0
131.76976 60.0
131.85202 188.0
132.05452 184.0
132.087524 104.0
132.140137 64.0
132.174469 72.0
132.225388 144.0
132.247696 88.0
132.295761 216.0
132.366745 200.0
132.437744 60.0
132.59584 88.0
132.875595 52.0
132.944427 152.0
133.064606 1424.0
133.091217 236.0
133.33255 168.0
133.406097 176.0
133.452087 148.0
133.541763 160.0
133.624588 120.0
133.741943 124.0
133.921539 120.0
133.942276 72.0
133.997559 160.0
134.03212 188.0
134.069168 168.0
134.142487 176.0
134.179642 248.0
134.216522 232.0
134.321335 172.0
134.479523 172.0
134.518768 72.0
134.564941 128.0
134.775116 176.0
134.92305 44.0
134.952057 160.0
135.045135 200.0
135.079147 392.0
135.108063 192.0
135.689377 168.0
135.744736 140.0
135.777832 136.0
136.042007 112.0
136.061447 160.0
136.077713 188.0
136.281219 192.0
136.346283 72.0
136.381149 120.0
136.453217 152.0
136.469498 140.0
136.554123 168.0
137.004791 108.0
137.028091 120.0
137.06073 2112.0
137.520126 108.0
137.622849 172.0
137.720932 224.0
137.877869 116.0
137.900848 204.0
137.987335 180.0
138.067413 388.0
138.086166 196.0
138.12532 204.0
138.190826 148.0
138.373383 64.0
138.740234 236.0
138.914749 64.0
139.062836 140.0
139.08316 140.0
139.163513 104.0
139.276245 124.0
139.440704 172.0
139.588821 188.0
139.612335 96.0
139.645264 176.0
139.687607 112.0
139.741714 188.0
139.85466 160.0
140.002991 144.0
140.071365 1396.0
140.266876 148.0
140.302246 80.0
140.387131 120.0
140.403641 120.0
140.429581 104.0
140.472031 172.0
140.580566 208.0
140.655289 152.0
140.887527 184.0
140.920593 40.0
140.984406 60.0
141.072113 1452.0
141.123871 172.0
141.211365 76.0
141.265762 72.0
141.30835 92.0
141.417206 192.0
141.449966 152.0
141.493591 144.0
141.616089 156.0
141.699661 136.0
141.732178 160.0
141.76062 220.0
141.798538 196.0
141.841202 188.0
141.926544 164.0
141.967743 140.0
141.985825 108.0
142.019043 164.0
142.03801 488.0
142.086807 43952.0
142.134491 60.0
142.146362 24.0
142.174896 52.0
142.205215 68.0
142.280746 84.0
142.339615 52.0
142.36554 40.0
142.391678 36.0
142.47583 140.0
142.510452 56.0
142.536591 32.0
142.700592 64.0
142.71962 68.0
142.742569 76.0
142.885132 88.0
142.926559 28.0
142.971771 92.0
142.99794 164.0
143.024124 52.0
143.05983 160.0
143.089142 4560.0
143.155075 88.0
143.209854 160.0
143.238434 136.0
143.314667 164.0
143.383774 156.0
143.460052 100.0
143.512512 60.0
143.76297 120.0
143.782059 204.0
143.810699 144.0
143.884705 44.0
143.903809 40.0
143.938721 200.0
144.000351 168.0
144.023209 108.0
144.059235 812.0
144.092606 640.0
144.128326 96.0
144.179916 184.0
144.226318 128.0
144.24968 176.0
144.343338 200.0
144.441513 44.0
144.565933 52.0
144.726318 104.0
144.767029 108.0
144.913147 240.0
145.063385 676.0
145.101105 236.0
145.395859 128.0
145.482468 196.0
145.618408 48.0
145.668854 52.0
146.026993 76.0
146.072708 204.0
146.231506 176.0
146.257599 196.0
146.527695 80.0
146.549393 64.0
146.637512 112.0
146.775955 144.0
146.912079 164.0
146.980988 164.0
147.01236 100.0
147.043732 128.0
147.080078 1916.0
147.116959 340.0
147.164444 212.0
147.292435 132.0
147.357666 36.0
147.50267 196.0
147.659836 64.0
148.020416 144.0
148.046112 368.0
148.0858 144.0
148.110413 152.0
148.454178 176.0
148.563324 104.0
148.655533 196.0
148.725922 76.0
148.883728 156.0
148.951736 68.0
148.983322 156.0
149.058273 2392.0
149.099548 196.0
149.18988 68.0
149.328491 140.0
149.367401 212.0
149.786087 212.0
150.029785 148.0
150.066681 300.0
150.132675 200.0
150.358871 184.0
150.473801 64.0
150.49823 180.0
150.625214 80.0
150.840256 188.0
150.994293 204.0
151.039383 632.0
151.075806 1684.0
151.133728 80.0
151.322205 88.0
151.412796 32.0
151.461792 96.0
151.535278 136.0
151.564682 164.0
151.644104 196.0
151.688492 156.0
151.69899 80.0
151.705948 220.0
151.780396 160.0
152.038712 120.0
152.073288 332.0
152.141068 244.0
152.268753 160.0
152.561157 120.0
152.72345 44.0
153.079605 212.0
153.210861 120.0
153.23056 220.0
153.457321 124.0
153.491837 40.0
153.541153 168.0
153.627487 116.0
153.760727 36.0
153.92366 220.0
154.049622 164.0
154.078232 268.0
154.365997 32.0
154.751999 120.0
155.034393 160.0
155.060516 148.0
155.085907 608.0
155.145935 44.0
155.170715 116.0
155.406342 160.0
155.505615 200.0
156.065552 1156.0
156.093826 328.0
156.138382 64.0
156.161545 264.0
156.28096 132.0
156.751572 116.0
156.94101 52.0
157.065384 652.0
157.101349 424.0
157.250351 124.0
157.649948 80.0
158.027527 164.0
158.071945 716.0
158.102463 164.0
158.277817 108.0
158.403046 144.0
158.545868 116.0
158.565918 100.0
158.686249 248.0
158.748932 40.0
158.872208 160.0
158.985138 100.0
159.080353 1492.0
159.11792 420.0
159.169647 188.0
159.230774 168.0
159.321915 204.0
159.343811 200.0
159.361404 192.0
159.805527 160.0
159.902069 48.0
159.929749 152.0
159.980743 172.0
159.997726 208.0
160.051483 284.0
160.087402 316.0
160.534409 156.0
160.74379 80.0
160.96846 156.0
161.023132 172.0
161.060104 3380.0
161.092697 556.0
161.125061 124.0
161.162949 120.0
161.264038 40.0
161.339874 132.0
161.559891 192.0
161.706665 112.0
161.734497 80.0
162.065674 2552.0
162.129608 108.0
162.238602 88.0
162.258881 44.0
162.327347 132.0
162.45755 84.0
162.581024 180.0
162.692719 92.0
162.959381 60.0
163.037521 384.0
163.075226 1060.0
163.111862 184.0
163.19957 176.0
163.233902 68.0
163.369797 204.0
163.824387 156.0
163.987473 136.0
164.043549 68.0
164.074478 148.0
164.13237 172.0
164.523148 176.0
164.747894 48.0
164.804092 168.0
164.952988 200.0
165.054886 2976.0
165.089523 356.0
165.202927 148.0
165.229218 160.0
165.351349 84.0
165.38205 128.0
165.412766 80.0
165.430695 104.0
165.643234 160.0
165.69191 52.0
165.72522 124.0
165.786713 108.0
166.027695 148.0
166.072418 248.0
166.099518 188.0
166.371536 92.0
166.39978 152.0
166.512756 248.0
167.085983 160.0
167.227524 180.0
167.258408 60.0
167.353668 92.0
167.410309 156.0
167.570023 172.0
167.838074 164.0
168.096344 128.0
168.315445 224.0
168.351593 212.0
168.547913 140.0
168.625443 148.0
169.060745 148.0
169.111694 160.0
169.391342 188.0
169.634933 120.0
169.842377 184.0
169.860535 196.0
169.95134 108.0
170.005692 208.0
170.081741 5004.0
170.140808 64.0
170.255051 208.0
170.392731 124.0
170.746246 188.0
171.036377 124.0
171.085297 1560.0
171.11557 296.0
171.243362 100.0
171.279816 64.0
171.410095 208.0
171.553436 60.0
171.806396 48.0
172.057022 124.0
172.087189 1160.0
172.182281 80.0
172.307663 60.0
173.016418 112.0
173.068665 488.0
173.096054 728.0
173.130646 252.0
173.176147 104.0
173.356918 140.0
173.452667 60.0
173.95755 212.0
174.067261 884.0
174.11319 192.0
174.593414 148.0
174.893341 96.0
175.036087 192.0
175.075241 7452.0
175.111389 1432.0
175.141769 68.0
175.209351 44.0
175.616776 136.0
175.736649 48.0
175.805267 60.0
175.968918 40.0
175.990036 52.0
176.047531 392.0
176.078796 1496.0
176.109985 412.0
176.457703 36.0
176.822754 196.0
176.855988 144.0
176.883621 128.0
176.986877 92.0
177.054352 2684.0
177.095551 124.0
177.124588 176.0
177.219971 32.0
177.257309 128.0
177.294159 112.0
177.386932 124.0
177.439957 184.0
177.482162 168.0
177.492203 164.0
177.561935 52.0
177.627472 192.0
177.909531 128.0
177.997147 328.0
178.056946 228.0
178.121979 184.0
178.252167 184.0
178.411636 36.0
178.459503 44.0
178.478104 184.0
178.6297 164.0
179.071945 480.0
179.103516 144.0
179.257675 116.0
179.316681 244.0
179.337997 68.0
179.420639 144.0
179.81543 124.0
180.35228 132.0
180.39772 68.0
180.724014 76.0
180.918106 192.0
181.055939 124.0
181.114868 224.0
181.248825 136.0
181.6483 212.0
182.072388 144.0
182.9328 184.0
183.067429 180.0
183.09166 156.0
183.123978 236.0
183.196701 272.0
183.301788 148.0
183.388031 152.0
183.452713 120.0
183.49585 156.0
183.563263 60.0
183.652267 108.0
183.69812 120.0
183.940979 172.0
184.048981 192.0
184.086777 188.0
184.448822 116.0
184.738159 68.0
184.819336 140.0
184.90593 128.0
184.997955 132.0
185.054398 184.0
185.096329 640.0
185.337112 168.0
185.480148 92.0
185.848969 84.0
186.025391 148.0
186.063553 228.0
186.105698 732.0
186.20459 144.0
186.383896 140.0
186.914124 260.0
187.003937 336.0
187.042038 132.0
187.072601 264.0
187.109772 616.0
187.341583 48.0
187.477829 188.0
187.614105 156.0
188.053207 144.0
188.081268 360.0
188.118805 184.0
188.49025 84.0
188.621429 148.0
188.886673 68.0
189.054871 2840.0
189.090775 1644.0
189.128952 376.0
189.343765 156.0
189.497162 64.0
189.582108 140.0
189.658859 132.0
189.683517 52.0
190.028412 248.0
190.062653 6084.0
190.094772 444.0
190.129776 212.0
190.177261 136.0
190.435349 52.0
191.009827 28.0
191.069611 4380.0
191.505295 136.0
191.530075 44.0
191.684982 124.0
191.778061 60.0
192.037247 144.0
192.071167 640.0
192.365601 140.0
192.749512 236.0
193.086777 188.0
193.28595 72.0
193.446487 84.0
193.521225 64.0
193.568298 156.0
194.078156 168.0
194.103119 152.0
194.380508 116.0
194.649765 140.0
194.727524 128.0
194.796967 64.0
195.088852 224.0
195.313995 160.0
195.595047 172.0
195.639587 164.0
195.684128 84.0
195.998871 100.0
196.076904 116.0
196.103134 184.0
196.132645 120.0
196.171677 208.0
196.269257 52.0
196.31665 148.0
196.431015 96.0
196.609573 92.0
196.690521 208.0
197.096863 152.0
197.145782 80.0
197.901047 104.0
197.945847 64.0
198.065033 276.0
198.523117 188.0
198.817688 128.0
199.079712 888.0
199.111923 664.0
199.76738 68.0
199.981247 124.0
200.048798 104.0
200.082581 100.0
200.111969 136.0
200.4431 180.0
200.485382 140.0
200.899857 108.0
201.053848 1176.0
201.090652 208.0
201.123962 156.0
201.14621 176.0
201.278061 208.0
201.622711 160.0
201.67923 28.0
201.993103 156.0
202.060196 308.0
202.100571 452.0
202.134567 184.0
202.185501 52.0
202.239273 140.0
202.324203 144.0
202.553574 88.0
202.692398 224.0
202.760422 148.0
202.788528 48.0
202.805222 228.0
202.873856 196.0
202.936172 212.0
202.956024 148.0
202.979752 380.0
203.070877 41208.0
203.106354 1520.0
203.150101 84.0
203.17157 36.0
203.232376 48.0
203.279388 72.0
203.302094 44.0
203.35318 48.0
203.390076 56.0
203.442795 216.0
203.511261 88.0
203.539124 24.0
203.578033 128.0
203.665512 204.0
203.729782 64.0
203.78064 76.0
203.835968 32.0
203.877106 76.0
204.074814 6392.0
204.113647 632.0
204.188477 72.0
204.250061 88.0
204.333557 92.0
204.376236 52.0
204.438843 92.0
204.516525 104.0
204.623856 64.0
204.672256 64.0
204.709274 92.0
204.746307 56.0
204.771942 84.0
205.07663 652.0
205.116089 168.0
205.202225 32.0
205.253555 72.0
205.283859 108.0
205.388123 228.0
205.412796 48.0
205.463074 140.0
205.670074 84.0
205.710037 116.0
205.792831 88.0
205.981323 52.0
206.085846 144.0
206.175613 68.0
206.378571 84.0
206.630264 128.0
206.916473 52.0
207.071106 132.0
207.257309 184.0
207.500931 84.0
208.252792 120.0
208.48262 60.0
208.542984 44.0
208.867905 88.0
209.076767 188.0
209.175797 108.0
210.037384 220.0
210.143433 300.0
210.562698 96.0
211.088654 104.0
211.114685 164.0
212.082458 600.0
212.354233 208.0
212.844681 96.0
213.04509 208.0
213.089493 528.0
213.138062 80.0
213.164215 44.0
213.502121 84.0
213.565414 72.0
214.013107 72.0
214.08638 168.0
214.386444 120.0
215.070648 1680.0
215.104767 1120.0
215.211975 156.0
215.711548 72.0
215.73494 140.0
216.078369 276.0
216.108871 168.0
216.294479 128.0
216.519119 136.0
216.642136 60.0
216.689011 124.0
216.863297 84.0
217.049103 624.0
217.085922 816.0
217.122757 5004.0
217.199097 72.0
217.237244 68.0
217.360458 76.0
217.395584 120.0
217.560043 36.0
217.718597 88.0
217.830215 52.0
217.915421 28.0
218.000626 44.0
218.049179 176.0
218.126312 828.0
218.253433 32.0
218.291656 40.0
218.365173 80.0
218.400467 68.0
218.612305 132.0
218.679993 112.0
219.062347 160.0
219.101089 156.0
219.129913 412.0
219.463608 76.0
219.649399 64.0
219.72316 104.0
219.782166 144.0
220.095047 132.0
220.130478 120.0
220.160019 116.0
221.177094 108.0
221.351761 128.0
221.902893 120.0
222.120758 120.0
223.078537 44.0
223.123123 136.0
223.149887 132.0
224.144043 176.0
225.316635 76.0
225.403275 60.0
226.013275 140.0
226.133835 152.0
226.600128 148.0
226.791931 180.0
226.851883 112.0
227.073761 120.0
227.106781 1204.0
228.10997 188.0
228.500626 100.0
229.0849 108.0
229.112152 332.0
229.211212 124.0
229.81427 164.0
229.901779 164.0
229.92894 156.0
230.093231 672.0
230.140259 160.0
230.351669 104.0
231.066742 1024.0
231.102264 716.0
231.676666 88.0
231.746353 88.0
232.071594 220.0
232.115128 216.0
232.282959 80.0
232.334534 76.0
232.392181 60.0
232.899155 56.0
233.116455 3980.0
233.215149 72.0
233.251633 48.0
233.37323 36.0
233.580032 132.0
233.780853 80.0
233.923904 80.0
234.116821 428.0
234.57579 48.0
234.917343 80.0
235.127243 136.0
235.22554 64.0
235.365982 92.0
235.76326 80.0
237.183258 52.0
237.812057 216.0
238.073013 176.0
239.050598 140.0
240.242996 64.0
240.730667 172.0
241.07785 216.0
241.373413 36.0
242.552994 136.0
242.962326 44.0
243.100937 196.0
243.328552 64.0
243.8815 128.0
244.164429 168.0
244.220413 124.0
244.770309 104.0
244.802414 156.0
244.874039 236.0
245.02356 112.0
245.051605 216.0
245.118271 13768.0
245.201172 64.0
245.238571 76.0
245.277542 40.0
245.309555 88.0
245.439972 80.0
245.453339 36.0
245.462357 164.0
245.531647 120.0
245.622101 52.0
245.783768 88.0
245.8405 56.0
245.884201 88.0
245.943497 44.0
246.015289 44.0
246.047272 148.0
246.078781 180.0
246.121567 3676.0
246.236984 172.0
246.490997 52.0
246.552536 44.0
246.680695 112.0
247.037186 76.0
247.130737 788.0
247.209274 92.0
247.318802 40.0
247.465942 92.0
247.487854 140.0
247.525436 64.0
247.606857 36.0
247.766617 108.0
247.81987 244.0
247.96402 88.0
248.014175 68.0
248.130676 568.0
248.174057 180.0
248.506531 116.0
248.748184 224.0
248.880035 128.0
249.011932 100.0
249.128754 104.0
249.467545 92.0
250.499725 160.0
255.097778 156.0
255.644836 28.0
256.794952 180.0
256.830048 156.0
257.078888 132.0
257.107605 140.0
257.155487 124.0
257.733521 64.0
258.078705 144.0
258.105438 124.0
258.161865 124.0
258.734619 48.0
259.080475 220.0
259.10611 228.0
259.131744 136.0
260.109558 160.0
260.128632 132.0
262.148987 108.0
262.21344 212.0
262.519714 32.0
263.730408 172.0
267.018097 208.0
268.082672 204.0
268.142853 128.0
269.397583 136.0
269.515198 148.0
270.106934 148.0
270.512695 136.0
271.10553 156.0
271.13504 164.0
271.561249 72.0
271.731842 80.0
272.129028 136.0
272.240601 116.0
273.113647 4472.0
273.180634 48.0
273.404388 196.0
273.483368 52.0
273.865326 104.0
274.059692 80.0
274.116241 644.0
274.178314 88.0
274.573944 32.0
274.722351 104.0
275.129486 196.0
275.927795 176.0
276.1138 208.0
276.141083 224.0
277.788971 48.0
277.891815 112.0
278.139221 188.0
279.084229 112.0
279.956055 132.0
280.825897 132.0
281.31308 92.0
282.091431 72.0
282.134888 144.0
283.128662 48.0
284.12085 136.0
284.61087 104.0
285.15509 156.0
285.286163 76.0
286.144318 188.0
287.0336 56.0
287.593628 132.0
288.159363 120.0
290.13266 148.0
292.119507 180.0
292.539276 56.0
293.117218 164.0
293.684204 40.0
293.813843 92.0
293.946899 76.0
294.132751 1736.0
294.202911 132.0
294.312164 60.0
294.40094 164.0
295.132568 272.0
295.258728 116.0
295.364777 60.0
296.522064 108.0
296.727722 96.0
297.784637 120.0
298.654236 140.0
299.111877 148.0
299.828308 28.0
300.110718 292.0
300.193726 72.0
301.134186 352.0
301.211884 124.0
301.446808 72.0
302.133057 264.0
302.349426 124.0
304.121826 176.0
304.13974 124.0
304.526703 68.0
305.110504 68.0
305.851471 96.0
306.135986 416.0
307.141876 244.0
307.172119 100.0
308.062286 28.0
308.132141 128.0
308.198517 52.0
308.943237 96.0
313.14856 184.0
314.137939 340.0
314.177765 104.0
315.138306 176.0
316.839874 60.0
318.1297 172.0
319.538086 104.0
320.141205 192.0
324.721344 160.0
324.793091 80.0
326.952454 144.0
328.126129 144.0
328.142609 108.0
328.187897 664.0
328.307007 96.0
329.188385 120.0
329.939087 76.0
330.141571 32.0
330.206665 32.0
332.143433 136.0
332.256927 232.0
333.20813 184.0
335.537384 92.0
335.964081 180.0
336.062592 56.0
340.458923 84.0
341.719757 120.0
342.13562 204.0
342.172455 104.0
343.067688 72.0
343.886566 48.0
345.190674 92.0
345.349701 52.0
345.889923 72.0
346.063934 132.0
346.129242 1256.0
346.196747 128.0
347.134094 352.0
347.186707 120.0
347.279449 76.0
348.125244 204.0
348.303894 52.0
352.375702 92.0
354.242523 148.0
354.452332 140.0
355.070862 172.0
356.186432 1176.0
356.287048 64.0
357.196106 444.0
357.253235 136.0
358.834991 116.0
359.212097 176.0
359.276245 52.0
360.183014 152.0
361.161224 140.0
362.193878 112.0
362.399139 72.0
362.579559 204.0
364.17453 32.0
365.649719 72.0
366.990631 80.0
374.197296 252.0
374.313171 88.0
374.802368 128.0
375.190216 288.0
375.21402 184.0
376.337524 48.0
379.196289 88.0
380.394836 104.0
382.225403 60.0
383.974548 112.0
384.185913 460.0
384.844757 108.0
385.189026 108.0
388.735626 156.0
388.865143 104.0
390.240051 108.0
390.952026 148.0
392.496216 96.0
394.043457 160.0
394.660034 52.0
397.452515 104.0
397.817627 76.0
397.936737 108.0
399.18045 120.0
399.534424 92.0
400.589386 196.0
401.079498 76.0
401.414398 64.0
401.841187 168.0
401.877106 180.0
401.968872 116.0
402.060669 144.0
402.104584 228.0
402.192352 6176.0
402.308136 48.0
402.378418 100.0
402.433502 60.0
402.495789 108.0
402.93515 80.0
403.196167 972.0
403.290802 48.0
403.346771 68.0
403.610626 60.0
403.814575 64.0
404.002563 80.0
404.138611 160.0
404.200104 404.0
405.472107 60.0
405.536224 52.0
405.580322 48.0
405.941132 84.0
406.858246 148.0
417.141357 92.0
417.596771 84.0
427.020294 64.0
439.619202 88.0
441.691498 40.0
441.808624 32.0
448.123016 56.0
458.223785 124.0
458.564697 112.0
458.637146 76.0
460.420563 68.0
460.787933 68.0
484.042633 88.0
488.875153 136.0
505.030029 64.0
529.649597 88.0
531.305542 100.0
532.260193 72.0
541.228699 72.0
545.032288 96.0
548.723206 64.0
559.470642 148.0
589.643127 120.0
594.418091 60.0
596.224609 132.0
609.624878 104.0
626.552246 120.0
650.49585 132.0
658.438904 80.0
667.926147 52.0
668.142212 84.0
685.368042 84.0
694.69519 64.0
698.577271 28.0
702.876465 72.0
706.400391 148.0
715.198242 132.0
716.870605 56.0
717.307617 96.0
718.107422 116.0
719.932678 52.0
727.755981 32.0
740.163086 252.0
752.724121 140.0
766.453979 148.0
769.371643 44.0
771.305054 164.0
774.38147 88.0
774.486694 224.0
789.178528 108.0
793.489685 296.0
827.525146 92.0
837.874634 128.0
841.69281 184.0
860.312744 216.0
869.948547 48.0
876.592712 184.0
879.797424 52.0
881.362549 104.0
884.230652 140.0
887.690369 76.0
888.965759 112.0
889.125977 104.0
891.632202 100.0
892.452515 108.0
894.768799 64.0
896.065308 144.0
898.020508 76.0
905.760986 200.0
906.348083 200.0
925.641846 44.0
928.174683 44.0
931.822571 172.0
950.353088 160.0
952.99939 76.0
961.01593 184.0
968.855408 136.0
975.389832 32.0
997.430359 184.0
999.317017 136.0
1001.129883 160.0
1002.723755 36.0
1006.243591 76.0
1006.91925 176.0
1011.927429 48.0
1014.499573 84.0
1025.069336 212.0
1025.617432 236.0
1028.123901 200.0
1032.672729 116.0
1036.802246 72.0
1037.000854 60.0
1038.360107 124.0
1038.674316 180.0
1039.970459 84.0
1040.021851 140.0
1045.452637 164.0
1046.75293 144.0
1047.229492 76.0
1051.007202 180.0
1051.671875 204.0
1052.091553 144.0
1052.162476 164.0
1057.760864 156.0
1059.010498 164.0
1066.32251 132.0
1066.504517 136.0
1066.686523 116.0
1069.594116 156.0
1070.811768 196.0
1075.27771 88.0
1077.367188 168.0
1077.648193 156.0
1082.534302 184.0
1083.411987 160.0
1083.542969 216.0
1087.405273 128.0
1087.864746 136.0
1090.025513 144.0
1097.09436 184.0
1103.967651 196.0
1105.118652 144.0
1105.939209 216.0
1106.760132 236.0
1107.607788 108.0
1109.145142 84.0
1110.325317 204.0
1114.254883 100.0
1115.371338 92.0
1115.477661 140.0
1120.775269 156.0
1125.697998 200.0
1128.952393 136.0
1129.413818 176.0
1131.113403 60.0
1135.864258 140.0
1138.434814 144.0
1140.968018 164.0
1142.810791 200.0
1146.285278 120.0
1149.204834 208.0
1150.412842 152.0
1151.162354 160.0
1151.966064 132.0
1152.168701 200.0
1153.155273 108.0
1155.007935 232.0
1155.150024 112.0
1155.792725 164.0
1156.164917 188.0
1156.868774 208.0
1158.358521 156.0
1158.900513 160.0
1161.354614 240.0
1162.195801 160.0
1163.980957 180.0
1164.700806 176.0
1164.884277 80.0
1166.549072 192.0
1167.827393 208.0
1168.698242 196.0
1172.947754 184.0
1173.015991 244.0
1174.570679 228.0
1175.143677 108.0
1177.59436 164.0
1180.608276 52.0
1182.955078 116.0
1185.756592 160.0
1187.889038 200.0
1189.769287 180.0
1189.927246 164.0
1195.350342 52.0
1195.611816 204.0
1197.532593 176.0
1200.34436 192.0
1200.95813 132.0
1201.654907 252.0
1202.483032 188.0
1204.747803 156.0
1207.526489 232.0
1208.204346 180.0
1211.936157 204.0
1213.211304 172.0
1213.571899 184.0
1214.848022 188.0
1215.47937 176.0
1216.582886 136.0
1216.63147 136.0
1217.728516 168.0
1219.326538 188.0
1220.953369 152.0
1221.287231 172.0
1221.648926 168.0
1223.639282 188.0
1225.512817 140.0
1226.251465 120.0
1228.217651 156.0
1229.166504 136.0
1229.640991 56.0
1230.897583 128.0
1231.805542 156.0
1233.084229 188.0
1236.315186 176.0
1239.669556 88.0
1239.739624 160.0
1242.032227 172.0
1242.235718 120.0
1243.112671 124.0
1249.197144 36.0
1249.661499 184.0
1251.223877 192.0
1252.730957 192.0
1252.82251 124.0
1254.365845 136.0
1255.599731 196.0
1257.596313 228.0
1257.90686 100.0
1258.168091 212.0
1268.333374 168.0
1268.680664 164.0
1271.049561 96.0
1272.540161 152.0
1273.044312 136.0
1277.614502 140.0
1278.767212 172.0
1281.309326 224.0
1282.200073 32.0
1283.497437 180.0
1284.331909 136.0
1285.537598 220.0
1285.687378 172.0
1289.715576 176.0
1290.838013 180.0
1291.996704 188.0
1292.261353 188.0
1292.733643 196.0
1292.962646 144.0
1295.117676 172.0
1296.887451 192.0
1298.773193 156.0
1299.095947 176.0
1302.383545 108.0
1306.02771 152.0
1306.480957 132.0
1306.624756 116.0
1307.675415 48.0
1308.186401 176.0
1308.762451 156.0
1310.649536 184.0
1311.110718 128.0
1311.636841 224.0
1311.773804 156.0
1313.562134 164.0
1313.713623 148.0
1314.427979 132.0
1314.687744 136.0
1316.77417 216.0
1317.128052 148.0
1318.153931 160.0
1319.537109 168.0
1319.693481 232.0
1320.648071 152.0
1323.108398 224.0
1323.687622 180.0
1327.252686 224.0
1328.144653 116.0
1331.882812 152.0
1332.01355 72.0
1334.891602 156.0
1335.320679 44.0
1335.842896 216.0
1336.601074 148.0
1337.619995 212.0
1339.724487 156.0
1341.575439 240.0
1341.998291 136.0
1343.42041 132.0
1344.325195 180.0
1346.595581 188.0
1349.335815 236.0
1354.685547 224.0
1355.154419 152.0
1355.652588 156.0
1357.140625 124.0
1357.675903 140.0
1358.101318 224.0
1359.150391 284.0
1360.522827 132.0
1361.411255 160.0
1362.322021 220.0
1363.369141 184.0
1363.916626 204.0
1363.968018 224.0
1364.659058 164.0
1366.181519 220.0
1368.573364 152.0
1369.626465 144.0
1371.004272 140.0
1374.219238 164.0
1378.132324 140.0
1378.642212 172.0
1379.34436 156.0
1379.566162 228.0
1380.172363 176.0
1381.008057 204.0
1382.347046 136.0
1383.116821 116.0
1383.457275 124.0
1385.479004 176.0
1388.562622 156.0
1388.992798 176.0
1389.222778 176.0
1389.467529 100.0
1390.89978 160.0
1391.449097 140.0
1392.109863 160.0
1393.008667 132.0
1393.863037 200.0
1394.606201 88.0
1395.475952 124.0
1397.185303 128.0
1399.032104 128.0
1399.136353 144.0
1399.218262 180.0
1400.0 204.0
1403.383057 76.0
1403.532104 208.0
1406.777466 164.0
1407.038818 96.0
1407.546509 64.0
1407.875122 188.0
1408.861084 156.0
1409.735229 44.0
1409.89209 156.0
1410.064087 76.0
1410.310669 144.0
1410.385376 204.0
1411.110596 204.0
1411.572388 84.0
1411.780151 160.0
1412.912964 132.0
1413.511475 204.0
1414.110229 116.0
1414.372192 284.0
1414.731445 216.0
1415.959473 136.0
1416.251587 120.0
1417.487793 188.0
1420.861694 164.0
1421.244385 52.0
1421.784668 228.0
1423.976807 176.0
1424.067017 172.0
1424.998413 116.0
1426.133179 108.0
1429.404541 172.0
1431.118164 128.0
1431.335571 168.0
1432.611938 180.0
1433.576294 156.0
1436.675171 184.0
1437.142944 160.0
1437.474976 120.0
1437.656128 128.0
1437.882446 172.0
1438.244751 124.0
1441.847412 120.0
1442.56543 168.0
1443.450073 136.0
1444.288452 228.0
1444.418091 196.0
1446.400635 208.0
1446.552002 232.0
1447.415039 148.0
1448.960205 168.0
1450.362061 128.0
1450.52124 268.0
1450.657715 132.0
1453.236206 180.0
1454.458008 116.0
1455.232422 160.0
1455.422241 256.0
1456.135986 132.0
1457.716187 224.0
1458.544556 84.0
1458.613037 128.0
1460.528564 176.0
1461.449585 236.0
1463.322021 140.0
1465.088867 132.0
1465.14978 180.0
1465.584106 240.0
1465.728882 76.0
1466.506104 52.0
1466.750122 184.0
1468.602905 196.0
1469.945557 148.0
1472.419067 128.0
1474.069092 136.0
1476.087158 164.0
1477.36438 128.0
1477.433228 164.0
1478.435547 240.0
1478.917725 140.0
1479.055542 152.0
1479.361694 156.0
1479.438232 112.0
1481.633179 232.0
1482.586304 248.0
1482.84375 204.0
1483.720703 148.0
1484.272705 136.0
1486.197998 164.0
1486.635376 160.0
1486.800659 220.0
1487.149536 164.0
1487.894165 200.0
1488.132202 108.0
1488.392334 188.0
1489.737305 140.0
1490.267334 164.0
1490.41333 132.0
1492.680908 160.0
1492.950073 208.0
1493.311523 212.0
1493.542236 152.0
1494.765503 164.0
1496.012329 156.0
1498.237915 248.0
1498.787598 224.0
1501.652588 164.0
1502.238892 108.0
1502.994873 168.0
