>compound MLS001056774-01!S(?)-Pindolol
>formula C14H20N2O2
>ionization [M+H]+
>parentmass 249.15975433209053
#inchi InChI=1S/C14H20N2O2/c1-10(2)16-8-11(17)9-18-14-5-3-4-13-12(14)6-7-15-13/h3-7,10-11,15-17H,8-9H2,1-2H3/t11-/m0/s1
#inchikey JZQKKSLKJUAGIC
#Ion_Source LC-ESI
#Instrument qTof
#Compound_Source NIH Pharmacologically Active Library
#PI Dorrestein
#Data_Collector VP/LMS
#Scan -1
#Precursor_MZ 249.162
#ExactMass 248.152
#Charge 1
#CAS_Number N/A
#Pubmed_ID N/A
#Smiles CC(C)NC[C@H](O)COc1cccc2[nH]ccc12
#INCHI_AUX N/A
#Library_Class 1
#SpectrumID CCMSLIB00000086181
#IonMode Positive
#UpdateWorkflowName UPDATE-SINGLE-ANNOTATED-GOLD
#LibraryQualityString Gold
#TaskID d252d724072548979f1f6f1ced849daf
##Scan# 1200
#SpectrumFile p5-H04_GH4_01_18479.mzXML
#LibraryName Pharm_Active_Library.mgf
#MQScore -1
#Organism Pharm_Active_Library
#TIC_Query 0
#RT_Query -1
#MZErrorPPM -1
#SharedPeaks 0
#MassDiff 0
#LibMZ -1
#SpecMZ 249.162
#SpecCharge 0
#internalFilename spec-00000.mgf

>collision 10
44.983315 172.0
45.430279 200.0
45.86462 112.0
46.008961 144.0
46.341667 176.0
46.436275 152.0
46.545128 52.0
46.56414 184.0
46.798035 192.0
46.819824 180.0
46.949291 216.0
46.961567 196.0
47.125381 232.0
47.294956 88.0
47.312752 196.0
47.459351 116.0
47.514214 52.0
47.558125 44.0
47.76836 188.0
47.816521 48.0
47.835789 124.0
47.890869 164.0
47.910152 108.0
47.992847 56.0
48.002502 164.0
48.204041 184.0
48.686131 148.0
48.898842 176.0
49.029758 244.0
49.543961 176.0
49.687469 220.0
49.814713 92.0
49.917313 184.0
50.117191 164.0
50.224335 68.0
50.330181 72.0
50.341476 184.0
50.518154 104.0
50.625725 68.0
50.818504 172.0
50.839787 128.0
51.279247 120.0
51.457561 132.0
51.599003 84.0
51.714874 156.0
52.077629 48.0
52.191158 152.0
52.277466 56.0
52.492107 144.0
52.577221 140.0
52.604645 176.0
52.762817 172.0
52.898098 236.0
53.118359 132.0
53.170593 232.0
53.510742 128.0
53.583561 180.0
53.612705 40.0
53.809624 188.0
54.132771 184.0
54.795219 116.0
54.94265 208.0
55.090279 188.0
55.183384 76.0
55.270653 140.0
55.408348 156.0
55.587761 204.0
55.812057 200.0
55.870064 176.0
55.998077 172.0
56.270969 108.0
56.439808 176.0
56.950844 96.0
57.341011 224.0
57.412895 136.0
57.459007 140.0
57.523037 92.0
57.828369 224.0
57.914673 164.0
58.151203 176.0
58.365402 208.0
58.538876 156.0
58.569336 120.0
58.741585 164.0
58.851467 172.0
58.866737 80.0
58.973682 88.0
59.024132 140.0
59.242996 148.0
59.46994 128.0
59.512924 196.0
59.617378 128.0
60.522877 192.0
60.719685 148.0
60.891956 176.0
61.022491 152.0
61.414925 60.0
61.544453 72.0
61.595989 196.0
62.222401 160.0
62.241241 92.0
62.335491 160.0
62.839359 204.0
63.167961 200.0
63.313576 136.0
63.57357 104.0
63.597378 180.0
63.662468 120.0
63.694233 120.0
63.878628 152.0
64.036209 152.0
64.12384 248.0
64.214714 192.0
64.296082 120.0
64.38549 172.0
64.7117 48.0
64.722908 144.0
64.73732 152.0
64.887939 136.0
64.928024 44.0
65.056389 192.0
65.147926 136.0
65.160782 164.0
65.779182 236.0
67.04921 112.0
67.075287 104.0
67.43438 140.0
67.760017 172.0
68.010925 224.0
68.065102 160.0
68.170235 172.0
68.553658 140.0
68.669067 124.0
68.928253 128.0
69.14489 180.0
69.604088 160.0
69.64727 176.0
69.743721 176.0
69.878342 196.0
69.943245 136.0
70.008179 224.0
70.445175 156.0
70.552124 108.0
70.727776 188.0
71.06797 52.0
71.185471 268.0
71.274506 204.0
71.314835 220.0
71.517731 184.0
71.678345 124.0
71.867203 124.0
71.889137 176.0
72.249031 204.0
72.379356 152.0
72.45388 208.0
72.713318 192.0
73.680519 260.0
73.886276 140.0
74.130524 124.0
74.195656 176.0
74.784859 220.0
74.910561 180.0
75.343567 76.0
75.592552 60.0
75.767426 176.0
75.80555 52.0
76.329788 92.0
76.381966 140.0
76.637878 196.0
77.33992 124.0
78.148941 168.0
78.56826 148.0
78.684738 144.0
78.70063 152.0
78.864922 172.0
79.295013 164.0
79.642776 140.0
80.149803 180.0
80.319168 172.0
80.349495 144.0
80.61554 168.0
80.794342 204.0
81.150749 48.0
81.454041 188.0
81.554665 196.0
82.123642 196.0
82.168739 116.0
82.806839 244.0
83.105949 144.0
83.140434 168.0
83.769539 40.0
83.798691 212.0
84.094109 80.0
85.018349 192.0
85.106461 184.0
85.119316 220.0
85.347168 80.0
85.44281 92.0
85.555069 188.0
85.927345 228.0
85.942108 144.0
86.211708 176.0
86.278252 112.0
86.685448 196.0
86.965492 152.0
86.982201 44.0
87.446884 268.0
87.625648 192.0
87.890411 156.0
88.030411 180.0
88.198563 104.0
88.232208 52.0
88.737709 160.0
89.039986 172.0
89.40078 68.0
89.521263 136.0
89.658783 176.0
89.743614 168.0
89.951141 192.0
90.056877 104.0
90.083321 160.0
90.09655 92.0
90.253418 164.0
90.641457 192.0
90.813972 192.0
90.92971 104.0
91.001846 60.0
91.053535 384.0
91.132904 44.0
91.83918 148.0
91.921211 192.0
91.93457 180.0
91.996284 204.0
92.016647 108.0
92.04792 736.0
92.574989 172.0
92.695671 128.0
92.850952 32.0
93.558067 176.0
93.638939 224.0
93.721779 108.0
94.053482 156.0
94.163536 200.0
94.256271 164.0
94.318115 112.0
94.339378 192.0
94.414886 152.0
94.453468 168.0
94.645065 152.0
94.662491 236.0
94.786469 48.0
95.08123 196.0
95.123932 112.0
95.158882 76.0
95.178299 148.0
95.242386 164.0
95.287064 184.0
95.318153 180.0
95.349243 180.0
95.413391 116.0
95.84938 136.0
95.863014 196.0
96.095055 80.0
96.339096 204.0
96.624527 156.0
96.865318 180.0
96.898621 244.0
97.681923 52.0
97.756691 176.0
97.882675 156.0
98.096687 568.0
98.45768 144.0
98.582962 204.0
98.683777 116.0
99.099419 180.0
99.166794 228.0
99.496086 112.0
99.684776 232.0
99.953224 96.0
100.11013 464.0
100.192154 172.0
100.216064 200.0
100.413414 208.0
100.46727 164.0
100.740768 136.0
100.974632 152.0
101.20076 216.0
101.230789 196.0
101.294884 204.0
101.371017 100.0
101.39106 164.0
101.689896 148.0
102.046463 200.0
102.081253 224.0
102.304985 176.0
103.054665 620.0
103.225029 196.0
103.467834 156.0
103.658501 208.0
103.719025 176.0
103.970528 204.0
104.049026 1064.0
104.435791 176.0
104.545654 112.0
104.602646 120.0
104.781853 148.0
104.96122 88.0
105.035194 192.0
105.056854 208.0
105.077766 168.0
105.835762 64.0
106.030373 176.0
106.06498 2316.0
106.155426 208.0
106.26004 72.0
106.648155 76.0
106.68927 120.0
106.711884 60.0
107.049583 1740.0
107.067223 700.0
107.11525 56.0
107.168816 80.0
107.566841 136.0
107.845695 160.0
107.955276 124.0
108.054558 176.0
108.28019 184.0
108.441795 124.0
108.742538 88.0
109.037453 112.0
109.089417 168.0
110.334 164.0
110.997726 252.0
111.190727 204.0
111.825447 176.0
112.029694 168.0
112.40921 220.0
112.700607 188.0
112.950073 256.0
114.022942 148.0
114.188774 208.0
114.239822 188.0
114.30365 36.0
114.582573 128.0
114.676338 136.0
114.846909 140.0
114.930115 144.0
115.053894 2856.0
115.083794 124.0
115.130768 96.0
115.211937 148.0
115.282448 104.0
115.320396 272.0
115.451332 48.0
115.519775 160.0
115.845161 148.0
116.00589 160.0
116.049141 3104.0
116.107422 6336.0
116.134544 96.0
116.177444 112.0
116.220352 88.0
116.39637 260.0
116.486572 56.0
116.516647 200.0
116.557472 84.0
116.867104 120.0
116.901527 160.0
116.929504 140.0
117.059692 3324.0
117.111664 260.0
117.174988 56.0
117.209465 36.0
117.287048 160.0
117.47506 192.0
117.496223 168.0
117.59549 144.0
117.768219 76.0
117.794136 152.0
117.925941 48.0
118.065056 5000.0
118.11319 140.0
118.215744 104.0
118.354286 132.0
118.510895 144.0
118.607758 56.0
118.95266 140.0
119.032303 152.0
119.06749 1044.0
119.180695 44.0
119.659195 160.0
119.776794 48.0
119.872658 196.0
119.898811 152.0
119.929321 172.0
120.044548 520.0
120.077583 120.0
120.153931 168.0
120.212845 196.0
120.354729 120.0
120.780891 92.0
120.909981 160.0
120.925301 36.0
121.040802 184.0
121.078552 52.0
121.102646 172.0
121.345894 120.0
121.819931 32.0
122.526108 36.0
122.587807 108.0
122.896515 52.0
122.942406 204.0
123.086342 132.0
123.260849 132.0
123.783859 164.0
123.900276 136.0
124.197327 160.0
124.912582 208.0
125.034958 228.0
125.620964 160.0
126.047401 248.0
126.434273 176.0
127.05368 644.0
127.335541 188.0
127.902145 152.0
128.052078 360.0
128.603149 172.0
128.668427 224.0
128.686676 132.0
128.729706 68.0
129.009735 136.0
129.057831 400.0
129.215546 228.0
129.340012 164.0
130.038544 216.0
130.063797 912.0
130.601608 156.0
130.8246 168.0
131.044968 164.0
131.054443 228.0
131.069077 416.0
131.183975 196.0
131.46965 76.0
131.789337 128.0
131.985916 168.0
132.044357 1532.0
132.078323 648.0
132.420715 172.0
132.835602 120.0
133.016876 116.0
133.053436 1408.0
133.090347 140.0
133.108719 60.0
133.570663 64.0
133.605179 44.0
133.724838 76.0
133.750153 88.0
133.770874 92.0
134.005768 156.0
134.059799 10544.0
134.10025 168.0
134.148666 60.0
134.164795 40.0
134.180939 48.0
134.330841 40.0
134.356216 68.0
134.37236 108.0
134.621658 32.0
134.640121 72.0
134.665527 48.0
134.815704 176.0
134.875793 152.0
135.064697 1572.0
135.144058 32.0
135.31958 72.0
135.468185 44.0
135.55159 52.0
135.654724 56.0
135.671707 156.0
135.959732 92.0
136.243011 88.0
136.687103 32.0
137.243805 168.0
138.775314 160.0
138.951218 256.0
140.336533 176.0
140.643219 88.0
141.006943 140.0
141.259949 204.0
142.0298 92.0
142.064941 208.0
142.958755 208.0
143.072632 2700.0
143.306412 84.0
143.523315 156.0
143.957779 172.0
144.056656 684.0
144.080017 14972.0
144.179779 100.0
144.301697 60.0
144.359085 76.0
144.40213 68.0
144.432343 184.0
144.497818 44.0
144.607895 76.0
144.855774 84.0
144.873047 76.0
144.919205 108.0
144.962326 100.0
145.059204 800.0
145.084274 740.0
145.326813 40.0
145.614075 96.0
145.78064 116.0
145.807068 40.0
145.929672 52.0
145.96814 56.0
146.018646 148.0
146.059357 3952.0
146.244812 188.0
147.063034 236.0
147.095688 88.0
148.077377 204.0
150.052979 36.0
152.321579 60.0
153.002762 164.0
153.064316 144.0
153.747162 44.0
154.064041 688.0
154.59729 168.0
154.976151 128.0
155.059814 544.0
157.048599 328.0
157.411362 96.0
157.846161 96.0
158.058777 172.0
160.074066 800.0
161.049057 164.0
161.081421 244.0
161.245041 124.0
162.102951 44.0
163.507324 144.0
164.009079 100.0
166.326538 80.0
167.275055 44.0
169.475449 132.0
170.059677 316.0
170.087479 128.0
170.594025 148.0
171.066116 168.0
171.187256 52.0
171.395645 208.0
171.466003 68.0
171.505096 88.0
171.932831 144.0
171.974594 224.0
171.995483 196.0
172.075821 3512.0
172.13385 44.0
172.395081 28.0
172.604202 52.0
173.051636 52.0
173.077682 312.0
173.148529 52.0
173.203522 104.0
173.308319 72.0
173.405273 96.0
173.455566 64.0
173.780273 40.0
173.893112 48.0
174.087387 156.0
174.134659 132.0
174.181946 68.0
180.941971 176.0
182.068161 256.0
183.001266 172.0
185.039719 40.0
185.077621 160.0
186.126984 128.0
198.60556 128.0
199.105148 192.0
207.032089 208.0
207.12088 248.0
210.615753 68.0
210.84111 140.0
223.037949 128.0
228.11972 88.0
247.210236 120.0
248.237732 172.0
249.156769 584.0
250.149612 172.0
268.820587 76.0
272.35318 52.0
273.010498 152.0
279.181549 84.0
290.555481 88.0
418.708588 96.0
427.522949 44.0
439.227722 100.0
488.396973 52.0
584.12323 108.0
591.762756 236.0
626.134827 56.0
685.34845 72.0
710.788513 44.0
738.059631 128.0
748.091309 44.0
786.816895 168.0
787.710388 248.0
839.594299 172.0
853.684265 236.0
856.780762 204.0
874.72406 172.0
892.324036 172.0
902.113159 212.0
941.26001 164.0
945.282227 172.0
970.599915 80.0
980.259705 180.0
982.136292 136.0
983.059692 256.0
995.52356 100.0
997.578125 192.0
998.458374 172.0
1001.813293 204.0
1004.044617 104.0
1014.826233 208.0
1020.197266 212.0
1026.577148 152.0
1031.327148 144.0
1042.266724 152.0
1042.530151 260.0
1043.770752 116.0
1050.417358 112.0
1062.611938 244.0
1079.959595 160.0
1085.729736 120.0
1086.326538 148.0
1088.590942 184.0
1088.650024 72.0
1089.911255 140.0
1099.895386 212.0
1100.535767 140.0
1102.953613 204.0
1104.798584 172.0
1106.731201 196.0
1109.759155 96.0
1112.127441 132.0
1114.896973 204.0
1115.801025 132.0
1117.017944 220.0
1122.132568 224.0
1125.5354 140.0
1125.642212 176.0
1126.22998 160.0
1126.630737 164.0
1126.791138 160.0
1134.815918 200.0
1135.117554 204.0
1146.828979 168.0
1150.086792 100.0
1150.6875 84.0
1151.740967 156.0
1154.769043 196.0
1155.655273 160.0
1162.363403 80.0
1167.206543 48.0
1167.342529 68.0
1174.459595 52.0
1175.755859 144.0
1178.767456 232.0
1178.897339 52.0
1179.676514 172.0
1181.687134 168.0
1184.781738 172.0
1185.08313 96.0
1188.93689 76.0
1192.597656 128.0
1198.350586 244.0
1200.259888 176.0
1201.591064 184.0
1204.138184 136.0
1207.213623 216.0
1209.074585 196.0
1212.897827 264.0
1213.064087 180.0
1216.359131 160.0
1218.963623 124.0
1220.840454 164.0
1222.614502 200.0
1229.318481 136.0
1240.859741 192.0
1241.820435 124.0
1242.093994 160.0
1246.039307 196.0
1247.965088 192.0
1249.223999 152.0
1249.885254 160.0
1250.103394 216.0
1250.786133 168.0
1250.955078 148.0
1253.37085 188.0
1254.343384 188.0
1254.717041 164.0
1264.486206 168.0
1265.250732 200.0
1266.220825 176.0
1266.757202 180.0
1271.22583 192.0
1273.16394 172.0
1280.06897 236.0
1285.308228 216.0
1287.542603 124.0
1289.092896 68.0
1290.543945 48.0
1293.291016 76.0
1296.478027 240.0
1296.807739 72.0
1298.435303 88.0
1299.281616 184.0
1299.46106 104.0
1302.892822 172.0
1303.323853 184.0
1304.200684 100.0
1306.494507 156.0
1307.883423 156.0
1310.27417 104.0
1313.763428 260.0
1318.991577 144.0
1319.114502 124.0
1321.530029 196.0
1321.71814 160.0
1324.606812 116.0
1327.788818 188.0
1328.187622 36.0
1328.579346 132.0
1329.101807 92.0
1329.595215 168.0
1330.088745 88.0
1330.814819 116.0
1333.386353 236.0
1335.858521 148.0
1338.602417 228.0
1338.755249 208.0
1339.738647 176.0
1340.33606 160.0
1341.516724 204.0
1341.684448 28.0
1342.982422 272.0
1344.412354 260.0
1345.989136 116.0
1352.027344 172.0
1352.451904 252.0
1352.56897 148.0
1354.948975 164.0
1358.196411 104.0
1361.829712 204.0
1362.96106 140.0
1363.181519 56.0
1364.298706 208.0
1365.357544 204.0
1366.622803 140.0
1370.252563 184.0
1375.244873 160.0
1379.21875 200.0
1379.270386 184.0
1380.579102 240.0
1381.141235 192.0
1381.333496 164.0
1382.125122 148.0
1383.168579 200.0
1386.286743 212.0
1386.509033 124.0
1388.125122 108.0
1391.709106 48.0
1392.02832 48.0
1392.637329 168.0
1393.707153 176.0
1395.94458 184.0
1397.744751 64.0
1398.494995 156.0
1400.469482 88.0
1409.69812 288.0
1410.019531 48.0
1411.021118 84.0
1411.948364 164.0
1412.075562 140.0
1414.410034 76.0
1415.997314 68.0
1418.132568 148.0
1418.222534 196.0
1420.734619 64.0
1421.079712 176.0
1421.88269 168.0
1422.926025 216.0
1425.09668 68.0
1425.817993 248.0
1426.742554 184.0
1430.534058 148.0
1435.996948 156.0
1436.939941 156.0
1438.298218 180.0
1438.479492 164.0
1439.030518 204.0
1440.367188 236.0
1441.462769 196.0
1442.052246 144.0
1442.611572 172.0
1443.912109 232.0
1447.6875 160.0
1448.218628 172.0
1448.445801 140.0
1449.35498 184.0
1449.445923 76.0
1452.72876 36.0
1454.071777 236.0
1457.162354 136.0
1457.489136 260.0
1460.712646 180.0
1462.371338 176.0
1464.952637 148.0
1465.585083 160.0
1466.072754 40.0
1467.25415 124.0
1467.307617 216.0
1467.696411 192.0
1468.245483 68.0
1468.397949 156.0
1468.596313 168.0
1470.137451 132.0
1472.458252 196.0
1472.969971 208.0
1474.926147 144.0
1475.323608 184.0
1479.875854 156.0
1481.759888 180.0
1483.698853 196.0
1484.619019 164.0
1486.160889 168.0
1486.314331 204.0
1488.617188 92.0
1489.469727 96.0
1490.575928 196.0
1490.921753 124.0
1491.30603 144.0
1492.912842 236.0
1493.335938 132.0
1493.528198 116.0
1494.405151 180.0
1495.513306 180.0
1499.988525 184.0
1500.404907 164.0
1500.744141 52.0
1503.081177 44.0
1503.328125 152.0
1504.022827 128.0
1504.895142 260.0
1505.142212 224.0
1505.28894 240.0
