>compound MLS001140561-01!1-[2-(3,4,7-trimethyl-2-oxochromen-5-yl)oxyacetyl]piperidine-4-carboxamide
>formula C20H24N2O5
>ionization [M+H]+
>parentmass 373.177124
#inchi InChI=1S/C20H24N2O5/c1-11-8-15(18-12(2)13(3)20(25)27-16(18)9-11)26-10-17(23)22-6-4-14(5-7-22)19(21)24/h8-9,14H,4-7,10H2,1-3H3,(H2,21,24)
#inchikey SQKIASKKQDTHDZ
#Ion_Source LC-ESI
#Instrument qTof
#Compound_Source NIH Natural Product Library
#PI Dorrestein
#Data_Collector VVP/LMS
#Scan -1
#Precursor_MZ 373.176
#ExactMass 372.169
#Charge 1
#CAS_Number N/A
#Pubmed_ID N/A
#Smiles Cc1cc(OCC(=O)N2CCC(CC2)C(=O)N)c3c(C)c(C)c(=O)oc3c1
#INCHI_AUX N/A
#Library_Class 1
#SpectrumID CCMSLIB00000080463
#IonMode Positive
#UpdateWorkflowName UPDATE-SINGLE-ANNOTATED-GOLD
#LibraryQualityString Gold
#TaskID b1d8e8f6646f4e71acdff9ca3d919d08
##Scan# 1735
#SpectrumFile p2-C09_GC9_01_18009.mzXML
#LibraryName NIH_Natural_Products_Library.mgf
#MQScore -1
#Organism NIH_Natural_Products_Library
#TIC_Query 0
#RT_Query -1
#MZErrorPPM -1
#SharedPeaks 0
#MassDiff 0
#LibMZ -1
#SpecMZ 373.176
#SpecCharge 0
#internalFilename spec-00000.mgf

>collision 10
94.963539 160.0
95.046951 180.0
95.068298 124.0
95.445145 176.0
95.998161 168.0
96.046921 164.0
96.082085 872.0
96.965858 92.0
97.084435 208.0
97.960083 140.0
98.059006 564.0
98.484772 176.0
99.066322 96.0
100.481789 184.0
103.051697 168.0
103.46833 184.0
104.511536 144.0
104.906639 228.0
105.072014 172.0
105.952957 160.0
106.075958 188.0
106.628036 132.0
107.031235 132.0
107.093018 152.0
107.767586 236.0
108.54792 172.0
109.897858 128.0
110.059799 468.0
110.652359 160.0
110.85553 56.0
111.093079 188.0
112.076508 1516.0
112.103767 168.0
112.181747 72.0
112.441185 64.0
112.563629 136.0
112.743187 116.0
112.861557 192.0
113.064636 156.0
113.079651 168.0
115.107544 216.0
115.697647 204.0
115.738327 28.0
115.845413 188.0
116.14122 128.0
116.216301 100.0
116.751167 184.0
117.177361 116.0
117.461922 196.0
117.595695 160.0
118.168343 44.0
118.868195 212.0
119.081688 328.0
119.111351 132.0
119.300407 132.0
120.023224 148.0
120.099548 52.0
121.065552 88.0
121.100594 172.0
122.969429 168.0
123.046692 148.0
124.074547 260.0
125.082939 160.0
125.589767 168.0
126.091179 408.0
127.012337 224.0
127.087723 3168.0
127.191841 80.0
128.055237 104.0
128.092621 196.0
128.404572 164.0
129.102402 396.0
129.951828 220.0
129.974518 176.0
130.070648 172.0
130.097076 112.0
131.086441 152.0
131.478683 240.0
132.52597 128.0
133.063644 144.0
133.102371 436.0
135.056686 208.0
136.47522 92.0
136.579865 164.0
137.071091 148.0
137.913574 72.0
141.06572 176.0
141.103516 2388.0
141.285645 148.0
141.38739 92.0
142.109741 388.0
142.13858 132.0
142.516113 208.0
143.083923 428.0
143.177414 124.0
144.110092 156.0
144.179382 128.0
145.067368 164.0
146.072601 256.0
146.12886 144.0
146.64418 48.0
147.079254 436.0
148.047821 168.0
148.68541 60.0
148.731522 36.0
148.9039 76.0
151.506561 88.0
152.070541 240.0
153.684845 116.0
154.413574 220.0
155.059753 116.0
155.084534 152.0
157.058746 164.0
158.421066 144.0
159.082581 964.0
160.01326 196.0
160.085007 392.0
160.159317 64.0
160.255035 44.0
161.057846 944.0
161.095917 992.0
161.352905 64.0
161.570404 52.0
162.102051 180.0
162.589005 168.0
163.107132 224.0
163.425018 240.0
164.58728 120.0
164.993515 212.0
165.129044 188.0
166.893326 128.0
168.853134 120.0
169.094879 488.0
170.104935 204.0
171.084625 140.0
173.088043 316.0
173.983826 144.0
174.06691 264.0
175.073593 116.0
175.554611 56.0
175.934555 116.0
176.082855 1656.0
176.143173 164.0
176.293762 68.0
176.325485 44.0
176.365128 64.0
176.550201 116.0
176.653351 132.0
176.743301 160.0
177.02388 124.0
177.079346 252.0
177.397461 92.0
177.646729 88.0
178.100632 160.0
178.956924 72.0
181.055756 212.0
181.141464 144.0
184.567474 248.0
185.122192 152.0
186.992676 124.0
187.07663 232.0
187.40387 48.0
189.020294 44.0
189.06134 224.0
189.09285 2788.0
189.13797 40.0
189.266647 64.0
189.529587 92.0
189.68306 52.0
190.093109 540.0
190.124634 64.0
190.621689 120.0
191.036835 88.0
191.075348 144.0
191.105133 196.0
191.573639 68.0
199.078613 148.0
199.48259 132.0
201.090912 164.0
203.05722 180.0
203.077072 176.0
204.080582 568.0
205.030243 220.0
205.087738 208.0
215.254486 64.0
217.045258 160.0
217.085785 2796.0
217.265228 44.0
217.30629 100.0
217.605652 32.0
217.658508 80.0
218.09079 936.0
219.441544 52.0
220.140854 172.0
223.603455 156.0
227.789444 100.0
232.608826 60.0
238.156952 156.0
241.980774 112.0
243.099731 188.0
243.580963 172.0
244.762756 108.0
244.865524 160.0
245.08107 1328.0
246.083984 164.0
247.091125 188.0
255.088776 132.0
259.151367 132.0
262.100983 140.0
269.139679 132.0
285.49762 180.0
286.096527 184.0
300.058411 128.0
300.156464 312.0
303.009857 220.0
303.065308 116.0
306.933899 68.0
308.152008 136.0
308.998077 156.0
309.579132 68.0
310.143188 124.0
310.276398 84.0
311.153442 108.0
319.088531 144.0
322.14975 60.0
327.173889 96.0
328.157532 952.0
329.127991 144.0
329.16275 476.0
330.157867 128.0
331.279877 60.0
331.750977 92.0
338.139832 188.0
355.158539 280.0
356.154907 312.0
356.239288 124.0
358.150146 120.0
362.013702 124.0
371.231934 100.0
373.177124 768.0
397.607147 76.0
397.940552 92.0
398.222504 68.0
398.50058 80.0
422.478577 56.0
439.897369 112.0
463.884125 152.0
496.094147 64.0
541.228516 164.0
589.027832 60.0
952.149597 176.0
1016.016602 140.0
1140.395142 116.0
1141.343018 240.0
1159.094971 180.0
1168.797974 112.0
1196.372559 152.0
1197.033569 132.0
1199.210449 216.0
1201.782593 148.0
1204.695923 52.0
1225.536499 196.0
1237.402588 196.0
1250.071655 156.0
1292.112061 160.0
1297.354126 176.0
1323.76001 164.0
1347.734375 184.0
1384.55127 216.0
1390.741821 180.0
1424.905151 100.0
1431.682129 84.0
1432.94751 152.0
1448.312378 40.0
1450.919067 164.0
1469.94104 212.0
1485.663452 180.0
1489.931763 180.0
1491.622314 176.0
1503.429077 252.0
