>compound Chlorprothixene
>formula C18H18ClNS 
>ionization [M+H]+
>parentmass 316.092
#inchi InChI=1S/C18H18ClNS/c1-20(2)11-5-7-14-15-6-3-4-8-17(15)21-18-10-9-13(19)12-16(14)18/h3-4,6-10,12H,5,11H2,1-2H3/b14-7+
#inchikey WSPOMRSOLSGNFJ
#Ion_Source LC-ESI
#Instrument qTof
#Compound_Source Isolated
#PI Sirenas
#Data_Collector Ed Esquenazi 
#Scan -1
#Precursor_MZ 316.092
#ExactMass 0.0
#Charge 1
#CAS_Number N/A
#Pubmed_ID N/A
#Smiles N/A
#INCHI_AUX N/A
#Library_Class 3
#SpectrumID CCMSLIB00000006202
#IonMode Positive
#UpdateWorkflowName UPDATE-SINGLE-ANNOTATED-BRONZE
#LibraryQualityString Bronze
#TaskID d19310cd93df49b68e9fcbec27720eb5
##Scan# 3
#SpectrumFile Chlorprothixene.mgf
#LibraryName fda_library.mgf
#MQScore -1
#Organism fda_library
#TIC_Query 0
#RT_Query -1
#MZErrorPPM -1
#SharedPeaks 0
#MassDiff 0
#LibMZ -1
#SpecMZ 316.092
#SpecCharge 0
#internalFilename spec-00000.mgf

>collision 10
100.039574 8.744361
100.139671 4.22449
101.037125 32.935459
102.045433 132.557098
102.571579 3.085714
103.053978 444.607513
103.18264 2.67432
103.193413 3.492143
103.309242 5.650974
103.448425 30.0119
103.46846 3.294643
103.489693 5.807603
103.923027 10.79402
104.511505 2.303571
104.831055 3.444805
104.993874 26.77989
105.071037 99.87838
109.011681 87.6754
109.437271 8.063025
109.874161 3.286376
111.022179 6.146137
113.037888 9.606868
114.041794 21.54557
114.402374 10.10289
114.558617 3.476191
115.0541 875.716675
115.091606 15.46881
115.137238 4.705646
115.180405 4.520022
115.18808 9.593205
115.217896 2.794312
115.316666 9.171252
115.571304 3.967033
115.633896 4.131868
115.743973 5.619709
115.874916 9.020773
117.067131 32.318039
118.864761 2.285714
118.876282 11.79074
118.969521 13.22449
121.011406 132.824707
121.248566 8.862903
121.630608 13.81876
122.991699 8.383711
123.262863 2.388605
124.533051 7.690476
125.01503 237.283203
126.043434 25.472429
126.136314 2.335317
127.053986 113.822098
127.394775 2.472527
127.540138 8.926021
127.595108 5.959467
127.716957 2.857759
127.958588 38.880619
128.061951 2158.288086
128.109436 6.438106
128.134048 4.143473
128.14711 5.388889
128.252213 4.617401
128.275848 2.285714
128.285217 8.189646
128.298767 6.252232
128.322433 8.622153
128.382263 4.000576
128.445328 5.446429
128.477539 8.868589
128.512375 4.180059
128.546234 8.611453
128.642548 3.591778
128.654388 3.31746
128.713791 12.58467
128.867599 5.376254
129.14415 3.486969
129.290466 6.293546
130.076981 278.980713
130.601135 6.553571
131.363647 8.150893
131.551056 3.448661
131.563217 3.438095
133.010315 9.778571
134.018112 15.92092
135.024246 10.11429
137.015503 178.841507
137.221008 3.298469
137.539658 11.46494
139.032135 6.775875
139.051834 40.299568
142.967026 30.941071
143.123886 2.00119
143.26918 2.73052
144.311157 3.002976
146.808258 3.361842
147.026703 42.202499
148.144638 7.1133
148.206024 8.580719
148.478638 6.706473
148.686844 3.779378
149.015015 737.60498
149.065933 6.902634
149.114655 4.053571
149.183212 9.87592
149.226517 4.25974
149.234528 3.155844
149.350677 10.74405
149.37439 2.903802
149.63382 2.354592
149.659439 4.531593
149.761108 3.749384
150.049057 99.527718
150.106628 7.390714
150.149231 2.583333
151.029129 48.547218
151.105637 7.45817
151.293839 3.903802
151.469193 2.388605
151.510925 2.623016
151.859192 4.143633
152.061737 639.479797
152.159592 9.209101
152.245316 5.435374
152.259079 6.982919
152.3078 4.432143
152.739349 4.745061
152.89888 3.017857
153.012878 14.34429
154.092377 4.988702
154.972275 130.344894
155.001465 6.858418
155.116211 2.715476
156.987686 10.81052
157.052994 2.8
158.017365 105.459099
158.096375 19.45826
158.576996 6.635204
159.026245 277.220093
159.496521 8.394345
160.009842 14.60609
160.032059 129.147293
160.179962 2.48052
160.254364 7.099379
160.275253 7.159664
161.040176 53.73774
161.119705 7.616071
161.141327 4.30815
161.180984 3.877492
161.338943 13.34987
161.654099 4.330827
161.6716 2.428571
161.782211 3.195378
162.022858 1139.85498
162.073517 23.02371
162.08812 9.006494
162.238358 11.19538
162.251587 2.594388
162.282593 9.148654
162.366852 7.317073
162.386795 2.25
162.509659 11.67157
162.633148 2.545455
162.714478 2.772619
163.055008 2.591837
163.365952 3.229286
163.565918 2.715
163.771774 2.111264
163.881973 5.111264
164.063492 10.40839
164.127014 4.445489
164.264557 6.963231
164.323166 4.445489
164.348297 3.994565
164.577209 3.865601
164.666733 3.714682
164.994797 15.01786
165.069046 1978.916992
165.117935 5.142857
165.166351 7.214286
165.187286 6.496294
165.238617 4.291667
165.337051 3.290058
165.377304 9.0
165.427124 7.172414
165.439957 3.176471
165.525131 4.620645
165.583176 3.806391
165.680786 3.242064
165.775726 4.190873
166.390198 4.644643
166.487381 6.444643
166.765884 2.238095
166.843491 6.199447
166.967758 12.67196
167.974854 21.55706
168.986237 47.447392
169.088242 3.848901
170.017349 56.074169
170.104355 3.809524
170.15332 11.04167
171.020752 23.9349
172.197357 3.032143
175.078995 8.237486
175.559723 5.031888
175.744217 14.14448
176.06044 282.145813
177.241577 4.160014
177.256409 13.25908
177.718948 6.190759
177.824295 7.484127
178.044647 21.81834
178.076416 481.327087
178.239731 4.730213
178.271927 2.617347
178.297684 5.623918
178.345596 4.030075
178.712814 2.302248
178.932434 4.588235
180.989456 11.47005
184.03244 77.41626
184.478958 6.051471
184.604492 4.058333
184.9422 5.149917
186.020813 73.135002
186.96257 10.48052
187.028656 30.152901
187.053833 18.291161
187.154205 3.476852
187.177353 2.579887
189.068054 37.23399
189.349228 5.386905
189.39711 3.432915
190.07724 55.531078
190.990906 20.1647
191.084076 215.419098
191.703629 5.031833
191.976883 9.952561
192.339447 2.587406
192.478668 8.340402
192.826126 3.033613
192.987595 301.66449
193.111267 3.240207
193.175858 4.081633
193.895203 2.010714
193.997543 3.333995
194.011429 2.800714
194.268402 4.781593
194.331375 11.14385
194.923615 2.429113
195.003296 71.602966
195.025803 956.062805
195.084961 9.668778
195.125107 13.65672
195.142181 3.28629
195.188675 20.078991
195.21022 5.715477
195.253967 5.013889
195.281677 10.33935
195.338623 5.971805
195.482513 2.288461
195.550613 8.024278
195.560959 2.875
195.763351 4.587662
195.99408 17.426611
196.033859 2344.822998
196.10585 24.680269
196.134827 12.29711
196.151245 4.241995
196.207535 4.778061
196.244125 6.531463
196.289825 10.40292
196.321625 16.930031
196.34462 12.11835
196.380753 5.735545
196.392441 5.455883
196.435623 13.37593
196.454971 17.742479
196.512497 2.476191
196.539246 8.235532
196.563828 3.040817
196.579819 2.936688
196.597961 2.863571
196.67601 5.953571
196.712524 13.18054
196.778336 5.691445
196.89566 5.884354
197.068542 2.607143
197.199936 4.067227
197.364532 4.585404
197.699173 4.609524
197.741043 6.358401
197.961243 2.429286
197.972626 6.578231
198.020264 37.270279
198.142395 3.462185
198.406921 4.083333
198.853088 4.339286
199.030472 1486.322998
199.127884 6.865897
199.165665 11.35653
199.206146 3.081169
199.228516 6.821429
199.250702 3.84127
199.270889 7.93006
199.36853 8.167487
199.535477 8.038961
199.639313 3.779378
199.683029 3.571429
199.705948 3.423136
199.789108 3.557331
199.968262 6.744048
200.061371 22.73167
200.290939 32.069031
200.386566 2.063492
200.716141 7.95063
200.844925 3.72449
200.874573 3.590839
200.890839 18.245911
200.925461 6.971825
200.942032 3.938665
200.98291 3.029221
201.069046 190.565704
201.136017 11.2987
201.159073 2.8
201.188995 10.09063
201.200027 2.180901
201.415222 2.772619
201.4814 4.59277
201.592575 13.16032
201.712006 5.271429
201.846985 2.451531
201.871536 6.29778
201.910507 5.178571
201.921158 8.262897
201.936096 22.47508
201.998566 10.69195
202.016098 9.092857
202.034302 7.533892
202.045242 7.061224
202.077515 3868.959961
202.138962 10.31277
202.151443 6.68254
202.16655 22.447359
202.198639 17.50984
202.215836 6.263572
202.237442 8.499707
202.256409 15.1894
202.281998 11.20292
202.294037 20.273979
202.33577 13.11388
202.3638 11.97098
202.380966 7.441964
202.396439 8.024801
202.42395 13.56312
202.470932 3.306122
202.487335 28.36116
202.547302 11.54789
202.602829 10.00234
202.613815 7.893502
202.637802 9.492906
202.656342 7.691558
202.697372 46.06179
202.737442 11.15422
202.753479 12.30733
202.806976 3.292517
202.872864 13.46492
202.955643 5.147201
203.003906 4.071429
203.046478 30.1194
203.08519 9936.414062
203.145569 27.950701
203.172424 16.212179
203.214218 11.50274
203.244858 50.43372
203.25531 15.71595
203.282013 28.42695
203.298035 35.92487
203.322662 13.3665
203.333328 14.52378
203.344894 14.15357
203.357849 25.881639
203.392227 14.64183
203.426071 26.355021
203.441635 4.438096
203.458618 21.839161
203.526535 3.621429
203.552811 16.520241
203.565704 2.430952
203.576279 12.20071
203.603668 8.812164
203.635361 13.08161
203.651352 30.1332
203.704376 31.18766
203.767426 14.6304
203.838501 21.17606
203.868774 6.775875
203.979385 6.6
204.031113 7.311306
204.091003 348.426788
204.133286 7.841308
204.30809 3.788691
204.440231 2.323758
204.50058 4.857601
204.723587 7.011447
204.858185 13.14915
204.991226 25.674971
205.020905 2.619048
205.069458 2.843045
205.410904 2.777778
205.566162 2.910714
205.801819 3.428571
206.294128 4.432915
206.44577 6.412857
206.935791 6.708333
207.080582 6.164286
207.255219 3.657143
207.280365 5.565934
207.621078 5.49016
207.686249 3.822876
207.761963 18.163839
207.82402 5.931548
207.89357 19.78923
208.007797 2.946429
208.033478 675.163391
208.077484 4.28615
208.096939 4.964286
208.137894 8.758163
208.251923 2.897959
208.328476 6.593681
208.359619 7.588115
208.503967 6.19826
208.522919 2.603571
208.544449 4.144558
208.594696 4.924206
208.675095 3.778572
208.690277 8.433673
208.793365 24.92024
208.816025 10.54422
208.860016 34.97702
208.871429 7.32582
208.903366 2.897959
208.920395 36.36459
208.939911 10.4197
208.979477 23.0138
209.005569 59.730789
209.041901 1507.776001
209.087006 19.330469
209.104126 3.064286
209.124802 10.82896
209.15036 11.05891
209.19339 12.02126
209.237427 2.785714
209.273224 10.18122
209.307571 7.689285
209.344315 3.148809
209.36795 8.137143
209.392166 8.840659
209.404648 6.859244
209.495071 8.889043
209.554764 13.39575
209.575714 10.3246
209.687119 9.493386
209.768738 10.46218
209.819946 16.540581
209.965942 9.191852
209.980713 23.83112
210.049698 16939.009766
210.112762 30.282961
210.163208 24.592751
210.199951 8.325488
210.214066 12.29177
210.2258 4.142857
210.244003 71.5811
210.268204 10.73434
210.280914 51.53548
210.303345 19.459221
210.340775 52.779049
210.353409 29.0208
210.380951 30.16585
210.397842 12.11255
210.409088 6.732143
210.421005 6.575
210.439911 51.299309
210.486862 42.635422
210.509964 36.15062
210.539398 16.61401
210.577652 17.098261
210.600052 13.79775
210.645889 18.750271
210.675491 12.79027
210.704529 19.9907
210.72081 29.17165
210.809921 10.22432
210.903137 12.60292
210.921692 4.068878
211.030731 43.67955
211.26152 18.010139
211.418716 10.12768
211.431091 2.469388
211.555344 4.714286
211.691132 4.003151
211.792603 2.349206
211.831909 6.92253
211.866623 10.78983
211.912872 5.020408
211.928299 6.102041
212.000763 15.18149
212.09938 17.388571
212.121353 8.47517
212.136795 2.572143
212.174469 22.17392
212.212814 2.143473
212.270325 9.787465
212.316132 2.790179
212.353149 4.454832
212.369598 13.46584
212.435608 9.811508
212.449005 2.755102
212.503677 17.07785
212.562637 5.863613
212.588699 5.726648
212.664093 2.715062
212.709778 5.125777
212.760696 9.482142
212.888367 10.52187
213.157364 6.960165
213.193405 11.45011
213.448135 5.68609
213.858032 6.165727
214.53006 2.43254
215.131638 4.024725
216.849655 3.318122
217.576981 3.875
217.932053 5.647409
217.993576 3.531513
218.235046 3.301786
218.324432 8.622978
218.340317 4.297619
218.795593 2.861486
218.883514 9.486608
219.030792 20.292
219.439301 4.00051
219.48082 7.150794
219.507645 8.812068
219.589096 12.41779
219.604233 3.869898
219.618637 8.770089
219.63678 17.91806
219.66684 136.5392
219.680954 10.58036
219.702194 21.71562
219.721649 107.494598
219.748749 19.14464
219.758057 68.626617
219.78566 80.812531
219.808151 50.819901
219.840775 69.305748
219.866089 35.45565
219.884048 17.24085
219.893646 27.76483
219.914398 11.92092
219.930237 28.30765
219.944565 9.443182
219.968262 57.468021
219.983765 84.013069
220.005096 13.50421
220.031326 146.878494
220.07756 16.73386
220.094345 11.02228
220.111237 19.24041
220.129456 16.356779
220.156372 18.02273
220.172974 9.588681
220.195969 41.689041
220.214676 13.63175
220.240021 11.85962
220.250397 11.625
220.289368 13.03183
220.320435 2.314286
220.331909 2.289286
220.352676 7.776786
220.41185 13.11688
220.438461 49.07399
220.516983 26.19965
220.550446 8.398649
220.678284 14.60326
220.881363 20.61743
220.916443 10.93151
221.005234 245.188202
221.042145 57803.539062
221.314072 5.52381
221.51503 62.454109
221.533752 60.174629
221.550293 21.980391
221.568466 65.944679
221.595032 51.851379
221.615952 4.019345
221.636734 56.759129
221.703125 57.743111
221.773712 68.783363
221.819519 16.24782
221.848297 19.385679
221.86882 51.94733
221.89389 30.69849
221.917892 4.239966
221.944427 16.77022
221.96608 12.89316
222.112717 58.08329
222.151413 19.58132
222.174316 11.03919
222.191177 21.220461
222.247299 24.334249
222.261261 18.882521
222.322067 16.49221
222.341812 19.11467
222.395432 6.085084
222.41098 26.302019
222.427521 4.4375
222.475555 23.02578
222.523788 4.737637
222.724045 12.31449
222.804123 3.002551
222.876328 12.82618
222.919785 12.38001
222.96283 6.892564
223.002106 18.86298
223.025635 49.559139
223.085663 13.39911
223.129089 3.144737
223.16716 21.002621
223.252197 16.88582
223.279022 6.035
223.456589 4.297161
223.711487 3.453571
223.825974 5.429945
223.904907 9.446428
224.062805 17.30291
224.098129 5.880814
224.237335 6.732719
224.388641 9.966575
224.511093 6.990531
224.584183 4.841931
224.602158 3.616071
224.706436 2.916667
224.802948 3.446429
225.0466 54.318981
225.134262 4.749565
225.149918 3.020089
225.217789 4.819606
225.2491 2.782967
225.432037 4.910714
225.534256 5.245748
225.688522 3.9375
225.724503 6.202825
225.865692 2.580883
226.050461 49.743141
226.273636 3.361345
226.363037 2.860119
226.408112 4.081522
226.501129 9.100564
226.865524 3.098901
226.8918 12.57164
227.068771 4.665372
227.284317 3.862245
227.363434 4.016071
227.820724 4.857601
227.916702 5.204592
228.729065 5.455782
228.79512 2.303571
229.292664 3.435065
229.308472 2.434113
229.367096 2.73052
229.394058 4.071429
229.477081 2.433756
229.526337 3.565994
229.553696 9.513392
229.596161 88.920387
229.635315 32.525501
229.673248 123.387703
229.706436 34.166729
229.732376 97.735977
229.762527 59.95306
229.776154 18.44668
229.797318 52.73653
229.825409 39.66713
229.839127 91.530563
229.865692 23.82061
229.887299 92.933456
229.949326 31.90476
229.967911 21.144011
229.998688 17.204439
230.012665 29.096741
230.036758 4.580357
230.06308 10.33678
230.078201 18.20878
230.091751 13.6891
230.116974 12.69357
230.215851 12.02247
230.232269 9.330612
230.249481 8.183442
230.350159 13.69772
230.366959 24.485991
230.419464 23.24403
230.431946 5.758382
230.469711 18.213249
230.483551 8.898809
230.518341 19.89946
230.536774 14.03082
230.557404 14.04583
230.61319 10.68274
230.747574 12.26477
230.960129 142.606094
231.003189 64904.339844
231.335739 8.011479
231.446976 101.547203
231.476212 44.071918
231.499023 61.114689
231.51767 48.9977
231.553131 120.046204
231.574493 23.14336
231.617279 100.866096
231.647141 72.206528
231.665909 109.647003
231.700897 21.451191
231.738068 92.941803
231.784866 34.772099
231.807953 91.269127
231.854477 23.715771
231.86731 43.645641
231.912384 41.662472
231.973358 137.836502
232.083557 26.099701
232.132324 28.50531
232.183105 4.43797
232.209213 57.392681
232.232224 6.217262
232.250931 26.51523
232.275131 31.755859
232.328964 48.267818
232.395432 10.57694
232.602615 60.812
232.689072 62.394749
232.710297 19.32098
232.765366 26.64397
232.793732 22.86142
232.891632 30.10383
232.949005 40.731441
233.011459 12.30606
233.040436 298.662994
233.072662 16.98424
233.117752 27.067459
233.149078 4.801785
233.234039 7.143182
233.278107 20.052031
233.384399 116.027702
233.424438 6.542427
233.469269 13.77959
233.558945 7.504464
233.580582 43.044529
233.675568 47.52523
233.763138 14.21548
233.78273 97.739594
233.841003 19.97378
233.869385 16.91139
233.922653 22.752239
234.005875 28.802361
234.049683 13604.150391
234.221588 8.081037
234.234299 28.55822
234.259338 54.49984
234.301636 27.49115
234.32663 27.2633
234.349045 17.19734
234.366867 25.72105
234.420624 33.83609
234.443665 47.863159
234.46521 120.853401
234.481598 6.196429
234.514145 107.687599
234.54686 18.439011
234.618271 8.838572
234.632797 24.69453
234.660324 21.2243
234.694305 87.444504
234.719315 12.14022
234.743744 62.12117
234.805115 36.506771
234.838715 32.754471
234.85788 17.0795
234.881424 10.91382
234.982391 20.002501
235.057632 35748.859375
235.320709 11.93672
235.36792 87.492867
235.386871 36.571751
235.529968 15.33766
235.567993 19.75238
235.589432 28.23671
235.621277 14.07609
235.634491 63.81562
235.671997 36.755531
235.726181 123.775398
235.747864 34.21299
235.767532 12.81213
235.808502 18.24287
235.845718 18.56863
235.90332 40.705509
235.947968 10.36298
235.994446 46.408352
236.009964 53.622662
236.129105 92.910606
236.153412 35.681492
236.196625 42.556591
236.266006 48.582569
236.296707 30.81595
236.317032 33.894279
236.353195 49.142422
236.382309 63.74329
236.432297 4.616071
236.468994 28.437201
236.536102 46.376141
236.569702 18.48661
236.590622 29.56419
236.704422 36.801239
236.759125 37.560188
236.78624 22.722481
236.835403 20.53196
236.863571 12.65144
236.877838 14.79597
236.916779 9.819251
236.936081 11.14318
237.000076 8.85923
237.046646 262.847595
237.24649 4.145089
237.297485 15.59
237.411102 25.85714
237.441376 7.741597
237.508774 12.40511
237.611008 2.460979
237.712906 7.431206
237.769241 4.482143
237.813477 10.71492
237.85379 17.674061
237.941879 9.509705
237.965149 4.41804
237.983917 10.51245
238.054413 10517.410156
238.12001 41.600479
238.164627 14.32451
238.179672 3.515913
238.212784 41.358879
238.228592 16.296909
238.248489 28.83057
238.285339 25.48769
238.332611 22.10421
238.359024 33.774651
238.411606 50.79063
238.440048 16.68515
238.46109 32.93372
238.496185 36.247391
238.577103 14.81115
238.598801 3.32967
238.628952 20.58638
238.664139 24.289261
238.821655 16.461201
238.878647 7.744823
238.991211 4.268728
239.098694 22.319349
239.427719 6.769737
239.540146 5.18006
239.566467 4.727814
239.604462 18.881411
239.708649 9.049948
239.803986 6.906882
239.981964 6.286654
240.019913 5.579852
240.159683 3.571793
240.396957 4.025974
241.001678 2.783163
241.050064 3.144737
241.141891 3.714743
241.179871 3.508598
241.36853 2.875
241.753983 8.962121
242.164001 5.698979
242.450912 3.635204
242.521439 6.227459
242.537735 8.017007
242.797821 2.722689
243.004089 77.687279
243.080719 6.458333
243.348297 11.05681
243.429672 2.603571
243.45961 4.793067
243.541046 3.862857
243.557327 6.05823
243.573593 14.75263
243.611618 4.00487
243.671463 14.47111
243.687714 8.525794
243.768768 2.44898
243.786911 4.700123
243.964691 6.011905
244.010971 199.873596
244.15239 3.668651
244.208099 11.75665
244.269089 3.756803
244.316971 17.01067
244.425461 5.734694
244.456451 9.368255
244.546463 3.443878
244.650131 13.27233
244.943756 4.20992
244.965729 8.857142
244.983566 20.729719
245.01825 4271.096191
245.08342 43.871849
245.114349 9.398642
245.176102 7.381494
245.204239 9.432005
245.224564 26.47788
245.243332 6.518594
245.257156 21.670031
245.281509 13.02395
245.302109 10.70358
245.346832 1.892857
245.422256 9.264131
245.466385 15.53291
245.523666 5.015977
245.54306 3.460979
245.668488 6.717857
245.919266 7.504659
245.946777 8.576719
245.990265 9.001936
246.145554 5.734073
246.208679 4.30815
246.514175 4.388656
247.170242 4.144231
247.317932 2.880102
247.40274 3.839286
247.94371 2.732143
250.067703 36.76099
250.165543 7.571429
253.439133 8.429511
253.481094 3.148809
253.53331 8.2875
253.578674 3.946429
253.610306 22.071011
253.712311 4.801829
253.824509 5.32653
253.915588 7.588816
254.065338 3.722222
254.167633 9.850182
254.309387 3.430195
254.342545 2.889286
254.398163 3.208333
254.42749 22.0616
254.479568 4.510093
254.509155 4.600948
254.531357 3.857804
254.567429 3.535714
254.587616 12.32207
254.642105 17.8615
254.659714 19.503429
254.70343 3.150376
254.766052 2.480159
254.839844 7.878919
254.952988 75.626328
255.002411 3851.844971
255.071533 30.78875
255.125671 44.74028
255.176208 7.397397
255.211319 26.750681
255.242935 4.601601
255.258957 8.285714
255.275482 8.621428
255.309845 11.84226
255.334976 23.173809
255.360672 2.460714
255.397919 3.6
255.490906 14.28775
255.542816 7.07055
255.559189 5.89951
255.590729 5.262987
255.734039 7.810065
255.789032 13.33535
255.888687 7.174745
256.009949 3230.090088
256.160156 6.746428
256.178772 7.049107
256.224396 24.138651
256.245087 7.509316
256.349518 13.78633
256.396912 24.16503
256.431702 25.19515
256.518463 22.833929
256.550079 5.513228
256.596252 8.526349
256.816498 2.555672
256.835358 10.86096
256.991119 9.361661
257.152527 4.644643
257.31366 5.484375
257.668701 3.007519
258.084747 2.31044
258.218201 13.46428
258.616516 3.50974
258.839752 2.625
259.769714 6.277902
260.055756 2.585829
267.354553 4.198758
267.45752 6.743843
267.508179 5.158928
268.006012 77.617813
268.037781 8.056452
268.242676 7.046429
268.642639 3.206429
269.018677 598.563721
269.06311 15.47484
269.13797 2.64011
269.162964 17.336361
269.190338 7.719431
269.297882 6.306063
269.353577 11.29227
269.445312 10.5259
269.491943 4.033614
269.519196 4.906746
269.69101 12.83787
269.720428 4.147201
269.748993 2.871544
270.233948 4.2
270.424164 6.8349
270.539093 9.966784
270.732666 3.531513
270.829987 3.428951
271.03363 3147.521973
271.104858 16.465639
271.127777 4.431122
271.184998 4.040816
271.202209 19.51302
271.225159 2.794312
271.242035 26.05344
271.294403 8.765013
271.336884 10.30256
271.354218 13.90971
271.370026 14.51051
271.405212 7.462963
271.437195 8.811671
271.455811 4.47449
271.546509 4.680804
271.563599 8.885028
271.589508 11.48209
271.616119 15.8128
271.665863 16.530569
271.707733 11.02014
271.90036 9.582983
271.923035 7.7481
271.982086 2.497449
272.142639 4.319328
272.22934 10.86297
272.280396 3.288691
272.394562 10.40348
272.43222 8.529136
273.252838 7.223626
273.274384 6.304024
273.326202 9.877907
273.870331 3.755102
275.089996 5.048077
276.417664 4.016917
276.811218 2.522516
281.822449 5.147321
284.710938 8.338624
292.415466 3.195378
303.641663 8.09936
316.082794 4.145238
316.254028 4.207792
317.030762 4.057143
317.123077 5.455782
319.748718 8.00102
321.184906 38.67857
341.242981 11.01465
343.592621 7.441558
367.372681 2.857919
382.412109 21.56575
436.347046 12.44001
473.003845 7.382937
493.376343 14.84035
493.416351 2.417208
788.070984 7.953704
846.407593 3.429007
868.454407 7.402922
899.573792 3.867064
936.245911 7.752381
943.167542 3.717857
1110.320801 3.28633
1236.87793 4.486969
1294.211792 3.465659
1315.390625 2.20119
1374.78772 5.715608
1428.714233 37.788792
1518.937134 18.264771
