>compound Ramipril (Altace)
>formula C23H32N2O5
>ionization [M+Na]+
>parentmass 439.220612
#inchi InChI=1S/C23H32N2O5/c1-3-30-23(29)18(13-12-16-8-5-4-6-9-16)24-15(2)21(26)25-19-11-7-10-17(19)14-20(25)22(27)28/h4-6,8-9,15,17-20,24H,3,7,10-14H2,1-2H3,(H,27,28)/t15-,17-,18-,19-,20+/m0/s1
#inchikey HDACQVRGBOVJII
#Ion_Source LC-ESI
#Instrument qTof
#Compound_Source Commercial
#PI Dorrestein
#Data_Collector Garg_Neha
#Scan -1
#Precursor_MZ 439.22
#ExactMass 416.231
#Charge 1
#CAS_Number 87333-19-5
#Pubmed_ID N/A
#Smiles C1=CC=CC=C1CC[C@@H](C(=O)OCC)N[C@H](C(N2[C@H](C[C@H]3[C@H](CCC3)2)C(O)=O)=O)C
#INCHI_AUX N/A
#Library_Class 1
#SpectrumID CCMSLIB00000078294
#IonMode Positive
#UpdateWorkflowName UPDATE-SINGLE-ANNOTATED-GOLD
#LibraryQualityString Gold
#TaskID 77f51c88eb8b467eb4a01dd2d0cb90d2
##Scan# 1156
#SpectrumFile Plate4_61_88_GH5_01_16506.mzXML
#LibraryName FDALibrary_2_04302014.mgf
#MQScore -1
#Organism FDALibrary_2_04302014
#TIC_Query 0
#RT_Query -1
#MZErrorPPM -1
#SharedPeaks 0
#MassDiff 0
#LibMZ -1
#SpecMZ 439.22
#SpecCharge 0
#internalFilename spec-00000.mgf

>collision 10
57.75275 140.0
65.242676 172.0
70.68914 156.0
77.853386 156.0
80.95694 156.0
88.861092 144.0
91.295937 180.0
98.651588 228.0
103.531998 200.0
105.798241 196.0
107.155762 212.0
110.092926 192.0
112.307167 168.0
117.064278 144.0
122.040962 164.0
130.034775 188.0
130.081436 172.0
134.096573 160.0
135.094315 160.0
138.090302 204.0
143.357529 140.0
148.830154 180.0
149.126526 164.0
151.099274 156.0
152.126114 148.0
160.072861 152.0
160.110977 372.0
176.996704 144.0
178.081741 476.0
179.083817 124.0
181.097946 152.0
196.560944 180.0
203.522156 248.0
203.595993 156.0
204.111725 168.0
204.360641 200.0
204.54277 144.0
204.648102 160.0
206.517288 148.0
217.109451 220.0
222.850876 152.0
224.452225 248.0
228.10141 184.0
230.114227 136.0
230.676056 160.0
231.090378 196.0
234.147385 408.0
235.150665 168.0
236.16153 184.0
236.271652 144.0
237.104507 220.0
243.037643 180.0
248.52298 196.0
255.095245 192.0
256.13031 1264.0
257.13385 124.0
261.779053 184.0
262.549255 168.0
267.995117 172.0
271.010895 188.0
271.732178 176.0
272.464325 196.0
278.154236 180.0
283.202515 208.0
288.208344 140.0
290.534271 152.0
291.196198 156.0
301.339539 228.0
302.13562 1976.0
303.130798 424.0
304.14093 152.0
311.804138 144.0
316.040405 104.0
316.379059 140.0
318.645233 156.0
325.251801 144.0
339.29126 160.0
345.589233 228.0
346.399994 160.0
347.656891 212.0
349.894501 160.0
350.479248 180.0
354.507446 208.0
373.122803 164.0
380.567993 160.0
381.71814 188.0
386.218689 144.0
386.699951 172.0
392.076569 140.0
394.122742 128.0
395.215881 156.0
396.677277 148.0
402.086639 220.0
403.041809 116.0
407.094818 152.0
409.685059 224.0
412.392609 236.0
419.031464 148.0
420.065643 276.0
420.654572 176.0
421.053528 140.0
421.85553 152.0
422.055511 180.0
423.164673 152.0
424.184753 160.0
424.561951 160.0
432.216095 192.0
437.989227 164.0
438.080444 216.0
438.257172 180.0
439.003326 152.0
439.07193 184.0
439.220612 15012.0
439.514709 120.0
439.610077 132.0
439.668518 180.0
440.224152 4160.0
440.569885 108.0
440.866058 132.0
441.229004 784.0
442.055481 100.0
442.235229 236.0
459.956421 148.0
465.148682 140.0
567.118164 212.0
568.156616 148.0
579.235291 144.0
664.300293 152.0
695.329895 156.0
696.329224 180.0
758.060303 160.0
764.314697 176.0
1291.71582 144.0
1688.281616 156.0
