>compound MLS001401385-01!tropisetron??hydrochloride
>formula C17H20N2O2
>ionization [M+H]+
>parentmass 285.159241
#inchi InChI=1S/C17H20N2O2/c1-19-11-6-7-12(19)9-13(8-11)21-17(20)15-10-18-16-5-3-2-4-14(15)16/h2-5,10-13,18H,6-9H2,1H3/t11-,12+,13+
#inchikey ZNRGQMMCGHDTEI
#origInchi InChI=1S/C17H20N2O2.ClH/c1-19-11-6-7-12(19)9-13(8-11)21-17(20)15-10-18-16-5-3-2-4-14(15)16;/h2-5,10-13,18H,6-9H2,1H3;1H/t11-,12+,13+;
#Ion_Source LC-ESI
#Instrument qTof
#Compound_Source NIH Pharmacologically Active Library
#PI Dorrestein
#Data_Collector VP/LMS
#Scan -1
#Precursor_MZ 285.161
#ExactMass 284.152
#Charge 1
#CAS_Number N/A
#Pubmed_ID N/A
#Smiles CN1[C@H]2CC[C@@H]1C[C@@H](C2)OC(=O)c3c[nH]c4ccccc34.Cl
#INCHI_AUX N/A
#Library_Class 1
#SpectrumID CCMSLIB00000085081
#IonMode Positive
#UpdateWorkflowName UPDATE-SINGLE-ANNOTATED-GOLD
#LibraryQualityString Gold
#TaskID d252d724072548979f1f6f1ced849daf
##Scan# 1430
#SpectrumFile p3-E07_GE7_01_18276.mzXML
#LibraryName Pharm_Active_Library.mgf
#MQScore -1
#Organism Pharm_Active_Library
#TIC_Query 0
#RT_Query -1
#MZErrorPPM -1
#SharedPeaks 0
#MassDiff 0
#LibMZ -1
#SpecMZ 285.161
#SpecCharge 0
#internalFilename spec-00000.mgf

>collision 10
44.920467 192.0
44.960499 192.0
45.020576 224.0
45.056644 172.0
45.150219 164.0
45.229469 156.0
45.332294 84.0
45.372261 152.0
45.404694 52.0
45.465069 184.0
45.500179 204.0
45.562809 208.0
45.690823 72.0
45.818726 132.0
45.845676 140.0
45.900951 72.0
46.069672 192.0
46.1954 168.0
46.276608 156.0
46.287441 248.0
46.437878 220.0
46.452801 212.0
46.477222 212.0
46.534229 104.0
46.543736 28.0
46.57811 152.0
46.622528 36.0
46.652435 180.0
46.66972 168.0
46.694588 148.0
46.719074 180.0
46.738125 92.0
46.768066 196.0
46.798016 220.0
46.817081 104.0
46.827976 124.0
46.88493 160.0
47.007946 56.0
47.126747 180.0
47.147247 144.0
47.175884 168.0
47.196461 164.0
47.274437 144.0
47.30455 160.0
47.316872 40.0
47.331932 172.0
47.397686 168.0
47.456726 172.0
47.467598 200.0
47.575996 140.0
47.8675 100.0
47.879894 148.0
47.959808 192.0
48.073864 156.0
48.107418 44.0
48.132271 64.0
48.162655 184.0
48.205486 204.0
48.216541 116.0
48.288441 200.0
48.342735 180.0
48.41111 164.0
48.458717 128.0
48.551594 260.0
48.591824 200.0
48.605701 156.0
48.627907 60.0
48.669556 124.0
48.745956 124.0
48.798779 164.0
48.933746 76.0
49.025101 160.0
49.081448 96.0
49.109341 300.0
49.118797 180.0
49.198654 164.0
49.237751 180.0
49.24958 168.0
49.303417 172.0
49.32019 216.0
49.348843 192.0
49.384514 192.0
49.423687 180.0
49.434879 196.0
49.469875 36.0
49.490875 184.0
49.500679 148.0
49.518883 148.0
49.565117 120.0
49.58614 80.0
49.605762 156.0
49.639416 156.0
49.657646 164.0
49.694122 80.0
49.71109 172.0
49.727802 216.0
49.746052 156.0
49.81065 148.0
49.831726 164.0
49.851505 184.0
49.993439 124.0
50.0751 108.0
50.084961 200.0
50.150864 148.0
50.176563 172.0
50.227333 152.0
50.26825 180.0
50.321892 316.0
50.333187 172.0
50.375561 128.0
50.425789 176.0
50.443394 64.0
50.495712 184.0
50.672668 160.0
50.72369 48.0
50.742119 168.0
50.827229 132.0
50.901043 204.0
51.063061 140.0
51.082977 180.0
51.102894 180.0
51.17976 320.0
51.265232 160.0
51.35363 360.0
51.404991 76.0
51.489223 176.0
51.534939 128.0
51.610695 220.0
51.677925 200.0
51.713703 176.0
51.88131 160.0
51.96019 172.0
52.029083 180.0
52.060673 176.0
52.082218 164.0
52.160568 180.0
52.182819 232.0
52.234592 168.0
52.261929 64.0
52.302227 36.0
52.332458 132.0
52.356941 144.0
52.371346 172.0
52.405922 244.0
52.421772 156.0
52.480911 164.0
52.49818 180.0
52.541454 180.0
52.583992 144.0
52.6064 232.0
52.619392 56.0
52.687275 244.0
52.821724 160.0
52.849289 224.0
53.008503 196.0
53.025894 88.0
53.080986 160.0
53.093502 184.0
53.14481 64.0
53.183998 140.0
53.201416 172.0
53.231911 80.0
53.260956 136.0
53.36705 212.0
53.389038 148.0
53.406319 188.0
53.472374 232.0
53.584934 208.0
53.801243 144.0
53.864037 176.0
53.893257 112.0
53.964882 204.0
54.055576 224.0
54.103878 152.0
54.153667 212.0
54.269444 168.0
54.291439 128.0
54.304642 104.0
54.360394 112.0
54.424984 168.0
54.472828 208.0
54.491081 136.0
54.539577 96.0
54.54987 188.0
54.674896 88.0
54.754692 204.0
54.786808 180.0
54.823647 200.0
54.915058 128.0
54.940136 176.0
54.960793 180.0
55.08186 232.0
55.09959 140.0
55.11356 176.0
55.12471 204.0
55.330315 164.0
55.397015 204.0
55.442894 144.0
55.539272 176.0
55.563007 228.0
55.601589 176.0
55.68325 188.0
55.89436 168.0
55.918171 176.0
56.001553 156.0
56.147621 124.0
56.27169 172.0
56.346161 184.0
56.367081 212.0
56.383518 232.0
56.503151 140.0
56.521107 156.0
56.619911 224.0
56.699318 152.0
56.720303 228.0
56.868805 68.0
56.906338 148.0
56.929272 212.0
56.951389 92.0
56.990452 152.0
57.002472 228.0
57.070118 124.0
57.125477 188.0
57.143822 124.0
57.161877 148.0
57.327213 252.0
57.479847 256.0
57.502483 236.0
57.620274 132.0
57.694328 136.0
57.933453 136.0
57.989521 168.0
58.010742 116.0
58.139671 200.0
58.17762 128.0
58.223175 104.0
58.390087 200.0
58.423824 148.0
58.480129 272.0
58.573017 184.0
58.597393 204.0
58.672073 100.0
58.682747 72.0
59.012558 176.0
59.061676 204.0
59.073734 100.0
59.128819 132.0
59.194317 128.0
59.216011 148.0
59.245197 172.0
59.274418 232.0
59.311096 116.0
59.367825 240.0
59.38163 140.0
59.464481 52.0
59.485973 220.0
59.66111 140.0
59.708778 188.0
59.74416 116.0
59.924297 236.0
60.009071 208.0
60.129398 128.0
60.177254 52.0
60.279205 320.0
60.305477 164.0
60.413723 180.0
60.426102 124.0
60.580925 124.0
60.658409 108.0
60.695621 176.0
60.751457 124.0
60.81974 208.0
60.844578 160.0
60.884953 204.0
60.940876 156.0
61.004597 208.0
61.01548 96.0
61.073021 80.0
61.152378 256.0
61.202194 108.0
61.297218 204.0
61.359566 180.0
61.537437 168.0
61.681961 148.0
61.70462 112.0
61.834461 208.0
61.958359 132.0
62.097687 136.0
62.155735 168.0
62.370903 136.0
62.413353 60.0
62.498268 200.0
62.569859 120.0
62.580147 204.0
62.666779 216.0
62.740856 164.0
62.766083 140.0
62.818134 180.0
62.889141 156.0
62.964874 224.0
63.054989 132.0
63.100834 160.0
63.135624 164.0
63.147686 204.0
63.17675 164.0
63.251129 136.0
63.367126 124.0
63.382584 160.0
63.441227 176.0
63.49197 124.0
63.513382 168.0
63.537971 84.0
63.610977 104.0
63.641144 72.0
63.749161 164.0
63.773003 148.0
63.793667 196.0
63.863636 204.0
63.936825 184.0
63.989357 120.0
64.032356 132.0
64.048286 184.0
64.080147 168.0
64.202888 188.0
64.223625 184.0
64.340118 212.0
64.410385 216.0
64.461517 124.0
64.546242 144.0
64.559036 200.0
64.591026 140.0
64.671036 120.0
64.784729 148.0
64.887299 168.0
64.901733 128.0
64.940224 220.0
65.07663 56.0
65.107147 196.0
65.193901 136.0
65.388504 172.0
65.451294 44.0
65.467392 272.0
65.492546 188.0
65.560837 176.0
65.768898 152.0
65.781815 44.0
65.856094 224.0
65.866119 212.0
65.886787 184.0
65.898727 164.0
65.925568 88.0
66.017723 160.0
66.095367 148.0
66.141151 140.0
66.241806 252.0
66.275108 88.0
66.297798 196.0
66.344803 180.0
66.411293 144.0
66.524887 264.0
66.653198 120.0
66.755608 200.0
66.939926 200.0
67.050285 144.0
67.077995 164.0
67.136696 104.0
67.172577 200.0
67.308044 188.0
67.376648 64.0
67.536858 92.0
67.656319 124.0
67.815216 160.0
67.872383 152.0
67.963104 152.0
67.984146 136.0
68.008766 52.0
68.051453 180.0
68.077728 172.0
68.138504 148.0
68.190491 208.0
68.251915 176.0
68.265434 184.0
68.401642 48.0
68.459267 204.0
68.54493 152.0
68.569771 164.0
68.62735 152.0
68.645493 144.0
68.662354 160.0
68.68837 220.0
68.704872 148.0
68.775833 132.0
68.807198 200.0
68.850128 108.0
68.91951 136.0
68.933334 164.0
69.002159 64.0
69.026962 176.0
69.137802 48.0
69.160973 88.0
69.237137 80.0
69.252045 84.0
69.265297 236.0
69.348145 192.0
69.371475 168.0
69.422752 204.0
69.603638 56.0
69.616928 224.0
69.658447 148.0
69.716728 220.0
69.764809 132.0
69.793167 144.0
69.816353 232.0
69.865486 224.0
70.15271 184.0
70.164604 180.0
70.224411 72.0
70.299492 96.0
70.394646 128.0
70.449768 176.0
70.509926 172.0
70.623619 184.0
70.956879 44.0
70.993767 148.0
71.032349 52.0
71.055832 188.0
71.20356 164.0
71.321037 196.0
71.358162 136.0
71.371613 184.0
71.390114 48.0
71.491051 156.0
71.590805 188.0
71.662811 140.0
71.674606 132.0
71.812851 132.0
71.897217 132.0
71.931999 164.0
71.974869 140.0
72.027229 120.0
72.096504 156.0
72.113403 128.0
72.159042 108.0
72.246994 148.0
72.389175 208.0
72.42009 152.0
72.573883 216.0
72.64003 148.0
72.718079 128.0
72.795692 196.0
72.865822 128.0
72.918503 72.0
72.939598 176.0
73.030724 256.0
73.107285 140.0
73.238388 40.0
73.277039 232.0
73.303131 164.0
73.391769 164.0
73.47876 144.0
73.536781 96.0
73.569214 212.0
73.581169 176.0
73.704147 132.0
73.873413 148.0
73.953842 220.0
73.977806 120.0
74.070282 204.0
74.207382 228.0
74.22625 204.0
74.455154 208.0
74.477753 140.0
74.502594 232.0
74.659012 176.0
74.731262 100.0
74.86898 160.0
75.003372 152.0
75.05468 184.0
75.17067 140.0
75.184479 184.0
75.250076 88.0
75.405548 224.0
75.467789 144.0
75.557724 340.0
75.668495 168.0
75.723907 180.0
75.80014 180.0
75.815735 144.0
75.855598 220.0
75.907616 248.0
75.956177 48.0
75.987411 160.0
76.008232 148.0
76.029434 200.0
76.042938 128.0
76.227036 200.0
76.341766 128.0
76.395691 248.0
76.411148 176.0
76.648155 152.0
76.774773 216.0
76.796349 128.0
76.942932 156.0
76.981346 116.0
77.033752 144.0
77.079178 212.0
77.096649 32.0
77.126366 164.0
77.378281 128.0
77.446579 220.0
77.516663 164.0
77.563988 128.0
77.613075 200.0
77.765709 204.0
77.830666 148.0
77.898972 148.0
77.971207 164.0
78.062622 200.0
78.094284 180.0
78.108353 40.0
78.16993 156.0
78.273796 148.0
78.323112 164.0
78.374199 204.0
78.522285 156.0
78.534637 220.0
78.576973 184.0
78.631676 172.0
78.670509 136.0
78.771172 208.0
78.86483 168.0
79.004532 132.0
79.07354 60.0
79.146126 156.0
79.213425 156.0
79.314438 160.0
79.342278 96.0
79.404861 204.0
79.43502 32.0
79.486473 92.0
79.584099 176.0
79.766083 232.0
79.784874 84.0
79.838219 184.0
79.912933 136.0
79.97522 184.0
80.051781 184.0
80.074928 168.0
80.101646 152.0
80.301292 144.0
80.381577 220.0
80.420837 140.0
80.46904 140.0
80.494034 164.0
80.53154 168.0
80.554764 64.0
80.596809 120.0
80.624451 180.0
80.735291 152.0
80.753181 240.0
80.828316 148.0
80.871269 112.0
81.040031 144.0
81.082619 156.0
81.132057 180.0
81.165085 112.0
81.179436 224.0
81.258362 108.0
81.293175 160.0
81.524117 100.0
81.667953 152.0
81.681419 148.0
81.75972 192.0
81.819115 436.0
82.055138 176.0
82.078583 120.0
82.096611 108.0
82.120064 140.0
82.177788 136.0
82.199303 156.0
82.259003 52.0
82.309555 148.0
82.354706 176.0
82.394455 144.0
82.560753 168.0
82.58065 168.0
82.685585 72.0
82.704208 180.0
82.872116 136.0
82.906548 116.0
82.97361 88.0
83.01532 108.0
83.095131 280.0
83.13324 72.0
83.256691 144.0
83.318451 196.0
83.363876 168.0
83.427498 192.0
83.48568 244.0
83.505684 128.0
83.583916 136.0
83.611214 68.0
83.656723 136.0
83.722267 204.0
83.747772 144.0
83.880791 136.0
83.942558 228.0
83.98291 160.0
84.096039 204.0
84.145325 172.0
84.190979 172.0
84.315491 156.0
84.333488 164.0
84.348114 104.0
84.428566 144.0
84.540161 160.0
84.624367 172.0
84.684799 108.0
84.736092 172.0
84.780075 176.0
84.836891 180.0
84.921249 180.0
85.016655 84.0
85.047852 48.0
85.09742 208.0
85.152512 232.0
85.194763 112.0
85.273781 208.0
85.295197 188.0
85.396973 168.0
85.431923 116.0
85.452156 48.0
85.730217 176.0
85.744957 124.0
85.807632 208.0
85.826073 136.0
85.983315 220.0
86.017952 148.0
86.112122 84.0
86.1269 156.0
86.219284 148.0
86.259949 164.0
86.335754 124.0
86.465263 116.0
86.611542 120.0
86.64315 128.0
86.70974 196.0
86.815422 212.0
86.85437 232.0
86.960136 68.0
87.099396 60.0
87.130981 160.0
87.290634 148.0
87.318726 68.0
87.348488 72.0
87.441528 152.0
87.542061 224.0
87.681564 164.0
87.739578 124.0
87.911186 132.0
87.929848 164.0
88.026924 192.0
88.131889 212.0
88.172646 156.0
88.223114 140.0
88.254898 168.0
88.277344 204.0
88.311562 216.0
88.361519 132.0
88.443855 236.0
88.492577 176.0
88.578682 176.0
88.633018 152.0
88.64801 180.0
88.676125 192.0
88.700485 192.0
88.769859 180.0
88.79612 48.0
88.846764 212.0
88.930458 60.0
88.955612 228.0
89.02272 216.0
89.0383 372.0
89.094589 128.0
89.199829 240.0
89.330551 188.0
89.346512 128.0
89.440605 160.0
89.45755 108.0
89.570541 84.0
89.7873 196.0
89.858986 132.0
89.957123 92.0
90.019432 152.0
90.07798 76.0
90.146004 196.0
90.22728 176.0
90.242409 160.0
90.287788 144.0
90.357582 192.0
90.594437 140.0
90.689186 180.0
90.717621 128.0
90.738472 240.0
90.804848 164.0
90.825706 44.0
90.888321 144.0
90.906624 248.0
90.94146 208.0
90.968033 164.0
90.994614 136.0
91.027596 184.0
91.054008 17944.0
91.114265 72.0
91.141373 136.0
91.191719 232.0
91.237801 168.0
91.340492 124.0
91.384949 120.0
91.527016 68.0
91.565811 220.0
91.757568 188.0
91.797607 184.0
91.810959 40.0
91.849426 236.0
91.931145 172.0
91.978867 164.0
91.999863 40.0
92.056297 1988.0
92.114906 224.0
92.143105 72.0
92.255859 60.0
92.330437 92.0
92.350319 192.0
92.418434 172.0
92.447136 212.0
92.463585 152.0
92.542854 172.0
92.556252 212.0
92.579231 112.0
92.592644 144.0
92.609879 172.0
92.633858 164.0
92.653938 136.0
92.692261 168.0
92.715256 132.0
92.728676 228.0
92.801521 160.0
92.937706 176.0
92.954979 220.0
92.974167 152.0
93.007935 156.0
93.020714 160.0
93.035431 464.0
93.050682 140.0
93.069305 18544.0
93.142273 116.0
93.167198 104.0
93.19693 180.0
93.218063 104.0
93.231522 208.0
93.255135 252.0
93.325714 48.0
93.391098 120.0
93.404564 260.0
93.448814 240.0
93.466133 108.0
93.516174 100.0
93.693336 160.0
93.828247 148.0
93.85331 84.0
93.868736 184.0
93.915024 120.0
93.949745 92.0
93.974831 160.0
94.068298 2072.0
94.150497 84.0
94.188454 160.0
94.229698 152.0
94.254814 188.0
94.281868 108.0
94.306999 188.0
94.349525 232.0
94.403664 152.0
94.426872 48.0
94.645561 44.0
94.728844 60.0
94.81797 40.0
94.962189 168.0
95.084282 2964.0
95.138039 116.0
95.170303 116.0
95.23423 156.0
95.272041 236.0
95.419746 44.0
95.472252 60.0
95.532547 44.0
95.575348 132.0
95.742767 200.0
95.8694 104.0
95.888893 212.0
95.994171 172.0
96.013672 140.0
96.027321 176.0
96.081291 2252.0
96.107307 152.0
96.177567 64.0
96.202942 40.0
96.216614 104.0
96.253708 160.0
96.312302 148.0
96.353325 236.0
96.477875 220.0
96.621727 228.0
96.703369 100.0
96.744476 180.0
96.885483 116.0
96.91291 148.0
96.987381 152.0
97.028549 184.0
97.057961 156.0
97.083458 128.0
97.201164 140.0
97.25219 208.0
97.30323 140.0
97.373924 200.0
97.387672 164.0
97.604256 196.0
97.700233 124.0
97.729744 276.0
97.747459 172.0
97.863594 136.0
97.95813 176.0
98.023148 48.0
98.036942 80.0
98.095894 1156.0
98.121704 144.0
98.159172 156.0
98.285416 148.0
98.362389 112.0
98.392426 204.0
98.577675 40.0
98.603363 84.0
98.666626 52.0
98.791214 208.0
98.852554 204.0
99.077171 100.0
99.100075 164.0
99.244774 56.0
99.332039 192.0
99.391556 128.0
99.534485 212.0
99.609955 184.0
99.733154 148.0
99.88826 184.0
99.916107 72.0
100.077332 176.0
100.09127 208.0
100.166954 144.0
100.234695 164.0
100.330368 156.0
100.603683 60.0
100.66758 120.0
100.721504 244.0
100.760933 228.0
100.867378 168.0
100.923363 148.0
101.029366 44.0
101.077385 148.0
101.1054 172.0
101.143433 172.0
101.273239 140.0
101.311646 140.0
101.345711 328.0
101.433891 148.0
101.534149 164.0
101.570251 132.0
101.602348 168.0
101.640472 108.0
101.857307 128.0
101.877396 148.0
101.99395 224.0
102.092155 156.0
102.23732 192.0
102.335953 136.0
102.358109 200.0
102.521286 64.0
102.545471 188.0
102.577721 156.0
102.660385 188.0
102.674507 152.0
102.733002 156.0
102.747124 200.0
103.120705 248.0
103.153046 136.0
103.181351 192.0
103.195503 92.0
103.30674 80.0
103.393753 96.0
103.420059 284.0
103.444351 128.0
103.507118 36.0
103.545593 152.0
103.57193 68.0
103.894249 132.0
103.912018 180.0
104.028198 188.0
104.044434 44.0
104.089104 84.0
104.105354 88.0
104.137848 136.0
104.227234 208.0
104.241463 168.0
104.269913 136.0
104.318695 108.0
104.355293 132.0
104.371559 112.0
104.412231 140.0
104.454948 156.0
104.585609 152.0
104.676796 84.0
104.972282 72.0
104.988602 200.0
105.068336 132.0
105.21714 180.0
105.304947 220.0
105.333542 124.0
105.403008 160.0
105.431618 168.0
105.916542 64.0
106.034584 144.0
106.066551 136.0
106.164543 148.0
106.244537 140.0
106.304199 164.0
106.383255 224.0
106.406677 176.0
106.486763 200.0
106.566887 192.0
106.620316 108.0
106.642921 192.0
106.679924 76.0
106.897949 144.0
106.93824 196.0
107.019402 140.0
107.081619 956.0
107.145035 144.0
107.159462 128.0
107.248077 100.0
107.39035 156.0
107.48938 196.0
107.534782 140.0
107.788803 164.0
107.871475 176.0
107.932518 168.0
107.989342 156.0
108.034851 188.0
108.079872 3444.0
108.127968 128.0
108.366112 44.0
108.502907 152.0
108.621117 36.0
108.658455 136.0
108.755997 84.0
108.820351 160.0
108.874344 56.0
108.936653 160.0
109.065491 84.0
109.088005 2268.0
109.136177 28.0
109.281776 168.0
109.440216 204.0
109.483704 136.0
109.537857 200.0
109.558685 116.0
109.608696 48.0
109.70874 196.0
109.790993 188.0
109.940269 112.0
110.08992 444.0
110.128181 144.0
110.159515 152.0
110.226372 108.0
110.320427 140.0
110.381065 84.0
110.426407 264.0
110.596558 184.0
110.709518 172.0
110.794708 160.0
110.944298 152.0
111.023979 216.0
111.076416 132.0
111.095863 220.0
111.160339 208.0
111.357689 236.0
111.504761 172.0
111.553108 160.0
111.643524 180.0
111.668762 184.0
111.718109 156.0
112.053993 128.0
112.19902 232.0
112.300644 152.0
112.351273 40.0
112.449623 236.0
112.572899 68.0
112.741905 180.0
112.779953 52.0
113.08242 224.0
113.116287 92.0
113.167099 120.0
113.268753 164.0
113.387413 140.0
113.482811 124.0
113.49765 128.0
113.546425 152.0
113.576988 108.0
113.594315 104.0
113.713531 252.0
113.73951 208.0
113.8032 64.0
113.849922 164.0
113.903023 52.0
113.960381 144.0
114.022011 152.0
114.311241 168.0
114.560356 144.0
114.641327 140.0
114.658371 144.0
114.703133 168.0
114.73085 128.0
114.967621 152.0
115.025246 84.0
115.136276 188.0
115.26873 40.0
115.31266 216.0
115.415184 156.0
115.43119 76.0
115.45472 116.0
115.495354 128.0
115.516747 56.0
115.533859 176.0
115.561676 224.0
115.805725 332.0
115.86142 164.0
115.98143 100.0
116.022591 320.0
116.049072 6540.0
116.137962 152.0
116.180862 84.0
116.231285 84.0
116.301033 92.0
116.379738 200.0
116.397644 56.0
116.530823 168.0
116.580246 136.0
116.614632 164.0
116.874855 176.0
116.963089 156.0
117.025528 44.0
117.052147 656.0
117.182762 40.0
117.27327 40.0
117.374596 80.0
117.460869 44.0
117.504013 120.0
117.605446 164.0
117.635666 124.0
117.678841 104.0
117.715553 96.0
117.866768 104.0
117.933762 76.0
117.9758 232.0
118.067513 580.0
118.119888 52.0
118.355629 132.0
118.513756 132.0
118.713188 156.0
118.806458 168.0
118.832489 208.0
118.886742 232.0
118.945343 172.0
118.988762 188.0
119.061348 232.0
119.114723 160.0
119.129929 140.0
119.366844 172.0
119.667122 148.0
119.784729 120.0
119.943802 164.0
119.987404 112.0
120.013573 152.0
120.035378 112.0
120.081451 156.0
120.271004 184.0
120.43914 128.0
120.563683 52.0
120.860924 164.0
120.913605 52.0
121.031883 156.0
121.084297 204.0
121.133858 212.0
121.202682 248.0
121.310074 192.0
121.674255 224.0
121.871933 236.0
121.915886 44.0
121.962036 176.0
122.09465 1048.0
122.230354 232.0
122.302986 168.0
122.333801 224.0
122.49456 104.0
122.71936 108.0
122.831833 64.0
122.851692 48.0
122.884781 224.0
122.92009 124.0
122.988403 172.0
123.096077 144.0
123.115181 204.0
123.325104 124.0
123.399414 368.0
123.43689 152.0
123.465469 216.0
123.536896 172.0
123.571938 96.0
123.674667 104.0
123.698997 116.0
123.731293 48.0
123.771149 412.0
123.7855 232.0
123.802147 132.0
123.830002 200.0
123.848663 136.0
123.86953 180.0
123.886322 124.0
123.920883 240.0
123.952667 148.0
123.96051 140.0
123.969574 216.0
123.985352 156.0
124.029617 180.0
124.073975 376.0
124.080139 380.0
124.112213 85508.0
124.148941 140.0
124.178917 60.0
124.196663 72.0
124.258179 132.0
124.277084 148.0
124.303001 156.0
124.333344 120.0
124.35611 100.0
124.372772 84.0
124.40419 108.0
124.437531 112.0
124.452591 156.0
124.476982 1124.0
124.50074 40.0
124.555984 80.0
124.614799 240.0
124.643219 96.0
124.697601 112.0
124.740707 76.0
124.782944 60.0
124.798508 240.0
124.821518 184.0
124.869675 96.0
124.897049 156.0
124.928429 68.0
124.956429 112.0
124.976456 104.0
125.005386 136.0
125.114845 8728.0
125.148796 188.0
125.164406 92.0
125.194611 84.0
125.213211 80.0
125.236931 104.0
125.263657 136.0
125.316582 148.0
125.353142 172.0
125.369751 52.0
125.404037 72.0
125.557884 188.0
125.616325 80.0
125.691734 32.0
125.722977 60.0
125.769852 136.0
125.821762 236.0
125.856918 76.0
125.89711 80.0
125.945007 108.0
125.988693 112.0
126.013947 132.0
126.036201 56.0
126.062592 80.0
126.091919 144.0
126.119743 572.0
126.160255 68.0
126.252457 76.0
126.359825 212.0
126.382202 124.0
126.454887 92.0
126.597099 100.0
126.662056 52.0
126.762878 196.0
126.79425 140.0
126.868225 56.0
127.074562 220.0
127.123924 88.0
127.139633 120.0
127.489983 176.0
128.271011 60.0
128.828415 192.0
128.993378 184.0
129.11322 92.0
129.479858 124.0
130.037613 176.0
130.203354 176.0
130.555618 136.0
130.582916 180.0
130.737625 112.0
130.842331 148.0
130.910645 108.0
130.988083 96.0
131.108841 28.0
131.373352 132.0
131.48288 188.0
131.782028 28.0
131.98317 76.0
132.042999 964.0
132.129547 100.0
132.257706 72.0
132.303497 96.0
132.491287 216.0
132.764053 204.0
132.784698 208.0
132.846634 176.0
133.046402 400.0
133.188675 100.0
133.253006 216.0
133.567963 56.0
134.083725 88.0
134.552002 72.0
134.7668 180.0
134.891602 136.0
134.921646 56.0
135.185349 28.0
135.324234 128.0
135.495621 92.0
135.553543 40.0
135.639297 64.0
135.749115 164.0
136.140472 52.0
136.310059 200.0
136.516953 180.0
136.782196 128.0
137.416092 176.0
137.502441 80.0
137.943909 84.0
138.044449 36.0
138.128647 104.0
138.44931 44.0
138.475082 224.0
138.581451 216.0
138.730484 64.0
138.782074 112.0
138.901688 188.0
138.970871 244.0
140.079407 72.0
140.107681 412.0
140.192505 164.0
140.352798 184.0
140.425919 144.0
140.928741 180.0
141.108383 176.0
141.574539 196.0
142.001678 236.0
142.050964 160.0
142.084167 32.0
142.121902 6332.0
142.15773 124.0
142.25267 164.0
142.29541 48.0
142.521057 132.0
142.777786 160.0
142.846771 108.0
142.972885 144.0
143.053741 196.0
143.123428 912.0
143.150436 48.0
143.332474 152.0
143.380127 36.0
143.551788 164.0
143.699677 140.0
143.745956 132.0
143.782822 204.0
143.811844 176.0
143.836761 168.0
143.877533 216.0
143.897873 208.0
143.980225 296.0
143.996979 280.0
144.043976 60496.0
144.098312 424.0
144.124695 144.0
144.1539 108.0
144.172485 132.0
144.21727 104.0
144.253616 72.0
144.278107 64.0
144.311584 64.0
144.328964 80.0
144.375702 80.0
144.437836 144.0
144.468979 92.0
144.583832 48.0
144.602982 88.0
144.674789 60.0
144.75621 96.0
144.77536 88.0
144.808899 188.0
144.840027 56.0
144.878357 72.0
144.905716 228.0
144.995773 208.0
145.047073 6380.0
145.074875 76.0
145.106049 72.0
145.165985 72.0
145.19957 64.0
145.309906 36.0
145.333908 48.0
145.396301 100.0
145.420303 176.0
145.590759 148.0
145.641205 96.0
145.667892 72.0
145.715668 56.0
145.829071 84.0
145.85054 68.0
145.875793 160.0
145.922379 116.0
145.960739 88.0
145.96582 168.0
146.04834 580.0
146.134033 88.0
146.15329 108.0
146.179749 88.0
146.223068 108.0
146.295288 76.0
146.437363 44.0
146.461441 72.0
146.521667 96.0
146.784393 36.0
146.977371 60.0
147.052185 180.0
147.069092 188.0
147.119781 148.0
147.163239 124.0
147.486969 44.0
147.542557 104.0
147.854599 48.0
147.980484 124.0
148.610672 220.0
148.81456 96.0
149.44165 112.0
150.028625 124.0
151.284332 116.0
151.325958 96.0
151.66893 112.0
151.754745 32.0
151.835663 40.0
151.992676 92.0
152.198868 108.0
152.397827 80.0
152.692825 84.0
152.951172 144.0
153.544983 56.0
153.967026 120.0
154.050995 80.0
154.656845 128.0
155.98642 136.0
156.046097 188.0
156.367523 56.0
157.693893 104.0
157.811386 92.0
158.564896 184.0
158.690231 128.0
159.177032 144.0
159.679657 164.0
159.898544 144.0
162.052826 400.0
163.668091 100.0
163.734299 176.0
163.818359 108.0
164.157349 116.0
164.264481 100.0
164.353775 64.0
165.117615 144.0
165.483551 112.0
166.663437 128.0
167.370804 72.0
167.66449 60.0
167.682526 168.0
168.221634 80.0
168.309418 32.0
169.341278 192.0
169.934937 48.0
170.828659 132.0
171.125351 68.0
172.204987 180.0
172.272903 148.0
173.500305 128.0
174.50061 96.0
175.319275 56.0
176.784973 164.0
177.41803 200.0
178.727448 144.0
180.137848 224.0
183.107208 120.0
183.27153 68.0
184.023453 224.0
184.110489 188.0
184.194214 248.0
185.118454 92.0
185.487701 40.0
186.046539 156.0
186.470291 80.0
186.810196 68.0
187.085052 172.0
189.088638 220.0
189.891418 176.0
193.075272 104.0
193.50972 172.0
196.910721 200.0
197.226761 148.0
198.131866 228.0
198.208801 80.0
198.542404 144.0
198.668625 128.0
198.747192 220.0
198.935226 156.0
199.030685 236.0
199.182343 116.0
199.345306 56.0
199.497086 40.0
201.405487 180.0
203.040817 80.0
203.776047 120.0
206.78746 216.0
208.643433 116.0
210.043015 264.0
211.988846 168.0
212.145355 256.0
213.280823 200.0
216.64212 116.0
216.832581 172.0
217.448502 128.0
219.089325 176.0
219.236649 260.0
219.950424 80.0
220.68309 56.0
221.082108 176.0
224.472061 48.0
224.710693 92.0
225.938629 108.0
226.381638 156.0
227.190918 96.0
227.713226 72.0
228.115875 208.0
228.840942 180.0
229.121048 132.0
229.518906 92.0
231.104706 132.0
232.013336 100.0
232.987534 180.0
233.279282 136.0
233.501251 128.0
234.66452 268.0
235.021393 56.0
237.281723 52.0
238.921768 128.0
239.266464 48.0
240.061432 200.0
241.503754 108.0
242.237381 112.0
242.910065 152.0
242.947296 92.0
243.403549 72.0
244.662811 120.0
245.070816 132.0
246.293762 156.0
246.624969 180.0
246.678116 208.0
247.256775 40.0
251.007797 88.0
253.172516 88.0
253.302368 196.0
253.37207 92.0
254.139359 160.0
254.367859 116.0
254.895081 204.0
255.184341 184.0
257.079651 164.0
257.114746 140.0
257.855713 160.0
258.316162 28.0
259.254303 88.0
260.383606 168.0
260.476776 80.0
261.003845 196.0
261.193604 44.0
264.177551 80.0
265.972809 112.0
267.448547 152.0
267.813232 80.0
268.008698 108.0
269.601166 52.0
270.959137 124.0
271.903534 184.0
272.241669 76.0
274.14975 28.0
274.904968 144.0
276.898499 184.0
277.16684 216.0
277.82666 232.0
278.214935 92.0
280.413727 112.0
282.336792 192.0
282.711487 148.0
283.263947 184.0
283.387909 120.0
283.873962 96.0
283.914215 228.0
283.947754 208.0
283.981293 92.0
284.071838 160.0
284.132233 172.0
284.185913 72.0
284.222839 124.0
284.40741 196.0
284.528259 120.0
284.58197 104.0
284.747131 132.0
284.786835 120.0
284.921204 88.0
284.998413 160.0
285.06012 268.0
285.112732 52.0
285.159241 32832.0
285.268982 156.0
285.330658 92.0
285.350983 64.0
285.411926 56.0
285.451263 156.0
285.517395 44.0
285.57428 72.0
285.615112 144.0
285.662689 136.0
285.705353 84.0
285.749939 112.0
285.829041 60.0
285.855957 112.0
285.919556 40.0
285.950195 76.0
285.979279 168.0
286.034332 56.0
286.124268 176.0
286.162018 4912.0
286.26178 80.0
286.286102 84.0
286.428314 56.0
286.465393 60.0
286.555634 44.0
286.578125 60.0
286.745056 76.0
286.805725 84.0
286.862244 68.0
287.007996 60.0
287.091492 184.0
287.166321 608.0
287.249756 88.0
287.348663 72.0
287.625397 72.0
287.700989 144.0
287.746948 36.0
287.904602 104.0
287.949554 72.0
287.981079 72.0
288.024719 144.0
288.055695 108.0
288.101562 48.0
288.165741 92.0
288.202911 92.0
288.263733 68.0
288.297516 44.0
288.351593 80.0
288.453003 44.0
288.554443 48.0
288.797913 36.0
289.044891 136.0
289.576385 60.0
290.016876 100.0
290.159241 116.0
290.454285 52.0
290.854706 96.0
290.993896 76.0
295.154297 52.0
296.276947 84.0
296.492798 36.0
297.940857 52.0
298.477051 60.0
298.762512 88.0
299.04126 48.0
299.847198 56.0
300.45755 88.0
302.188507 156.0
306.427887 40.0
309.648682 92.0
312.340851 36.0
316.470032 60.0
318.576752 156.0
319.316101 52.0
325.477234 56.0
329.988464 52.0
337.365295 80.0
337.78952 96.0
350.755188 88.0
353.10379 108.0
358.438507 44.0
364.759094 80.0
367.401978 36.0
378.134766 104.0
379.696136 136.0
380.410095 160.0
389.108429 88.0
398.270416 52.0
398.949951 56.0
424.58551 36.0
424.934204 72.0
433.299805 100.0
436.196533 48.0
453.139496 60.0
453.453094 108.0
465.39389 92.0
465.947937 56.0
467.280762 116.0
482.134399 52.0
496.192993 68.0
509.94696 164.0
511.809448 64.0
515.151489 56.0
518.019592 80.0
520.632202 100.0
529.612793 96.0
533.674255 44.0
535.938904 88.0
539.955139 48.0
545.006531 56.0
615.942139 64.0
642.769226 76.0
645.957275 100.0
651.249329 60.0
656.532349 212.0
666.17572 224.0
668.355652 96.0
674.244873 44.0
677.432251 108.0
679.251831 140.0
692.015137 136.0
693.990479 224.0
695.14447 96.0
712.490112 80.0
719.760559 108.0
741.890808 156.0
742.330017 52.0
749.816101 168.0
749.99054 192.0
756.222839 264.0
757.646606 148.0
768.924805 188.0
777.38678 92.0
778.685913 212.0
779.385864 92.0
780.29187 152.0
782.840332 176.0
784.578796 188.0
789.660339 132.0
789.968018 128.0
793.440186 156.0
794.702148 208.0
796.582947 80.0
798.207275 96.0
810.824829 196.0
810.898499 36.0
811.612793 220.0
811.680847 168.0
814.2005 96.0
814.484497 88.0
816.348755 108.0
817.662903 132.0
818.09552 160.0
820.402771 184.0
820.773376 124.0
823.901184 148.0
826.920471 224.0
827.641785 140.0
829.412109 176.0
833.331787 224.0
834.038635 92.0
834.809082 184.0
839.3526 240.0
841.29126 216.0
842.024597 128.0
844.05304 240.0
844.550415 156.0
846.182373 180.0
849.079773 148.0
849.978943 160.0
850.681213 48.0
851.064453 40.0
851.41864 92.0
851.687378 136.0
852.958374 172.0
853.656128 184.0
856.63031 224.0
857.242126 172.0
860.461914 136.0
861.571594 52.0
862.921692 124.0
865.478638 216.0
865.88269 100.0
867.517517 48.0
869.635132 188.0
870.63324 212.0
872.401917 156.0
874.142883 184.0
876.138977 92.0
878.066528 220.0
879.754089 52.0
880.710754 176.0
882.223511 148.0
884.915466 224.0
888.892822 164.0
891.802979 124.0
892.147705 228.0
892.706665 160.0
893.545349 204.0
894.63446 80.0
896.850464 148.0
897.327393 160.0
898.293518 228.0
900.41864 160.0
900.591675 208.0
901.344482 32.0
902.157288 160.0
904.77771 176.0
904.915405 168.0
908.247437 176.0
908.49939 76.0
910.390137 224.0
910.642395 92.0
913.744263 156.0
915.140686 188.0
915.700684 88.0
918.823242 80.0
918.986145 156.0
923.456604 172.0
923.504944 188.0
924.394348 164.0
924.654541 88.0
924.769531 132.0
930.473938 192.0
933.816162 64.0
935.142578 144.0
937.048645 160.0
938.914001 236.0
939.883972 208.0
940.036499 156.0
943.591492 156.0
944.392578 152.0
945.830566 140.0
946.84082 172.0
949.157349 108.0
950.065063 156.0
950.1203 220.0
950.187805 176.0
950.997803 184.0
952.539062 176.0
952.876953 224.0
953.725037 208.0
954.548889 224.0
956.979431 176.0
957.675293 128.0
957.958679 164.0
959.968018 168.0
960.272705 208.0
960.917969 136.0
962.813049 252.0
963.362793 152.0
965.087158 204.0
965.241699 160.0
965.983887 176.0
968.435181 200.0
975.627319 220.0
976.25531 144.0
978.358459 64.0
978.458069 84.0
981.055969 160.0
982.315735 188.0
982.764893 232.0
982.914673 144.0
984.269226 128.0
984.337952 52.0
986.762329 140.0
986.868652 176.0
988.945618 164.0
989.058289 116.0
989.621704 108.0
990.028748 152.0
991.657715 76.0
992.485229 152.0
993.225281 136.0
993.815002 240.0
994.881958 112.0
994.994995 128.0
995.516113 208.0
996.269897 148.0
999.117798 140.0
999.199585 200.0
1000.011414 168.0
1000.603149 132.0
1000.785706 212.0
1002.102112 164.0
1004.352783 148.0
1004.775452 108.0
1005.002563 104.0
1006.789062 168.0
1008.602417 188.0
1010.746399 172.0
1011.240051 188.0
1011.537537 192.0
1012.094666 156.0
1012.873657 136.0
1014.375488 148.0
1015.618347 248.0
1015.937622 156.0
1017.109497 176.0
1017.725342 180.0
1018.34137 148.0
1019.230774 168.0
1019.682007 144.0
1019.745544 156.0
1020.343079 196.0
1022.213135 228.0
1022.594971 200.0
1023.858887 156.0
1025.26355 88.0
1026.175171 148.0
1027.099854 148.0
1027.221069 148.0
1027.348633 144.0
1028.605835 224.0
1028.810059 224.0
1029.780762 88.0
1030.815674 184.0
1031.211914 148.0
1033.872559 132.0
1034.141357 256.0
1034.384644 176.0
1034.877563 156.0
1036.235474 124.0
1036.562256 196.0
1036.965942 224.0
1037.472412 296.0
1037.645508 168.0
1037.927612 40.0
1038.504761 164.0
1038.799927 140.0
1038.889648 132.0
1039.056519 172.0
1039.107788 216.0
1039.15918 132.0
1039.48645 192.0
1040.147461 116.0
1041.913452 188.0
1044.131226 160.0
1044.999634 208.0
1046.447876 60.0
1047.491089 268.0
1048.341675 240.0
1050.598389 80.0
1051.088745 156.0
1051.353394 172.0
1052.353882 136.0
1053.63269 176.0
1053.716675 200.0
1056.263916 172.0
1056.775024 184.0
1057.817017 188.0
1059.533081 120.0
1059.5979 124.0
1060.375488 140.0
1061.54248 140.0
1063.917358 208.0
1065.001709 152.0
1066.210205 140.0
1067.152832 172.0
1067.490967 132.0
1067.627563 184.0
1067.835693 180.0
1068.121826 252.0
1069.436279 48.0
1070.582153 48.0
1071.435425 172.0
1071.50708 56.0
1072.119629 192.0
1072.465088 124.0
1074.160522 196.0
1074.995605 168.0
1075.269775 156.0
1076.275024 160.0
1076.686523 188.0
1077.071899 128.0
1078.66626 176.0
1078.718628 140.0
1079.032349 168.0
1079.797485 136.0
1080.680664 172.0
1084.079102 152.0
1084.760864 128.0
1085.062378 144.0
1085.265625 196.0
1085.580444 192.0
1086.269043 220.0
1086.885864 176.0
1088.540039 124.0
1091.819336 148.0
1093.385132 160.0
1093.516846 228.0
1095.472534 144.0
1097.456299 152.0
1100.887695 164.0
1101.39624 100.0
1102.189087 160.0
1102.393921 172.0
1102.77063 168.0
1102.98877 212.0
1103.431641 176.0
1103.478027 160.0
1103.590332 192.0
1103.696167 216.0
1104.28479 96.0
1105.634521 188.0
1106.210327 200.0
1106.951904 288.0
1107.11084 68.0
1108.223755 148.0
1108.309814 208.0
1110.218994 188.0
1111.605469 168.0
1112.654297 164.0
1113.285034 180.0
1113.736694 128.0
1114.514038 168.0
1115.198486 172.0
1116.475098 120.0
1117.466187 176.0
1117.559326 168.0
1117.772339 172.0
1118.098389 124.0
1118.957153 112.0
1119.183472 136.0
1119.65625 88.0
1120.202515 108.0
1122.12854 68.0
1122.208496 208.0
1122.268555 184.0
1124.156372 60.0
1124.349854 164.0
1125.217651 92.0
1125.518188 168.0
1126.232788 164.0
1126.773804 44.0
1126.987671 180.0
1128.411377 148.0
1128.611938 92.0
1129.227173 124.0
1130.116943 168.0
1130.364502 204.0
1130.888062 180.0
1131.783569 200.0
1133.083008 92.0
1133.250488 164.0
1133.391235 156.0
1134.651367 148.0
1135.737671 176.0
1136.066406 168.0
1136.220703 196.0
1136.804443 136.0
1137.039429 208.0
1137.140015 132.0
1137.529419 176.0
1138.570068 280.0
1138.697754 152.0
1139.564331 124.0
1140.424561 268.0
1140.868164 216.0
1141.708618 188.0
1143.134888 184.0
1143.255981 148.0
1143.370483 132.0
1144.393677 160.0
1145.491455 184.0
1148.848633 28.0
1149.010498 140.0
1150.022827 176.0
1150.691162 88.0
1151.305664 264.0
1151.447388 160.0
1151.581543 116.0
1151.893188 80.0
1153.670532 176.0
1153.873413 104.0
1154.04126 184.0
1155.787598 172.0
1156.728271 180.0
1157.114136 212.0
1158.922607 196.0
1159.112305 140.0
1159.288574 116.0
1159.505371 148.0
1159.729126 152.0
1160.861328 52.0
1161.790527 144.0
1164.01001 168.0
1164.72998 176.0
1166.795898 32.0
1167.557495 132.0
1171.103516 148.0
1171.607666 128.0
1171.893799 132.0
1174.129761 176.0
1174.62085 172.0
1175.289429 136.0
1175.930908 168.0
1176.190308 192.0
1177.200806 228.0
1177.972534 52.0
1178.361938 140.0
1178.437134 224.0
1179.96814 40.0
1180.898193 104.0
1181.583862 140.0
1182.923584 156.0
1182.971558 40.0
1183.978149 140.0
1184.65625 256.0
1186.924805 232.0
1187.00708 184.0
1187.638062 124.0
1187.871338 180.0
1187.994873 148.0
1188.262329 164.0
1188.461304 140.0
1188.543701 136.0
1188.605469 216.0
1189.435913 200.0
1190.115601 144.0
1190.953491 184.0
1191.207642 192.0
1191.557983 224.0
1193.785034 160.0
1196.207031 164.0
1196.606323 108.0
1198.169678 192.0
1198.734009 184.0
1199.086182 100.0
1199.334351 176.0
1199.49292 160.0
1199.789307 192.0
1201.003052 196.0
1201.644653 120.0
1201.810181 168.0
1203.356323 164.0
1204.32312 128.0
1204.392212 212.0
1207.122192 196.0
1207.191406 132.0
1207.495605 144.0
1208.422607 44.0
1209.0177 144.0
1209.723755 152.0
1211.205688 292.0
1212.279663 132.0
1212.577637 188.0
1213.951294 216.0
1214.532959 208.0
1216.066406 156.0
1216.253784 152.0
1216.906372 48.0
1217.25354 172.0
1217.454956 128.0
1219.358521 152.0
1220.206665 124.0
1220.568237 144.0
1220.651611 204.0
1220.888062 192.0
1221.667114 160.0
1221.973267 180.0
1222.710938 140.0
1223.003174 112.0
1224.054443 188.0
1224.264771 164.0
1225.001709 176.0
1227.057617 36.0
1227.308716 172.0
1227.420288 224.0
1227.978149 176.0
1228.738525 188.0
1229.129272 152.0
1230.441528 84.0
1230.930298 188.0
1232.970215 200.0
1233.158936 140.0
1234.333374 104.0
1235.515503 156.0
1236.110229 168.0
1236.600098 92.0
1238.021362 128.0
1238.406616 156.0
1238.553711 148.0
1238.882935 164.0
1239.107056 124.0
1239.303345 200.0
1239.814819 172.0
1241.700806 160.0
1241.995361 164.0
1242.851318 184.0
1242.958374 168.0
1243.11792 156.0
1244.255127 44.0
1244.882324 240.0
1244.964233 152.0
1245.441895 212.0
1245.757935 220.0
1246.48877 180.0
1246.889282 192.0
1247.767944 152.0
1247.845337 228.0
1248.042236 132.0
1248.696167 176.0
1249.69519 168.0
1249.997681 148.0
1250.786011 204.0
1250.91272 224.0
1251.877319 140.0
1252.229492 52.0
1253.095947 152.0
1253.258057 216.0
1253.504639 40.0
1254.822754 224.0
1256.423706 136.0
1256.783569 80.0
1257.037598 264.0
1257.213989 88.0
1258.061035 116.0
1258.385864 152.0
1258.668213 188.0
1258.724731 160.0
1259.381592 92.0
1259.939697 180.0
1260.588135 160.0
1261.989258 180.0
1262.349976 148.0
1263.028931 124.0
1263.573608 156.0
1263.92041 156.0
1264.564331 140.0
1264.691772 224.0
1266.178589 160.0
1266.306152 184.0
1266.653198 188.0
1267.064087 72.0
1267.503418 128.0
1268.602051 132.0
1268.87146 112.0
1270.672852 156.0
1272.18457 156.0
1272.681519 200.0
1273.079224 168.0
1273.789551 100.0
1273.888916 36.0
1274.51416 124.0
1275.701172 196.0
1276.049438 196.0
1276.156128 196.0
1276.511719 204.0
1277.073486 128.0
1277.486084 172.0
1278.638794 124.0
1279.008911 40.0
1279.122803 212.0
1279.443237 152.0
1279.557129 184.0
1279.848999 164.0
1280.781982 52.0
1281.294922 164.0
1281.822144 64.0
1282.755859 192.0
1283.354736 156.0
1283.568726 140.0
1283.839722 188.0
1286.237061 204.0
1286.579712 84.0
1286.943848 132.0
1287.629395 204.0
1287.743652 48.0
1287.922241 220.0
1288.143677 140.0
1288.272217 192.0
1289.801514 128.0
1290.150635 168.0
1290.759521 52.0
1291.946899 132.0
1292.168701 208.0
1292.462036 160.0
1295.92041 152.0
1296.442993 200.0
1297.074341 156.0
1297.411255 48.0
1298.716309 192.0
1300.108276 188.0
1300.529053 208.0
1300.811646 152.0
1301.385986 180.0
1301.436279 136.0
1301.788208 136.0
1301.938965 164.0
1302.477661 88.0
1302.614136 212.0
1303.117065 144.0
1303.699097 160.0
1303.828491 160.0
1304.957031 124.0
1306.740845 156.0
1307.417236 120.0
1307.841919 128.0
1308.511353 152.0
1309.605957 140.0
1310.758667 100.0
1310.99646 192.0
1311.753296 64.0
1312.402222 168.0
1313.527222 184.0
1314.198242 68.0
1314.587891 88.0
1314.992065 120.0
1315.27356 168.0
1315.504517 116.0
1315.713867 176.0
1316.21936 136.0
1316.876587 164.0
1317.346069 176.0
1317.580566 188.0
1319.051514 188.0
1319.363159 196.0
1320.027588 56.0
1320.201172 120.0
1320.613403 28.0
1320.765259 152.0
1321.561157 240.0
1322.726318 196.0
1323.204102 160.0
1323.291016 140.0
1323.435791 124.0
1323.710938 156.0
1323.855835 100.0
1324.464233 156.0
1324.666992 132.0
1324.855835 148.0
1326.094482 208.0
1326.355469 192.0
1326.471436 208.0
1326.638184 204.0
1326.833984 120.0
1327.182007 128.0
1328.284302 184.0
1328.422119 212.0
1329.48877 204.0
1330.00415 148.0
1330.272705 256.0
1330.367065 164.0
1330.425171 156.0
1330.897095 36.0
1331.419922 192.0
1331.514404 216.0
1331.637817 176.0
1331.855713 80.0
1331.935669 84.0
1332.37146 160.0
1333.694092 256.0
1334.908325 156.0
1335.490112 272.0
1335.839233 156.0
1336.203003 100.0
1336.32666 124.0
1337.178101 192.0
1337.331055 156.0
1338.05835 144.0
1338.634155 128.0
1339.012939 212.0
1339.245972 152.0
1339.908936 204.0
1340.258179 144.0
1340.6521 156.0
1341.446655 264.0
1343.174927 216.0
1344.480957 148.0
1344.911621 156.0
1345.225464 208.0
1345.897217 240.0
1346.116211 216.0
1346.990723 240.0
1347.496826 188.0
1347.774414 88.0
1347.935181 208.0
1348.022827 208.0
1348.914551 156.0
1349.245239 176.0
1349.302002 244.0
1349.828491 172.0
1351.181641 104.0
1351.693848 164.0
1351.752441 156.0
1351.803589 64.0
1352.607666 160.0
1352.874878 200.0
1353.501953 100.0
1353.802246 148.0
1353.985229 164.0
1354.182983 40.0
1354.547852 212.0
1355.450439 128.0
1356.329956 156.0
1356.755127 240.0
1357.356323 220.0
1357.429688 148.0
1358.031128 124.0
1358.273193 184.0
1358.852783 188.0
1359.828735 176.0
1360.195679 112.0
1360.592163 188.0
1360.834473 200.0
1361.135498 160.0
1362.002197 204.0
1362.182251 180.0
1362.509033 152.0
1364.074341 200.0
1364.133179 164.0
1364.258179 196.0
1364.427246 144.0
1364.691895 200.0
1366.170288 176.0
1366.542603 232.0
1366.77356 192.0
1367.009033 156.0
1367.58313 132.0
1367.958496 192.0
1368.157349 216.0
1368.294067 140.0
1368.621216 284.0
1368.716919 156.0
1368.790527 124.0
1369.762695 124.0
1369.84375 168.0
1370.547119 196.0
1370.639526 212.0
1372.221436 192.0
1374.199463 432.0
1374.267334 88.0
1374.7052 228.0
1375.344849 152.0
1375.809814 172.0
1376.134766 184.0
1376.193848 176.0
1376.459595 68.0
1376.673828 224.0
1376.910156 192.0
1377.54541 180.0
1378.032959 232.0
1378.986206 180.0
1379.15625 140.0
1379.355835 180.0
1379.422363 32.0
1379.890747 248.0
1380.19873 208.0
1380.782959 140.0
1381.241455 184.0
1381.419067 144.0
1382.018311 216.0
1382.247681 128.0
1382.536377 176.0
1382.647339 176.0
1382.936035 164.0
1384.164917 160.0
1384.520386 32.0
1384.891968 204.0
1385.298218 72.0
1385.913086 144.0
1387.261963 180.0
1388.025757 176.0
1388.352051 132.0
1388.745117 180.0
1389.14563 128.0
1389.242065 140.0
1389.331055 180.0
1389.865356 144.0
1390.117676 156.0
1390.221558 188.0
1390.421875 156.0
1391.386963 204.0
1391.713623 128.0
1392.419067 112.0
1392.812744 68.0
1393.503662 84.0
1393.622559 48.0
1393.696899 140.0
1393.986694 160.0
1394.425171 156.0
1395.366211 192.0
1395.666626 240.0
1395.793091 212.0
1395.932617 172.0
1396.87146 152.0
1397.429443 164.0
1397.96521 124.0
1398.188477 172.0
1398.270386 224.0
1398.396851 156.0
1398.999878 184.0
1399.498657 164.0
1399.57312 160.0
1400.615845 128.0
1401.249023 140.0
1401.457642 80.0
1402.782715 176.0
1403.671509 140.0
1403.805786 172.0
1404.342773 76.0
1404.641113 208.0
1404.715698 148.0
1405.670776 180.0
1405.745361 192.0
1405.827515 164.0
1406.290161 136.0
1406.618652 120.0
1407.46228 152.0
1407.828247 188.0
1408.941162 68.0
1409.187744 44.0
1409.337158 92.0
1409.964844 68.0
1410.577759 176.0
1410.779663 92.0
1410.966553 200.0
1411.77417 160.0
1411.976074 196.0
1412.290161 132.0
1412.46228 108.0
1412.963501 188.0
1413.943726 180.0
1414.617432 136.0
1414.999268 224.0
1417.073853 148.0
1417.26123 148.0
1417.486084 136.0
1418.332886 152.0
1418.400391 196.0
1419.210571 176.0
1419.652588 252.0
1419.9375 224.0
1421.302856 160.0
1421.588013 168.0
1421.730591 240.0
1421.820679 124.0
1422.638916 160.0
1423.141846 260.0
1423.32959 164.0
1423.562378 224.0
1424.058105 156.0
1424.33606 240.0
1424.531372 172.0
1424.771729 188.0
1425.989136 176.0
1426.237183 164.0
1427.199463 100.0
1428.116943 136.0
1428.184692 116.0
1428.3125 232.0
1428.41394 144.0
1428.673584 124.0
1428.952026 196.0
1430.615234 208.0
1430.713135 128.0
1431.059448 200.0
1431.292847 140.0
1431.481079 208.0
1432.091187 120.0
1432.663696 176.0
1433.545288 204.0
1434.755127 168.0
1434.841797 220.0
1435.007568 156.0
1435.460083 212.0
1435.588257 176.0
1435.640991 68.0
1435.871582 212.0
1436.327393 156.0
1436.783447 132.0
1436.88562 152.0
1437.270508 132.0
1437.345947 136.0
1437.481812 128.0
1437.753418 168.0
1438.470459 172.0
1438.553589 260.0
1439.332642 184.0
1439.444458 164.0
1440.365845 184.0
1440.418823 112.0
1440.683228 200.0
1441.015625 108.0
1441.174316 92.0
1442.2323 164.0
1442.5271 236.0
1442.965576 148.0
1443.585693 40.0
1444.387451 100.0
1444.485718 32.0
1445.075806 180.0
1445.431519 128.0
1445.531982 204.0
1445.92334 152.0
1446.930176 48.0
1447.460205 160.0
1447.52832 56.0
1447.755493 128.0
1448.102173 212.0
1448.311035 164.0
1448.376587 160.0
1448.490234 168.0
1448.702393 192.0
1448.952393 220.0
1449.012939 228.0
1450.505981 240.0
1450.695435 148.0
1452.507812 160.0
1452.849243 156.0
1453.630737 160.0
1453.820435 88.0
1453.949463 152.0
1454.116455 128.0
1454.192383 136.0
1454.518799 172.0
1455.232422 176.0
1455.293213 96.0
1456.037354 188.0
1456.12085 144.0
1456.888062 148.0
1458.043091 148.0
1459.122559 112.0
1459.479858 148.0
1460.384888 124.0
1460.82605 220.0
1461.115112 152.0
1461.183594 176.0
1461.252075 168.0
1461.312988 156.0
1461.921753 184.0
1462.035889 192.0
1462.899292 112.0
1463.017822 144.0
1465.805542 68.0
1467.345215 192.0
1467.795166 32.0
1467.848511 176.0
1467.962891 164.0
1468.105347 212.0
1468.466187 120.0
1469.064941 196.0
1469.862305 164.0
1470.053101 160.0
1470.572144 240.0
1470.701904 148.0
1470.885132 180.0
1470.938477 152.0
1471.289673 220.0
1471.427124 216.0
1471.595093 172.0
1471.831787 52.0
1472.534424 140.0
1472.740601 160.0
1473.588623 64.0
1473.64209 164.0
1473.909546 148.0
1474.069946 132.0
1474.146362 176.0
1474.203857 164.0
1474.933594 196.0
1475.201172 168.0
1475.705811 152.0
1476.814697 36.0
1477.663818 144.0
1478.528564 152.0
1478.651001 136.0
1478.719849 104.0
1479.003052 200.0
1479.301636 256.0
1479.355225 124.0
1480.005981 200.0
1480.404175 140.0
1480.541992 168.0
1480.986206 144.0
1481.154785 168.0
1481.775269 164.0
1482.051147 172.0
1483.237061 204.0
1483.303833 124.0
1483.698975 184.0
1484.189697 148.0
1484.42749 156.0
1484.519531 160.0
1484.711182 180.0
1485.063965 208.0
1485.133057 176.0
1485.355469 140.0
1485.600952 224.0
1485.854126 156.0
1486.07666 180.0
1486.62146 216.0
1486.682861 148.0
1487.240234 220.0
1487.373657 176.0
1487.427368 160.0
1487.86499 128.0
1488.932373 180.0
1489.078247 156.0
1490.307373 68.0
1490.414917 164.0
1490.968262 232.0
1491.890625 224.0
1491.990601 180.0
1492.667236 192.0
1492.897949 160.0
1493.482544 140.0
1493.705566 68.0
1493.882446 176.0
1494.036377 176.0
1495.052002 56.0
1495.348999 180.0
1496.414551 64.0
1496.53772 152.0
1497.315552 164.0
1498.124268 156.0
1498.540405 120.0
1498.697632 144.0
1498.771484 112.0
1499.488281 88.0
1499.842773 144.0
1500.081787 252.0
1500.62915 144.0
1500.683105 56.0
1501.809082 196.0
1502.102173 112.0
1502.333618 188.0
1502.750244 176.0
1502.98938 148.0
1503.552734 68.0
1503.86145 148.0
1504.366089 204.0
1504.641235 188.0
