>compound MLS001158201-01!(3R)-N-[(2S)-1-[(2S)-2-(hydroxymethyl)pyrrolidin-1-yl]-1-oxopropan-2-yl]-2,2-dimethyl-5-oxo-3,9b-dihydro-[1,3]thiazolo[2,3-a]isoindole-3-carboxamide
>formula C21H27N3O4S
>ionization [M+H]+
>parentmass 418.177582
#inchi InChI=1S/C21H27N3O4S/c1-12(18(27)23-10-6-7-13(23)11-25)22-17(26)16-21(2,3)29-20-15-9-5-4-8-14(15)19(28)24(16)20/h4-5,8-9,12-13,16,20,25H,6-7,10-11H2,1-3H3,(H,22,26)/t12-,13-,16+,20?/m0/s1
#inchikey OGKLVJMNCMVUAQ
#Ion_Source LC-ESI
#Instrument qTof
#Compound_Source NIH Natural Product Library
#PI Dorrestein
#Data_Collector VVP/LMS
#Scan -1
#Precursor_MZ 418.18
#ExactMass 417.172
#Charge 1
#CAS_Number N/A
#Pubmed_ID N/A
#Smiles C[C@H](NC(=O)[C@H]1N2C(SC1(C)C)c3ccccc3C2=O)C(=O)N4CCC[C@H]4CO
#INCHI_AUX N/A
#Library_Class 1
#SpectrumID CCMSLIB00000080132
#IonMode Positive
#UpdateWorkflowName UPDATE-SINGLE-ANNOTATED-GOLD
#LibraryQualityString Gold
#TaskID b1d8e8f6646f4e71acdff9ca3d919d08
##Scan# 1765
#SpectrumFile p2-E04_GE4_01_18028.mzXML
#LibraryName NIH_Natural_Products_Library.mgf
#MQScore -1
#Organism NIH_Natural_Products_Library
#TIC_Query 0
#RT_Query -1
#MZErrorPPM -1
#SharedPeaks 0
#MassDiff 0
#LibMZ -1
#SpecMZ 418.18
#SpecCharge 0
#internalFilename spec-00000.mgf

>collision 10
95.1409 100.0
95.445938 164.0
95.5354 168.0
95.883942 172.0
96.479279 76.0
96.608353 164.0
97.131378 140.0
97.245186 180.0
97.266777 132.0
97.630257 124.0
97.758125 116.0
97.915619 112.0
97.992607 144.0
98.063385 176.0
98.88501 92.0
99.025581 168.0
99.273308 160.0
99.41217 152.0
100.064133 152.0
100.253365 276.0
100.297211 164.0
100.634354 204.0
100.92807 108.0
101.310341 136.0
101.488716 180.0
101.653198 176.0
101.743523 124.0
101.763596 124.0
101.998642 124.0
102.040855 144.0
102.091278 7700.0
102.12532 140.0
102.145432 64.0
102.250061 168.0
102.421196 64.0
102.800232 64.0
102.893082 36.0
102.919327 72.0
103.094536 1088.0
103.121338 48.0
103.147614 36.0
103.604958 204.0
103.679924 92.0
104.093765 124.0
104.296928 124.0
104.416885 144.0
104.610184 92.0
104.693665 80.0
104.732361 140.0
105.338181 104.0
106.991066 100.0
107.506363 120.0
107.857468 112.0
107.993935 172.0
108.267128 160.0
108.584213 180.0
108.916306 192.0
109.342537 160.0
109.38208 68.0
109.651428 88.0
109.821732 120.0
109.869713 124.0
110.045021 68.0
110.182869 156.0
110.406525 140.0
111.125008 164.0
111.22364 152.0
111.955299 144.0
112.076172 692.0
112.125946 36.0
112.161774 160.0
112.22924 112.0
112.341019 160.0
112.651337 56.0
112.784462 128.0
113.080574 128.0
113.283844 168.0
113.408867 144.0
113.457619 188.0
113.72702 204.0
113.916 164.0
114.030739 176.0
114.13916 192.0
114.345512 232.0
115.057762 712.0
115.139771 88.0
115.266777 40.0
115.324478 164.0
115.638885 164.0
115.765198 80.0
116.050278 196.0
116.657761 116.0
116.78463 76.0
117.077324 160.0
117.672462 52.0
117.717804 104.0
117.889168 172.0
118.230148 192.0
118.338379 92.0
119.438644 116.0
119.575722 184.0
120.312477 152.0
121.290306 100.0
121.465729 120.0
121.676399 84.0
121.729095 196.0
121.766434 148.0
122.578201 104.0
123.41256 180.0
123.494385 180.0
123.622704 136.0
123.910553 108.0
124.311882 204.0
125.071976 184.0
125.21447 132.0
125.423912 180.0
126.015289 120.0
126.178444 84.0
126.536407 76.0
127.047379 148.0
127.166306 52.0
127.206711 120.0
127.2808 72.0
127.543655 176.0
128.056656 176.0
128.106216 160.0
128.425293 136.0
128.789688 196.0
128.904068 172.0
128.968185 148.0
129.119675 60.0
129.203369 188.0
129.434235 96.0
129.699295 180.0
130.063049 192.0
130.096268 124.0
130.628021 128.0
131.940292 136.0
132.044617 3784.0
132.085648 180.0
132.101654 52.0
132.119949 188.0
132.196945 184.0
132.229782 124.0
132.344254 112.0
132.452942 148.0
132.846161 168.0
132.878281 140.0
132.928757 60.0
133.045471 564.0
133.105515 128.0
133.176697 136.0
133.263992 92.0
133.355911 180.0
133.41568 188.0
133.46167 228.0
133.742325 80.0
133.972595 44.0
134.018677 68.0
134.060562 340.0
134.182312 176.0
134.233047 248.0
134.35759 164.0
134.399124 164.0
134.895676 200.0
134.98584 76.0
135.02977 176.0
136.274597 148.0
136.488953 124.0
136.555878 192.0
136.595413 60.0
137.487778 180.0
138.223892 68.0
138.539978 176.0
139.250702 204.0
140.05275 140.0
140.071594 152.0
140.602097 248.0
141.344116 116.0
141.540573 212.0
142.467941 72.0
142.857803 116.0
143.353043 124.0
143.398315 96.0
143.58905 136.0
143.651062 136.0
143.715485 128.0
144.043457 180.0
144.896591 196.0
145.577789 168.0
145.902161 160.0
146.058472 148.0
146.682129 180.0
147.01738 148.0
147.268463 160.0
147.514923 212.0
147.935852 64.0
147.991531 104.0
148.085968 80.0
148.410706 160.0
148.859604 100.0
148.981049 140.0
149.004684 364.0
149.224075 160.0
149.781357 196.0
150.00798 228.0
150.168915 168.0
151.253769 120.0
151.366394 68.0
151.696411 148.0
152.386765 252.0
152.895767 200.0
153.045929 140.0
153.092712 160.0
153.519043 192.0
154.083572 152.0
154.102051 168.0
154.390793 96.0
154.752075 132.0
155.061707 208.0
155.119247 132.0
155.215408 116.0
156.082016 144.0
156.105713 176.0
156.181488 236.0
156.654434 100.0
156.816406 148.0
156.866257 100.0
157.859955 80.0
157.919968 276.0
157.997513 80.0
158.066315 172.0
158.252792 40.0
158.530838 196.0
158.578461 172.0
158.708817 48.0
158.974701 116.0
159.063171 288.0
159.371445 120.0
160.075394 1484.0
160.109177 132.0
160.173981 40.0
160.221848 156.0
160.721054 216.0
161.076675 148.0
161.375229 144.0
161.676239 176.0
161.924347 64.0
162.550522 192.0
163.886154 148.0
164.285736 120.0
164.336761 124.0
164.862778 180.0
165.76355 116.0
166.761856 240.0
167.845673 136.0
168.294632 192.0
168.733856 116.0
169.442993 156.0
169.621796 184.0
170.057556 56.0
170.099091 100.0
170.379547 148.0
171.097336 248.0
171.144196 180.0
171.277023 108.0
171.615814 176.0
171.722717 212.0
171.787933 212.0
172.036713 720.0
172.223862 80.0
172.44072 140.0
172.579269 60.0
172.914108 196.0
173.283325 92.0
173.508713 92.0
174.07283 128.0
174.288223 84.0
174.351288 128.0
174.656281 136.0
174.919418 196.0
175.290771 112.0
175.688889 104.0
176.068985 96.0
176.111237 116.0
176.653122 204.0
176.981293 108.0
177.03772 288.0
177.173782 152.0
177.56694 164.0
177.60672 64.0
178.031372 132.0
178.198715 196.0
178.411331 176.0
178.887512 116.0
179.295029 56.0
179.662994 100.0
179.719009 172.0
179.953888 208.0
180.910995 188.0
181.066299 176.0
181.087723 176.0
181.610367 104.0
181.908218 268.0
183.072418 88.0
183.112808 116.0
183.207092 168.0
183.271744 140.0
183.406494 52.0
183.93248 104.0
184.075562 188.0
184.158401 196.0
185.085388 160.0
185.511383 152.0
186.059799 220.0
186.09021 456.0
186.296494 160.0
186.551941 56.0
186.970825 128.0
187.04158 160.0
187.066086 132.0
187.087189 196.0
187.218552 216.0
187.262131 96.0
187.613647 140.0
188.301254 260.0
188.33403 140.0
188.40506 184.0
189.195404 140.0
189.250168 180.0
189.567902 156.0
189.625458 160.0
190.074753 244.0
190.56395 128.0
191.112503 180.0
191.201904 132.0
191.323013 136.0
191.37532 40.0
192.064285 152.0
192.116699 128.0
192.569382 172.0
193.097275 180.0
193.362869 124.0
193.614807 116.0
194.033218 156.0
194.216232 84.0
194.241196 172.0
194.477051 88.0
194.849152 148.0
196.12088 156.0
196.416443 220.0
196.734558 136.0
197.069702 160.0
197.374359 184.0
197.581329 212.0
198.018005 136.0
198.076828 96.0
199.072067 152.0
199.103378 332.0
199.682327 152.0
199.730133 264.0
199.988998 108.0
200.034042 116.0
200.38324 144.0
200.704559 168.0
200.918915 156.0
201.026123 172.0
201.283005 168.0
201.588074 156.0
201.981064 60.0
202.037643 188.0
202.167801 56.0
202.652008 160.0
203.063049 176.0
203.176514 116.0
204.292969 28.0
204.338486 208.0
204.796799 192.0
204.825287 144.0
205.130371 368.0
205.275589 160.0
206.246765 116.0
207.351059 68.0
207.51445 68.0
207.552292 224.0
208.277802 120.0
208.304169 268.0
208.677261 92.0
208.947601 168.0
209.039673 232.0
210.062485 164.0
210.333725 148.0
210.472305 92.0
210.492508 176.0
210.827606 132.0
211.492813 136.0
212.246033 144.0
212.59993 196.0
212.747971 188.0
212.88443 156.0
212.997696 144.0
213.145859 144.0
213.721588 124.0
214.047592 228.0
214.085449 188.0
214.395691 152.0
214.589554 120.0
215.08548 128.0
215.281097 132.0
215.964981 60.0
216.003006 168.0
216.04834 32.0
216.313187 196.0
216.553284 132.0
216.688034 104.0
216.793518 76.0
216.937134 96.0
217.092529 144.0
217.421097 64.0
217.470718 176.0
217.500336 288.0
217.523819 160.0
217.591339 112.0
217.661804 196.0
217.756989 196.0
217.820404 328.0
217.896988 176.0
217.964233 180.0
217.995773 156.0
218.025452 188.0
218.06395 54548.0
218.138123 196.0
218.171463 216.0
218.216888 48.0
218.26712 48.0
218.290649 84.0
218.331818 176.0
218.370056 100.0
218.454697 72.0
218.466492 56.0
218.471588 116.0
218.512146 200.0
218.542007 44.0
218.566284 216.0
218.660843 60.0
218.67131 112.0
218.743729 60.0
218.799667 124.0
218.82518 60.0
218.893326 64.0
218.918991 84.0
219.066635 7156.0
219.173721 36.0
219.235596 40.0
219.282745 36.0
219.316513 88.0
219.431076 240.0
219.4599 156.0
219.50386 60.0
219.577576 212.0
219.624771 60.0
219.648361 128.0
219.686722 40.0
219.719162 104.0
219.831284 40.0
219.961151 60.0
220.008377 60.0
220.060989 3060.0
220.186951 40.0
220.268906 72.0
220.327332 156.0
220.356873 80.0
220.383469 108.0
220.409134 204.0
220.464767 164.0
220.514267 76.0
220.542953 124.0
220.587387 76.0
220.634689 68.0
220.694168 144.0
220.710159 156.0
220.8535 136.0
221.001419 128.0
221.064423 320.0
221.134583 44.0
221.202667 80.0
221.250031 64.0
221.285553 100.0
221.38623 64.0
221.552109 132.0
221.934433 68.0
222.064911 144.0
222.15686 80.0
222.216202 44.0
222.257736 96.0
222.361603 56.0
222.444702 108.0
222.625824 68.0
222.762451 212.0
223.809311 64.0
223.913544 56.0
224.77507 88.0
226.048035 144.0
226.389297 68.0
227.117493 128.0
227.330597 80.0
228.060394 136.0
229.062378 44.0
229.095398 104.0
229.752716 100.0
229.90358 88.0
230.374603 104.0
231.06691 80.0
231.302948 60.0
231.578491 60.0
231.863281 72.0
232.861435 72.0
233.019394 64.0
233.514877 152.0
234.12355 148.0
234.181427 120.0
234.553146 136.0
236.079712 100.0
236.151703 148.0
236.899979 188.0
237.157379 136.0
237.341309 124.0
237.980026 120.0
238.332748 52.0
238.37883 160.0
240.914566 84.0
242.408966 184.0
243.078079 344.0
244.141174 148.0
245.071899 104.0
245.477127 60.0
246.057861 2468.0
246.447891 160.0
246.532257 148.0
246.566635 112.0
247.060471 500.0
247.527023 88.0
247.763855 52.0
248.015747 92.0
248.057632 308.0
248.228928 232.0
248.643021 96.0
248.724625 120.0
249.060608 148.0
249.151703 56.0
250.0522 164.0
250.189514 164.0
255.108795 152.0
256.098389 112.0
257.096313 132.0
257.121826 80.0
266.645538 72.0
266.847076 108.0
269.132782 196.0
270.127838 212.0
275.089874 64.0
275.317719 172.0
277.163544 112.0
277.733765 172.0
277.907013 88.0
280.570282 132.0
282.6745 64.0
283.753021 88.0
286.259613 28.0
286.761566 108.0
287.834351 196.0
288.976807 164.0
289.100372 1516.0
289.27124 40.0
289.379578 48.0
289.437134 60.0
289.46759 60.0
289.498077 80.0
289.545502 140.0
290.107513 236.0
291.098663 140.0
291.637482 48.0
292.091095 124.0
293.429413 44.0
293.470337 20.0
295.208374 136.0
299.209137 108.0
303.139832 168.0
304.086578 140.0
304.513641 132.0
306.726532 48.0
314.291321 104.0
315.753815 112.0
317.088409 440.0
318.117157 164.0
320.147339 68.0
331.684357 56.0
331.91275 100.0
335.180542 44.0
341.528687 168.0
345.042969 84.0
349.318817 76.0
351.140228 144.0
366.15976 172.0
367.165894 132.0
370.943512 100.0
371.449677 52.0
373.5047 68.0
382.154968 96.0
400.098877 132.0
400.169312 684.0
400.596649 72.0
401.082794 100.0
401.175476 344.0
401.912292 60.0
402.167419 160.0
402.215607 160.0
403.453949 76.0
403.869812 108.0
412.511108 44.0
415.123932 496.0
415.341553 176.0
417.242004 44.0
418.177582 428.0
418.22644 176.0
418.996063 148.0
420.639496 76.0
422.138916 168.0
426.521637 80.0
437.7836 128.0
440.135437 148.0
441.614807 84.0
442.129395 84.0
470.863617 140.0
484.881592 52.0
485.986633 200.0
493.903168 120.0
506.097076 84.0
514.319458 56.0
520.485474 108.0
535.117065 104.0
562.073425 136.0
609.797302 92.0
619.116699 64.0
622.61792 68.0
663.437561 96.0
674.468994 212.0
675.379028 56.0
687.186951 84.0
720.400635 140.0
765.047424 72.0
771.120422 52.0
774.46228 100.0
830.255188 88.0
890.576233 40.0
926.563538 164.0
941.65509 204.0
943.176453 40.0
957.447388 128.0
981.378906 80.0
989.951843 20.0
1041.819092 124.0
1042.384399 196.0
1055.243286 172.0
1064.054443 48.0
1067.368042 120.0
1074.512939 192.0
1074.766235 176.0
1079.163086 140.0
1082.120361 160.0
1090.628662 192.0
1098.741333 108.0
1113.973877 164.0
1128.221436 68.0
1135.043823 156.0
1136.901978 212.0
1166.247192 188.0
1177.468384 156.0
1186.493652 184.0
1193.421021 152.0
1199.100098 76.0
1207.336182 184.0
1207.391602 52.0
1211.163574 68.0
1211.523804 148.0
1214.844238 212.0
1218.21106 144.0
1219.364502 164.0
1238.845703 144.0
1248.384033 180.0
1253.649658 156.0
1264.072388 52.0
1266.784058 132.0
1268.364136 140.0
1281.824707 208.0
1288.245728 160.0
1291.247803 156.0
1309.563599 152.0
1312.237061 156.0
1319.847046 36.0
1327.116577 172.0
1334.682251 44.0
1347.17395 180.0
1352.797363 192.0
1353.771118 184.0
1357.339722 200.0
1369.207642 108.0
1370.658813 184.0
1372.317261 52.0
1375.600098 192.0
1377.904175 212.0
1378.687378 128.0
1379.03479 164.0
1383.52063 184.0
1384.005859 140.0
1384.398315 120.0
1391.872925 132.0
1393.826416 56.0
1396.919189 136.0
1401.691406 132.0
1412.62146 180.0
1417.735229 192.0
1421.251953 164.0
1426.832275 188.0
1432.159912 156.0
1432.596802 212.0
1441.937988 172.0
1455.399048 172.0
1455.664795 192.0
1459.745361 80.0
1461.58606 200.0
1462.697266 172.0
1470.608887 244.0
1471.56311 112.0
1481.765625 168.0
1483.144897 144.0
1486.220093 184.0
1490.489258 140.0
1490.973389 272.0
1491.772705 164.0
1493.272095 188.0
1496.334595 136.0
1503.75 40.0
