>compound Maraviroc
>formula C29H41F2N5O 
>ionization [M+H]+
>parentmass 514.3351938240905
#inchi InChI=1S/C29H41F2N5O/c1-19(2)27-34-33-20(3)36(27)25-17-23-9-10-24(18-25)35(23)16-13-26(21-7-5-4-6-8-21)32-28(37)22-11-14-29(30,31)15-12-22/h4-8,19,22-26H,9-18H2,1-3H3,(H,32,37)/t23-,24+,25?,26-/m0/s1
#inchikey GSNHKUDZZFZSJB
#Ion_Source LC-ESI
#Instrument qTof
#Compound_Source Isolated
#PI Sirenas
#Data_Collector Ed Esquenazi 
#Scan -1
#Precursor_MZ 514.335
#ExactMass 0.0
#Charge 1
#CAS_Number N/A
#Pubmed_ID N/A
#Smiles N/A
#INCHI_AUX N/A
#Library_Class 3
#SpectrumID CCMSLIB00000004790
#IonMode Positive
#UpdateWorkflowName UPDATE-SINGLE-ANNOTATED-BRONZE
#LibraryQualityString Bronze
#TaskID d19310cd93df49b68e9fcbec27720eb5
##Scan# 3
#SpectrumFile Maraviroc.mgf
#LibraryName fda_library.mgf
#MQScore -1
#Organism fda_library
#TIC_Query 0
#RT_Query -1
#MZErrorPPM -1
#SharedPeaks 0
#MassDiff 0
#LibMZ -1
#SpecMZ 514.335
#SpecCharge 0
#internalFilename spec-00000.mgf

>collision 10
101.496948 9.225
104.258881 5.204592
105.068748 121.138802
105.272171 13.3879
105.369682 14.86207
105.398689 7.402941
105.434792 8.04734
105.449875 11.425
105.469475 100.255798
105.481056 19.219049
105.487991 5.009
105.493881 23.386271
105.509964 5.713636
105.526169 4.984615
105.535088 28.11763
105.548759 10.20741
105.572495 14.61176
105.585274 11.85208
105.591629 7.254348
105.601448 15.83214
105.630173 19.20879
105.662437 30.869659
105.680367 18.809999
105.688904 10.04
105.702583 5.816667
105.71096 9.736364
105.725731 6.6
105.739334 18.75745
105.752312 7.928571
105.779015 26.61014
105.804863 14.79375
105.820541 5.802632
105.852715 7.226471
105.863487 6.608696
105.913521 15.40172
105.924675 15.46806
105.947182 9.984782
106.003906 9.289286
106.065422 38184.828125
106.107124 8.296969
106.226768 34.242828
106.240433 15.60295
106.257996 12.75182
106.272629 31.990231
106.287766 81.93586
106.309364 18.306669
106.321335 52.049469
106.340614 17.3384
106.348022 16.21406
106.357368 37.890911
106.364098 6.71
106.382607 62.139221
106.393234 40.214458
106.407829 7.688207
106.41333 38.675491
106.436165 34.876461
106.445526 39.148911
106.455635 9.613157
106.487373 22.21578
106.497902 20.003361
106.50518 33.684219
106.527031 62.63163
106.549461 16.407181
106.555504 27.51115
106.569534 11.42143
106.579544 17.146999
106.587639 20.209379
106.602135 9.085714
106.609352 43.178341
106.635071 19.70566
106.666946 32.172039
106.690018 13.96115
106.710014 15.37361
106.760239 9.807142
106.805176 29.729549
106.846527 7.006082
106.872437 8.978
106.923592 19.0914
106.978523 5.494231
107.067528 777.978516
107.127548 8.336111
107.204041 22.352921
107.427765 7.785975
107.460396 13.67424
107.499641 11.92903
107.628761 5.609783
107.678818 11.27619
107.723068 4.761
107.742073 8.027702
107.805428 14.02791
107.905739 7.258334
107.978058 6.27
108.050964 10.04615
108.467232 5.607759
109.047714 10.80152
109.058632 7.433108
109.086929 7.4
109.287613 6.655
109.334892 9.200491
109.648483 16.68889
110.096451 2662.795898
110.140396 20.68573
110.167343 10.14337
110.215019 6.6375
110.243408 9.863157
110.304443 7.6025
110.326553 7.859524
110.35215 4.442241
110.491066 3.657143
110.593483 6.670349
110.611771 4.65473
110.674034 10.85128
111.021507 15.5125
111.066093 24.207899
111.170631 7.079348
111.221893 11.17786
111.32402 11.275
111.509956 4.953125
111.780174 7.9
114.48027 5.311538
114.598587 6.108333
115.023438 5.275
115.054596 1817.119995
115.096474 16.745001
115.167732 14.85604
115.210159 6.802
115.2798 13.70206
115.433746 7.432895
115.522202 11.91548
116.363007 5.475
116.370575 6.105882
116.385666 12.58789
116.393387 10.28
116.405762 45.644211
116.418533 30.137859
116.428032 21.510031
116.434441 3.4375
116.442482 29.06638
116.453407 64.638901
116.464493 8.926755
116.47303 34.35564
116.485931 27.655411
116.492966 35.106682
116.504105 49.705212
116.512711 9.278125
116.527138 5.494231
116.533806 75.392174
116.558334 20.899179
116.56649 16.025
116.576302 35.95911
116.600014 9.975
116.606956 18.15752
116.6147 6.611112
116.623665 9.747449
116.643417 19.66643
116.667931 18.82276
116.686081 11.63929
116.702286 10.15203
116.733864 41.34893
116.748711 13.7881
116.792999 10.53389
116.808052 16.74819
116.836258 9.407258
116.862778 6.898
116.89183 10.2
116.924896 24.634899
116.956932 6.752027
117.017128 13.4949
117.07029 53290.96875
117.276787 1.656818
117.293503 9.96
117.310883 11.65625
117.343124 14.70625
117.353661 19.94161
117.368187 25.59413
117.394966 71.759521
117.406258 20.28018
117.440964 10.81851
117.465179 23.034531
117.474861 16.24225
117.482742 23.728279
117.497169 18.26667
117.504684 47.759689
117.518074 8.603689
117.552055 30.502239
117.55954 5.848376
117.565666 19.78409
117.574318 14.99251
117.587929 37.90723
117.615692 66.178802
117.636879 20.60877
117.644447 18.06979
117.664497 36.502201
117.67997 22.633129
117.709984 20.674879
117.740692 41.004711
117.755775 7.225
117.762054 10.44474
117.782249 10.6332
117.803329 14.53214
117.823318 29.32803
117.845512 15.74072
117.900536 9.456819
117.910561 7.4125
118.009743 12.36296
118.033348 12.31704
118.105637 10.375
118.182831 18.201349
118.201782 14.92604
118.224213 8.403846
118.257065 34.712929
118.277657 33.201881
118.336441 23.48082
118.382751 4.044565
118.40992 8.494811
118.430817 23.97175
118.519104 11.1089
118.538879 14.72117
118.656113 5.825
118.717041 9.661441
118.750694 28.070721
118.974449 9.632
119.229149 8.093889
119.346672 8.458064
119.385475 19.152031
119.40654 12.36071
119.494705 7.785256
119.612862 7.420455
119.632568 5.778125
119.700523 8.859524
120.084763 5.213334
120.231209 7.711364
120.422379 6.892568
120.933678 4.616667
120.948242 9.077055
121.162247 6.053261
121.471474 6.714286
121.875893 4.200807
122.095573 838.947327
122.291039 6.811765
122.710686 6.894736
123.357712 8.795931
123.409286 6.314189
123.417213 11.09389
123.468987 41.969521
123.486565 11.4
123.50573 13.40312
123.529083 7.481667
123.5355 14.36
123.559998 73.531868
123.587257 6.006429
123.614487 7.207143
123.625999 7.307559
123.672829 9.31368
123.679924 11.22105
123.718788 7.532447
123.737877 10.48167
123.77211 12.29138
123.873451 11.72115
124.005157 11.14318
124.040016 6.403571
124.07869 9.002631
124.112053 15634.040039
124.159828 129.667496
124.17334 27.532511
124.198402 7.2
124.216927 33.323669
124.239738 19.39596
124.265182 10.875
124.282303 28.133631
124.300079 19.127451
124.322449 23.79586
124.331917 8.73629
124.351624 18.777861
124.378609 28.39259
124.407005 38.726509
124.422112 7.30625
124.430122 18.644239
124.439392 8.507836
124.447899 33.00684
124.455811 12.49143
124.480591 20.32667
124.494812 8.588461
124.515213 21.657141
124.532547 7.006429
124.58432 26.97349
124.607086 6.423529
124.633118 5.015
124.643547 7.703125
124.696274 7.681
124.718285 27.254841
124.726738 5.008333
124.74231 16.63674
124.755737 14.18046
124.882195 4.405769
124.935051 14.34545
125.288597 10.1587
125.306313 5.811111
125.401299 11.81737
125.520592 9.253481
125.528389 10.2
125.610542 11.78026
125.653145 7.616071
125.668877 8.038095
125.789925 4.858333
125.985054 12.27656
126.069817 7.864286
126.10144 95.284721
126.245605 8.894117
126.580032 6.05
126.731781 19.601891
126.959007 5.328948
127.052818 75.184792
127.162926 6.005769
127.52626 6.730882
128.137466 6.061538
132.079239 54.146561
134.09584 346.230103
134.333313 6.911539
134.348465 9.152381
134.451553 10.82007
134.968277 8.221491
137.076004 34.961361
138.100739 72.044167
138.126511 64.020714
144.081863 74.2416
144.24437 5.408
146.07695 90.932632
146.243027 10.40833
147.061111 396.578186
147.099548 7.67161
147.34906 27.083811
148.207092 6.4625
151.554779 5.0
151.751694 20.41481
152.018524 6.892568
156.080673 133.636398
159.124924 10.18788
163.093018 34.283981
167.082733 9.745588
168.511261 11.36034
170.342102 9.897058
176.085632 41.182621
176.288086 5.002778
177.114563 41.5173
181.069077 22.07106
184.115982 36.265308
188.10791 57.914349
189.105698 31.519131
200.143066 22.871429
202.103394 36.547058
203.873489 6.806428
204.051971 8.55625
204.125244 15.46667
204.295547 6.000862
205.114319 33.882832
205.144669 1415.553955
205.306198 4.609524
205.323715 4.8
205.410889 8.613298
205.441711 15.618
205.470734 5.5225
206.238541 6.534091
212.105621 28.60779
219.193329 7.873684
221.272095 8.202381
226.158203 206.519897
226.205139 5.768421
226.461563 8.234323
226.531479 5.265385
226.556732 5.241667
226.898407 3.980263
227.968842 38.911171
232.111542 212.583298
232.506332 9.086225
232.53804 8.343254
232.681137 10.80833
232.741379 6.552273
233.025391 7.288043
235.18927 13.00667
242.163681 10.10471
247.062485 12.61737
247.138168 21.98962
247.19017 1141.045044
247.298553 10.06176
247.333801 4.0
247.393982 5.81875
247.493225 18.237869
247.530914 8.995161
247.948166 11.68993
248.314102 12.80476
250.314468 11.04631
250.737564 7.04939
250.798538 15.15201
250.815094 17.036739
250.94577 5.656034
251.302063 11.20409
251.774277 7.436364
252.119537 2494.583984
252.17807 10.82988
252.243622 26.659679
252.330292 43.016319
252.49472 8.881666
252.522522 11.10909
252.970825 18.69462
253.560425 8.402381
253.870743 5.802778
254.209076 7.063043
255.903534 4.886428
258.397217 6.264361
258.595886 8.7025
258.631989 4.62
258.662842 6.282692
258.734894 6.933333
258.761169 9.832018
258.811737 4.204167
258.972748 16.65568
259.012726 11.64892
259.047089 29.24572
259.44397 5.665322
259.847351 8.953723
259.874451 9.002381
260.08783 39.599972
260.144531 6529.566895
260.215118 61.92667
260.239471 31.515619
260.263733 22.5907
260.285492 7.9
260.299011 8.477564
260.328522 41.53289
260.402283 38.793209
260.436157 46.302891
260.459473 12.80317
260.476929 8.836364
260.501709 26.49041
260.546875 25.48871
260.602478 11.01667
260.633423 9.234782
260.676514 7.934091
260.692078 5.761
260.735413 22.585529
260.779938 6.240909
260.806366 6.87
260.88562 16.97456
261.026672 4.605
261.194519 6.813333
261.458862 18.248329
261.712799 12.60132
262.66217 5.714286
262.845306 10.40217
262.879089 7.447093
262.905396 11.448
263.137787 8.104311
263.808533 7.555769
264.352295 8.381098
269.731262 4.623148
274.563965 4.004167
275.106049 6.097973
275.193024 8.282692
275.315948 6.453333
275.821625 5.606081
275.995392 9.575
276.512878 19.880381
276.868073 4.688044
277.302765 16.29587
277.964142 6.655
278.207153 5.716667
278.267761 39.87215
278.284088 9.706579
278.329041 3.821552
278.350494 87.757828
278.38324 173.622803
278.399719 13.9148
278.4216 71.387543
278.45285 97.071342
278.49295 84.156433
278.51535 194.861893
278.547516 17.114281
278.567291 89.947388
278.588928 80.82785
278.616486 152.308594
278.637848 100.508797
278.668243 124.745796
278.687653 19.85714
278.705078 57.76963
278.723877 38.185131
278.755951 179.655594
278.788025 42.37907
278.81311 17.25568
278.837402 32.783699
278.897125 37.238411
278.924164 163.451797
279.039612 15.18409
279.061554 154.245895
279.226013 45.86121
279.281219 29.71209
279.31665 17.41824
279.332489 104.751801
279.410248 23.50959
279.543976 38.511372
279.693146 29.689199
279.7789 29.57358
279.811737 39.855801
279.863922 133.883896
279.944946 45.435429
279.984161 19.37051
280.03064 28.19593
280.094604 92.075577
280.151489 138809.40625
280.661926 46.314831
280.682892 120.300903
280.713226 138.041397
280.746979 46.706989
280.775757 193.699402
280.805664 32.276299
280.838959 152.131699
280.965363 20.370819
280.991089 173.566101
281.023987 71.294823
281.057465 163.190094
281.102844 103.7033
281.227448 174.128098
281.249664 40.844379
281.391632 18.844561
281.409393 74.150108
281.429352 51.3494
281.463226 41.813499
281.52948 101.2174
281.586212 56.892441
281.62854 10.19172
281.640503 22.956671
281.658722 56.61113
281.706207 51.927711
281.792328 54.114861
281.845154 23.44824
281.897827 24.78743
281.951263 31.34441
282.007965 10.825
282.12558 21.419781
282.190643 13.72258
282.430847 25.31362
282.4664 21.67837
282.563385 4.433333
282.611206 10.725
282.739929 7.081819
282.763031 6.605
282.872192 8.003125
283.020782 5.608696
283.06308 18.902081
283.16806 5.246154
283.208221 13.53444
283.225647 7.028571
283.377899 17.419081
283.588776 8.2
283.623901 7.254348
283.92392 8.623837
283.951935 5.52
283.970276 7.826087
283.996002 5.889286
284.029053 8.578947
284.116272 5.805
284.27948 8.570455
284.585571 7.819566
284.633179 20.346029
284.750122 7.718877
284.902588 8.36129
285.072968 7.252084
285.196259 6.207258
285.390137 6.844444
285.801697 8.252084
286.814423 7.938
287.652069 28.0112
287.928925 8.44939
290.81076 8.238095
292.825348 5.815385
293.808502 9.430769
294.285767 4.829878
296.863251 4.202273
316.340973 22.58074
316.999664 22.21269
334.877625 8.714286
336.203522 12.7308
348.942352 10.6963
372.235535 10.40409
377.258301 8.553125
386.63501 6.445
386.693634 16.469761
386.724579 27.820221
386.798157 6.756481
386.832825 31.67078
386.922272 11.83561
386.959564 26.49966
387.001282 25.272051
387.057983 24.76819
387.087219 5.288043
387.148102 13.20906
387.265198 15.90724
387.647308 28.74128
388.024902 3.839516
388.103119 8.041
388.537598 20.44735
388.880463 4.864285
388.991638 23.00465
389.152924 23.255819
389.197327 22.42841
389.240173 9809.09375
389.342682 62.415031
389.386047 11.38526
389.420654 75.139763
389.458405 34.214069
389.493866 46.764931
389.52179 130.968399
389.556 69.362328
389.5802 34.825001
389.608276 52.203651
389.646332 33.819889
389.696167 58.853001
389.733124 11.84694
389.762054 38.61768
389.793854 49.50959
389.938171 26.30274
390.674591 13.0
390.722778 9.817308
390.826385 11.37295
391.008423 9.854546
391.387848 15.63289
391.47226 8.65473
392.028717 9.48913
392.256287 9.080999
392.368073 6.845
393.260498 14.61622
393.347107 4.72803
393.377472 11.40409
398.226196 6.144118
444.578613 10.4
494.750031 2.205555
508.682587 9.289286
514.33197 23.500759
643.737854 18.049999
687.841064 32.022629
1258.141357 6.1
