>compound MECILLINAM
>formula C15H23N3O3S
>ionization [M+H]+
>parentmass 326.154449
#inchi InChI=1S/C15H23N3O3S/c1-15(2)11(14(20)21)18-12(19)10(13(18)22-15)16-9-17-7-5-3-4-6-8-17/h9-11,13H,3-8H2,1-2H3,(H,20,21)/t10-,11+,13-/m1/s1
#inchikey BWWVAEOLVKTZFQ
#Ion_Source LC-ESI
#Instrument qTof
#Compound_Source Commercial
#PI Dorrestein
#Data_Collector Garg_Neha
#Scan -1
#Precursor_MZ 326.153
#ExactMass 325.146
#Charge 1
#CAS_Number N/A
#Pubmed_ID N/A
#Smiles CC1(C)S[C@@H]2[C@H](N=CN3CCCCCC3)C(=O)N2[C@H]1C(=O)O
#INCHI_AUX N/A
#Library_Class 1
#SpectrumID CCMSLIB00000078990
#IonMode Positive
#UpdateWorkflowName UPDATE-SINGLE-ANNOTATED-GOLD
#LibraryQualityString Gold
#TaskID 278b19f5865741e282cec7349aa7e7a1
##Scan# 1112
#SpectrumFile NCP003352_C2_D11_BC5_01_15719.mzXML
#LibraryName NIHcollectionI_05062014.mgf
#MQScore -1
#Organism NIHcollectionI_05062014
#TIC_Query 0
#RT_Query -1
#MZErrorPPM -1
#SharedPeaks 0
#MassDiff 0
#LibMZ -1
#SpecMZ 326.153
#SpecCharge 0
#internalFilename spec-00000.mgf

>collision 10
58.920403 168.0
65.398933 216.0
73.037933 156.0
85.020134 168.0
88.288216 144.0
91.294342 200.0
96.959152 140.0
98.096985 188.0
100.008698 360.0
100.114639 188.0
101.016785 188.0
101.948685 180.0
105.14856 156.0
110.097466 140.0
112.022926 160.0
112.112633 168.0
113.072113 156.0
114.038078 436.0
115.040596 168.0
116.031853 316.0
117.32962 152.0
120.718788 144.0
122.096252 152.0
126.037773 140.0
126.089783 752.0
127.094627 172.0
132.484253 228.0
134.415359 220.0
139.123306 428.0
140.132874 140.0
143.107712 140.0
149.109802 160.0
153.049545 432.0
154.052109 196.0
160.043045 2216.0
161.0466 840.0
162.033981 328.0
162.121826 144.0
163.719742 148.0
166.029999 152.0
167.11882 2568.0
168.11908 448.0
169.121643 164.0
175.000793 160.0
180.172623 148.0
181.050156 316.0
183.018265 164.0
183.057312 136.0
187.526077 144.0
187.850555 156.0
191.179855 168.0
198.701553 184.0
199.053238 868.0
200.408173 180.0
201.036316 104.0
202.042847 184.0
227.049591 148.0
229.029175 124.0
229.616302 156.0
233.15239 148.0
233.520264 184.0
237.601288 188.0
238.121567 260.0
239.126816 288.0
239.523026 140.0
240.071182 168.0
254.86322 168.0
265.099823 144.0
267.285217 172.0
269.123566 144.0
270.634125 164.0
274.247742 196.0
274.587341 204.0
277.444244 172.0
280.152649 180.0
283.004791 176.0
283.118652 144.0
296.28537 192.0
300.141663 180.0
301.048645 124.0
301.138977 156.0
301.902771 156.0
308.127686 176.0
313.662292 152.0
322.858185 208.0
323.208771 360.0
324.218048 656.0
324.283081 176.0
325.166382 144.0
326.091766 136.0
326.099854 128.0
326.154449 37280.0
326.294098 176.0
326.600952 168.0
326.62793 144.0
326.80014 120.0
327.158722 3932.0
327.212433 184.0
327.711304 184.0
328.088013 232.0
328.152802 2500.0
329.141144 192.0
329.240753 140.0
329.398956 140.0
329.496643 128.0
329.524323 112.0
337.230652 284.0
337.306793 148.0
338.220581 132.0
689.795715 140.0
1091.871094 192.0
1772.240845 164.0
1899.447144 248.0
1903.404663 172.0
1973.018188 176.0
