>compound MLS000728534-01![6-methoxy-2-oxo-3-(2-oxochromen-7-yl)oxychromen-7-yl] acetate
>formula C21H14O8
>ionization [M+H]+
>parentmass 395.077
#inchi InChI=1S/C21H14O8/c1-11(22)26-18-10-16-13(7-17(18)25-2)8-19(21(24)29-16)27-14-5-3-12-4-6-20(23)28-15(12)9-14/h3-10H,1-2H3
#inchikey JGZOXTSCOZGQNQ
#Ion_Source LC-ESI
#Instrument qTof
#Compound_Source NIH Natural Product Library
#PI Dorrestein
#Data_Collector VVP/LMS
#Scan -1
#Precursor_MZ 395.077
#ExactMass 394.069
#Charge 1
#CAS_Number N/A
#Pubmed_ID N/A
#Smiles COc1cc2cc(Oc3ccc4ccc(=O)oc4c3)c(=O)oc2cc1OC(=O)C
#INCHI_AUX N/A
#Library_Class 1
#SpectrumID CCMSLIB00000079906
#IonMode Positive
#UpdateWorkflowName UPDATE-SINGLE-ANNOTATED-GOLD
#LibraryQualityString Gold
#TaskID b1d8e8f6646f4e71acdff9ca3d919d08
##Scan# 2122
#SpectrumFile p1-F12_GF12_01_17944.mzXML
#LibraryName NIH_Natural_Products_Library.mgf
#MQScore -1
#Organism NIH_Natural_Products_Library
#TIC_Query 0
#RT_Query -1
#MZErrorPPM -1
#SharedPeaks 0
#MassDiff 0
#LibMZ -1
#SpecMZ 395.077
#SpecCharge 0
#internalFilename spec-00000.mgf

>collision 10
94.982689 196.0
95.046295 56.0
95.132103 80.0
95.425461 116.0
95.762108 44.0
96.386375 216.0
96.740379 88.0
97.686241 116.0
97.822021 128.0
97.959862 52.0
98.577408 48.0
99.129509 140.0
99.482552 148.0
99.619576 156.0
100.892998 176.0
101.32328 252.0
101.337303 76.0
101.535751 92.0
101.973427 236.0
102.047318 148.0
102.206703 188.0
102.674049 140.0
102.805183 196.0
102.999001 160.0
103.302216 124.0
104.458481 228.0
105.032906 180.0
105.141045 116.0
106.13932 232.0
106.211105 156.0
107.232986 96.0
107.577454 172.0
108.019669 160.0
109.241493 232.0
109.270622 236.0
109.680862 160.0
112.645912 212.0
114.570007 140.0
114.646713 48.0
114.806602 164.0
114.840729 216.0
115.096817 108.0
115.182243 144.0
116.104713 76.0
116.132599 164.0
116.330009 156.0
117.032242 308.0
117.323883 140.0
117.347595 84.0
117.84185 200.0
117.949898 204.0
118.040337 496.0
118.064491 32.0
118.475746 68.0
118.551582 220.0
118.694649 164.0
118.72718 92.0
119.452621 136.0
119.696373 128.0
119.831421 180.0
120.028084 208.0
120.582077 76.0
121.030441 408.0
121.793709 124.0
121.940918 160.0
122.352257 208.0
122.667282 164.0
123.064384 112.0
123.247711 128.0
124.110954 96.0
125.88443 184.0
127.731209 80.0
127.785202 228.0
127.884216 152.0
128.073349 180.0
129.215607 192.0
129.74556 120.0
129.985977 80.0
130.040436 160.0
131.047836 168.0
131.129868 88.0
131.218781 156.0
131.972229 228.0
132.578827 156.0
132.982468 160.0
133.030121 216.0
134.03746 200.0
134.670151 112.0
135.04538 436.0
135.366272 212.0
136.015488 164.0
136.047928 128.0
136.854675 204.0
137.018921 388.0
137.260101 248.0
137.362717 52.0
137.708176 52.0
137.759567 84.0
138.016647 100.0
138.13826 120.0
138.451889 144.0
138.840927 60.0
138.960556 220.0
139.052078 168.0
139.143616 152.0
139.394943 96.0
140.730499 232.0
141.304825 168.0
141.534409 228.0
144.110382 140.0
144.753815 192.0
144.931061 168.0
145.02597 344.0
146.035645 3236.0
146.283188 92.0
146.398758 40.0
146.558334 148.0
147.040985 452.0
147.141418 224.0
147.242828 96.0
147.334625 52.0
147.588394 76.0
147.827866 80.0
148.014267 216.0
148.043167 180.0
148.215302 188.0
148.334061 56.0
148.467407 140.0
148.496521 40.0
149.023544 988.0
149.826157 188.0
150.027985 628.0
150.201569 176.0
150.792435 200.0
151.038147 752.0
151.676025 204.0
151.764282 116.0
151.820679 208.0
151.989944 212.0
152.040054 124.0
152.237869 52.0
152.348404 180.0
153.046875 176.0
153.064117 124.0
153.576721 164.0
154.681213 108.0
154.824829 156.0
156.727631 112.0
157.066681 120.0
159.039474 168.0
159.488007 120.0
160.008484 496.0
161.019882 424.0
162.03244 620.0
162.244583 72.0
162.546402 160.0
162.833267 144.0
162.904388 252.0
163.040192 520.0
163.153427 220.0
163.384857 152.0
164.0103 592.0
164.04599 604.0
164.103058 60.0
164.411713 76.0
164.437241 144.0
164.912292 112.0
164.937851 88.0
164.976196 84.0
165.017746 2084.0
165.051529 180.0
165.069809 184.0
165.160309 80.0
165.800385 128.0
165.877274 84.0
165.913162 204.0
165.95932 56.0
166.014999 168.0
166.075562 416.0
166.272263 72.0
166.582947 72.0
167.026352 236.0
167.666183 204.0
168.231049 204.0
170.07518 172.0
170.2117 144.0
170.475372 192.0
172.102081 172.0
172.860107 132.0
172.965042 196.0
173.023575 212.0
173.061661 100.0
173.947784 228.0
176.01416 244.0
176.323578 152.0
176.36058 112.0
177.019989 1044.0
177.069656 124.0
177.231247 244.0
177.427368 68.0
177.981888 104.0
178.026886 3192.0
178.085464 116.0
178.335205 40.0
178.444199 60.0
178.508011 80.0
178.734116 104.0
178.787338 112.0
178.973679 160.0
179.032272 6520.0
179.133469 40.0
179.189423 48.0
179.208069 96.0
179.28801 104.0
179.306656 44.0
179.377167 80.0
179.42128 44.0
179.455933 92.0
179.816055 64.0
179.981567 140.0
180.036514 408.0
180.093735 72.0
180.433105 124.0
180.491928 76.0
180.54808 52.0
180.713928 84.0
180.738007 160.0
180.989624 120.0
181.036285 196.0
181.059967 312.0
181.076233 128.0
181.209244 72.0
181.378082 132.0
181.906509 76.0
182.072983 184.0
183.32663 124.0
183.375137 120.0
184.053558 160.0
185.022888 184.0
185.182648 40.0
186.542053 76.0
186.952759 64.0
187.219543 180.0
187.486526 232.0
188.488022 124.0
189.013672 496.0
189.051331 40.0
189.711426 132.0
190.028702 372.0
190.619888 144.0
191.031967 668.0
192.041458 1300.0
192.156311 28.0
192.473724 236.0
193.014069 508.0
193.047256 280.0
193.065445 216.0
193.63797 84.0
193.806946 160.0
193.915024 72.0
193.948273 72.0
194.014801 224.0
194.070251 156.0
194.114624 156.0
194.220016 80.0
194.278259 136.0
195.043106 204.0
196.054993 176.0
197.060181 204.0
197.848206 152.0
198.405701 196.0
199.041107 376.0
201.015854 336.0
201.560837 192.0
201.874603 104.0
202.013199 164.0
202.095245 168.0
202.902435 104.0
203.027191 108.0
205.07135 104.0
205.125259 92.0
206.015839 144.0
206.593307 104.0
207.042679 164.0
207.174438 176.0
208.034485 1256.0
208.06633 48.0
208.137802 76.0
208.945755 120.0
209.042206 428.0
209.965439 52.0
210.031784 156.0
210.057739 156.0
211.04628 192.0
211.728363 128.0
212.049896 252.0
212.174591 148.0
213.016159 120.0
213.048843 160.0
214.019516 160.0
214.943512 92.0
215.025223 168.0
215.46907 80.0
218.11824 232.0
220.558884 136.0
221.054352 352.0
221.425797 180.0
223.039246 156.0
223.081467 164.0
224.075455 48.0
225.048553 152.0
225.089569 180.0
225.83371 272.0
226.067062 132.0
226.46225 136.0
227.04068 116.0
227.220642 60.0
227.505753 176.0
228.067474 48.0
228.121582 172.0
229.075516 60.0
230.315262 144.0
230.496536 124.0
233.555496 212.0
235.18869 200.0
235.591766 52.0
236.05481 368.0
236.089981 188.0
237.053452 468.0
237.725845 56.0
238.058899 276.0
239.038177 136.0
240.034973 116.0
240.236511 68.0
240.310562 112.0
241.036163 116.0
241.07016 172.0
241.227783 92.0
242.041458 124.0
242.063141 132.0
242.152939 128.0
243.505188 164.0
243.688461 152.0
244.017914 88.0
248.057617 168.0
249.053879 320.0
249.137131 164.0
249.445099 68.0
251.03035 164.0
251.18013 48.0
252.034302 148.0
252.92395 156.0
253.048447 712.0
253.078354 344.0
253.890701 68.0
254.054398 188.0
254.087357 156.0
254.160324 256.0
254.569809 204.0
254.644867 164.0
254.668274 52.0
255.011414 200.0
255.059082 164.0
255.809799 64.0
256.010376 148.0
256.064514 100.0
256.485107 164.0
257.097473 44.0
258.042969 120.0
259.028625 184.0
260.096405 112.0
261.359406 104.0
261.497772 156.0
263.361389 108.0
263.419525 84.0
263.93985 196.0
264.045563 256.0
265.047943 928.0
266.049042 216.0
266.146454 52.0
266.484253 164.0
267.036865 180.0
267.06424 124.0
267.8367 76.0
267.97113 112.0
268.033142 312.0
268.101471 132.0
268.127533 88.0
268.583984 116.0
268.776489 80.0
269.040619 224.0
269.386993 64.0
270.04895 116.0
270.358063 64.0
271.029358 108.0
272.887115 104.0
273.120605 188.0
273.647125 144.0
274.230194 136.0
275.824432 184.0
276.754059 108.0
277.043915 160.0
277.227722 212.0
278.046875 144.0
278.372192 148.0
279.010132 48.0
279.043396 132.0
279.702087 144.0
279.815247 164.0
280.075012 32.0
280.31488 132.0
281.046173 820.0
281.185272 184.0
282.0513 1064.0
283.054108 136.0
284.056091 128.0
284.153381 188.0
284.260773 132.0
284.378204 104.0
285.070038 164.0
285.483521 156.0
288.092316 92.0
291.939331 52.0
292.032471 192.0
293.041687 596.0
293.440948 48.0
294.047668 740.0
295.059235 112.0
296.027222 160.0
296.05835 160.0
296.397491 64.0
296.640839 52.0
296.853394 172.0
297.042358 208.0
297.078156 340.0
297.862427 160.0
298.068573 140.0
298.126984 88.0
300.182129 240.0
302.119751 124.0
303.106506 148.0
304.553162 160.0
305.272583 196.0
307.024261 52.0
307.142822 92.0
307.44986 68.0
309.040466 296.0
309.068207 412.0
309.190277 84.0
309.333771 200.0
309.697937 40.0
310.04657 2684.0
310.177979 148.0
310.304169 56.0
310.342743 44.0
310.433899 52.0
310.504059 48.0
310.549652 64.0
310.591736 88.0
310.682922 52.0
311.049896 576.0
311.950653 40.0
312.050751 152.0
312.552063 212.0
313.05896 148.0
313.950531 56.0
314.239777 68.0
315.733978 192.0
316.717896 192.0
320.020569 60.0
320.86853 136.0
320.907745 136.0
321.036438 1324.0
321.978241 204.0
322.044464 232.0
323.045898 132.0
323.215118 128.0
323.601685 88.0
323.72702 52.0
324.038635 128.0
324.687439 124.0
325.042572 60.0
325.071289 136.0
325.096405 228.0
328.009674 128.0
330.092834 92.0
330.132629 156.0
331.910614 168.0
332.992035 196.0
333.220886 184.0
334.049744 132.0
334.784973 44.0
334.967072 48.0
335.029022 84.0
335.171112 128.0
335.342377 220.0
335.830963 84.0
336.160767 108.0
336.29068 72.0
336.546204 96.0
336.703247 124.0
337.036743 1184.0
337.11969 160.0
337.19278 68.0
337.338196 108.0
337.426727 104.0
337.470612 88.0
337.510132 84.0
337.572998 128.0
337.620544 136.0
337.858276 160.0
338.040405 5172.0
338.100464 200.0
338.132721 116.0
338.161987 108.0
338.187622 80.0
338.312073 36.0
338.352356 100.0
338.388947 52.0
338.443878 68.0
338.744202 36.0
338.846771 64.0
338.942017 116.0
338.985992 92.0
339.041626 840.0
339.110596 84.0
339.176575 56.0
339.220551 76.0
339.282898 80.0
339.462555 56.0
339.594574 88.0
339.895386 112.0
340.049805 320.0
340.090332 68.0
340.398285 40.0
340.547699 76.0
340.629669 56.0
341.049866 180.0
341.13678 88.0
341.169861 124.0
341.445618 84.0
342.314117 88.0
342.42627 196.0
342.509308 56.0
343.183716 124.0
343.973206 156.0
344.290741 44.0
344.759918 68.0
345.41803 52.0
345.932373 128.0
347.273743 56.0
347.529694 152.0
348.457916 196.0
348.755188 132.0
349.13443 140.0
350.142975 104.0
350.970245 52.0
350.996338 232.0
351.046814 528.0
351.091919 140.0
351.828369 220.0
352.063599 156.0
352.104675 32.0
352.156952 84.0
352.346008 68.0
352.392303 84.0
352.795929 52.0
352.949219 160.0
352.975403 120.0
353.065582 12260.0
353.1362 48.0
353.179871 108.0
353.214752 48.0
353.328644 152.0
353.371887 80.0
353.46344 72.0
353.940796 76.0
354.068054 2528.0
354.191711 176.0
354.259155 52.0
354.326569 132.0
354.362854 144.0
354.596375 64.0
354.72757 148.0
354.776306 44.0
355.073456 692.0
355.511444 76.0
355.601501 36.0
355.796722 56.0
355.849274 68.0
355.98819 40.0
356.040771 88.0
356.076019 168.0
356.172241 112.0
356.382599 88.0
356.850067 96.0
357.096863 176.0
357.198395 44.0
357.506927 68.0
357.646179 116.0
358.120605 84.0
360.879181 72.0
362.309784 92.0
367.529938 48.0
372.695251 104.0
374.195251 56.0
379.325592 168.0
394.321289 124.0
395.055481 288.0
395.25061 56.0
396.771515 44.0
423.995422 92.0
435.19519 60.0
441.136108 152.0
469.799866 104.0
498.04126 84.0
500.264618 104.0
507.282532 188.0
519.312988 28.0
521.683228 64.0
524.459961 80.0
524.906738 108.0
536.405334 128.0
540.404724 108.0
550.603516 68.0
565.763245 36.0
570.56427 60.0
609.7323 36.0
633.94635 48.0
636.273682 100.0
708.882141 56.0
731.157104 84.0
815.821838 168.0
840.657349 64.0
850.281372 36.0
852.215088 232.0
907.598328 176.0
928.554199 60.0
959.366516 68.0
963.118347 80.0
973.920654 64.0
981.600403 84.0
995.561584 52.0
1033.245483 124.0
1057.628418 188.0
1063.065918 112.0
1083.212402 208.0
1092.027588 88.0
1104.229126 184.0
1113.434814 72.0
1123.559082 176.0
1133.896729 216.0
1147.448242 156.0
1160.381714 112.0
1165.580933 148.0
1174.81311 60.0
1193.634399 224.0
1200.768799 160.0
1212.161621 196.0
1269.549683 216.0
1296.339722 140.0
1297.680054 144.0
1302.597046 136.0
1305.499634 60.0
1313.869263 124.0
1335.281372 68.0
1338.76001 60.0
1358.883301 196.0
1364.707642 184.0
1410.143433 140.0
1431.276123 176.0
1433.234497 212.0
1442.154541 196.0
1442.388916 176.0
1453.112183 164.0
1458.215088 164.0
1460.153809 36.0
1470.072632 168.0
1470.133667 212.0
1480.767944 208.0
1482.821289 160.0
1497.572876 68.0
1499.506714 144.0
