>compound Podofilox
>formula C22H22O8 
>ionization [M+H]+
>parentmass 415.1387441160905
#inchi InChI=1S/C22H22O8/c1-25-16-4-10(5-17(26-2)21(16)27-3)18-11-6-14-15(30-9-29-14)7-12(11)20(23)13-8-28-22(24)19(13)18/h4-7,13,18-20,23H,8-9H2,1-3H3/t13-,18+,19-,20-/m0/s1
#inchikey YJGVMLPVUAXIQN
#Ion_Source LC-ESI
#Instrument qTof
#Compound_Source Commercial
#PI Dorrestein
#Data_Collector Garg_Neha
#Scan -1
#Precursor_MZ 415.141
#ExactMass 414.131
#Charge 1
#CAS_Number N/A
#Pubmed_ID N/A
#Smiles N/A
#INCHI_AUX N/A
#Library_Class 1
#SpectrumID CCMSLIB00000077107
#IonMode Positive
#UpdateWorkflowName UPDATE-SINGLE-ANNOTATED-GOLD
#LibraryQualityString Gold
#TaskID 48f7f52fc6d249b5abbcc6e7b3df5969
##Scan# 1281
#SpectrumFile NCP003106_E2_F11_BB4_01_15707.mzXML
#LibraryName NIH_Clinical_Collection_2.mgf
#MQScore -1
#Organism NIHcollection2_04212014_2_mgf
#TIC_Query 0
#RT_Query -1
#MZErrorPPM -1
#SharedPeaks 0
#MassDiff 0
#LibMZ -1
#SpecMZ 415.141
#SpecCharge 0
#internalFilename spec-00000.mgf

>collision 10
45.110863 144.0
45.316963 188.0
46.228577 232.0
48.727077 168.0
48.953804 144.0
49.411633 140.0
49.659576 196.0
50.561279 152.0
52.286789 144.0
53.213379 176.0
53.594452 256.0
53.987125 184.0
54.570728 160.0
55.252117 156.0
55.557301 140.0
55.597363 168.0
55.861839 156.0
56.70998 236.0
56.841953 148.0
58.411736 188.0
58.566998 168.0
60.342564 172.0
60.548367 176.0
61.051193 144.0
61.163216 152.0
62.515476 148.0
62.715496 140.0
62.859009 148.0
62.99321 152.0
63.334885 208.0
67.012444 164.0
68.120018 196.0
70.747437 188.0
72.352982 180.0
72.905945 180.0
73.001137 196.0
73.266663 220.0
75.049149 140.0
75.579414 160.0
77.16333 184.0
77.617424 144.0
78.24292 180.0
79.214203 152.0
82.664505 192.0
83.371758 184.0
89.407082 160.0
89.514389 144.0
89.714104 200.0
89.976334 164.0
91.630127 156.0
91.811211 232.0
92.565193 128.0
94.998428 152.0
95.684441 160.0
96.587975 176.0
99.054459 168.0
99.381569 200.0
99.844414 168.0
100.065285 144.0
100.312317 188.0
102.857903 152.0
103.053482 316.0
103.203362 184.0
104.05838 148.0
104.810944 156.0
105.030113 252.0
105.068497 148.0
105.701225 240.0
107.050873 184.0
107.658234 152.0
108.191689 152.0
108.332512 180.0
108.579163 200.0
109.2584 172.0
110.541588 144.0
110.681831 144.0
111.823853 252.0
114.255203 176.0
114.536194 160.0
115.05442 1280.0
116.057503 160.0
116.674004 184.0
117.070374 2784.0
117.35218 208.0
118.07592 276.0
119.085556 160.0
121.032997 204.0
121.063652 164.0
122.036804 612.0
122.064308 144.0
123.043663 148.0
125.266907 220.0
125.38723 144.0
126.045547 216.0
126.070129 172.0
126.876961 164.0
127.05661 468.0
129.802536 184.0
130.658813 176.0
131.049591 388.0
131.73027 212.0
132.036285 108.0
132.058304 188.0
132.080002 148.0
133.064667 1500.0
134.045242 144.0
134.068161 152.0
134.866852 164.0
135.044876 3176.0
136.047913 544.0
137.05249 200.0
138.065445 324.0
139.042694 228.0
139.074142 304.0
141.033173 148.0
142.300552 184.0
142.970871 208.0
143.048584 2064.0
144.052322 188.0
144.509964 148.0
145.064941 10684.0
146.040466 148.0
146.068283 1416.0
146.401474 152.0
146.555634 140.0
147.043854 992.0
147.075165 244.0
147.096588 156.0
147.772522 208.0
147.966141 188.0
149.026749 200.0
149.05806 296.0
150.765854 240.0
151.038193 860.0
152.049133 180.0
153.054749 420.0
154.061554 524.0
154.125061 148.0
154.991089 152.0
155.048019 1572.0
156.057114 248.0
156.154724 200.0
157.057007 144.0
158.036301 176.0
158.123871 168.0
159.041656 764.0
160.054352 328.0
160.114716 372.0
160.613831 180.0
160.702118 176.0
160.992401 156.0
161.059647 3276.0
161.113373 152.0
161.421997 140.0
162.063141 452.0
162.805634 160.0
163.037766 180.0
163.070587 400.0
163.163895 148.0
164.08551 156.0
165.84169 168.0
166.061462 284.0
167.035675 160.0
167.061386 212.0
167.08197 208.0
168.076965 196.0
168.430191 200.0
169.086716 1736.0
169.177505 176.0
169.654175 148.0
170.087738 368.0
170.458466 176.0
170.950241 168.0
171.044708 384.0
171.335587 140.0
171.40593 156.0
171.439819 188.0
171.562317 148.0
172.046402 220.0
172.146759 140.0
172.483795 168.0
173.059814 4768.0
174.066605 912.0
174.321121 108.0
175.041321 528.0
175.075729 4712.0
175.96991 168.0
176.046478 160.0
176.078781 948.0
176.450745 172.0
177.055603 392.0
177.080536 148.0
178.989944 188.0
179.685593 188.0
180.040314 160.0
180.79985 188.0
180.877457 172.0
181.086502 644.0
182.089462 156.0
183.081757 180.0
183.634247 188.0
184.030472 140.0
184.709259 172.0
184.776886 208.0
184.858063 188.0
184.99794 152.0
185.059875 13060.0
185.134308 200.0
185.85379 148.0
186.06398 1244.0
186.708191 160.0
187.038391 340.0
187.065033 320.0
187.124527 144.0
188.046844 2812.0
188.152344 176.0
188.321655 164.0
189.053955 5668.0
189.963989 140.0
190.060135 424.0
190.746979 144.0
191.029831 196.0
191.070587 268.0
192.077866 152.0
192.971344 180.0
194.051117 176.0
195.065369 700.0
195.096939 232.0
195.846313 184.0
196.069992 112.0
197.074554 212.0
199.042786 280.0
200.690277 124.0
200.934296 140.0
201.054474 2176.0
201.414185 160.0
202.054718 500.0
202.08136 152.0
203.069748 4740.0
203.62912 196.0
204.076477 1136.0
205.076492 192.0
205.439438 148.0
205.610199 156.0
206.044662 180.0
206.127518 216.0
207.068893 124.0
208.534805 160.0
209.21077 192.0
210.072418 232.0
211.045685 204.0
211.178711 148.0
211.583832 168.0
212.047287 216.0
212.131897 128.0
213.067291 140.0
217.064484 148.0
217.158325 152.0
218.568436 188.0
219.065247 5908.0
219.116074 200.0
219.672867 160.0
219.806015 232.0
220.068451 744.0
221.066391 136.0
221.100357 140.0
221.500061 168.0
222.068619 144.0
223.096161 176.0
223.920776 156.0
224.049866 180.0
224.097076 152.0
225.382507 208.0
226.058304 144.0
226.088226 104.0
227.027618 160.0
228.036591 240.0
228.413483 236.0
228.9944 160.0
229.049652 13144.0
230.053726 1864.0
231.06366 336.0
231.07666 420.0
231.864563 140.0
232.074448 204.0
232.336807 104.0
232.96904 244.0
233.075378 160.0
234.147583 820.0
235.074768 168.0
235.154541 304.0
236.451172 196.0
237.054886 332.0
238.065475 220.0
238.094437 188.0
239.022797 184.0
239.067169 1404.0
240.07431 380.0
240.551468 152.0
241.080048 172.0
243.586136 168.0
244.042969 140.0
244.080276 204.0
245.051605 120.0
245.347473 168.0
246.068146 108.0
246.941406 96.0
246.976196 152.0
247.014114 148.0
247.060913 59940.0
247.316345 124.0
247.398651 96.0
247.6978 104.0
247.905426 104.0
248.063538 6120.0
248.826385 172.0
249.065918 724.0
249.094437 280.0
249.545868 240.0
249.839111 124.0
249.894974 140.0
249.93367 120.0
250.067947 120.0
250.951965 112.0
251.035553 152.0
251.102066 244.0
252.075378 336.0
252.121185 156.0
253.047989 180.0
253.082611 128.0
254.054932 356.0
254.089447 196.0
255.067719 324.0
259.074829 188.0
260.068909 160.0
261.08316 484.0
262.059937 280.0
262.098511 508.0
263.070679 636.0
264.079041 484.0
265.082642 148.0
265.747345 184.0
267.065155 1352.0
267.098785 220.0
268.070862 288.0
268.101593 160.0
269.040955 172.0
269.07666 828.0
270.081207 284.0
272.423828 188.0
273.106354 144.0
274.062042 360.0
274.345673 232.0
275.068359 732.0
275.093536 540.0
276.07724 424.0
277.085175 584.0
278.054993 172.0
278.090759 444.0
279.063904 332.0
279.098633 344.0
281.04187 188.0
281.088593 244.0
281.743011 152.0
282.087738 5496.0
282.844269 160.0
283.060822 2672.0
283.089661 1768.0
284.06546 228.0
284.093658 228.0
285.115906 212.0
286.227295 212.0
288.079346 264.0
289.086609 680.0
289.150726 152.0
289.30304 176.0
290.093109 720.0
291.067505 1188.0
291.099243 848.0
292.070343 376.0
292.107727 652.0
293.09549 452.0
295.094055 276.0
297.077271 1540.0
298.082458 3180.0
299.08548 532.0
300.078339 192.0
303.065247 244.0
304.070984 580.0
305.082336 1436.0
305.63089 152.0
306.049133 316.0
306.089081 2844.0
306.358246 228.0
307.094086 900.0
308.068359 124.0
308.103363 592.0
309.074951 256.0
310.073181 164.0
311.088043 404.0
312.099365 2312.0
313.106842 8196.0
313.203369 140.0
313.374298 108.0
314.109619 1472.0
315.115082 396.0
316.073578 176.0
317.075134 144.0
317.121796 148.0
318.091003 280.0
318.949738 140.0
319.051178 148.0
319.096008 1224.0
320.10434 2628.0
320.234222 176.0
321.075012 1004.0
321.110687 2272.0
321.257233 168.0
322.116943 1272.0
323.057098 176.0
323.08493 328.0
323.12207 340.0
323.676849 156.0
324.060089 160.0
324.097809 184.0
325.105927 212.0
326.116394 296.0
327.125122 232.0
329.101807 140.0
331.054565 148.0
332.066315 116.0
333.07605 748.0
334.047729 156.0
334.08078 448.0
335.090424 1128.0
335.9841 168.0
336.099274 656.0
337.10733 364.0
337.799683 152.0
338.111877 568.0
339.088135 344.0
339.109436 128.0
340.084167 208.0
341.128235 160.0
343.198273 132.0
344.227875 180.0
345.24408 152.0
346.085693 208.0
347.095795 420.0
347.262512 168.0
348.1008 656.0
349.065155 356.0
349.112366 556.0
350.076263 368.0
350.114319 196.0
350.884369 140.0
351.022339 148.0
351.084808 368.0
351.119598 2128.0
351.858124 156.0
352.091217 316.0
352.125732 756.0
353.137726 1104.0
354.00058 172.0
354.107849 320.0
354.139435 272.0
355.112976 1288.0
356.118011 268.0
358.116699 188.0
359.085327 164.0
361.269135 132.0
363.08667 156.0
364.097778 304.0
365.0401 152.0
365.102203 360.0
365.217346 176.0
366.073151 148.0
366.110901 1376.0
367.084808 196.0
367.11319 408.0
368.087067 140.0
369.128052 656.0
370.140472 148.0
376.037659 156.0
379.116058 2292.0
380.1203 512.0
382.102936 272.0
383.110748 128.0
396.133698 200.0
396.616425 140.0
396.8479 328.0
396.971039 176.0
397.018311 128.0
397.070984 120.0
397.128601 53348.0
397.385986 276.0
398.131012 7996.0
398.532867 104.0
398.809174 156.0
399.132416 1520.0
400.135651 236.0
400.363251 148.0
401.663788 172.0
405.015289 100.0
414.129089 1548.0
415.131378 500.0
415.420258 156.0
416.134674 124.0
417.236816 840.0
418.237732 312.0
442.528839 156.0
744.242859 224.0
1074.163086 180.0
1148.881958 176.0
1254.296387 216.0
1383.110718 144.0
1429.029907 200.0
1469.710693 156.0
1490.799316 164.0
1492.398193 156.0
1507.95459 180.0
1606.335327 144.0
1613.146851 260.0
1698.854736 140.0
1701.333008 260.0
1741.091064 180.0
1750.421509 280.0
1752.570557 196.0
1757.356445 208.0
1766.4375 140.0
1780.879883 184.0
1785.94812 212.0
1796.629272 192.0
1811.168945 180.0
1819.241577 148.0
1832.806885 216.0
1833.147827 156.0
1834.920654 164.0
1872.125732 212.0
1872.892212 156.0
1916.764404 184.0
1957.074585 152.0
1981.309692 228.0
1981.602051 148.0
