>compound MLS001139239-01!(2S)-N-(3-methoxyphenyl)-5-oxo-1-(3-oxo-1H-2-benzofuran-1-yl)pyrrolidine-2-carboxamide
>formula C20H18N2O5
>ionization [M+H]+
>parentmass 367.129
#inchi InChI=1S/C20H18N2O5/c1-26-13-6-4-5-12(11-13)21-18(24)16-9-10-17(23)22(16)19-14-7-2-3-8-15(14)20(25)27-19/h2-8,11,16,19H,9-10H2,1H3,(H,21,24)/t16-,19?/m0/s1
#inchikey WZJOBLBUWPAARZ
#Ion_Source LC-ESI
#Instrument qTof
#Compound_Source NIH Natural Product Library
#PI Dorrestein
#Data_Collector VVP/LMS
#Scan -1
#Precursor_MZ 367.129
#ExactMass 366.122
#Charge 1
#CAS_Number N/A
#Pubmed_ID N/A
#Smiles COc1cccc(NC(=O)[C@@H]2CCC(=O)N2C3OC(=O)c4ccccc34)c1
#INCHI_AUX N/A
#Library_Class 1
#SpectrumID CCMSLIB00000079994
#IonMode Positive
#UpdateWorkflowName UPDATE-SINGLE-ANNOTATED-GOLD
#LibraryQualityString Gold
#TaskID b1d8e8f6646f4e71acdff9ca3d919d08
##Scan# 1762
#SpectrumFile p2-G02_GG2_01_18050.mzXML
#LibraryName NIH_Natural_Products_Library.mgf
#MQScore -1
#Organism NIH_Natural_Products_Library
#TIC_Query 0
#RT_Query -1
#MZErrorPPM -1
#SharedPeaks 0
#MassDiff 0
#LibMZ -1
#SpecMZ 367.129
#SpecCharge 0
#internalFilename spec-00000.mgf

>collision 10
94.963585 128.0
95.00238 140.0
95.489929 144.0
95.752678 148.0
96.017738 152.0
96.451195 228.0
96.590027 184.0
97.020851 128.0
97.285698 180.0
97.57843 176.0
98.348686 164.0
98.516533 172.0
98.749779 148.0
98.860573 208.0
99.094231 164.0
99.685539 136.0
99.834908 144.0
100.392242 184.0
100.507942 220.0
100.567604 192.0
100.683617 180.0
100.859444 200.0
100.940948 244.0
101.383827 76.0
101.694695 236.0
101.985939 248.0
102.124672 156.0
102.529358 200.0
102.737045 220.0
103.056046 252.0
103.393745 132.0
103.577995 196.0
103.776604 196.0
103.904381 112.0
104.050507 220.0
104.115486 140.0
104.188614 148.0
104.434578 132.0
104.585152 160.0
104.699165 208.0
104.739899 156.0
104.774536 148.0
104.858078 212.0
104.980095 240.0
105.032738 11504.0
105.080353 216.0
105.141571 180.0
105.180351 132.0
105.219131 128.0
105.245682 56.0
105.262016 56.0
105.288559 52.0
105.450783 100.0
105.566498 132.0
105.627853 184.0
105.648315 236.0
105.676956 56.0
105.72197 204.0
106.036789 772.0
106.125519 164.0
106.525719 136.0
106.57708 56.0
106.735359 68.0
106.823792 116.0
106.949318 84.0
106.992546 100.0
107.297462 160.0
107.434525 156.0
107.611061 112.0
107.743248 132.0
108.62307 36.0
108.68531 196.0
108.899132 64.0
109.088226 176.0
109.181793 204.0
109.627304 128.0
109.703514 176.0
109.948463 112.0
110.105049 224.0
110.125931 112.0
110.265923 180.0
110.380898 144.0
110.42997 112.0
110.444374 80.0
110.688507 148.0
110.768089 64.0
110.881241 124.0
110.975571 208.0
111.051064 168.0
111.064682 160.0
111.506676 36.0
111.569733 100.0
111.603378 56.0
111.944267 136.0
112.551575 32.0
113.008133 180.0
113.143585 216.0
113.546188 176.0
113.686211 168.0
114.272926 180.0
114.304604 176.0
114.899071 116.0
114.914001 104.0
115.003632 92.0
115.050598 180.0
115.407394 168.0
115.561394 152.0
115.816147 56.0
115.854706 140.0
115.955421 120.0
116.088341 184.0
116.268547 156.0
116.339378 96.0
117.038132 184.0
117.322533 196.0
117.484276 168.0
118.009094 84.0
118.063156 148.0
118.327141 84.0
118.617439 196.0
119.381699 180.0
119.745148 232.0
119.860611 196.0
120.534882 216.0
120.62886 172.0
120.744827 108.0
120.810364 148.0
120.860687 192.0
121.296516 152.0
121.360092 56.0
123.042694 160.0
123.352531 148.0
123.498474 276.0
123.56041 168.0
123.613518 164.0
123.675484 200.0
123.896927 104.0
124.213936 128.0
124.324875 196.0
125.63768 132.0
125.820679 108.0
126.115555 212.0
127.056076 452.0
127.130119 60.0
127.379341 124.0
127.408546 152.0
127.637802 216.0
127.653542 116.0
127.75251 192.0
128.049637 180.0
128.090179 192.0
128.17128 152.0
128.297501 216.0
128.744263 164.0
128.913696 124.0
129.807877 148.0
129.900864 172.0
130.030396 184.0
130.136887 128.0
130.209564 156.0
130.314056 144.0
130.46405 168.0
130.696045 36.0
131.192551 64.0
131.254105 52.0
131.333939 176.0
131.443436 224.0
132.041397 440.0
132.208984 48.0
132.392136 176.0
132.433365 208.0
132.559372 228.0
132.598328 120.0
132.614365 152.0
132.646454 136.0
132.712952 192.0
132.747345 184.0
132.770279 168.0
132.793091 152.0
132.799454 144.0
132.912827 168.0
132.947464 304.0
132.971176 164.0
132.999924 356.0
133.028641 62732.0
133.080063 104.0
133.105316 44.0
133.146652 84.0
133.176514 88.0
133.210281 132.0
133.228561 256.0
133.273758 132.0
133.308197 88.0
133.334686 96.0
133.383316 108.0
133.406128 84.0
133.447693 80.0
133.504562 144.0
133.572952 60.0
133.614273 84.0
133.666199 84.0
133.712234 96.0
133.751358 56.0
133.877991 76.0
133.912537 48.0
134.031357 4776.0
134.076111 52.0
134.115295 36.0
134.32283 36.0
134.410492 96.0
134.42775 52.0
134.48204 52.0
134.539749 72.0
134.581299 48.0
134.602081 64.0
134.696777 64.0
134.712952 100.0
134.77533 52.0
134.800751 120.0
134.815948 60.0
134.883759 140.0
134.930191 48.0
134.957932 64.0
134.981049 84.0
135.033279 664.0
135.115509 60.0
135.136612 80.0
135.279526 116.0
135.518066 88.0
135.580627 200.0
135.728989 232.0
135.79393 76.0
135.986496 52.0
136.049179 192.0
136.309311 132.0
136.33255 60.0
136.45575 44.0
136.923477 68.0
137.915085 220.0
138.631256 112.0
139.229477 272.0
140.583145 136.0
140.729492 84.0
141.318024 88.0
141.734756 52.0
141.850891 68.0
142.072784 208.0
142.380005 84.0
142.941055 172.0
143.04921 180.0
144.824722 84.0
144.975662 48.0
145.059891 192.0
145.818054 84.0
146.34729 132.0
147.072922 40.0
150.415451 132.0
150.483795 164.0
151.0495 156.0
152.050812 144.0
152.268982 96.0
152.731064 80.0
153.997986 140.0
154.063507 320.0
155.669693 200.0
155.778992 136.0
155.848557 160.0
157.016068 236.0
157.710159 148.0
158.007751 168.0
158.641357 180.0
158.929779 68.0
160.076202 56.0
160.961121 124.0
161.041946 164.0
161.14299 244.0
162.046234 428.0
162.090988 248.0
164.293716 188.0
165.075302 104.0
165.856171 136.0
166.066422 176.0
166.865067 124.0
167.072372 888.0
167.1763 140.0
167.575424 124.0
167.77388 56.0
168.062683 168.0
169.435638 44.0
170.057526 876.0
170.177414 200.0
170.252716 92.0
170.671097 52.0
170.746506 184.0
171.06395 228.0
172.078796 176.0
175.062119 92.0
176.177826 156.0
176.323151 140.0
177.04805 144.0
178.062668 156.0
178.975967 200.0
179.065689 144.0
179.991882 72.0
180.082809 172.0
181.069885 196.0
181.086929 240.0
185.036148 140.0
185.735321 172.0
186.753906 132.0
187.08316 140.0
187.178452 192.0
187.399094 132.0
188.083603 196.0
189.076935 272.0
190.034851 136.0
190.083374 196.0
191.067886 140.0
191.092651 124.0
192.089951 136.0
192.669678 92.0
193.076004 116.0
194.05928 184.0
194.136688 144.0
195.065796 664.0
195.200272 48.0
196.064499 144.0
196.590347 36.0
197.065048 224.0
197.129318 48.0
197.587875 132.0
198.010559 68.0
198.053055 312.0
199.031326 72.0
200.065994 128.0
202.049988 204.0
204.524536 128.0
205.060013 172.0
205.556229 124.0
206.062408 268.0
206.501862 96.0
206.839493 176.0
206.86525 204.0
207.068558 128.0
207.733551 128.0
208.076813 356.0
208.35939 144.0
208.896988 116.0
210.088913 748.0
210.213699 56.0
210.620773 132.0
210.993561 176.0
211.085876 164.0
212.264664 176.0
216.013077 164.0
216.065201 308.0
217.096786 120.0
220.083572 220.0
222.057434 160.0
222.088409 180.0
222.116745 120.0
223.057877 960.0
224.063889 244.0
224.818329 168.0
224.988464 192.0
226.294983 52.0
227.686371 108.0
230.00174 148.0
231.646729 80.0
233.075714 124.0
233.300629 44.0
233.902939 148.0
234.091705 160.0
236.070038 156.0
236.096695 112.0
237.082474 116.0
237.352234 180.0
237.658966 92.0
237.797058 28.0
237.910645 112.0
238.024246 44.0
238.086014 10192.0
238.219131 88.0
238.248459 64.0
238.31604 32.0
238.337555 80.0
238.399017 36.0
238.420532 124.0
238.506592 48.0
238.60495 76.0
238.823288 92.0
238.952499 48.0
239.051895 132.0
239.089264 1520.0
239.124817 156.0
239.355713 48.0
239.398819 132.0
239.614441 108.0
240.091492 372.0
240.283463 124.0
240.413055 44.0
240.820587 68.0
240.842209 52.0
241.089386 152.0
241.488205 52.0
241.924515 104.0
243.055786 156.0
245.173492 68.0
248.005142 112.0
248.111725 228.0
249.002884 120.0
249.071991 160.0
250.141129 132.0
251.177841 56.0
254.958313 112.0
255.231689 124.0
256.090942 332.0
258.837463 152.0
261.079895 132.0
261.727386 56.0
262.079437 356.0
263.094421 260.0
264.060608 36.0
264.085236 156.0
265.101685 104.0
265.222992 64.0
266.079407 268.0
266.111877 260.0
268.627563 148.0
270.146606 44.0
271.089569 184.0
273.2995 104.0
274.037018 104.0
275.092377 156.0
276.067078 188.0
276.09787 296.0
277.053436 92.0
277.110229 140.0
278.091339 68.0
279.104584 136.0
280.066376 120.0
280.096344 128.0
286.090637 96.0
288.360779 72.0
289.11496 152.0
291.081146 92.0
291.1185 120.0
292.063324 180.0
292.519318 40.0
293.081909 356.0
293.130432 136.0
294.05658 136.0
294.088531 152.0
294.114594 152.0
295.146332 164.0
296.4711 60.0
297.009399 60.0
300.256256 116.0
300.697876 52.0
303.888428 112.0
304.074707 200.0
306.070557 136.0
306.113037 160.0
308.087189 172.0
311.137543 124.0
316.086548 196.0
318.077972 96.0
320.087494 276.0
321.056 136.0
321.092896 320.0
321.12735 60.0
322.11499 160.0
331.10257 140.0
336.098145 320.0
337.071228 136.0
337.101807 164.0
338.102142 148.0
341.227417 100.0
344.725433 108.0
348.57193 40.0
350.100159 172.0
351.112885 152.0
356.096039 180.0
366.131134 148.0
366.609985 36.0
367.138397 252.0
379.278259 64.0
397.100037 56.0
406.8927 196.0
428.288666 140.0
428.506989 52.0
431.482697 48.0
470.149567 84.0
480.092957 84.0
483.920776 48.0
504.074066 60.0
517.555359 60.0
581.677307 132.0
592.89624 32.0
620.460205 44.0
626.513367 80.0
676.265442 136.0
678.850647 32.0
703.748474 36.0
716.360168 136.0
739.070801 160.0
778.047974 176.0
786.905762 212.0
787.877502 188.0
831.315308 172.0
840.984009 132.0
866.858948 192.0
867.351257 172.0
875.983337 140.0
877.503784 176.0
879.704346 172.0
880.944458 156.0
884.752869 140.0
892.103149 156.0
894.226624 184.0
896.209656 204.0
905.03772 212.0
905.87616 180.0
906.463318 176.0
909.816101 144.0
930.37854 164.0
935.472839 144.0
939.897583 44.0
976.35498 204.0
979.547974 48.0
981.292908 192.0
985.305969 216.0
986.180786 176.0
992.340637 196.0
1010.663086 160.0
1013.011902 220.0
1020.227295 132.0
1020.729553 148.0
1024.561157 184.0
1034.741211 148.0
1036.002808 148.0
1037.483154 124.0
1047.74646 132.0
1047.83667 208.0
1051.918823 116.0
1063.745483 152.0
1064.719482 180.0
1072.005615 116.0
1081.017212 208.0
1086.153687 176.0
1089.153442 204.0
1097.46521 164.0
1112.828613 76.0
1123.383667 200.0
1123.897461 140.0
1128.47937 128.0
1134.008789 84.0
1135.839233 128.0
1139.141846 204.0
1146.347656 240.0
1151.184326 176.0
1151.569336 196.0
1153.420654 132.0
1154.286011 48.0
1155.38855 168.0
1155.882446 72.0
1155.990723 84.0
1157.88623 96.0
1159.003906 204.0
1169.298828 136.0
1172.942749 204.0
1173.999512 184.0
1174.101807 140.0
1177.411743 220.0
1180.240845 104.0
1181.725098 136.0
1183.30603 184.0
1186.944336 136.0
1187.808472 164.0
1188.775879 116.0
1189.160156 208.0
1190.849121 180.0
1192.415649 152.0
1192.779907 168.0
1194.622803 196.0
1195.909546 196.0
1196.873413 180.0
1197.072998 212.0
1201.270386 244.0
1202.774658 200.0
1204.286865 160.0
1204.487183 124.0
1204.991455 220.0
1209.908691 184.0
1211.078979 160.0
1212.187378 216.0
1213.566772 168.0
1218.272217 168.0
1219.439575 128.0
1223.049438 176.0
1225.061768 180.0
1225.340454 184.0
1226.051147 168.0
1234.526245 200.0
1239.22998 40.0
1240.007812 124.0
1241.010254 140.0
1249.417114 156.0
1250.162964 180.0
1250.359985 48.0
1250.613403 88.0
1252.894897 264.0
1257.358276 112.0
1258.402954 112.0
1261.674072 136.0
1262.352783 212.0
1266.238037 144.0
1268.682617 204.0
1269.753296 216.0
1271.271484 176.0
1271.718628 144.0
1272.563354 100.0
1275.134888 156.0
1277.246582 140.0
1278.242554 216.0
1282.401611 180.0
1285.289795 188.0
1285.475342 88.0
1288.40271 172.0
1289.395874 216.0
1290.890015 188.0
1293.093384 148.0
1294.03833 148.0
1295.721436 108.0
1298.825439 152.0
1300.066528 140.0
1302.055176 128.0
1302.3927 36.0
1302.78064 196.0
1303.966187 108.0
1306.000977 192.0
1307.015381 132.0
1308.901245 204.0
1308.980469 40.0
1309.938354 60.0
1313.225098 188.0
1314.603149 148.0
1316.573853 184.0
1317.895752 112.0
1320.396973 168.0
1323.64624 96.0
1324.247314 156.0
1324.370361 124.0
1324.428345 84.0
1324.573242 184.0
1324.696411 60.0
1327.254761 192.0
1329.053589 196.0
1330.977051 204.0
1331.89209 212.0
1332.109985 144.0
1332.451416 228.0
1338.073364 156.0
1338.983521 148.0
1339.755615 140.0
1341.366089 156.0
1341.839966 220.0
1342.364868 48.0
1342.955688 184.0
1343.108765 228.0
1346.677979 236.0
1346.919067 168.0
1347.751831 176.0
1348.789673 192.0
1351.539429 60.0
1354.123535 184.0
1354.870728 128.0
1358.587524 180.0
1359.09375 204.0
1359.468018 112.0
1360.011108 204.0
1361.73645 212.0
1362.640015 240.0
1363.051514 120.0
1367.243042 248.0
1367.625854 216.0
1368.980469 168.0
1371.551758 160.0
1372.281494 192.0
1372.488037 212.0
1373.837646 152.0
1374.457397 156.0
1377.912842 164.0
1380.773438 148.0
1383.970215 180.0
1384.762573 128.0
1385.555176 116.0
1389.677368 204.0
1391.829834 184.0
1392.765625 92.0
1393.151855 148.0
1396.697632 148.0
1396.757202 88.0
1398.446167 168.0
1399.61499 64.0
1401.231201 156.0
1401.827271 164.0
1402.818481 168.0
1408.078857 140.0
1411.912842 128.0
1412.870239 48.0
1412.959961 80.0
1413.326538 132.0
1413.610962 204.0
1413.887817 132.0
1414.381836 52.0
1414.801025 140.0
1415.443481 184.0
1416.283691 224.0
1418.261719 148.0
1421.734253 116.0
1422.927734 100.0
1423.325684 216.0
1425.737061 200.0
1429.030518 188.0
1432.486084 164.0
1434.724243 104.0
1436.330444 124.0
1438.941406 176.0
1439.500244 144.0
1439.772095 156.0
1439.862671 116.0
1442.061279 108.0
1444.314453 116.0
1448.613892 136.0
1449.99292 144.0
1450.561401 164.0
1452.661865 152.0
1453.003296 172.0
1453.557129 276.0
1454.179443 184.0
1454.543823 168.0
1455.462402 220.0
1458.136353 172.0
1459.557861 208.0
1459.740356 184.0
1459.824097 136.0
1460.668335 184.0
1461.55835 68.0
1461.946411 200.0
1463.788696 200.0
1464.321777 176.0
1465.990112 192.0
1467.93396 220.0
1468.017944 228.0
1468.864502 156.0
1470.718628 260.0
1471.428589 152.0
1472.192139 152.0
1474.017822 280.0
1474.430542 164.0
1479.471191 148.0
1479.540039 160.0
1485.901001 132.0
1487.581665 148.0
1488.940674 192.0
1490.108276 48.0
1490.254272 144.0
1490.377197 184.0
1490.699951 156.0
1491.237915 92.0
1492.129517 152.0
1495.098633 148.0
1496.19165 252.0
1496.7229 176.0
1496.85376 128.0
1497.10022 116.0
1498.294067 176.0
1501.454346 128.0
1504.224243 152.0
