>compound MLS002701604-01!
>formula C15H16O4
>ionization [M+H]+
>parentmass 261.11213544409054
#inchi InChI=1S/C15H16O4/c1-6-4-5-8-7(2)14(17)18-12(8)10-9(6)11(16)13-15(10,3)19-13/h8,10,12-13H,2,4-5H2,1,3H3
#inchikey IQFFYNSHANWLIR
#Ion_Source LC-ESI
#Instrument qTof
#Compound_Source NIH Natural Product Library
#PI Dorrestein
#Data_Collector VVP/LMS
#Scan -1
#Precursor_MZ 261.113
#ExactMass 260.105
#Charge 1
#CAS_Number N/A
#Pubmed_ID N/A
#Smiles CC1=C2C(C3OC(=O)C(=C)C3CC1)C4(C)OC4C2=O
#INCHI_AUX N/A
#Library_Class 3
#SpectrumID CCMSLIB00000079747
#IonMode Positive
#UpdateWorkflowName UPDATE-SINGLE-ANNOTATED-BRONZE
#LibraryQualityString Bronze
#TaskID b1d8e8f6646f4e71acdff9ca3d919d08
##Scan# 1971
#SpectrumFile p1-E10_GE10_01_17930.mzXML
#LibraryName NIH_Natural_Products_Library.mgf
#MQScore -1
#Organism NIH_Natural_Products_Library
#TIC_Query 0
#RT_Query -1
#MZErrorPPM -1
#SharedPeaks 0
#MassDiff 0
#LibMZ -1
#SpecMZ 261.113
#SpecCharge 0
#internalFilename spec-00000.mgf

>collision 10
95.087471 172.0
95.203957 144.0
96.060341 180.0
96.161797 72.0
96.75016 176.0
96.955826 128.0
99.559952 160.0
101.704231 176.0
101.895004 184.0
102.639702 128.0
103.054955 444.0
103.300117 148.0
103.514656 76.0
104.060081 204.0
104.200218 124.0
105.069145 236.0
107.028931 196.0
107.086594 204.0
108.888008 200.0
109.028397 188.0
109.422417 112.0
110.231697 180.0
110.916061 164.0
111.04187 628.0
111.092201 40.0
111.15699 148.0
111.417595 152.0
112.728142 116.0
113.774452 28.0
115.053726 704.0
115.352989 44.0
116.061852 184.0
116.892899 148.0
117.071365 188.0
118.07724 192.0
118.107513 124.0
118.45385 264.0
119.052933 128.0
119.084167 284.0
120.036057 168.0
120.070946 164.0
120.614601 208.0
121.064186 212.0
121.657295 68.0
121.997795 124.0
122.354179 236.0
122.594269 152.0
123.044441 168.0
123.078644 352.0
123.139183 108.0
124.048958 248.0
124.354675 200.0
124.643372 156.0
124.990242 64.0
125.057442 216.0
126.044937 208.0
126.669128 104.0
127.036758 64.0
127.05246 492.0
127.544243 172.0
127.68364 212.0
128.0616 676.0
128.713486 48.0
129.045624 152.0
129.071014 1108.0
129.972 116.0
130.076218 492.0
130.15358 68.0
131.046082 112.0
131.0849 604.0
133.061539 376.0
133.103668 140.0
133.411606 148.0
133.956985 148.0
134.104462 188.0
135.042358 1080.0
135.08165 376.0
135.121002 164.0
135.2061 248.0
135.943039 156.0
136.049805 164.0
136.542404 120.0
136.605209 160.0
136.933395 128.0
137.057892 1112.0
137.08017 200.0
138.065659 832.0
138.182251 92.0
138.45845 172.0
138.50061 180.0
138.676346 192.0
139.045853 196.0
139.076675 252.0
139.143143 204.0
139.164276 64.0
140.008438 216.0
140.751251 152.0
141.066666 376.0
141.119843 32.0
141.167145 68.0
141.365845 76.0
142.075912 396.0
142.475479 224.0
143.041458 132.0
143.084961 580.0
143.38324 40.0
144.053864 184.0
144.092056 240.0
144.679047 92.0
145.007202 252.0
145.065552 456.0
145.097153 276.0
147.044296 220.0
147.082916 28.0
147.582993 188.0
148.051453 388.0
148.083939 272.0
148.112976 64.0
148.411057 224.0
148.743423 124.0
148.779831 184.0
148.91095 200.0
149.010544 144.0
149.027557 140.0
149.058594 2352.0
149.087326 328.0
149.258469 72.0
149.453049 52.0
149.825546 192.0
150.062607 520.0
151.074036 2804.0
151.131729 92.0
151.170883 64.0
151.192917 72.0
151.307953 132.0
151.361816 60.0
151.856842 180.0
152.078995 348.0
152.220047 84.0
153.068542 1132.0
153.295013 60.0
154.074448 600.0
154.759781 44.0
155.060425 396.0
155.085052 468.0
156.062393 136.0
156.08725 180.0
156.107147 132.0
156.333511 104.0
156.363388 116.0
157.068588 324.0
158.071701 196.0
159.078659 160.0
159.123718 204.0
160.040726 132.0
160.05835 164.0
160.552261 152.0
161.061874 260.0
161.092392 292.0
161.699234 188.0
162.071198 108.0
163.035736 172.0
163.074524 160.0
163.709885 132.0
164.084747 416.0
164.344589 176.0
165.08847 788.0
165.154404 48.0
166.073914 136.0
166.091873 172.0
166.109818 88.0
166.556458 124.0
167.085999 272.0
167.237823 48.0
168.062469 88.0
169.062485 172.0
169.099213 312.0
169.360214 36.0
170.106995 164.0
170.787781 120.0
171.027161 88.0
171.074738 176.0
171.251068 92.0
172.056824 160.0
172.086914 152.0
172.78334 56.0
173.093765 176.0
174.062164 136.0
175.072632 372.0
176.087509 176.0
176.761627 232.0
177.089905 116.0
179.084564 188.0
180.490936 168.0
181.062637 144.0
182.071106 592.0
182.636383 84.0
182.722458 104.0
183.078552 212.0
185.056992 372.0
185.089523 188.0
185.718246 116.0
186.024872 36.0
186.057449 48.0
186.106323 152.0
187.04422 180.0
187.075027 280.0
187.113068 228.0
188.082733 156.0
188.869659 48.0
189.090073 380.0
190.092682 136.0
190.280945 84.0
191.064194 216.0
194.773987 148.0
195.046127 136.0
197.093628 308.0
199.075943 460.0
199.645538 64.0
199.96344 108.0
200.082977 500.0
200.865067 124.0
201.089661 868.0
201.115646 104.0
201.192413 208.0
201.788513 32.0
202.096802 516.0
203.066788 292.0
203.091141 76.0
203.493271 68.0
203.602005 80.0
205.12056 160.0
205.358002 100.0
212.376175 236.0
213.052521 140.0
213.090286 140.0
214.053024 112.0
215.076324 252.0
215.104767 648.0
216.10701 192.0
216.977753 120.0
218.079224 208.0
225.082016 144.0
225.580948 96.0
227.068924 184.0
228.070251 144.0
229.049774 180.0
229.079895 108.0
230.93927 76.0
231.096588 336.0
232.065781 132.0
233.112305 344.0
234.135132 164.0
236.939163 156.0
245.033783 64.0
245.081192 276.0
246.089493 324.0
246.131668 140.0
247.097458 100.0
250.437485 164.0
251.096191 72.0
260.132874 68.0
260.174591 180.0
261.109772 424.0
262.117218 156.0
270.231537 68.0
288.650909 72.0
331.23703 152.0
340.20047 132.0
392.998322 44.0
464.696625 112.0
486.189972 32.0
593.784485 80.0
815.396057 28.0
847.046265 56.0
860.485657 76.0
869.329956 108.0
992.924438 156.0
1004.926514 120.0
1049.112671 168.0
1088.18103 204.0
1102.025391 140.0
1135.16748 152.0
1158.812988 160.0
1160.751465 64.0
1169.256592 192.0
1170.550049 188.0
1180.670166 200.0
1185.94873 204.0
1229.459473 176.0
1249.028076 160.0
1260.364258 128.0
1268.191162 96.0
1268.800781 212.0
1274.862305 160.0
1276.248413 164.0
1279.037109 104.0
1296.671753 200.0
1302.490601 132.0
1305.372559 144.0
1312.695923 188.0
1321.037842 236.0
1332.557495 140.0
1333.800171 208.0
1335.937988 240.0
1341.202637 88.0
1344.586792 220.0
1348.04834 148.0
1363.592041 188.0
1365.106445 196.0
1368.535278 208.0
1369.050781 144.0
1375.18457 104.0
1383.87793 76.0
1395.727295 52.0
1399.998535 164.0
1409.905518 136.0
1413.577271 156.0
1424.388306 140.0
1433.59729 160.0
1445.172852 36.0
1449.716064 56.0
1457.250854 160.0
1460.253418 120.0
1464.561279 224.0
1471.180054 216.0
1483.435059 44.0
1490.165405 164.0
1502.47583 68.0
