>compound MLS001056741-01!
>formula C17H21NO4
>ionization [M+H]+
>parentmass 304.154297
#inchi InChI=1S/C17H21NO4/c1-11(6-12-2-4-14(19)5-3-12)18-10-17(22)13-7-15(20)9-16(21)8-13/h2-5,7-9,11,17-22H,6,10H2,1H3
#inchikey LSLYOANBFKQKPT
#origInchi InChI=1S/C17H21NO4.BrH/c1-11(6-12-2-4-14(19)5-3-12)18-10-17(22)13-7-15(20)9-16(21)8-13;/h2-5,7-9,11,17-22H,6,10H2,1H3;1H
#Ion_Source LC-ESI
#Instrument qTof
#Compound_Source NIH Pharmacologically Active Library
#PI Dorrestein
#Data_Collector VP/LMS
#Scan -1
#Precursor_MZ 304.152
#ExactMass 303.147
#Charge 1
#CAS_Number N/A
#Pubmed_ID N/A
#Smiles CC(Cc1ccc(O)cc1)NCC(O)c2cc(O)cc(O)c2.Br
#INCHI_AUX N/A
#Library_Class 1
#SpectrumID CCMSLIB00000085255
#IonMode Positive
#UpdateWorkflowName UPDATE-SINGLE-ANNOTATED-GOLD
#LibraryQualityString Gold
#TaskID d252d724072548979f1f6f1ced849daf
##Scan# 1190
#SpectrumFile p3-G07_GG7_01_18300.mzXML
#LibraryName Pharm_Active_Library.mgf
#MQScore -1
#Organism Pharm_Active_Library
#TIC_Query 0
#RT_Query -1
#MZErrorPPM -1
#SharedPeaks 0
#MassDiff 0
#LibMZ -1
#SpecMZ 304.152
#SpecCharge 0
#internalFilename spec-00000.mgf

>collision 10
44.91679 208.0
45.291092 144.0
45.336647 64.0
45.964699 176.0
46.159866 176.0
46.363659 164.0
46.443661 172.0
46.921013 208.0
47.19957 148.0
47.24197 108.0
47.606586 156.0
47.65192 144.0
47.914722 196.0
48.081581 172.0
48.240437 160.0
48.294369 116.0
48.36771 80.0
48.545063 232.0
48.785286 184.0
48.817101 200.0
49.249344 144.0
49.327599 160.0
49.337387 44.0
49.429707 164.0
49.439503 164.0
49.599182 220.0
49.610397 204.0
49.912281 200.0
50.117802 176.0
50.240471 200.0
50.299744 160.0
50.664619 192.0
50.956902 44.0
51.727062 184.0
51.76429 100.0
51.841652 152.0
52.043922 152.0
52.111435 156.0
52.203575 208.0
52.513096 180.0
52.549164 184.0
52.77029 220.0
52.851162 228.0
52.974232 176.0
53.305058 212.0
53.876251 196.0
54.387348 240.0
54.819775 156.0
54.937737 200.0
54.984959 164.0
55.301266 176.0
55.447903 224.0
55.798244 152.0
56.161625 148.0
56.473816 176.0
56.8694 184.0
56.94598 136.0
57.218174 116.0
57.282936 200.0
57.472912 192.0
57.655643 164.0
58.106915 68.0
58.357536 156.0
58.761177 40.0
58.832912 132.0
59.574169 128.0
59.95116 160.0
60.261337 44.0
60.690105 232.0
60.711815 180.0
61.116283 200.0
61.510044 136.0
61.911896 184.0
62.165874 156.0
62.233376 136.0
62.527355 168.0
62.984627 168.0
63.64349 112.0
63.796021 220.0
64.276451 172.0
64.435394 160.0
64.763084 216.0
65.445648 164.0
65.639023 204.0
66.126938 164.0
66.219231 232.0
66.331039 116.0
66.352112 260.0
66.415359 244.0
66.541946 60.0
66.717422 48.0
66.730431 164.0
66.793854 164.0
66.846008 224.0
67.23217 192.0
67.375862 76.0
67.752167 228.0
67.88166 200.0
68.119659 80.0
68.160736 228.0
68.205109 72.0
68.409096 204.0
68.466728 168.0
68.613388 116.0
68.870834 260.0
68.92205 176.0
69.044388 144.0
69.130417 172.0
69.199944 212.0
70.04364 176.0
70.233673 168.0
70.646301 152.0
70.668053 152.0
71.09034 204.0
71.280106 180.0
71.382652 100.0
71.716011 176.0
72.788673 188.0
72.914391 160.0
73.138916 224.0
73.166206 132.0
73.542908 172.0
73.638527 152.0
73.771812 188.0
73.821205 176.0
73.932602 128.0
73.970261 208.0
74.373108 148.0
74.675522 68.0
74.70649 172.0
74.921692 124.0
74.988899 72.0
75.113052 48.0
75.579544 192.0
75.716309 44.0
76.184669 156.0
76.200302 220.0
76.46463 116.0
76.741226 228.0
76.977203 76.0
77.017212 176.0
77.022392 160.0
77.081375 196.0
77.099495 220.0
78.299576 208.0
78.565758 120.0
78.719322 140.0
79.297859 132.0
79.452141 144.0
79.704277 152.0
79.745148 96.0
79.800262 208.0
80.216873 252.0
80.535019 196.0
80.802666 188.0
81.082024 176.0
81.144768 180.0
81.160904 180.0
81.212914 200.0
81.28289 188.0
81.4319 48.0
81.991463 148.0
82.148346 176.0
82.236763 196.0
82.511353 152.0
82.795456 200.0
82.86792 76.0
82.88604 156.0
83.996948 268.0
84.318321 64.0
84.41156 248.0
84.651291 140.0
84.700874 164.0
85.188721 196.0
85.291626 128.0
85.457146 132.0
85.49395 180.0
85.527084 176.0
85.617302 184.0
85.726006 120.0
85.749962 176.0
85.94545 164.0
86.462898 128.0
86.618439 148.0
87.223396 192.0
87.33683 208.0
87.936821 212.0
88.323616 188.0
88.413254 200.0
88.523888 184.0
88.711258 172.0
89.413788 220.0
89.519218 244.0
89.928345 148.0
90.172005 132.0
90.478462 148.0
90.825264 156.0
90.929626 168.0
91.024551 196.0
91.054123 172.0
91.638962 96.0
91.717102 184.0
91.944077 60.0
92.083458 140.0
92.4161 192.0
93.048622 108.0
93.136963 132.0
93.213814 200.0
93.320847 168.0
93.446487 212.0
93.779655 160.0
93.82592 212.0
95.046043 196.0
95.077484 260.0
95.794998 136.0
96.67366 152.0
96.863586 172.0
96.879257 180.0
97.283257 160.0
97.397156 128.0
98.221954 260.0
98.415375 248.0
99.03241 148.0
99.720932 152.0
99.8442 156.0
100.142754 208.0
100.659309 48.0
101.013084 176.0
101.493767 168.0
101.822891 36.0
102.094223 132.0
102.283356 172.0
102.321609 104.0
102.531105 156.0
102.742844 212.0
103.061859 188.0
103.186638 176.0
103.918373 208.0
104.15184 128.0
104.192474 136.0
104.454727 164.0
104.489319 116.0
105.067947 152.0
105.155693 108.0
105.284317 196.0
105.317001 160.0
105.35173 168.0
105.775055 204.0
105.918396 100.0
106.099701 164.0
106.193069 228.0
106.558487 248.0
106.69619 120.0
106.727036 176.0
106.807243 184.0
106.928642 172.0
106.954941 532.0
106.971275 176.0
106.99826 224.0
107.048729 51220.0
107.10099 40.0
107.136703 152.0
107.159286 132.0
107.184982 68.0
107.215759 152.0
107.231575 104.0
107.277695 68.0
107.292465 208.0
107.31073 128.0
107.344162 176.0
107.367493 52.0
107.385712 48.0
107.411057 60.0
107.444405 56.0
107.503662 72.0
107.551132 52.0
107.587074 136.0
107.65123 116.0
107.749382 72.0
107.827911 104.0
107.841965 60.0
107.885788 56.0
107.914734 76.0
107.980911 88.0
107.997459 304.0
108.052078 3028.0
108.111259 136.0
108.163002 28.0
108.215797 184.0
108.233398 68.0
108.2976 60.0
108.40741 56.0
108.436424 60.0
108.573265 120.0
108.708115 148.0
108.764153 96.0
108.804047 168.0
108.819298 108.0
108.834747 64.0
108.865891 44.0
108.889999 204.0
108.99054 56.0
109.052544 148.0
109.09446 148.0
109.552307 68.0
109.57106 144.0
109.804535 96.0
110.034492 164.0
110.057404 192.0
110.071671 240.0
110.523193 76.0
110.872925 68.0
111.038559 64.0
111.374397 188.0
111.397499 252.0
112.775658 112.0
114.415497 124.0
114.683914 64.0
114.792648 88.0
114.811844 148.0
115.050827 488.0
115.655823 140.0
115.822845 160.0
116.058601 136.0
116.105499 136.0
117.012611 132.0
117.06974 256.0
118.044052 132.0
118.072906 188.0
118.16951 172.0
118.429298 216.0
118.650345 72.0
119.049858 180.0
119.874123 84.0
120.055206 160.0
120.926819 120.0
121.062561 352.0
121.896202 216.0
122.942276 100.0
123.82 172.0
124.072617 360.0
124.985512 220.0
125.056984 1320.0
125.217041 48.0
125.279419 44.0
126.066528 160.0
126.346588 76.0
127.733025 60.0
127.883789 112.0
129.783783 228.0
130.031067 192.0
130.246765 160.0
131.131912 160.0
132.18248 116.0
132.470978 240.0
133.054291 104.0
134.057724 140.0
134.954376 164.0
135.045578 668.0
135.07959 8916.0
135.27829 52.0
135.351822 84.0
135.51915 56.0
135.560867 56.0
135.776474 92.0
135.795029 32.0
136.047958 164.0
136.084305 1084.0
136.106018 160.0
136.210526 100.0
137.010803 116.0
137.057404 184.0
137.092361 92.0
137.390839 116.0
137.610229 188.0
137.956009 52.0
138.063568 164.0
138.970154 44.0
140.449966 160.0
142.664154 72.0
142.849655 20.0
146.854935 48.0
147.072098 168.0
149.075104 160.0
151.909943 164.0
152.06897 2716.0
153.071335 288.0
153.864319 156.0
154.056686 148.0
154.076447 132.0
154.316193 32.0
156.502213 88.0
160.476303 32.0
162.489639 80.0
163.099136 152.0
164.053757 152.0
164.104904 168.0
164.983047 124.0
166.112442 196.0
188.93689 140.0
190.093201 148.0
190.197495 196.0
193.049194 76.0
212.187973 80.0
212.913422 176.0
216.951965 124.0
218.373245 80.0
237.075897 128.0
237.885666 188.0
242.02951 220.0
247.115677 76.0
247.41301 52.0
248.42215 144.0
261.782593 88.0
262.104736 108.0
262.630249 80.0
263.905914 136.0
266.362549 100.0
270.805328 76.0
283.877716 60.0
285.180389 104.0
286.142517 240.0
287.187225 112.0
296.949463 84.0
304.154297 192.0
305.158295 256.0
424.051758 76.0
617.50708 20.0
714.542114 64.0
756.513428 60.0
791.928345 52.0
834.126892 60.0
873.686768 152.0
901.26416 108.0
914.403809 232.0
944.751648 152.0
968.080688 132.0
971.862061 168.0
972.004761 292.0
977.224365 204.0
987.517883 136.0
995.709839 172.0
999.727295 228.0
1004.427612 160.0
1005.923218 168.0
1006.043152 136.0
1007.198792 128.0
1009.069458 176.0
1011.106384 172.0
1012.20166 184.0
1015.366211 200.0
1017.654907 232.0
1023.912476 204.0
1025.473511 120.0
1029.512085 240.0
1029.863403 184.0
1030.585327 212.0
1031.556763 132.0
1031.793335 108.0
1032.119385 116.0
1036.997803 96.0
1042.221802 136.0
1042.671631 164.0
1045.784668 196.0
1046.40271 204.0
1053.703857 180.0
1062.204346 152.0
1065.508789 32.0
1070.094116 144.0
1070.966797 104.0
1074.950439 116.0
1078.451172 208.0
1078.804077 148.0
1081.446899 152.0
1081.669434 252.0
1084.394409 164.0
1086.158203 160.0
1087.995728 176.0
1089.217285 160.0
1095.117676 52.0
1098.934692 124.0
1100.248169 160.0
1104.325439 148.0
1109.636597 72.0
1114.741211 160.0
1118.858521 180.0
1120.197144 204.0
1121.656616 176.0
1121.983276 160.0
1123.810791 200.0
1128.747192 164.0
1131.028564 220.0
1131.135742 176.0
1133.660889 196.0
1140.950562 256.0
1144.91394 60.0
1146.173706 152.0
1146.975708 152.0
1148.007324 196.0
1148.2771 32.0
1148.762817 160.0
1151.165649 156.0
1152.672119 196.0
1158.565552 172.0
1162.30835 140.0
1167.872559 132.0
1171.098999 60.0
1171.22168 212.0
1172.80249 128.0
1174.091187 148.0
1175.052979 220.0
1176.779785 240.0
1182.707153 216.0
1186.865723 72.0
1188.868896 72.0
1192.144775 216.0
1197.938354 232.0
1198.372437 56.0
1199.564697 64.0
1200.433472 284.0
1200.709351 196.0
1202.392822 180.0
1203.573364 168.0
1204.077393 136.0
1205.687256 132.0
1212.712402 124.0
1213.461182 52.0
1213.946533 112.0
1216.333374 160.0
1221.22522 184.0
1222.978638 44.0
1224.350342 140.0
1225.729736 236.0
1227.151733 52.0
1227.200562 124.0
1228.944336 164.0
1232.582397 76.0
1234.602661 184.0
1238.788452 128.0
1238.879517 116.0
1244.736328 52.0
1248.130371 156.0
1248.510132 188.0
1249.572388 180.0
1252.416504 184.0
1255.891602 192.0
1260.014404 192.0
1260.544312 160.0
1261.498535 184.0
1263.641479 196.0
1265.899536 200.0
1267.1604 120.0
1267.465088 156.0
1267.840698 108.0
1268.748047 60.0
1269.740723 176.0
1270.37915 152.0
1270.606201 184.0
1271.819702 116.0
1273.339233 208.0
1275.869019 124.0
1278.330078 144.0
1281.263794 124.0
1281.420532 264.0
1283.494751 184.0
1283.886963 216.0
1284.721558 244.0
1287.019775 168.0
1290.513916 240.0
1291.994507 168.0
1294.879272 148.0
1295.609985 116.0
1297.387329 160.0
1298.305176 220.0
1299.567749 204.0
1300.321289 140.0
1302.152222 124.0
1302.89209 112.0
1304.070557 156.0
1305.350342 188.0
1306.78894 184.0
1307.897339 144.0
1309.214966 64.0
1311.397949 36.0
1313.157349 196.0
1315.336548 200.0
1317.488525 168.0
1317.922119 140.0
1320.546387 196.0
1322.290039 196.0
1322.927124 220.0
1325.11438 212.0
1325.208496 164.0
1327.709473 208.0
1327.890869 132.0
1328.485596 172.0
1329.733765 176.0
1329.878906 184.0
1331.636108 112.0
1336.44873 68.0
1336.536011 44.0
1338.974854 160.0
1339.776123 164.0
1340.147705 188.0
1340.752563 136.0
1341.532593 180.0
1343.049316 104.0
1344.523193 160.0
1345.698486 156.0
1346.89624 168.0
1348.401489 172.0
1349.607666 208.0
1353.961914 168.0
1356.445923 176.0
1357.641113 128.0
1358.557983 144.0
1359.350464 164.0
1359.592651 144.0
1360.231201 160.0
1363.257324 144.0
1367.022705 156.0
1368.634766 156.0
1370.476318 128.0
1371.773438 188.0
1372.009399 176.0
1376.392212 168.0
1380.440918 148.0
1380.81897 116.0
1381.588379 168.0
1386.809082 144.0
1387.542969 200.0
1388.417969 240.0
1388.92981 176.0
1391.185791 176.0
1398.209473 184.0
1398.865356 128.0
1399.125854 76.0
1401.255981 144.0
1402.001221 56.0
1403.022339 132.0
1405.058472 132.0
1405.140503 268.0
1405.603149 168.0
1407.51416 116.0
1411.003662 164.0
1411.153198 200.0
1411.930908 140.0
1412.30481 212.0
1413.524414 180.0
1414.250366 116.0
1414.662109 188.0
1414.924072 148.0
1415.388306 176.0
1415.912598 120.0
1421.933105 196.0
1422.616211 188.0
1423.847656 204.0
1424.290894 192.0
1424.561279 128.0
1424.921875 176.0
1425.958984 108.0
1426.988892 148.0
1431.857788 76.0
1433.824219 140.0
1435.090698 192.0
1436.470825 84.0
1436.71228 152.0
1440.237671 68.0
1440.675903 76.0
1445.575562 176.0
1447.021362 108.0
1447.770996 172.0
1447.892212 132.0
1448.384521 132.0
1448.755737 72.0
1449.293701 96.0
1450.203125 100.0
1452.250366 180.0
1453.487061 188.0
1453.707153 156.0
1453.972778 172.0
1457.131714 152.0
1457.519287 152.0
1460.743042 144.0
1461.032104 40.0
1464.549072 188.0
1469.45874 252.0
1470.069214 168.0
1470.450806 148.0
1471.939453 136.0
1473.222656 216.0
1473.597046 128.0
1473.803345 44.0
1476.180786 136.0
1476.479004 196.0
1476.58606 100.0
1477.7948 148.0
1478.031982 144.0
1479.210693 92.0
1480.795776 216.0
1480.979614 144.0
1481.439209 188.0
1481.584717 120.0
1482.358643 136.0
1484.558838 132.0
1486.584229 180.0
1486.753052 196.0
1490.70813 104.0
1492.845337 140.0
1492.968384 40.0
1493.976074 164.0
1495.353516 220.0
1496.893188 236.0
1499.612915 136.0
1500.468628 112.0
1502.566406 216.0
1503.191406 188.0
1503.492432 88.0
1504.457275 172.0
