>compound NCGC00160161-01!3,4-DIMETHOXYDALBERGIONE
>formula C17H16O4
>ionization [M+H]+
>parentmass 285.113
#inchi InChI=1S/C17H16O4/c1-4-12(11-8-6-5-7-9-11)13-10-14(18)16(20-2)17(21-3)15(13)19/h4-10,12H,1H2,2-3H3/t12-/m1/s1
#inchikey LJEJBLOFFDLRIH
#Ion_Source LC-ESI
#Instrument qTOF
#Compound_Source Prestwick Phytochem Lib
#PI Dorrestein
#Data_Collector VVP/LMS
#Scan -1
#Precursor_MZ 285.113
#ExactMass 284.105
#Charge 1
#CAS_Number N/A
#Pubmed_ID N/A
#Smiles [H][C@@](C=C)(C1=CC=CC=C1)C2=CC(=O)C(OC)=C(OC)C2=O
#INCHI_AUX N/A
#Library_Class 1
#SpectrumID CCMSLIB00000078699
#IonMode Positive
#UpdateWorkflowName UPDATE-SINGLE-ANNOTATED-GOLD
#LibraryQualityString Gold
#TaskID 67c915c6594c435cadc1fe2b5358144d
##Scan# 2401
#SpectrumFile p1-C02_GC2_01_17898.mzXML
#LibraryName phytochem_lib.mgf
#MQScore -1
#Organism phytochem_lib
#TIC_Query 0
#RT_Query -1
#MZErrorPPM -1
#SharedPeaks 0
#MassDiff 0
#LibMZ -1
#SpecMZ 285.113
#SpecCharge 0
#internalFilename spec-00000.mgf

>collision 10
95.04879 196.0
96.076065 144.0
96.736572 144.0
97.183403 132.0
99.806442 232.0
100.937012 196.0
101.469597 88.0
103.055305 208.0
103.07576 188.0
103.110115 204.0
104.054039 100.0
104.867706 128.0
105.03318 228.0
106.040848 128.0
106.196671 180.0
106.286934 40.0
106.923965 164.0
107.781807 132.0
109.030685 172.0
110.880409 176.0
111.459587 72.0
112.523224 236.0
112.652046 188.0
112.867615 176.0
113.042152 148.0
113.63858 244.0
113.874207 240.0
114.755173 80.0
115.052284 748.0
115.098694 100.0
115.124046 64.0
115.175575 68.0
116.063698 144.0
116.1409 124.0
116.349045 216.0
116.430641 112.0
117.037605 212.0
117.067184 140.0
117.619102 136.0
117.824249 184.0
118.527412 156.0
119.193558 104.0
120.026588 204.0
120.29557 112.0
120.369804 164.0
120.4244 64.0
120.97979 148.0
121.027954 160.0
121.668144 180.0
125.062927 224.0
126.055946 180.0
126.469673 232.0
126.902023 236.0
127.000687 180.0
127.054527 348.0
127.247528 164.0
127.411476 56.0
128.062195 1060.0
128.207993 68.0
128.446976 72.0
128.957016 144.0
129.036377 40.0
129.069427 768.0
129.126831 160.0
129.255768 76.0
129.645264 208.0
130.070267 244.0
130.635178 232.0
130.97435 128.0
131.044968 80.0
131.631149 120.0
132.065369 148.0
132.674454 136.0
133.059875 192.0
133.360794 148.0
134.037369 188.0
135.087845 100.0
135.887085 176.0
136.016022 220.0
137.28035 160.0
137.485641 280.0
137.576675 20.0
137.595352 180.0
138.025253 104.0
138.11879 224.0
138.624481 132.0
139.004364 160.0
139.058563 384.0
140.048309 136.0
140.064651 408.0
141.029694 152.0
141.067856 1620.0
141.467285 156.0
142.073135 564.0
143.031586 156.0
143.050369 192.0
143.084152 168.0
143.913635 180.0
144.059326 168.0
144.465698 88.0
145.065643 180.0
145.261002 92.0
145.844482 128.0
145.918991 148.0
146.036926 408.0
146.0681 224.0
146.899139 140.0
147.408554 136.0
149.002853 184.0
149.024719 280.0
149.059433 308.0
151.040787 44.0
151.062805 208.0
151.087265 120.0
152.062042 948.0
152.871017 212.0
152.932541 52.0
153.069809 2264.0
153.141815 48.0
153.27977 104.0
153.415329 88.0
153.654541 40.0
154.07518 1368.0
154.294174 64.0
154.452438 52.0
154.482132 160.0
154.751877 64.0
155.03949 140.0
155.058487 328.0
155.084488 508.0
155.210251 108.0
156.081787 128.0
156.654205 208.0
156.728943 168.0
157.122864 188.0
157.532272 40.0
160.193817 144.0
161.056625 144.0
161.448227 176.0
162.027847 124.0
162.045593 232.0
162.758301 160.0
163.03009 176.0
163.055984 292.0
163.233459 48.0
163.416595 132.0
163.727127 64.0
164.061783 340.0
164.841919 204.0
165.031067 164.0
165.069931 3088.0
165.146133 44.0
165.415863 96.0
165.678558 88.0
166.032272 188.0
166.074493 984.0
166.111786 180.0
166.196442 44.0
166.817947 128.0
167.065704 196.0
167.091034 168.0
168.054871 684.0
168.084274 208.0
168.237335 76.0
169.03772 224.0
169.065048 888.0
169.097198 164.0
169.227509 44.0
169.297424 36.0
169.515015 80.0
169.564255 64.0
169.67572 32.0
170.069229 164.0
170.106339 172.0
170.145279 56.0
170.480347 48.0
171.080109 420.0
172.001328 52.0
173.054855 124.0
175.777939 136.0
176.05246 348.0
176.774139 208.0
176.980591 104.0
177.052917 372.0
177.953644 108.0
178.02002 124.0
178.075119 624.0
178.131577 124.0
178.921371 60.0
179.033936 144.0
179.083206 708.0
179.466904 100.0
180.054672 136.0
180.089325 168.0
181.064865 1984.0
181.311981 88.0
181.601532 216.0
182.070251 2360.0
182.135651 80.0
182.401657 32.0
182.915421 68.0
183.077988 200.0
183.200867 68.0
183.400269 72.0
183.478439 108.0
184.080109 148.0
184.15303 164.0
185.064331 164.0
186.32547 172.0
187.073318 216.0
191.033035 200.0
192.054138 212.0
192.076111 156.0
192.982834 136.0
193.064911 956.0
193.159821 76.0
194.065186 640.0
195.045624 124.0
195.070587 272.0
195.092606 196.0
196.050934 180.0
196.092102 196.0
197.053497 180.0
197.098679 340.0
197.381592 52.0
198.061523 184.0
198.998276 140.0
199.079697 344.0
200.07785 40.0
201.318451 172.0
204.88092 136.0
205.060425 204.0
205.202957 68.0
206.072693 212.0
207.04599 192.0
207.079697 176.0
209.057816 712.0
209.154404 44.0
209.285782 64.0
209.331848 48.0
209.936996 128.0
210.066254 1104.0
211.005341 84.0
211.073257 980.0
212.085083 132.0
213.089127 148.0
213.391388 68.0
215.139359 176.0
217.202347 140.0
219.449097 68.0
221.05928 804.0
221.523712 56.0
222.063629 236.0
223.037018 116.0
223.072693 140.0
223.432526 68.0
224.033875 164.0
224.082153 136.0
225.056824 112.0
225.088791 352.0
225.182236 60.0
225.753052 68.0
226.071655 236.0
226.100067 116.0
227.06987 448.0
227.127716 104.0
229.811127 128.0
229.980118 92.0
236.065399 168.0
237.051575 548.0
237.274826 176.0
238.061569 628.0
238.499634 168.0
239.070724 804.0
239.524261 60.0
240.09166 184.0
241.082306 96.0
242.089142 148.0
242.605103 84.0
251.075638 172.0
252.07634 156.0
253.086243 300.0
253.108612 128.0
253.148682 172.0
253.617569 104.0
254.090057 188.0
255.06427 220.0
255.169846 68.0
255.726517 80.0
256.057648 128.0
256.659912 64.0
258.26944 124.0
269.081055 220.0
357.707397 72.0
386.374725 120.0
538.649902 96.0
576.533203 20.0
597.819885 28.0
923.914246 176.0
942.427063 180.0
960.833496 188.0
968.077515 136.0
970.151123 164.0
979.37439 212.0
1073.262451 168.0
1073.744995 52.0
1080.355103 124.0
1111.167358 208.0
1117.978027 140.0
1118.204224 184.0
1129.379761 148.0
1176.814331 144.0
1208.471924 148.0
1231.418701 200.0
1247.850952 184.0
1252.946289 92.0
1267.479492 140.0
1271.805542 144.0
1294.089722 140.0
1299.55835 184.0
1303.730225 20.0
1319.255371 220.0
1327.095947 184.0
1334.334473 160.0
1339.173462 220.0
1345.305664 164.0
1350.413208 192.0
1364.837769 180.0
1371.529541 176.0
1403.481445 108.0
1405.226807 176.0
1405.741577 60.0
1406.928345 132.0
1408.578613 208.0
1419.587891 164.0
1434.157715 176.0
1438.125 112.0
1449.87793 180.0
1450.264404 212.0
1480.074097 196.0
1484.365112 152.0
1491.297363 164.0
1499.682861 20.0
