>compound Sinapic_acid
>formula C11H12O5
>ionization [M+H]+
>parentmass 225.076111
#inchi InChI=1S/C11H12O5/c1-15-8-5-7(3-4-10(12)13)6-9(16-2)11(8)14/h3-6,14H,1-2H3,(H,12,13)
#inchikey PCMORTLOPMLEFB
#Ion_Source ESI
#Instrument Q-TOF
#Compound_Source Commercial standard
#PI Dorrestein
#Data_Collector Amina
#Scan -1
#Precursor_MZ 225.077
#ExactMass 224.068
#Charge 1
#CAS_Number 530-59-6
#Pubmed_ID N/A
#Smiles COC1=CC(=CC(=C1O)OC)C=CC(=O)O
#INCHI_AUX N/A
#Library_Class 2
#SpectrumID CCMSLIB00000077199
#IonMode Positive
#UpdateWorkflowName UPDATE-SINGLE-ANNOTATED-SILVER
#LibraryQualityString Silver
#TaskID 9bb88c04c6204bd4ae13def29ea30c87
##Scan# 964
#SpectrumFile Sinapic_acid.mzXML
#LibraryName gnps_library.mgf
#MQScore -1
#Organism Standards_Silver
#TIC_Query 0
#RT_Query -1
#MZErrorPPM -1
#SharedPeaks 0
#MassDiff 0
#LibMZ -1
#SpecMZ 225.077
#SpecCharge 0
#internalFilename spec-00000.mgf

>collision 10
76.502899 288.0
77.093666 120.0
77.532539 108.0
80.852196 116.0
89.037582 692.0
90.049202 284.0
91.012268 264.0
91.057289 244.0
91.134445 84.0
91.18309 96.0
91.196381 144.0
92.022423 148.0
92.452133 292.0
93.032394 216.0
93.930275 280.0
94.040161 144.0
95.046509 212.0
98.312752 204.0
101.088547 284.0
102.046509 216.0
103.052948 368.0
104.026672 228.0
104.566872 196.0
105.033165 536.0
107.04892 632.0
108.057487 388.0
109.063438 216.0
110.033348 276.0
110.047951 232.0
115.034706 236.0
115.797386 160.0
117.03405 696.0
117.774445 148.0
118.04261 796.0
118.174026 132.0
118.236725 232.0
119.0121 212.0
119.049889 4492.0
119.10347 72.0
119.169724 164.0
119.513756 168.0
120.05423 432.0
121.030296 704.0
121.049088 288.0
121.063293 748.0
122.03524 248.0
122.065887 248.0
122.902725 148.0
123.044601 1408.0
123.613617 112.0
125.024826 280.0
128.162796 220.0
128.57962 252.0
129.034561 804.0
131.012787 260.0
131.050842 224.0
132.022964 480.0
133.027847 220.0
133.064713 240.0
134.034592 200.0
135.044769 516.0
135.419403 244.0
135.692596 288.0
136.05162 216.0
136.704437 92.0
137.023163 216.0
137.06041 444.0
140.048279 508.0
140.92865 244.0
143.463531 228.0
145.030273 604.0
145.277039 96.0
146.034409 428.0
146.788559 232.0
147.04451 5532.0
147.707932 100.0
148.048325 452.0
149.023468 1532.0
149.068008 232.0
149.326767 80.0
149.594193 100.0
150.029877 508.0
151.042404 228.0
151.494873 108.0
152.041382 232.0
153.026016 96.0
153.05394 264.0
155.072586 1176.0
156.074142 316.0
156.325165 76.0
157.040161 848.0
161.024277 232.0
162.030151 408.0
162.610336 80.0
162.820877 92.0
163.042999 244.0
163.730545 212.0
164.047379 1080.0
164.316299 84.0
165.054764 208.0
166.070465 236.0
168.190506 364.0
173.024124 296.0
174.035355 248.0
174.909988 152.0
174.981003 140.0
175.004669 228.0
175.040054 14464.0
175.113937 76.0
175.154648 80.0
175.180969 120.0
175.212555 152.0
175.349457 108.0
175.755219 112.0
175.974091 236.0
176.041809 1468.0
177.017624 252.0
177.055801 488.0
177.118179 128.0
179.069809 1616.0
179.201782 100.0
179.425461 104.0
180.072983 288.0
180.971039 88.0
181.008499 76.0
181.089294 244.0
183.066086 760.0
183.133621 172.0
184.246719 308.0
184.984344 84.0
186.396133 88.0
187.500031 108.0
189.575195 112.0
191.042847 236.0
192.043106 4064.0
192.179688 92.0
192.317551 284.0
192.510635 120.0
193.046432 1104.0
193.109634 120.0
193.23143 84.0
193.419449 104.0
194.044983 280.0
194.064377 300.0
194.130859 80.0
194.460709 84.0
195.068481 200.0
201.029144 76.0
201.683792 172.0
202.144379 112.0
207.066437 8512.0
207.167114 52.0
207.196838 168.0
207.766846 80.0
207.976151 144.0
208.067566 1180.0
208.245804 104.0
209.078827 196.0
209.211121 84.0
209.412506 84.0
210.057602 180.0
211.316086 140.0
214.309845 108.0
218.934097 100.0
222.695755 76.0
225.076111 224.0
226.073654 128.0
254.307022 132.0
263.5672 100.0
324.691315 112.0
333.144714 116.0
388.001007 136.0
432.933868 144.0
1185.297485 192.0
1492.3302 220.0
1537.358643 248.0
1660.158081 112.0
1708.396973 228.0
1809.297974 264.0
1837.335938 228.0
1874.773804 344.0
1928.092041 260.0
1974.825073 96.0
1978.096191 260.0
1984.416016 156.0
