>compound MLS001142730-01!7-[2-[(4aS,8aS)-4a-hydroxy-1,3,4,5,6,7,8,8a-octahydroisoquinolin-2-yl]-2-oxoethoxy]-4,8-dimethylchromen-2-one
>formula C22H27NO5
>ionization [M+H]+
>parentmass 386.197
#inchi InChI=1S/C22H27NO5/c1-14-11-20(25)28-21-15(2)18(7-6-17(14)21)27-13-19(24)23-10-9-22(26)8-4-3-5-16(22)12-23/h6-7,11,16,26H,3-5,8-10,12-13H2,1-2H3/t16-,22-/m0/s1
#inchikey PCCSQTIJPCBNTJ
#Ion_Source LC-ESI
#Instrument qTof
#Compound_Source NIH Natural Product Library
#PI Dorrestein
#Data_Collector VVP/LMS
#Scan -1
#Precursor_MZ 386.197
#ExactMass 385.189
#Charge 1
#CAS_Number N/A
#Pubmed_ID N/A
#Smiles Cc1cc(=O)oc2c(C)c(OCC(=O)N3CC[C@@]4(O)CCCC[C@H]4C3)ccc12
#INCHI_AUX N/A
#Library_Class 1
#SpectrumID CCMSLIB00000080058
#IonMode Positive
#UpdateWorkflowName UPDATE-SINGLE-ANNOTATED-GOLD
#LibraryQualityString Gold
#TaskID b1d8e8f6646f4e71acdff9ca3d919d08
##Scan# 1877
#SpectrumFile p2-E03_GE3_01_18027.mzXML
#LibraryName NIH_Natural_Products_Library.mgf
#MQScore -1
#Organism NIH_Natural_Products_Library
#TIC_Query 0
#RT_Query -1
#MZErrorPPM -1
#SharedPeaks 0
#MassDiff 0
#LibMZ -1
#SpecMZ 386.197
#SpecCharge 0
#internalFilename spec-00000.mgf

>collision 10
94.954201 124.0
95.053139 176.0
95.072952 676.0
95.227859 192.0
95.270592 160.0
95.365807 200.0
95.383301 216.0
95.455231 128.0
95.501907 192.0
95.523308 164.0
95.552483 192.0
95.571945 204.0
95.645897 120.0
95.68483 168.0
95.768562 60.0
95.848434 52.0
95.901054 164.0
95.926392 132.0
96.082024 144.0
96.136177 200.0
96.179977 132.0
96.261978 80.0
96.353775 128.0
96.486671 152.0
96.586403 144.0
96.874153 204.0
96.905502 148.0
97.017212 164.0
97.034859 172.0
97.062309 140.0
97.08683 308.0
97.103485 184.0
97.260452 172.0
97.35273 216.0
97.380226 56.0
97.57476 52.0
97.661285 36.0
97.781303 108.0
97.832481 68.0
97.879738 120.0
97.976242 164.0
98.001854 156.0
98.06057 196.0
98.082657 196.0
98.106308 212.0
98.126022 140.0
98.273949 168.0
98.35881 168.0
98.473328 84.0
98.510857 76.0
98.593842 152.0
98.670937 20.0
98.787613 260.0
99.031082 104.0
99.060791 76.0
99.205452 152.0
99.703659 168.0
99.799072 132.0
100.356575 204.0
100.725777 224.0
100.747749 144.0
101.165703 192.0
101.436142 108.0
101.638702 144.0
101.708939 152.0
101.891678 156.0
102.050461 160.0
102.112793 160.0
102.263695 68.0
102.360329 116.0
102.426788 208.0
102.507378 128.0
102.614204 176.0
102.636383 136.0
102.666893 184.0
102.779594 212.0
102.926941 176.0
102.999649 184.0
103.053497 296.0
103.357491 184.0
103.470833 164.0
103.507278 180.0
103.582214 176.0
103.606522 132.0
103.64299 196.0
103.754463 120.0
103.886284 168.0
104.23143 160.0
104.373718 148.0
104.4571 196.0
104.562904 152.0
104.618607 132.0
104.727821 180.0
104.811348 116.0
104.958107 232.0
104.992775 256.0
105.01725 160.0
105.033569 180.0
105.069542 880.0
105.111092 56.0
105.204979 208.0
105.260101 68.0
105.297684 160.0
105.33567 192.0
105.421486 160.0
105.651764 160.0
106.065834 396.0
106.375923 128.0
106.394402 104.0
106.425194 168.0
106.663506 180.0
106.821846 164.0
106.867104 164.0
106.914429 160.0
107.017357 128.0
107.0858 208.0
107.307861 64.0
107.377975 160.0
107.404785 196.0
107.547157 176.0
107.770187 184.0
107.840454 152.0
107.865257 100.0
107.887993 200.0
107.925209 204.0
107.990349 40.0
108.02034 148.0
108.081238 9656.0
108.164894 220.0
108.194565 192.0
108.297714 156.0
108.332924 120.0
108.368141 84.0
108.446892 64.0
108.664627 64.0
108.718582 84.0
108.75061 52.0
108.791229 64.0
108.849358 72.0
108.988533 152.0
109.021774 232.0
109.087936 3444.0
109.140266 92.0
109.247437 68.0
109.265053 84.0
109.283783 108.0
109.3358 204.0
109.35553 152.0
109.425308 44.0
109.46904 52.0
109.523186 116.0
109.59436 340.0
109.854721 160.0
109.871307 88.0
109.981911 80.0
110.041313 184.0
110.067505 40.0
110.095734 584.0
110.142685 96.0
110.47924 40.0
110.58036 148.0
110.625725 212.0
110.745079 108.0
110.759743 104.0
110.78907 180.0
110.889648 224.0
110.944153 168.0
111.038506 136.0
111.053192 60.0
111.082848 228.0
111.10125 184.0
111.128708 52.0
111.202156 192.0
111.313423 188.0
111.836906 60.0
112.159172 144.0
112.576912 204.0
112.640274 204.0
112.756477 112.0
112.796638 108.0
113.554657 160.0
113.659996 244.0
113.756233 188.0
113.881508 168.0
113.915497 168.0
114.002609 88.0
114.094002 200.0
114.440796 216.0
114.459961 124.0
114.506805 32.0
114.538757 112.0
114.628235 260.0
114.728416 148.0
114.952362 116.0
115.022797 192.0
115.053551 2948.0
115.087296 168.0
115.294044 156.0
115.612373 80.0
115.764687 156.0
115.803238 48.0
115.936066 196.0
115.976326 224.0
116.060913 688.0
116.154755 96.0
116.362923 120.0
116.61425 152.0
116.635742 168.0
116.689491 88.0
116.747543 96.0
116.764748 120.0
116.880913 208.0
117.070068 1468.0
117.147881 132.0
117.348312 168.0
117.503593 140.0
117.548904 120.0
117.682732 136.0
117.812317 36.0
117.846886 156.0
117.920357 168.0
117.948456 140.0
118.073753 888.0
118.110626 140.0
118.489838 96.0
118.547966 92.0
118.686699 252.0
118.732231 172.0
118.753922 208.0
118.777779 228.0
118.819 164.0
118.838524 144.0
118.918816 132.0
118.944862 104.0
119.051247 124.0
119.084717 2144.0
119.175995 196.0
119.293358 80.0
119.388092 216.0
119.412575 248.0
119.459869 168.0
119.620895 92.0
119.670967 168.0
119.686211 36.0
119.816895 176.0
120.092361 1300.0
120.164429 236.0
120.198448 32.0
120.215904 60.0
120.401466 196.0
120.418938 168.0
120.932747 180.0
120.980904 56.0
121.101997 4204.0
121.202103 40.0
121.239357 124.0
121.263466 196.0
121.336998 220.0
121.583672 220.0
121.603424 140.0
121.625366 208.0
121.682442 204.0
121.69986 116.0
121.831787 56.0
121.858147 148.0
122.011993 160.0
122.038376 160.0
122.059464 180.0
122.096504 5568.0
122.203331 140.0
122.258347 80.0
122.419052 152.0
122.463562 188.0
122.831192 180.0
122.855659 224.0
122.87973 104.0
123.012138 168.0
123.042854 184.0
123.06572 172.0
123.080582 100.0
123.101173 704.0
123.277176 172.0
123.396538 28.0
123.515953 196.0
123.617729 220.0
123.653137 124.0
123.757179 84.0
123.907784 84.0
124.087303 124.0
124.102821 188.0
124.437851 96.0
124.969048 208.0
125.093674 244.0
125.176056 144.0
125.213913 176.0
125.320839 116.0
125.430038 184.0
125.840515 168.0
125.957047 156.0
126.084 200.0
126.123749 168.0
126.209183 196.0
126.271797 196.0
126.427559 32.0
126.583534 160.0
126.590027 200.0
126.64109 56.0
126.721733 168.0
126.795685 148.0
126.950371 120.0
127.374557 136.0
127.842209 208.0
128.060593 128.0
128.191254 184.0
128.493393 208.0
128.619766 64.0
129.069214 200.0
129.291031 156.0
129.484344 184.0
129.519714 224.0
129.544189 164.0
129.56955 36.0
129.585403 208.0
129.995819 168.0
130.073944 216.0
130.093414 68.0
130.152451 140.0
130.350067 180.0
130.586487 152.0
131.085068 160.0
131.370056 60.0
131.399719 80.0
131.721603 180.0
131.799286 120.0
131.931839 72.0
131.956985 140.0
132.043533 180.0
132.052368 152.0
132.060638 136.0
132.067123 196.0
132.352814 84.0
132.462753 168.0
132.549805 200.0
132.944229 132.0
133.068359 204.0
133.096725 140.0
133.603668 60.0
133.628967 164.0
133.868362 60.0
133.916718 180.0
134.029602 56.0
134.096878 420.0
134.285492 120.0
134.301636 124.0
134.377762 76.0
134.444672 108.0
134.494781 248.0
134.758713 108.0
134.791061 208.0
134.816483 232.0
134.83728 196.0
135.086273 232.0
135.102936 488.0
135.14946 180.0
135.184174 72.0
135.341583 144.0
135.517609 204.0
135.550049 132.0
135.809708 200.0
135.828262 144.0
135.846817 152.0
135.907135 116.0
135.972107 124.0
136.07457 684.0
136.112274 16756.0
136.182938 88.0
136.2043 88.0
136.253082 208.0
136.271667 60.0
136.304199 28.0
136.331421 56.0
136.357651 48.0
136.515732 148.0
136.536667 152.0
136.613129 164.0
136.766998 40.0
136.790268 44.0
136.825195 196.0
136.898666 184.0
136.920654 136.0
136.96492 36.0
136.988205 436.0
137.010376 132.0
137.083603 596.0
137.119904 15940.0
137.16925 156.0
137.186279 164.0
137.328522 52.0
137.358841 60.0
137.375183 68.0
137.438171 140.0
137.468506 28.0
137.501175 164.0
137.673935 188.0
137.746338 80.0
137.814087 192.0
137.884186 88.0
137.933273 132.0
138.001068 60.0
138.043167 80.0
138.089966 132.0
138.127243 10800.0
138.377762 60.0
138.450348 144.0
138.494843 60.0
138.536346 56.0
138.593246 52.0
138.60965 52.0
138.661194 228.0
138.708069 240.0
138.79071 160.0
138.888626 40.0
139.036438 140.0
139.097595 208.0
139.13031 948.0
139.160843 136.0
139.41304 56.0
139.515839 40.0
139.546173 136.0
139.762558 100.0
139.875519 168.0
140.068604 164.0
140.104492 224.0
140.122925 136.0
140.518875 204.0
140.5755 128.0
140.898987 76.0
140.943878 60.0
141.284332 72.0
141.345856 176.0
141.367142 144.0
141.457092 164.0
142.248825 148.0
142.795319 168.0
143.043335 224.0
143.092773 172.0
144.01564 180.0
144.092072 112.0
144.154205 96.0
144.388489 140.0
144.627731 168.0
144.678009 172.0
144.81929 56.0
144.862396 160.0
144.943863 140.0
144.979813 160.0
145.065353 13352.0
145.109238 196.0
145.132309 72.0
145.207275 68.0
145.231552 200.0
145.375076 68.0
145.394699 60.0
145.493103 36.0
145.562729 188.0
145.721268 128.0
145.814972 112.0
145.851028 244.0
145.870255 136.0
145.894302 200.0
145.961624 32.0
146.067093 1876.0
146.108337 196.0
146.134796 68.0
146.20459 72.0
146.291229 220.0
146.418854 132.0
146.650131 36.0
146.775497 52.0
146.792374 68.0
146.826141 236.0
147.023956 68.0
147.075211 320.0
147.313705 112.0
147.391022 52.0
147.444183 40.0
147.906143 56.0
147.969086 104.0
148.012665 76.0
148.051407 76.0
148.085312 88.0
148.11377 324.0
148.194321 108.0
148.39064 32.0
148.468231 228.0
148.703568 32.0
148.722992 72.0
148.744827 220.0
149.110901 112.0
149.213684 232.0
149.323105 156.0
149.54451 168.0
149.663803 144.0
149.709946 156.0
149.72139 148.0
149.728119 252.0
149.790497 184.0
149.885452 172.0
150.048752 200.0
150.092682 1408.0
150.128143 11832.0
150.173325 248.0
150.189377 60.0
150.212921 76.0
150.260941 104.0
150.288803 76.0
150.35611 40.0
150.531876 40.0
150.605713 236.0
150.837265 72.0
150.917938 88.0
151.095291 280.0
151.134781 4244.0
151.169891 160.0
151.204147 96.0
151.441635 76.0
151.501572 60.0
151.532272 68.0
151.569031 80.0
151.740601 240.0
151.907364 176.0
152.106293 172.0
152.137665 912.0
152.231339 52.0
152.287827 172.0
152.329575 112.0
152.572861 152.0
152.649094 176.0
152.895096 232.0
152.98616 160.0
153.138824 160.0
153.22258 84.0
153.260864 172.0
153.29422 108.0
153.441925 96.0
153.599747 96.0
153.654022 108.0
153.811966 176.0
154.084946 188.0
154.124985 2436.0
154.177505 224.0
154.251648 124.0
154.323349 84.0
154.592957 188.0
155.124146 332.0
155.150253 160.0
155.199844 56.0
155.313919 152.0
155.862579 80.0
156.362427 76.0
156.402237 104.0
156.444565 40.0
156.601425 156.0
156.995209 132.0
157.042587 176.0
157.065033 128.0
157.122421 84.0
157.197266 40.0
157.27713 60.0
158.304672 160.0
158.409866 184.0
158.605316 232.0
158.858582 76.0
159.403412 108.0
159.622101 120.0
159.757919 80.0
159.901337 140.0
160.052383 176.0
160.072525 64.0
160.120377 216.0
160.148071 272.0
160.806137 140.0
161.059418 376.0
161.571777 56.0
161.627441 176.0
161.657806 72.0
161.913498 160.0
162.040146 188.0
162.060425 172.0
162.1035 156.0
162.126312 140.0
163.078522 188.0
163.194962 64.0
164.107788 1336.0
164.310516 200.0
164.417679 212.0
164.458511 176.0
165.108704 248.0
165.23024 228.0
165.289093 208.0
165.537384 200.0
165.978134 172.0
166.119186 160.0
166.257736 172.0
166.429733 96.0
166.463104 52.0
167.298721 104.0
167.783051 184.0
168.079651 104.0
168.137497 2356.0
168.219025 60.0
168.247421 44.0
168.306793 56.0
168.353271 64.0
168.539261 56.0
168.748627 196.0
169.056427 128.0
169.140167 244.0
169.696228 72.0
170.145065 180.0
170.399582 244.0
170.472336 108.0
170.565903 100.0
171.039307 56.0
171.398697 40.0
171.9646 160.0
172.262268 156.0
172.618088 140.0
172.821747 136.0
172.876694 184.0
173.059311 2556.0
173.141098 132.0
173.392609 76.0
173.466003 124.0
173.673141 60.0
173.712494 256.0
173.793823 60.0
173.825302 48.0
173.989044 136.0
174.063995 292.0
174.318985 112.0
174.650238 160.0
174.801849 96.0
174.889679 88.0
175.026581 108.0
175.075409 2172.0
175.437576 104.0
175.759338 148.0
176.079391 756.0
176.175781 148.0
176.779327 136.0
176.96727 60.0
177.049347 148.0
177.089615 160.0
177.112915 144.0
177.290436 176.0
177.597977 172.0
177.619186 236.0
177.704086 84.0
177.998703 132.0
178.062439 120.0
178.121674 2532.0
178.187286 232.0
178.304214 60.0
178.32547 56.0
178.461044 56.0
178.556778 144.0
178.588684 76.0
178.685303 176.0
178.961258 200.0
179.011841 224.0
179.030487 128.0
179.069809 204.0
179.080673 156.0
179.130417 19208.0
179.171341 188.0
179.19902 148.0
179.252914 48.0
179.288895 60.0
179.373215 88.0
179.400848 212.0
179.427505 32.0
179.558167 32.0
179.582169 108.0
179.691528 36.0
179.82103 136.0
179.915329 132.0
179.982468 228.0
180.033203 68.0
180.062149 176.0
180.134155 2108.0
180.343109 192.0
180.377853 52.0
180.43132 60.0
180.460266 92.0
180.574219 64.0
180.995865 120.0
181.097626 80.0
181.136627 452.0
181.316742 164.0
181.547882 112.0
181.7276 72.0
181.904724 92.0
181.963409 112.0
182.120468 172.0
182.76474 112.0
182.888519 140.0
183.126495 232.0
183.602493 92.0
184.101761 148.0
184.488129 224.0
184.904678 44.0
185.484299 88.0
185.533096 136.0
185.986115 136.0
186.05397 52.0
186.989044 224.0
187.081589 116.0
187.15509 176.0
187.457443 216.0
188.046509 180.0
189.054413 288.0
190.064026 920.0
190.428497 188.0
191.068344 1544.0
191.278122 56.0
191.362061 188.0
192.072174 352.0
192.314514 36.0
193.077057 188.0
193.110245 80.0
193.184921 52.0
193.550262 100.0
194.07933 144.0
194.562241 216.0
195.259689 164.0
196.135056 468.0
196.161819 160.0
196.820236 188.0
197.139221 204.0
197.284012 216.0
198.468292 80.0
198.891907 96.0
199.619568 140.0
199.965591 156.0
201.073212 168.0
201.222809 152.0
201.313171 132.0
201.361176 140.0
201.796356 172.0
202.31691 124.0
202.413177 148.0
202.563278 176.0
202.897675 128.0
202.917526 164.0
203.002914 344.0
203.033417 156.0
203.070877 18804.0
203.12558 152.0
203.155746 72.0
203.253571 100.0
203.329391 60.0
203.351532 52.0
203.379913 96.0
203.482117 56.0
203.621246 72.0
203.686584 48.0
203.734863 80.0
203.768967 56.0
203.911041 80.0
204.072784 2272.0
204.152695 120.0
204.218109 156.0
204.311966 80.0
204.351807 36.0
204.425781 68.0
204.855713 36.0
205.040909 76.0
205.078217 360.0
205.294632 120.0
205.485748 88.0
205.557083 60.0
205.685501 68.0
205.745453 60.0
205.774002 144.0
205.862518 60.0
206.028183 96.0
206.091034 148.0
206.525574 36.0
206.597076 64.0
206.66861 104.0
206.834595 144.0
209.096298 92.0
209.879852 188.0
210.459808 72.0
211.833542 216.0
214.087418 156.0
214.781067 156.0
215.496292 292.0
216.095657 96.0
217.030365 152.0
217.591354 168.0
218.263214 108.0
219.004822 72.0
221.554077 212.0
226.13681 112.0
227.167572 48.0
229.139694 108.0
230.292023 108.0
230.37056 76.0
231.065399 1272.0
231.126389 36.0
231.304947 68.0
231.901642 168.0
232.066605 144.0
232.095657 132.0
232.310989 188.0
232.365601 72.0
233.065186 144.0
233.784607 112.0
234.131653 144.0
234.152969 48.0
234.436295 96.0
234.927185 296.0
234.957687 216.0
234.985138 112.0
235.088882 124.0
236.467194 100.0
237.082764 116.0
237.291199 76.0
238.08287 128.0
238.16272 248.0
238.84816 96.0
240.391693 116.0
241.092697 156.0
241.361633 164.0
242.720963 232.0
244.105881 164.0
246.10321 136.0
247.084595 152.0
247.341202 148.0
247.720093 236.0
248.093582 2148.0
248.238464 92.0
249.093887 248.0
250.386765 184.0
250.654541 56.0
250.84993 96.0
253.257721 52.0
253.438293 84.0
253.54921 80.0
255.091766 160.0
256.438171 252.0
256.533813 52.0
257.372864 132.0
259.590393 96.0
260.088715 160.0
260.370209 128.0
260.80072 96.0
261.093292 168.0
262.087982 144.0
263.113617 120.0
266.884888 152.0
268.950317 68.0
270.172424 148.0
271.148193 48.0
274.116394 196.0
274.244232 28.0
274.626709 92.0
275.121674 172.0
275.927765 136.0
276.109619 176.0
278.628815 148.0
280.13913 156.0
283.12851 124.0
283.916077 208.0
286.093353 112.0
287.104187 120.0
290.842743 188.0
291.260406 188.0
296.203003 124.0
297.123474 164.0
297.153534 160.0
298.144012 176.0
298.382141 80.0
300.669312 112.0
300.821198 60.0
301.221741 64.0
307.265717 220.0
307.897491 88.0
309.597137 152.0
312.172913 124.0
312.84494 80.0
313.401398 128.0
320.017731 72.0
320.61261 176.0
320.644684 64.0
321.936127 140.0
322.177338 128.0
324.060852 172.0
325.165314 100.0
326.854309 88.0
334.108643 204.0
339.397186 52.0
339.477875 72.0
340.190735 4504.0
340.347504 56.0
340.473541 100.0
340.707458 44.0
340.736847 32.0
340.946289 80.0
341.133728 52.0
341.191803 960.0
341.262421 64.0
341.865662 56.0
342.193878 184.0
342.528381 56.0
342.966858 152.0
343.202789 72.0
343.815948 36.0
349.786133 100.0
351.175934 128.0
358.422546 136.0
359.980408 144.0
363.944946 104.0
363.979126 144.0
367.740356 144.0
368.186737 1968.0
368.41684 48.0
368.886261 72.0
368.955048 52.0
369.184296 816.0
370.175598 124.0
370.210052 124.0
371.045349 88.0
371.110535 88.0
371.375153 44.0
371.417328 56.0
372.499786 68.0
372.818695 64.0
373.510742 112.0
374.788879 88.0
376.231323 88.0
386.003113 108.0
388.474457 84.0
389.153381 232.0
392.379578 100.0
407.066162 128.0
432.376495 48.0
442.077209 56.0
444.138489 80.0
450.490448 64.0
503.367249 32.0
528.413879 36.0
570.953064 96.0
594.503418 44.0
609.706116 96.0
613.890564 68.0
635.037354 44.0
665.158203 60.0
675.045044 152.0
702.671753 36.0
703.811829 72.0
709.547058 88.0
727.482849 124.0
745.848999 52.0
759.230835 148.0
777.546936 124.0
779.6073 40.0
780.079712 112.0
797.671387 180.0
811.910889 88.0
818.55957 40.0
831.209473 32.0
843.603699 192.0
843.800293 108.0
844.540466 152.0
852.779419 164.0
863.846375 156.0
872.643127 180.0
873.054749 196.0
875.078857 76.0
882.099121 172.0
882.146362 120.0
888.737915 200.0
897.994141 184.0
909.069275 76.0
909.661926 196.0
914.001038 160.0
915.409607 136.0
937.788879 120.0
938.58136 216.0
965.020569 224.0
969.161255 120.0
969.613586 216.0
983.832642 172.0
985.575134 160.0
992.660767 152.0
993.501221 164.0
1003.645813 164.0
1016.10553 36.0
1016.359314 188.0
1018.543213 156.0
1019.165771 196.0
1022.44696 108.0
1022.886108 168.0
1023.611877 176.0
1024.038574 208.0
1026.039429 212.0
1027.49353 84.0
1031.567749 192.0
1034.817627 60.0
1036.008789 240.0
1036.24585 64.0
1036.636719 224.0
1041.737305 176.0
1046.766724 136.0
1048.35144 164.0
1048.577026 136.0
1049.473022 80.0
1050.588745 160.0
1054.249634 164.0
1055.717041 164.0
1060.261597 200.0
1062.063965 184.0
1062.174194 224.0
1065.497925 144.0
1067.044678 176.0
1069.835571 172.0
1079.204102 68.0
1081.716187 208.0
1087.792725 132.0
1089.743164 232.0
1095.48645 168.0
1097.285522 172.0
1097.991089 176.0
1099.508423 40.0
1099.686646 92.0
1103.028809 180.0
1109.224487 220.0
1110.716431 204.0
1110.835815 128.0
1113.28479 216.0
1115.543823 232.0
1118.257568 168.0
1120.21521 188.0
1121.361206 144.0
1122.907959 204.0
1126.552368 144.0
1128.002441 176.0
1128.289917 40.0
1130.784912 224.0
1131.534668 204.0
1132.317993 188.0
1135.722778 148.0
1137.675415 152.0
1139.172974 188.0
1140.456299 132.0
1140.79248 156.0
1142.910889 128.0
1143.247314 148.0
1145.388306 152.0
1152.316406 184.0
1152.856934 44.0
1152.944824 256.0
1157.030151 216.0
1159.793945 128.0
1160.634644 172.0
1162.07251 212.0
1164.230957 144.0
1166.52063 192.0
1168.594849 164.0
1176.220581 136.0
1176.793945 28.0
1177.845703 84.0
1180.620483 152.0
1180.83252 172.0
1182.891968 164.0
1184.117554 168.0
1184.651855 244.0
1186.029175 136.0
1186.14563 164.0
1187.743286 44.0
1190.69458 196.0
1194.83252 144.0
1195.919678 132.0
1196.793945 52.0
1196.890381 172.0
1197.289795 148.0
1197.592773 132.0
1199.411865 160.0
1199.921997 196.0
1200.501099 196.0
1200.657959 120.0
1201.404663 100.0
1201.659912 120.0
1203.040161 176.0
1203.668457 132.0
1204.310669 200.0
1206.45874 144.0
1206.632446 192.0
1209.088013 180.0
1209.953247 184.0
1215.414673 184.0
1220.359985 112.0
1220.78418 124.0
1223.114868 188.0
1224.284546 164.0
1224.507324 200.0
1224.577026 136.0
1224.869507 124.0
1225.294434 116.0
1226.569702 108.0
1228.403564 184.0
1230.182983 168.0
1230.560059 168.0
1231.509644 136.0
1233.277344 240.0
1233.654785 164.0
1238.658081 168.0
1239.393677 232.0
1240.059448 140.0
1240.304688 96.0
1240.79541 172.0
1241.251221 160.0
1243.896118 44.0
1245.49707 160.0
1245.869263 180.0
1246.31189 164.0
1246.599976 120.0
1248.512085 96.0
1250.228638 168.0
1250.742432 136.0
1250.932495 148.0
1251.678711 172.0
1254.45459 132.0
1255.850708 160.0
1256.718384 164.0
1260.10022 120.0
1263.097534 128.0
1267.153809 56.0
1269.797852 120.0
1270.755493 92.0
1271.12439 248.0
1271.770264 176.0
1275.854614 148.0
1277.632446 156.0
1278.336914 136.0
1279.126831 136.0
1279.498413 208.0
1280.992554 168.0
1283.494019 80.0
1283.593872 44.0
1283.807739 212.0
1285.191528 152.0
1285.320068 108.0
1285.462769 212.0
1285.719604 108.0
1286.42627 156.0
1286.890259 204.0
1287.497192 212.0
1288.432861 148.0
1289.44043 172.0
1289.712036 104.0
1290.627075 152.0
1292.72998 192.0
1293.560181 40.0
1294.340576 156.0
1296.324707 136.0
1296.819214 136.0
1297.213501 148.0
1298.504028 236.0
1299.924561 212.0
1302.45874 160.0
1305.203979 204.0
1306.987793 192.0
1307.038208 200.0
1309.226562 204.0
1309.881958 152.0
1312.404297 216.0
1312.894653 136.0
1313.01001 68.0
1313.224731 140.0
1314.5177 52.0
1314.842407 40.0
1315.304321 124.0
1315.889038 160.0
1316.59668 216.0
1319.667725 188.0
1320.926025 120.0
1321.432373 216.0
1321.685669 140.0
1322.336914 44.0
1322.626465 244.0
1324.436523 208.0
1324.516235 172.0
1325.124756 200.0
1325.53772 176.0
1328.024292 176.0
1328.205688 56.0
1328.611938 128.0
1329.076172 152.0
1329.380981 80.0
1329.917969 140.0
1330.731079 168.0
1333.040771 112.0
1336.4729 84.0
1336.582031 148.0
1336.865845 176.0
1337.200562 164.0
1339.421265 84.0
1341.08252 168.0
1343.102173 48.0
1343.255371 152.0
1344.043213 156.0
1344.225708 192.0
1346.474121 172.0
1346.66394 104.0
1346.722412 132.0
1347.650146 212.0
1349.309204 164.0
1349.477295 204.0
1354.011108 192.0
1354.20459 176.0
1355.457275 136.0
1355.75769 164.0
1356.629883 220.0
1357.773682 136.0
1358.367798 212.0
1359.438965 140.0
1360.826294 144.0
1360.921631 192.0
1362.015869 152.0
1363.132568 152.0
1364.448242 172.0
1365.315796 104.0
1366.720825 40.0
1367.199097 164.0
1367.875122 212.0
1368.016113 184.0
1368.494629 172.0
1368.833496 152.0
1373.970459 192.0
1374.767334 164.0
1375.136353 160.0
1376.878662 144.0
1377.033813 168.0
1377.107666 160.0
1377.572998 104.0
1378.562988 148.0
1379.834351 56.0
1382.25293 124.0
1383.755371 48.0
1385.132812 152.0
1385.243896 188.0
1386.481201 204.0
1387.407715 152.0
1387.845215 124.0
1389.002075 204.0
1390.233643 120.0
1390.805176 164.0
1390.998169 188.0
1391.295044 108.0
1391.770142 180.0
1391.859253 208.0
1392.067261 132.0
1393.040161 156.0
1395.395874 176.0
1395.559448 156.0
1395.938721 100.0
1397.106445 180.0
1397.225464 132.0
1399.309204 92.0
1399.97937 140.0
1400.150635 140.0
1401.104126 140.0
1402.601929 132.0
1403.064087 176.0
1403.213135 168.0
1403.384644 200.0
1403.89917 204.0
1405.778931 212.0
1406.749268 224.0
1407.286743 264.0
1407.981201 168.0
1409.781616 200.0
1410.171753 196.0
1410.514038 180.0
1410.835449 160.0
1411.224243 116.0
1412.039307 200.0
1412.906982 172.0
1413.700073 232.0
1414.500854 184.0
1416.590088 176.0
1416.672485 140.0
1417.923706 136.0
1419.640503 132.0
1420.352905 44.0
1424.075806 172.0
1424.195923 164.0
1424.286133 104.0
1425.856323 120.0
1425.984131 164.0
1426.510254 224.0
1426.841064 220.0
1430.542236 196.0
1431.332764 156.0
1431.792114 148.0
1433.050049 156.0
1434.159424 224.0
1434.670288 140.0
1436.736572 188.0
1437.936401 40.0
1438.057129 56.0
1438.283569 168.0
1439.914429 56.0
1444.290405 216.0
1444.396362 120.0
1445.152832 180.0
1445.493286 128.0
1447.060059 168.0
1447.370483 92.0
1448.135376 156.0
1448.529297 64.0
1448.748901 36.0
1448.96106 156.0
1449.286865 168.0
1450.946655 152.0
1451.045166 168.0
1451.204346 76.0
1451.750366 116.0
1452.743896 156.0
1453.17627 164.0
1453.282593 144.0
1454.041382 208.0
1454.678955 164.0
1454.807983 196.0
1454.94458 244.0
1455.134399 184.0
1458.902466 188.0
1459.22937 120.0
1459.685669 180.0
1461.000977 212.0
1461.130737 144.0
1461.929688 136.0
1462.713501 160.0
1463.68042 176.0
1465.1427 140.0
1465.44751 92.0
1467.108887 184.0
1467.642578 176.0
1468.145752 116.0
1469.00769 184.0
1469.785889 196.0
1469.976562 148.0
1475.208252 244.0
1475.521729 88.0
1477.089355 156.0
1478.604248 164.0
1478.657837 196.0
1481.10791 172.0
1482.280029 216.0
1482.716797 196.0
1483.161377 180.0
1484.096558 176.0
1484.47229 132.0
1486.090698 56.0
1488.01709 224.0
1489.430054 144.0
1490.221313 224.0
1490.359619 188.0
1490.444214 188.0
1491.143433 168.0
1491.819824 84.0
1492.673218 120.0
1495.011719 84.0
1495.18103 184.0
1495.627441 180.0
1496.015869 180.0
1497.01355 172.0
1497.0979 176.0
1497.860352 160.0
1499.146973 208.0
1501.598511 160.0
1501.783691 140.0
1503.002563 136.0
1503.612183 240.0
1504.079468 232.0
