>compound MLS000777209-01!phenazine-1-carboxylic acid
>formula C13H8N2O2
>ionization [M+H]+
>parentmass 225.064545
#inchi InChI=1S/C13H8N2O2/c16-13(17)8-4-3-7-11-12(8)15-10-6-2-1-5-9(10)14-11/h1-7H,(H,16,17)
#inchikey JGCSKOVQDXEQHI
#Ion_Source LC-ESI
#Instrument qTof
#Compound_Source NIH Natural Product Library
#PI Dorrestein
#Data_Collector VVP/LMS
#Scan -1
#Precursor_MZ 225.066
#ExactMass 224.059
#Charge 1
#CAS_Number N/A
#Pubmed_ID N/A
#Smiles OC(=O)c1cccc2nc3ccccc3nc12
#INCHI_AUX N/A
#Library_Class 1
#SpectrumID CCMSLIB00000079908
#IonMode Positive
#UpdateWorkflowName UPDATE-SINGLE-ANNOTATED-GOLD
#LibraryQualityString Gold
#TaskID b1d8e8f6646f4e71acdff9ca3d919d08
##Scan# 1902
#SpectrumFile p1-F12_GF12_01_17944.mzXML
#LibraryName NIH_Natural_Products_Library.mgf
#MQScore -1
#Organism NIH_Natural_Products_Library
#TIC_Query 0
#RT_Query -1
#MZErrorPPM -1
#SharedPeaks 0
#MassDiff 0
#LibMZ -1
#SpecMZ 225.066
#SpecCharge 0
#internalFilename spec-00000.mgf

>collision 10
95.244537 160.0
95.384438 124.0
95.507942 304.0
95.611816 208.0
95.828316 136.0
96.032829 160.0
96.259216 172.0
96.313896 208.0
96.479042 196.0
96.875305 172.0
97.143867 160.0
97.249825 164.0
97.306755 148.0
97.587708 80.0
97.766708 140.0
97.906487 204.0
97.987244 152.0
98.146889 192.0
98.421158 196.0
98.539665 160.0
98.709648 140.0
98.804588 160.0
99.004509 188.0
99.020302 168.0
99.099586 236.0
99.385101 160.0
99.450592 172.0
100.036972 108.0
100.138527 164.0
100.876801 156.0
101.01078 204.0
101.035568 404.0
101.054787 56.0
101.124832 128.0
101.208908 76.0
101.449326 184.0
101.468697 188.0
101.637856 132.0
101.706085 144.0
101.806473 132.0
101.977242 96.0
102.001358 56.0
102.033684 1652.0
102.268883 76.0
102.309135 176.0
102.401764 96.0
102.740402 116.0
102.861481 232.0
103.029991 204.0
103.03833 168.0
103.202904 204.0
103.237282 160.0
103.338417 120.0
103.455803 192.0
103.569199 172.0
104.021378 140.0
104.035591 156.0
104.12899 108.0
104.397255 112.0
104.509132 188.0
104.753433 232.0
105.067375 184.0
105.518723 184.0
106.03891 132.0
106.059151 124.0
106.63385 156.0
106.66468 88.0
106.763367 196.0
106.971176 48.0
107.030884 148.0
107.331718 168.0
107.443092 184.0
107.845764 192.0
108.058762 168.0
108.141533 220.0
108.267822 96.0
108.408691 168.0
109.495209 28.0
109.607697 132.0
109.720253 48.0
110.239975 120.0
110.292221 80.0
110.478333 204.0
110.580864 124.0
110.635284 108.0
110.666687 124.0
110.691818 132.0
110.901314 196.0
110.915985 112.0
110.970497 108.0
111.438538 92.0
111.808624 188.0
111.905457 244.0
112.086594 132.0
112.160362 164.0
112.201584 108.0
112.3396 128.0
112.508423 176.0
112.59922 144.0
113.041054 196.0
113.089729 164.0
113.263351 128.0
113.443466 196.0
113.581299 156.0
113.681015 152.0
114.016556 180.0
114.085762 144.0
114.650742 208.0
115.001801 232.0
115.059471 260.0
115.096581 104.0
115.335854 40.0
115.470551 152.0
115.774452 184.0
115.806572 164.0
116.059448 100.0
116.419952 116.0
116.574623 188.0
117.097389 144.0
117.218033 156.0
117.519905 164.0
117.571693 88.0
117.932373 184.0
117.971275 196.0
118.155098 180.0
118.222176 188.0
118.70742 180.0
118.90049 200.0
118.922195 148.0
119.113274 184.0
119.204521 132.0
119.72226 164.0
119.990273 180.0
120.044563 316.0
120.062462 192.0
120.411415 156.0
120.444176 108.0
120.960228 112.0
121.472984 148.0
121.749962 104.0
122.142952 160.0
122.647194 68.0
122.803741 172.0
122.932938 220.0
123.044266 252.0
123.070763 104.0
123.154678 208.0
123.457458 136.0
123.813759 128.0
124.026459 152.0
124.470161 188.0
124.543449 104.0
124.794563 220.0
125.03714 1264.0
125.20623 48.0
125.52713 212.0
126.03656 692.0
126.315285 224.0
126.458725 44.0
126.54155 192.0
126.933662 196.0
127.042564 160.0
127.05526 360.0
127.211868 212.0
127.634247 184.0
127.67247 64.0
127.832191 148.0
127.877205 156.0
127.987511 96.0
128.048676 2052.0
128.269119 64.0
128.368317 156.0
128.402145 148.0
128.441681 160.0
128.989197 192.0
129.04451 2148.0
129.090942 72.0
129.42131 68.0
129.484711 160.0
130.03833 764.0
130.085571 36.0
130.253616 76.0
130.317215 52.0
130.412659 136.0
130.553619 140.0
130.701477 144.0
130.838043 180.0
130.949615 28.0
131.038452 168.0
131.604095 196.0
131.912521 148.0
131.944519 124.0
132.061142 220.0
132.727554 112.0
132.917938 180.0
133.009735 128.0
133.322098 168.0
133.825867 204.0
134.017029 160.0
134.171448 88.0
134.395172 160.0
134.579819 76.0
134.783081 168.0
134.874939 200.0
134.935623 176.0
135.354416 160.0
135.627792 96.0
136.284546 96.0
136.321716 180.0
136.363556 116.0
136.428635 60.0
136.528625 188.0
136.623978 116.0
136.663528 92.0
136.751968 180.0
136.826462 52.0
136.982483 132.0
137.003448 240.0
137.182892 148.0
137.201538 136.0
137.486099 52.0
137.62616 152.0
138.065475 76.0
138.444595 144.0
138.704651 168.0
139.051788 148.0
139.09169 156.0
139.162125 156.0
139.622681 160.0
139.688538 48.0
139.789719 124.0
140.006287 80.0
140.024582 224.0
140.152344 180.0
140.168839 112.0
140.190033 188.0
140.567337 56.0
141.053864 160.0
141.250122 132.0
141.406296 76.0
141.444153 56.0
141.529388 156.0
141.690445 168.0
142.015198 244.0
142.463837 192.0
142.772827 232.0
142.977417 80.0
143.294113 32.0
143.673187 164.0
143.842621 172.0
144.270218 212.0
144.34433 32.0
144.617065 204.0
144.640991 104.0
144.959534 164.0
145.117722 176.0
145.235229 92.0
146.059555 408.0
146.396057 152.0
146.825027 152.0
147.059052 316.0
147.583267 124.0
147.931641 100.0
147.972855 172.0
148.278015 148.0
148.518036 204.0
148.542297 200.0
148.641769 124.0
149.205887 220.0
149.650497 152.0
150.354965 156.0
150.374496 180.0
150.447723 140.0
151.041489 680.0
151.102692 156.0
151.136932 128.0
151.364578 156.0
151.562988 132.0
151.741913 136.0
151.830185 224.0
151.854706 164.0
152.048859 13256.0
152.087479 60.0
152.095718 100.0
152.14917 92.0
152.171265 104.0
152.259659 52.0
152.307251 204.0
152.413025 148.0
152.529938 64.0
152.655792 144.0
152.849655 96.0
152.889023 80.0
152.923477 228.0
152.943161 128.0
153.045181 6132.0
153.115509 56.0
153.140152 28.0
153.21669 108.0
153.366821 208.0
153.398865 200.0
153.480225 44.0
153.504883 104.0
153.556671 100.0
153.591202 48.0
153.709625 80.0
153.963882 68.0
154.045853 1084.0
154.112106 204.0
154.210953 44.0
154.280167 160.0
154.337021 80.0
154.393906 100.0
154.477997 56.0
154.594284 32.0
154.695755 96.0
154.742798 192.0
154.762604 112.0
154.834412 164.0
154.980576 168.0
155.049957 340.0
155.116714 120.0
155.439285 84.0
155.501328 144.0
155.583252 176.0
155.625458 152.0
155.699951 64.0
156.048706 272.0
156.572876 180.0
156.969101 44.0
157.10878 160.0
157.231033 68.0
157.683075 164.0
157.725571 56.0
157.985641 48.0
158.541489 176.0
158.852386 144.0
158.869949 140.0
159.045609 36.0
159.387146 148.0
159.548004 168.0
160.101562 136.0
160.630859 88.0
160.923599 120.0
161.02713 124.0
161.082703 160.0
161.123123 104.0
161.221664 160.0
161.254517 144.0
161.342987 92.0
162.079498 236.0
162.612045 104.0
162.660278 132.0
162.771988 184.0
163.516846 148.0
163.802017 192.0
164.110382 112.0
164.373108 168.0
164.819962 124.0
165.055115 164.0
165.075577 168.0
165.162521 224.0
165.833359 188.0
166.795898 124.0
167.22287 120.0
167.282059 172.0
168.843079 204.0
168.925003 244.0
168.967239 88.0
169.037094 144.0
169.178635 156.0
169.35553 188.0
169.591324 168.0
169.91806 164.0
170.058365 2884.0
170.107498 128.0
170.723267 140.0
170.785843 212.0
170.871536 204.0
171.055908 3424.0
171.098877 148.0
171.137589 156.0
171.183884 80.0
171.259399 184.0
171.428741 48.0
171.561676 216.0
171.759857 204.0
171.793762 72.0
171.947708 148.0
171.989471 52.0
172.044296 88.0
172.067825 196.0
172.091293 176.0
172.200958 184.0
172.342026 124.0
172.587723 136.0
172.687103 56.0
173.10582 104.0
173.530304 84.0
173.868683 204.0
173.934296 100.0
174.068192 140.0
174.375565 204.0
174.720032 152.0
174.980576 148.0
175.004272 188.0
175.278198 204.0
175.613007 168.0
175.779221 212.0
176.037903 164.0
176.413086 188.0
176.767502 180.0
176.809845 52.0
176.992493 108.0
177.053406 120.0
177.12439 184.0
177.297134 180.0
177.395203 160.0
177.838165 176.0
177.859406 104.0
178.048264 616.0
178.087753 196.0
178.146194 128.0
178.293442 164.0
178.648621 112.0
178.679504 212.0
178.715698 164.0
178.76149 180.0
178.768433 116.0
178.777313 184.0
178.833862 188.0
178.945129 144.0
178.987762 300.0
179.012894 388.0
179.060165 71320.0
179.106552 284.0
179.125641 244.0
179.146606 184.0
179.166016 96.0
179.251862 84.0
179.288971 56.0
179.297638 80.0
179.307129 116.0
179.327621 64.0
179.351608 64.0
179.380173 84.0
179.40802 148.0
179.436905 128.0
179.498199 280.0
179.531784 120.0
179.576462 60.0
179.616852 168.0
179.657593 192.0
179.699707 196.0
179.719635 148.0
179.740967 64.0
179.778336 144.0
179.837784 104.0
179.909317 92.0
179.944855 52.0
180.061462 6672.0
180.114731 112.0
180.142746 156.0
180.162094 44.0
180.208237 72.0
180.305939 84.0
180.352539 64.0
180.414032 80.0
180.480865 48.0
180.539688 80.0
180.58783 68.0
180.649734 112.0
180.740326 192.0
180.767075 48.0
180.836655 32.0
180.90625 60.0
180.924988 88.0
180.943741 88.0
180.970505 60.0
180.999954 128.0
181.067001 452.0
181.113449 152.0
181.148834 184.0
181.194183 128.0
181.214493 84.0
181.262466 96.0
181.281219 68.0
181.334824 104.0
181.373291 112.0
181.400497 136.0
181.434113 104.0
181.469986 116.0
181.491333 104.0
181.538574 52.0
181.730972 148.0
181.935669 88.0
182.069931 152.0
182.287521 88.0
182.322464 108.0
182.416534 72.0
182.491806 80.0
182.962631 44.0
183.051483 168.0
183.0811 172.0
183.452927 60.0
183.57695 52.0
183.992477 96.0
184.059982 144.0
184.108582 80.0
184.82222 104.0
185.130814 96.0
186.479156 160.0
187.023132 88.0
187.611526 228.0
188.389282 44.0
189.242554 140.0
189.36853 52.0
189.560287 124.0
189.730515 76.0
190.221268 100.0
190.353058 140.0
191.659637 160.0
191.734039 84.0
191.938034 76.0
192.004211 92.0
192.462296 100.0
192.561707 152.0
192.603134 64.0
192.904327 28.0
193.853653 128.0
193.914627 140.0
194.039368 172.0
194.508194 72.0
194.802536 64.0
195.052628 300.0
195.352951 68.0
195.578339 44.0
195.739807 52.0
196.302185 220.0
196.785416 192.0
197.071793 1380.0
197.498016 68.0
198.077545 352.0
198.915863 120.0
199.087128 100.0
200.533203 164.0
200.589569 76.0
201.585861 72.0
201.746964 144.0
204.137146 120.0
205.13649 152.0
206.069702 192.0
206.841843 136.0
206.964935 192.0
207.011002 184.0
207.054977 9804.0
207.265701 56.0
207.325882 28.0
207.371735 88.0
207.3918 72.0
207.437653 96.0
207.707199 48.0
207.976913 272.0
208.055298 2448.0
208.131943 40.0
208.284149 52.0
208.401947 52.0
208.79863 32.0
208.824524 88.0
209.066177 256.0
209.106476 56.0
209.172668 52.0
209.276321 128.0
209.310867 156.0
209.344574 48.0
209.457748 80.0
209.524002 124.0
209.659424 136.0
212.705032 56.0
213.501114 64.0
214.99852 60.0
216.041641 52.0
218.558929 36.0
218.658981 132.0
218.747284 116.0
219.088882 48.0
224.179291 96.0
225.064545 724.0
225.277267 92.0
226.070847 152.0
226.156387 132.0
226.800369 72.0
229.023834 76.0
229.493958 116.0
235.218735 100.0
251.779312 132.0
256.481384 108.0
260.359161 124.0
274.404358 152.0
279.152557 44.0
281.455109 60.0
295.226166 76.0
311.205231 96.0
312.002747 100.0
328.167633 64.0
333.500031 160.0
380.84201 44.0
399.64621 116.0
405.047699 48.0
424.58493 168.0
428.403381 76.0
450.502228 60.0
452.938782 56.0
466.783997 36.0
479.132721 84.0
505.973389 60.0
519.706604 60.0
538.702332 104.0
576.621582 68.0
584.067749 216.0
590.690613 36.0
603.451721 76.0
626.395691 132.0
638.312317 72.0
679.173767 204.0
715.541382 56.0
731.710083 80.0
735.715698 36.0
747.215881 44.0
756.121216 188.0
757.670776 60.0
885.327576 60.0
911.768494 100.0
918.560181 200.0
930.050903 152.0
973.657837 60.0
980.625916 136.0
985.25592 40.0
986.08075 124.0
992.509888 68.0
1005.803101 228.0
1009.309387 164.0
1014.430298 108.0
1019.267395 176.0
1042.701538 152.0
1047.591553 164.0
1053.274658 180.0
1058.189453 124.0
1077.401245 212.0
1080.598145 228.0
1084.586304 112.0
1085.825439 212.0
1091.657104 172.0
1094.651245 72.0
1106.317871 148.0
1108.967407 204.0
1110.883789 56.0
1127.255737 72.0
1141.493774 176.0
1144.09082 176.0
1148.706909 164.0
1166.271729 144.0
1168.529419 168.0
1170.394409 128.0
1170.49646 156.0
1174.565186 152.0
1192.992554 136.0
1211.757324 208.0
1215.806885 168.0
1216.133057 164.0
1217.625732 200.0
1228.379517 160.0
1228.86084 124.0
1235.337036 220.0
1236.911499 140.0
1246.56897 164.0
1252.274536 164.0
1255.029907 204.0
1255.086304 200.0
1256.362915 144.0
1256.567505 252.0
1266.442871 128.0
1271.327759 180.0
1275.731445 152.0
1277.800903 212.0
1277.921875 236.0
1282.479492 200.0
1284.725586 132.0
1285.203613 184.0
1286.017212 180.0
1286.523926 100.0
1288.159302 136.0
1288.223633 204.0
1292.033936 204.0
1292.377319 144.0
1293.057129 148.0
1293.164551 152.0
1294.732422 232.0
1295.133423 68.0
1298.114868 36.0
1298.817749 148.0
1302.341919 128.0
1306.539917 208.0
1309.664062 188.0
1315.807983 196.0
1316.053467 160.0
1324.123657 168.0
1327.00769 136.0
1331.150879 128.0
1331.492188 144.0
1333.671753 176.0
1335.985596 228.0
1339.055908 148.0
1343.443848 164.0
1347.561401 100.0
1350.046753 140.0
1350.587891 192.0
1353.837524 176.0
1355.544312 56.0
1358.520996 180.0
1359.526245 232.0
1361.662598 216.0
1364.704834 132.0
1368.36145 196.0
1368.884277 48.0
1369.304077 152.0
1373.394653 120.0
1377.306641 124.0
1379.989258 180.0
1382.711426 48.0
1383.244263 140.0
1383.340576 108.0
1384.72522 180.0
1384.873291 52.0
1385.658447 204.0
1386.13269 176.0
1394.095093 132.0
1394.697021 120.0
1400.061279 124.0
1404.585449 124.0
1406.125854 124.0
1415.302246 184.0
1416.537964 160.0
1418.883545 164.0
1425.714111 144.0
1426.653687 172.0
1428.450928 168.0
1428.511108 176.0
1428.63147 44.0
1429.030151 160.0
1431.581909 176.0
1432.892456 268.0
1438.624023 208.0
1439.583008 172.0
1440.549683 216.0
1449.390259 228.0
1453.109131 164.0
1456.054443 188.0
1459.671753 212.0
1459.861816 160.0
1463.202148 156.0
1464.108276 144.0
1469.047241 76.0
1470.443604 160.0
1472.818115 228.0
1473.299438 96.0
1475.232788 136.0
1475.531006 132.0
1477.810181 196.0
1480.458618 40.0
1483.132446 164.0
1483.515747 236.0
1484.45874 180.0
1487.842407 176.0
1492.129395 172.0
1493.998169 48.0
