>compound MLS000860039-01!8-(3-Chlorostyryl)caffeine
>formula C16H15ClN4O2
>ionization [M+H]+
>parentmass 331.094727
#inchi InChI=1S/C16H15ClN4O2/c1-19-12(8-7-10-5-4-6-11(17)9-10)18-14-13(19)15(22)21(3)16(23)20(14)2/h4-9H,1-3H3/b8-7+
#inchikey WBWFIUAVMCNYPG
#Ion_Source LC-ESI
#Instrument qTof
#Compound_Source NIH Pharmacologically Active Library
#PI Dorrestein
#Data_Collector VP/LMS
#Scan -1
#Precursor_MZ 331.096
#ExactMass 330.088
#Charge 1
#CAS_Number N/A
#Pubmed_ID N/A
#Smiles Cn1c(/C=C/c2cccc(Cl)c2)nc3n(C)c(=O)n(C)c(=O)c13
#INCHI_AUX N/A
#Library_Class 1
#SpectrumID CCMSLIB00000085077
#IonMode Positive
#UpdateWorkflowName UPDATE-SINGLE-ANNOTATED-GOLD
#LibraryQualityString Gold
#TaskID d252d724072548979f1f6f1ced849daf
##Scan# 2244
#SpectrumFile p3-E07_GE7_01_18276.mzXML
#LibraryName Pharm_Active_Library.mgf
#MQScore -1
#Organism Pharm_Active_Library
#TIC_Query 0
#RT_Query -1
#MZErrorPPM -1
#SharedPeaks 0
#MassDiff 0
#LibMZ -1
#SpecMZ 331.096
#SpecCharge 0
#internalFilename spec-00000.mgf

>collision 10
45.069958 172.0
45.118076 164.0
45.132782 164.0
45.159531 88.0
45.257229 88.0
45.328224 140.0
45.348328 176.0
45.372459 156.0
45.393913 88.0
45.553638 92.0
45.600674 168.0
45.630249 144.0
45.980499 132.0
46.046658 124.0
46.280621 128.0
46.863346 56.0
47.001072 228.0
47.18137 116.0
47.355164 168.0
47.372971 84.0
47.694088 124.0
48.255196 104.0
48.950401 164.0
49.001942 88.0
49.08279 116.0
49.190224 216.0
49.290787 72.0
49.399845 136.0
49.481022 160.0
49.535641 176.0
49.595898 136.0
49.630947 204.0
49.701084 112.0
49.994793 192.0
50.182148 180.0
50.302071 168.0
50.455719 132.0
50.509804 128.0
50.570648 144.0
50.903828 224.0
51.14838 156.0
51.562035 156.0
51.749435 44.0
51.812458 272.0
51.83395 52.0
52.710335 164.0
52.992504 156.0
53.146206 204.0
53.276878 156.0
53.377171 184.0
53.397533 28.0
53.480469 120.0
53.492115 204.0
53.572212 140.0
53.598438 208.0
53.662575 152.0
53.887356 172.0
53.967747 136.0
54.037956 132.0
54.049664 164.0
54.105282 212.0
54.131641 196.0
54.351528 148.0
54.429649 128.0
54.586567 132.0
54.599804 168.0
54.62775 156.0
54.754341 260.0
55.339138 180.0
55.371719 208.0
55.422089 208.0
55.570366 192.0
55.659428 220.0
55.675766 168.0
55.760452 124.0
55.982132 80.0
56.065559 100.0
56.143085 164.0
56.158001 180.0
56.205742 152.0
56.266941 156.0
56.465691 228.0
56.521046 168.0
56.550976 192.0
56.69326 136.0
56.711246 56.0
56.820721 96.0
56.838726 72.0
56.861691 212.0
56.882252 144.0
56.924294 140.0
56.951328 144.0
57.328979 180.0
57.372692 200.0
57.44508 88.0
57.641365 76.0
58.242859 160.0
58.274197 312.0
58.299076 96.0
58.393337 152.0
58.758945 180.0
58.780308 164.0
58.797096 176.0
58.888706 136.0
58.939121 208.0
59.024727 164.0
59.07214 108.0
59.137939 100.0
59.27578 184.0
59.41378 180.0
59.473629 76.0
59.535046 208.0
59.561153 116.0
59.751785 92.0
59.764095 216.0
59.95351 108.0
60.001297 112.0
60.197262 116.0
60.455437 100.0
60.566917 84.0
60.658344 88.0
60.678497 140.0
60.703308 224.0
60.720367 180.0
60.962566 176.0
61.087463 196.0
61.150753 64.0
61.161652 192.0
61.209915 84.0
61.488979 72.0
61.590469 144.0
62.017654 180.0
62.196476 128.0
62.287552 152.0
62.581654 176.0
62.674587 168.0
62.732906 172.0
62.824375 220.0
62.926964 156.0
62.947491 244.0
63.164024 148.0
63.903339 200.0
63.954266 164.0
64.100792 80.0
64.182091 164.0
64.194847 128.0
64.474236 124.0
64.605354 52.0
64.723793 212.0
64.775047 92.0
64.961006 84.0
65.12635 132.0
65.213112 120.0
65.262955 144.0
65.285469 140.0
65.304764 236.0
65.346596 88.0
65.390045 108.0
65.447998 152.0
65.610733 240.0
65.636536 104.0
65.823723 156.0
66.017647 144.0
66.048378 120.0
66.082352 144.0
66.762047 132.0
66.981781 164.0
66.99807 156.0
67.030655 92.0
67.371674 172.0
67.38311 60.0
67.432137 52.0
67.716835 176.0
67.746323 108.0
67.911888 104.0
67.954536 176.0
68.016899 148.0
68.030037 96.0
68.045883 172.0
68.538261 132.0
68.574524 176.0
68.831886 160.0
69.023575 116.0
69.295044 96.0
69.439262 184.0
69.600243 192.0
69.615189 76.0
69.738136 88.0
69.942734 52.0
70.175972 128.0
70.209328 136.0
70.399582 120.0
70.449692 140.0
70.662018 92.0
70.713898 164.0
70.839485 172.0
70.966866 140.0
71.08596 76.0
71.411896 144.0
71.568413 168.0
71.681274 56.0
71.897133 156.0
71.961281 112.0
72.13192 144.0
72.277374 140.0
72.43483 80.0
72.544983 116.0
72.565323 92.0
72.731583 132.0
72.75705 168.0
73.051056 164.0
73.391693 176.0
73.755341 124.0
73.799789 132.0
73.844254 152.0
73.887024 196.0
74.041084 168.0
74.125961 280.0
74.224449 176.0
74.239883 120.0
74.337669 188.0
74.425453 148.0
74.634857 172.0
74.703651 132.0
74.782806 120.0
75.001564 188.0
75.253448 132.0
75.55764 124.0
75.595711 104.0
75.824318 208.0
75.978653 164.0
76.193939 164.0
76.211311 168.0
76.254761 200.0
76.374733 184.0
76.847183 148.0
77.059875 80.0
77.114044 180.0
77.434235 136.0
77.458763 88.0
77.646309 92.0
77.999245 180.0
78.015648 160.0
78.352974 116.0
78.398788 124.0
78.464012 32.0
78.571594 144.0
78.598061 120.0
78.640419 152.0
78.737526 236.0
79.273582 152.0
79.335625 136.0
79.534309 64.0
79.742126 120.0
79.815018 156.0
79.867256 192.0
80.137192 160.0
80.401115 196.0
80.561821 160.0
80.610062 216.0
80.626549 108.0
80.855072 176.0
80.926193 180.0
81.161415 208.0
81.312057 148.0
81.482704 144.0
81.5438 216.0
81.752426 172.0
81.970329 156.0
82.017189 156.0
82.210182 128.0
82.233643 200.0
82.300438 240.0
82.475685 232.0
82.5896 112.0
82.951767 136.0
83.071457 212.0
83.185783 228.0
83.32563 56.0
83.374687 76.0
83.713074 92.0
83.869766 256.0
83.988289 48.0
84.112373 152.0
84.4431 160.0
84.497986 160.0
84.545563 140.0
84.63343 124.0
84.752495 124.0
84.796478 204.0
84.915649 72.0
84.956009 192.0
85.012886 144.0
85.207535 96.0
85.371132 140.0
85.391357 208.0
85.628792 72.0
85.766983 176.0
85.864708 148.0
86.054779 176.0
86.224731 180.0
86.32457 152.0
86.711502 164.0
86.761551 68.0
86.832016 216.0
86.852417 152.0
86.924782 84.0
87.389328 176.0
87.417236 224.0
87.430267 116.0
87.487968 152.0
87.957748 176.0
88.015625 204.0
88.125832 180.0
88.281441 148.0
88.44751 180.0
88.493423 156.0
88.546745 112.0
88.814781 120.0
89.239212 132.0
89.27494 112.0
89.998558 52.0
90.117561 120.0
90.14212 144.0
90.289581 144.0
90.490173 40.0
90.819923 236.0
90.966034 128.0
90.985023 156.0
91.057182 168.0
91.197784 140.0
91.616432 156.0
91.683121 164.0
91.707901 196.0
91.774628 180.0
91.932961 212.0
92.074234 124.0
92.158287 128.0
92.207977 160.0
92.251938 152.0
92.313126 204.0
92.577217 152.0
93.200668 160.0
93.216042 156.0
93.577675 228.0
93.660484 92.0
94.040344 52.0
94.449982 220.0
94.46933 176.0
94.48674 176.0
94.806244 152.0
94.85276 136.0
95.005966 108.0
95.052528 120.0
95.091347 148.0
95.116577 188.0
95.223373 180.0
95.355492 140.0
95.404091 72.0
95.435196 156.0
95.509102 152.0
95.606384 112.0
95.701767 220.0
95.976517 176.0
96.32196 220.0
96.536964 152.0
96.632812 192.0
96.715004 100.0
96.820732 156.0
97.06028 472.0
97.114731 132.0
97.310982 100.0
97.519211 228.0
97.544769 120.0
97.617516 104.0
97.637184 128.0
97.709969 28.0
97.735542 224.0
97.831985 144.0
97.863487 160.0
97.88121 128.0
97.90287 124.0
98.060486 184.0
98.166954 224.0
98.23204 176.0
98.364937 232.0
98.430153 192.0
98.619072 132.0
98.755501 168.0
98.852448 120.0
99.284325 128.0
99.29821 204.0
99.322014 64.0
99.601898 128.0
100.152901 128.0
100.178795 212.0
100.549683 60.0
100.647499 132.0
100.685448 196.0
100.785332 328.0
100.987244 160.0
101.035255 184.0
101.08728 140.0
101.13932 92.0
101.229187 104.0
101.415741 120.0
101.447815 136.0
101.630325 208.0
101.758789 148.0
101.780876 44.0
102.045746 336.0
102.229156 104.0
102.263374 76.0
102.448631 168.0
102.470795 116.0
102.603813 216.0
102.819656 152.0
102.858009 160.0
103.021584 48.0
103.0532 288.0
103.120598 196.0
103.288841 136.0
103.460434 128.0
103.509033 120.0
103.539406 188.0
103.55764 48.0
103.583969 168.0
103.673119 200.0
103.727844 124.0
104.10321 128.0
104.658356 132.0
104.745934 216.0
104.766304 148.0
104.881554 120.0
105.010918 176.0
105.029274 140.0
105.108849 152.0
105.155785 140.0
105.208855 184.0
105.317085 56.0
105.402893 96.0
105.476471 136.0
105.545982 88.0
105.625748 268.0
105.67485 144.0
105.775131 196.0
105.824265 68.0
106.029121 132.0
106.121368 180.0
106.511299 160.0
106.587318 176.0
106.934875 168.0
107.068703 208.0
107.258263 152.0
107.307747 188.0
107.662674 144.0
107.900307 164.0
107.918915 156.0
108.054817 752.0
108.074043 108.0
108.103012 180.0
108.119347 184.0
108.287277 64.0
108.328705 232.0
108.359779 124.0
108.418343 168.0
108.465477 168.0
108.488792 80.0
108.604401 192.0
108.701912 80.0
108.820236 128.0
108.90538 144.0
109.056747 132.0
109.256691 100.0
110.040352 124.0
110.069336 168.0
110.094643 168.0
110.119705 80.0
110.205353 124.0
110.251328 76.0
110.372437 180.0
110.424858 148.0
110.629929 224.0
110.745102 180.0
110.784904 208.0
110.864738 196.0
110.885483 40.0
110.910637 124.0
110.967239 104.0
111.058937 248.0
111.223183 88.0
111.498337 148.0
111.656021 156.0
111.815918 172.0
112.208183 188.0
112.28154 220.0
112.416557 188.0
112.885544 120.0
113.332191 220.0
113.548424 168.0
113.565392 132.0
113.730896 76.0
113.885902 148.0
114.081406 144.0
114.168579 220.0
114.194107 52.0
114.208992 212.0
114.251541 104.0
114.304733 48.0
114.34304 92.0
114.434578 132.0
114.694489 144.0
114.822418 128.0
114.854408 164.0
115.05481 388.0
115.129745 164.0
115.283562 128.0
115.634308 104.0
115.741348 116.0
115.792747 188.0
116.06102 496.0
116.285881 160.0
116.507065 148.0
116.65535 192.0
116.679001 104.0
116.75856 224.0
116.960815 204.0
117.018944 156.0
117.169708 252.0
117.186943 92.0
117.227882 152.0
117.327034 176.0
117.449959 188.0
117.549858 276.0
117.59668 144.0
117.631218 176.0
117.711105 144.0
117.735634 108.0
117.856766 268.0
117.963898 84.0
117.985519 260.0
118.35334 180.0
118.433472 160.0
118.489792 296.0
118.650177 48.0
118.693542 48.0
118.860573 212.0
119.047264 52.0
119.290611 132.0
119.586449 240.0
119.671349 124.0
120.048332 160.0
120.198853 124.0
120.222855 156.0
120.432457 208.0
120.460854 164.0
120.731888 220.0
120.832512 256.0
121.033882 120.0
121.04921 184.0
121.068375 192.0
121.109459 132.0
121.231041 268.0
121.399841 144.0
121.43055 220.0
121.564377 120.0
121.676323 84.0
122.032257 148.0
122.144417 120.0
122.203773 192.0
122.274239 164.0
122.305054 128.0
122.60569 164.0
122.708206 148.0
122.767738 152.0
122.955948 116.0
122.977341 124.0
123.049294 148.0
123.076683 72.0
123.140724 164.0
123.505432 224.0
123.609421 160.0
123.766586 92.0
123.846313 208.0
123.974815 252.0
124.048843 176.0
124.145515 168.0
124.178787 172.0
124.502823 80.0
124.631668 168.0
124.70945 196.0
124.753906 176.0
124.938499 112.0
125.014137 644.0
125.221199 152.0
125.36602 120.0
125.564438 92.0
125.8032 156.0
125.820312 180.0
125.975151 72.0
126.010902 132.0
126.129349 152.0
126.413391 152.0
126.509636 144.0
126.576813 44.0
126.621597 108.0
126.771706 168.0
126.883781 92.0
127.010658 152.0
127.052513 184.0
127.146233 164.0
127.21003 208.0
127.267456 136.0
127.32135 60.0
127.460632 156.0
127.59774 188.0
127.626976 72.0
127.676445 220.0
127.784424 172.0
127.820419 156.0
128.060715 1320.0
128.201004 64.0
128.451279 76.0
128.482864 172.0
128.629547 148.0
128.65213 136.0
128.710831 188.0
128.916397 120.0
129.059677 396.0
129.101776 128.0
129.149277 128.0
129.26239 44.0
129.323502 92.0
129.694977 180.0
129.840088 152.0
130.026123 144.0
130.066147 216.0
130.081482 320.0
130.600967 168.0
130.644196 84.0
130.86496 136.0
130.892288 176.0
130.953781 160.0
131.006165 96.0
131.072235 92.0
131.312592 184.0
131.3367 140.0
131.421112 108.0
131.655365 168.0
131.713348 92.0
131.736191 144.0
131.836731 96.0
131.867416 144.0
131.989883 160.0
132.044769 132.0
132.113403 60.0
132.166016 156.0
132.218658 196.0
132.248413 140.0
132.344559 180.0
132.392654 32.0
132.420135 220.0
132.57135 136.0
132.784561 136.0
132.968109 40.0
133.062225 144.0
133.115036 100.0
133.29422 56.0
133.524109 232.0
133.666748 108.0
133.917694 104.0
133.984497 236.0
134.037491 124.0
134.208069 60.0
134.473358 216.0
134.494141 116.0
134.522583 112.0
134.801315 156.0
134.866028 172.0
135.000122 52.0
135.060257 92.0
135.199081 160.0
135.395874 196.0
135.722305 148.0
135.831619 200.0
136.049774 152.0
136.198395 180.0
136.258789 276.0
136.300613 60.0
136.472626 128.0
136.563324 208.0
136.674988 164.0
136.695938 192.0
136.86586 168.0
136.972992 136.0
137.015549 1004.0
137.052216 188.0
137.115128 172.0
137.146042 160.0
137.399612 160.0
137.532639 104.0
137.560654 144.0
137.675064 72.0
137.85495 148.0
138.012054 588.0
138.065353 276.0
138.137863 144.0
138.205704 200.0
138.325943 268.0
138.760818 132.0
138.882767 184.0
139.008347 464.0
139.112732 184.0
139.20665 92.0
139.646133 48.0
139.664963 120.0
139.815536 80.0
139.888504 152.0
140.047348 336.0
140.496521 108.0
140.550797 132.0
140.661728 168.0
140.716019 120.0
140.76088 136.0
140.810486 76.0
140.871887 188.0
141.006577 88.0
141.056946 168.0
141.20755 192.0
141.361328 136.0
141.48204 224.0
141.550705 188.0
141.673874 56.0
141.778137 112.0
141.915619 168.0
142.063248 292.0
142.27626 160.0
142.385483 44.0
142.520905 64.0
142.803802 136.0
142.856125 148.0
142.977478 128.0
142.994141 144.0
143.020325 80.0
143.039368 152.0
143.070175 600.0
143.127457 104.0
143.501556 156.0
143.895233 196.0
144.079865 348.0
144.387497 104.0
144.409027 120.0
144.595642 164.0
144.720123 128.0
145.017181 176.0
145.043106 120.0
145.060287 132.0
145.105881 192.0
145.360138 112.0
145.386536 164.0
145.559387 148.0
145.792404 136.0
145.859711 128.0
145.989548 124.0
146.030426 156.0
146.068069 204.0
146.114029 176.0
146.145905 168.0
146.174774 128.0
146.304764 176.0
146.384216 188.0
146.719131 84.0
146.784241 168.0
147.032715 176.0
147.085815 200.0
147.107544 112.0
147.182388 88.0
147.225861 112.0
147.321381 212.0
147.3853 100.0
147.43605 192.0
147.593185 100.0
147.769745 168.0
147.883484 192.0
147.960953 212.0
148.002792 156.0
148.049576 900.0
148.15712 40.0
148.331604 188.0
148.484375 144.0
148.799835 240.0
148.952835 128.0
149.013992 3860.0
149.05217 280.0
149.132645 124.0
149.198273 196.0
149.244476 196.0
149.487732 168.0
149.626465 128.0
149.697083 208.0
149.845673 96.0
149.988297 180.0
150.016357 400.0
150.262589 212.0
150.350433 200.0
150.741013 180.0
150.904144 168.0
151.010544 1192.0
151.110413 104.0
151.127533 36.0
151.186264 48.0
151.351593 120.0
151.524185 164.0
151.578094 196.0
151.688385 56.0
151.759476 172.0
151.940979 116.0
152.012741 128.0
152.04985 184.0
152.090683 164.0
152.208527 160.0
152.269913 116.0
152.402573 136.0
152.503326 292.0
152.626251 216.0
152.877167 248.0
153.024734 148.0
153.05687 188.0
153.278564 124.0
153.304184 172.0
153.322937 188.0
153.396805 144.0
153.44371 124.0
153.520157 232.0
153.61882 52.0
153.754532 132.0
153.840927 64.0
154.052612 200.0
154.213928 52.0
154.362259 184.0
154.386993 220.0
154.478516 84.0
154.540359 148.0
154.929001 144.0
155.059601 1044.0
155.139725 124.0
155.157074 76.0
155.184357 176.0
155.303391 132.0
155.325714 136.0
155.437363 40.0
155.555313 188.0
155.670715 92.0
155.717896 124.0
155.735291 116.0
155.775024 108.0
156.042145 552.0
156.16777 104.0
156.324524 152.0
156.421585 180.0
156.608093 124.0
156.777679 124.0
157.052017 152.0
157.45137 40.0
157.486343 92.0
157.636246 96.0
157.836227 172.0
157.888733 144.0
158.052628 184.0
158.379303 116.0
158.757767 212.0
159.262253 88.0
159.302444 176.0
159.669418 116.0
159.817841 176.0
159.986481 156.0
160.069565 156.0
160.180389 96.0
160.513077 128.0
160.750198 188.0
161.007706 176.0
161.040543 124.0
161.166855 220.0
161.32103 140.0
161.432281 176.0
161.523331 140.0
161.682739 148.0
161.728287 164.0
162.011169 604.0
162.07019 164.0
162.105667 204.0
162.189301 156.0
162.34903 144.0
162.432739 120.0
162.892197 64.0
163.025009 736.0
163.225159 172.0
163.306534 200.0
163.375214 44.0
163.403198 168.0
163.46936 148.0
163.492264 28.0
163.711212 144.0
163.978622 208.0
163.981613 200.0
163.991852 236.0
164.025146 17668.0
164.073029 68.0
164.116379 36.0
164.139328 68.0
164.280807 80.0
164.343384 56.0
164.37146 184.0
164.402084 64.0
164.465881 40.0
164.688034 96.0
164.723801 32.0
164.848999 72.0
164.961456 128.0
165.027634 2232.0
165.060638 192.0
165.140442 284.0
165.206955 52.0
165.262054 88.0
165.357925 52.0
165.378403 48.0
165.470566 184.0
165.555069 136.0
166.021759 4316.0
166.076202 156.0
166.114655 124.0
166.208755 124.0
166.236984 172.0
166.293442 108.0
166.532242 48.0
166.658112 40.0
167.026321 468.0
167.068359 192.0
167.213593 56.0
167.427277 196.0
167.553497 84.0
167.575439 116.0
167.855072 68.0
167.884491 128.0
167.958237 36.0
168.074829 544.0
168.120789 108.0
168.167236 132.0
168.223221 128.0
168.296326 72.0
168.403458 172.0
168.46936 148.0
168.629578 376.0
168.880386 160.0
169.03302 156.0
169.074219 420.0
169.131363 212.0
169.271179 88.0
169.413635 48.0
169.602798 132.0
169.644272 208.0
169.732437 188.0
169.901031 184.0
169.965897 172.0
170.082108 1588.0
170.116425 124.0
170.150177 100.0
170.581436 160.0
170.636017 108.0
170.65683 184.0
170.677628 164.0
170.862289 160.0
171.085068 628.0
171.119965 148.0
171.288986 80.0
171.298645 72.0
171.30336 124.0
171.380432 248.0
171.711502 176.0
172.079453 228.0
172.353714 192.0
172.662186 124.0
172.774658 128.0
173.039001 160.0
173.062561 240.0
173.279968 216.0
173.379532 76.0
173.4608 212.0
174.022232 108.0
174.329559 136.0
174.395264 100.0
174.482025 192.0
174.500427 68.0
174.534607 52.0
174.591141 160.0
174.821335 176.0
174.850296 40.0
174.931885 148.0
175.009491 196.0
175.171524 188.0
175.326981 72.0
175.55899 36.0
175.746277 116.0
175.799057 132.0
176.023468 344.0
176.142288 168.0
176.245331 188.0
176.388046 184.0
176.475296 184.0
176.768906 44.0
176.792725 196.0
177.029968 600.0
177.343613 216.0
177.839615 132.0
177.967056 80.0
178.039978 2000.0
178.091873 124.0
178.140091 184.0
178.519775 188.0
178.591583 196.0
178.678345 188.0
178.788467 84.0
178.860336 128.0
179.011597 172.0
179.017105 140.0
179.039597 272.0
179.061768 192.0
179.099976 240.0
179.16658 156.0
179.518417 168.0
179.798538 172.0
180.038422 808.0
180.110931 136.0
180.18573 72.0
180.493118 88.0
180.902481 52.0
180.96405 32.0
181.038818 396.0
181.073654 116.0
181.080093 260.0
181.143494 120.0
181.293533 120.0
181.352493 160.0
181.443649 64.0
181.473129 52.0
181.550903 156.0
181.829926 208.0
182.003357 244.0
182.013275 264.0
182.033447 212.0
182.061325 144.0
182.085022 488.0
182.114517 104.0
182.58757 164.0
182.726959 244.0
182.988525 160.0
183.020828 128.0
183.052231 320.0
183.085754 156.0
183.233612 116.0
183.346786 100.0
183.90509 240.0
184.060349 148.0
184.098984 276.0
184.315598 176.0
184.761719 188.0
184.815842 84.0
185.119019 40.0
185.249023 124.0
185.669159 80.0
185.899765 88.0
185.943192 88.0
186.12236 196.0
187.024963 120.0
187.046661 156.0
187.297256 160.0
187.376266 168.0
187.460724 168.0
187.591553 48.0
187.93248 172.0
188.021988 464.0
188.063477 200.0
188.303741 92.0
188.440338 104.0
188.6371 52.0
188.738266 196.0
188.970764 144.0
189.021942 2324.0
189.077484 132.0
189.557037 144.0
189.69104 136.0
189.830872 148.0
189.98996 140.0
190.025009 312.0
190.127151 28.0
190.289108 152.0
190.355011 132.0
190.378677 188.0
190.418182 108.0
190.514328 120.0
190.64621 200.0
190.899124 212.0
191.011673 348.0
191.091675 168.0
191.385788 136.0
191.444016 44.0
191.58725 136.0
191.8022 44.0
191.838043 124.0
191.920746 196.0
191.973145 120.0
192.022934 384.0
192.180023 148.0
192.215897 180.0
192.367706 124.0
193.025284 128.0
193.065399 464.0
193.108246 40.0
193.780945 124.0
193.830826 208.0
193.94722 140.0
194.041473 136.0
194.070023 164.0
194.092133 104.0
194.196777 180.0
194.518646 140.0
194.599167 196.0
195.049149 148.0
195.082245 244.0
195.121506 136.0
195.527634 108.0
195.555466 104.0
195.97319 104.0
196.083267 424.0
196.254715 140.0
196.416458 84.0
196.502945 204.0
196.66835 192.0
196.812775 104.0
196.835114 120.0
196.97197 200.0
197.071747 300.0
197.134018 64.0
197.298935 172.0
197.38002 76.0
197.469498 184.0
197.651352 152.0
197.956467 236.0
198.080551 216.0
198.537292 140.0
198.777832 176.0
199.002396 140.0
199.066986 168.0
199.089447 156.0
199.724655 308.0
199.874542 200.0
199.910339 188.0
200.020111 156.0
200.093307 192.0
200.191864 136.0
200.222839 160.0
200.476395 168.0
200.778046 184.0
201.026306 148.0
201.046066 200.0
201.192841 124.0
201.294495 76.0
201.365097 200.0
201.560028 124.0
201.60524 156.0
201.988556 252.0
202.031082 336.0
202.15387 164.0
202.320862 116.0
202.516266 64.0
202.62674 176.0
202.720245 116.0
203.035446 332.0
203.335663 160.0
203.474762 132.0
203.494644 196.0
203.704803 140.0
203.983292 64.0
204.042084 160.0
204.313171 88.0
204.452606 172.0
204.643326 156.0
204.851227 56.0
204.976593 128.0
205.050674 2500.0
205.173264 196.0
205.290176 116.0
205.315842 204.0
205.564041 84.0
205.584015 200.0
205.978027 60.0
206.050583 404.0
206.083267 120.0
206.146606 132.0
207.047195 840.0
207.258698 76.0
207.365799 84.0
207.822723 180.0
207.856201 176.0
208.054962 188.0
208.083649 164.0
208.531097 48.0
208.677704 56.0
208.835861 132.0
208.922165 220.0
209.057831 1404.0
209.100571 180.0
209.129349 52.0
209.356964 76.0
209.388489 124.0
209.791901 100.0
209.840912 80.0
209.973557 204.0
210.058823 456.0
210.100357 904.0
210.16684 72.0
210.452591 52.0
210.478577 236.0
211.036255 180.0
211.068207 148.0
211.105057 372.0
211.217422 156.0
211.473083 96.0
211.716293 164.0
212.078461 196.0
212.148026 108.0
212.266907 100.0
212.359711 304.0
212.554092 188.0
212.664368 104.0
213.024445 116.0
213.277252 116.0
213.361557 188.0
213.710571 164.0
214.027847 96.0
214.502747 100.0
214.604782 140.0
215.036591 180.0
215.255493 144.0
215.582672 180.0
215.676193 168.0
216.027481 444.0
216.05928 140.0
216.079773 44.0
216.193893 120.0
216.463135 144.0
216.586227 184.0
216.662384 100.0
216.726852 236.0
216.978912 244.0
217.051437 424.0
217.336746 72.0
217.415985 52.0
217.480545 60.0
217.718369 240.0
217.812363 108.0
218.021423 1048.0
218.045059 408.0
218.217911 72.0
218.332596 144.0
218.536453 188.0
218.63269 52.0
218.738647 148.0
218.815186 192.0
218.862305 152.0
219.03595 240.0
219.067566 500.0
219.25705 32.0
219.396393 132.0
219.457504 100.0
219.708908 100.0
219.758362 180.0
220.017288 736.0
220.080093 148.0
220.103714 132.0
220.331146 128.0
220.520264 160.0
220.54686 164.0
221.041977 128.0
221.067566 296.0
221.191711 104.0
221.376511 192.0
222.039139 184.0
222.061356 300.0
222.09845 160.0
222.266174 172.0
222.336212 148.0
222.442673 208.0
222.555496 100.0
223.0728 68.0
223.099197 212.0
223.241486 136.0
223.325195 48.0
224.080795 1200.0
224.304855 120.0
224.352554 160.0
224.421127 136.0
224.582169 108.0
225.005203 132.0
225.0746 456.0
225.094833 180.0
225.163239 164.0
225.23587 112.0
225.310547 112.0
225.409149 140.0
225.43306 116.0
225.47789 148.0
225.525711 172.0
225.636322 196.0
225.845657 108.0
225.884537 176.0
226.031143 212.0
226.082016 92.0
226.129898 192.0
226.318497 176.0
226.396362 136.0
226.468246 36.0
226.567093 228.0
226.745148 176.0
226.869781 192.0
226.908768 188.0
227.09169 144.0
227.196686 76.0
227.274689 140.0
227.307693 156.0
227.349716 188.0
227.514801 108.0
227.688965 112.0
227.737015 112.0
227.992401 96.0
228.031464 196.0
228.614929 116.0
228.711243 164.0
228.991257 100.0
229.018372 160.0
229.046417 116.0
229.061829 200.0
229.190094 56.0
229.22023 120.0
229.304611 52.0
229.41011 144.0
229.584991 160.0
229.612137 240.0
229.844421 192.0
230.000671 264.0
230.047455 2688.0
230.085892 28.0
230.974365 168.0
231.051941 604.0
231.113525 156.0
231.171021 60.0
231.273926 160.0
231.412445 148.0
231.461639 196.0
231.528259 56.0
231.558548 180.0
231.579742 104.0
231.83728 188.0
231.916077 64.0
232.042007 620.0
232.185913 88.0
233.04599 1376.0
233.136169 124.0
233.166565 144.0
233.260788 152.0
233.336792 312.0
233.56488 128.0
233.65918 96.0
233.716995 72.0
233.844803 76.0
234.05072 372.0
234.310715 52.0
234.34729 60.0
234.853348 148.0
234.905197 116.0
235.043488 644.0
235.195099 40.0
235.323318 152.0
235.787643 68.0
235.830429 92.0
235.897675 124.0
236.041382 112.0
236.246307 152.0
236.279953 136.0
236.515594 148.0
236.947403 104.0
237.097549 208.0
237.125122 156.0
237.52681 152.0
238.093491 564.0
238.245148 104.0
238.74617 116.0
238.866135 204.0
239.013809 108.0
239.044586 148.0
239.103577 392.0
239.199097 140.0
239.225464 120.0
239.306229 56.0
239.377045 164.0
239.410919 152.0
239.475601 160.0
239.509491 220.0
239.651199 164.0
239.811447 176.0
239.860764 140.0
239.934753 228.0
239.999512 96.0
240.030334 44.0
240.104355 196.0
240.354233 108.0
240.712311 56.0
240.78952 152.0
240.863647 160.0
241.191193 140.0
241.361237 148.0
241.407623 92.0
241.500412 44.0
241.580826 80.0
242.042343 108.0
242.661697 80.0
243.018311 236.0
243.088501 156.0
243.266678 176.0
243.533737 112.0
244.026428 3100.0
244.06134 532.0
244.410431 88.0
244.830688 100.0
245.03038 1004.0
245.055923 104.0
245.068649 108.0
245.111053 120.0
245.229492 136.0
245.307419 48.0
245.334183 116.0
245.404892 136.0
245.424484 80.0
245.609894 132.0
245.714432 168.0
245.784607 48.0
245.806442 96.0
245.838333 184.0
245.906311 52.0
245.952469 168.0
245.977051 212.0
246.023041 964.0
246.077637 11544.0
246.141342 156.0
246.188446 96.0
246.221649 48.0
246.252884 68.0
246.280991 104.0
246.330978 72.0
246.372269 164.0
246.418457 100.0
246.48407 140.0
246.54808 112.0
246.57782 88.0
246.621582 64.0
246.649719 68.0
246.849808 80.0
246.946762 64.0
246.974915 80.0
247.014969 164.0
247.072861 1296.0
247.17514 36.0
247.31424 144.0
247.362106 168.0
247.400497 136.0
247.657272 56.0
247.845245 124.0
247.894135 80.0
247.929855 116.0
247.98941 212.0
248.03212 128.0
248.073395 2868.0
248.126144 264.0
248.172958 80.0
248.191544 84.0
248.225464 68.0
248.287262 168.0
248.390762 124.0
248.425278 172.0
248.470245 96.0
248.508194 84.0
248.541367 32.0
248.604126 40.0
248.638641 108.0
248.673172 420.0
248.859558 128.0
248.882401 136.0
248.905487 168.0
249.021683 108.0
249.071869 524.0
249.153625 44.0
249.216461 84.0
249.254166 132.0
249.323303 56.0
249.710007 152.0
249.744614 100.0
249.880875 164.0
250.034073 60.0
250.069412 148.0
250.452835 164.0
250.515839 64.0
250.566238 52.0
251.032745 144.0
251.095825 84.0
251.124207 240.0
251.162064 80.0
251.199921 88.0
251.461823 124.0
251.528107 128.0
252.030258 212.0
252.099777 108.0
252.153503 236.0
252.760696 204.0
252.852478 168.0
252.887283 180.0
252.991745 160.0
253.058243 208.0
254.069275 128.0
254.231094 84.0
254.40567 204.0
255.044754 132.0
255.3526 136.0
255.384415 152.0
255.594376 108.0
255.731232 144.0
256.039093 132.0
256.227997 164.0
256.798615 100.0
256.83371 188.0
256.929413 144.0
257.053619 284.0
257.277283 56.0
257.478455 120.0
257.523163 140.0
257.599823 48.0
257.95694 132.0
258.041229 9548.0
258.127197 36.0
258.165558 84.0
258.360687 140.0
258.453461 324.0
258.560455 128.0
258.651886 152.0
258.760742 92.0
258.802368 64.0
258.940063 172.0
259.049316 15304.0
259.148285 32.0
259.218781 84.0
259.279663 108.0
259.385437 56.0
259.430328 92.0
259.455963 36.0
259.507263 88.0
259.561615 80.0
259.757416 124.0
259.81839 68.0
259.888062 200.0
259.985687 120.0
260.044159 3644.0
260.12326 44.0
260.238831 80.0
260.373688 176.0
260.407257 152.0
260.476471 52.0
260.627472 44.0
260.691742 104.0
260.733521 108.0
260.756042 156.0
260.790253 136.0
260.86853 144.0
260.926392 88.0
260.983673 108.0
261.04776 3584.0
261.09845 192.0
261.136719 80.0
261.230255 164.0
261.341309 40.0
261.515106 48.0
261.547272 88.0
261.672821 160.0
261.72757 108.0
261.81131 76.0
261.949799 148.0
261.993622 144.0
262.051025 400.0
262.147369 144.0
262.301056 68.0
262.35907 48.0
262.868683 204.0
263.081726 132.0
263.275452 144.0
263.540344 60.0
263.601746 36.0
263.989655 108.0
264.112579 268.0
264.656281 64.0
264.708069 68.0
265.210266 180.0
265.271851 88.0
265.751831 112.0
267.126099 444.0
267.702209 48.0
268.158325 132.0
268.220245 44.0
268.693115 96.0
268.967224 120.0
269.303558 124.0
269.676056 136.0
270.016083 152.0
270.039703 180.0
270.130554 76.0
270.215637 116.0
270.49054 184.0
270.539642 168.0
270.59201 116.0
270.637848 132.0
270.759033 124.0
270.850739 108.0
271.07489 456.0
271.20462 56.0
271.234131 64.0
271.345581 172.0
271.607941 108.0
272.057861 216.0
272.085693 308.0
272.247955 148.0
272.320221 152.0
272.418762 64.0
272.619171 120.0
272.727631 108.0
272.819672 196.0
272.924896 156.0
272.967651 108.0
273.084595 200.0
273.191315 124.0
273.257111 124.0
273.308868 120.0
273.510498 116.0
273.566467 88.0
273.589508 92.0
273.63089 140.0
273.704742 120.0
273.759979 160.0
273.775299 76.0
273.789062 192.0
273.81134 152.0
273.843781 136.0
273.88974 116.0
273.924316 136.0
273.955078 188.0
274.026245 156.0
274.073669 55040.0
274.200317 28.0
274.235474 168.0
274.286591 100.0
274.346649 136.0
274.37854 72.0
274.425903 88.0
274.460175 116.0
274.50705 76.0
274.534332 156.0
274.597839 44.0
274.632263 184.0
274.660278 56.0
274.697052 84.0
274.742035 80.0
274.86084 116.0
274.873871 132.0
274.886017 204.0
274.917694 72.0
274.926605 68.0
274.978119 112.0
275.076019 7472.0
275.14798 112.0
275.201752 92.0
275.238068 48.0
275.267792 44.0
275.297516 44.0
275.350342 64.0
275.424072 84.0
275.463196 100.0
275.500885 160.0
275.549316 108.0
275.631165 72.0
275.687347 104.0
275.720215 152.0
275.768127 136.0
275.806335 100.0
275.845978 136.0
275.896545 152.0
275.940643 184.0
276.023834 76.0
276.070435 14596.0
276.129242 108.0
276.138428 72.0
276.183502 60.0
276.273224 64.0
276.305664 148.0
276.338776 44.0
276.371857 84.0
276.398315 136.0
276.459351 72.0
276.485504 108.0
276.511627 168.0
276.567108 132.0
276.649139 72.0
276.689606 80.0
276.722687 136.0
276.778992 68.0
276.806244 108.0
276.838593 84.0
276.875702 60.0
276.947906 104.0
276.971069 52.0
277.010468 72.0
277.07373 1316.0
277.136719 60.0
277.216248 60.0
277.248718 140.0
277.330078 164.0
277.561005 40.0
277.587524 48.0
277.693665 56.0
277.773285 104.0
277.922577 104.0
277.988708 56.0
278.018799 136.0
278.071899 68.0
278.118378 48.0
278.217957 52.0
278.288391 56.0
278.440979 48.0
278.662994 192.0
278.789276 84.0
278.855743 108.0
278.966431 160.0
279.204834 136.0
279.241425 44.0
279.284668 60.0
279.588928 80.0
279.983612 100.0
280.093842 144.0
281.030365 208.0
281.101257 696.0
281.62793 104.0
281.774902 28.0
282.109131 64.0
282.226135 96.0
282.808258 104.0
283.031525 256.0
283.337341 44.0
283.464661 180.0
283.622192 112.0
283.911987 140.0
284.028961 52.0
284.8638 120.0
285.021454 108.0
285.043304 176.0
285.425079 48.0
285.653778 76.0
285.677338 180.0
285.774902 64.0
285.922943 116.0
286.019073 188.0
286.465057 60.0
286.520569 144.0
286.93689 140.0
287.063873 128.0
287.104431 172.0
287.15271 164.0
287.331482 112.0
287.655457 160.0
288.070831 208.0
288.118134 344.0
288.314117 140.0
288.405365 52.0
288.591309 168.0
288.760406 144.0
289.087555 108.0
289.548981 84.0
289.606567 132.0
289.731903 152.0
289.887787 128.0
289.935211 164.0
290.064026 280.0
290.100006 152.0
290.830627 84.0
293.071777 88.0
293.422852 64.0
293.624054 68.0
294.081238 144.0
294.439728 60.0
294.682281 240.0
294.716431 76.0
294.81897 48.0
295.116241 588.0
295.301025 112.0
295.468628 92.0
295.509705 140.0
295.633179 48.0
295.749268 144.0
295.800598 64.0
295.845093 132.0
296.122864 680.0
296.293243 80.0
296.348572 68.0
296.403381 76.0
296.873016 120.0
297.044525 84.0
297.12677 140.0
297.281281 84.0
297.51123 72.0
298.12265 144.0
298.562683 36.0
299.058136 116.0
300.070923 196.0
300.367523 112.0
300.926605 100.0
301.02829 268.0
301.050903 348.0
301.171814 204.0
301.683228 176.0
301.773132 156.0
303.053772 88.0
305.591919 204.0
307.731995 184.0
309.473267 140.0
309.655365 192.0
310.233521 68.0
310.63681 100.0
311.295563 180.0
312.928253 240.0
314.084167 148.0
315.061829 1124.0
315.436615 48.0
315.889252 112.0
316.06662 712.0
316.207703 64.0
316.423645 60.0
317.018738 100.0
317.070496 160.0
317.142792 136.0
318.06369 148.0
318.945953 152.0
319.059204 160.0
322.571228 60.0
323.440094 108.0
325.16095 132.0
325.911499 136.0
326.263733 72.0
326.936371 92.0
327.436798 104.0
327.580902 80.0
327.944824 64.0
327.984497 136.0
328.298157 84.0
328.958466 112.0
329.099243 128.0
329.341217 112.0
329.40625 116.0
329.648315 52.0
329.753113 72.0
329.796509 144.0
329.85434 132.0
329.897705 68.0
330.024261 132.0
330.100189 92.0
330.208679 112.0
330.266571 152.0
330.313568 72.0
330.349762 200.0
330.58493 40.0
330.700745 184.0
330.897736 296.0
330.956787 204.0
330.988342 100.0
331.019348 100.0
331.094727 39552.0
331.151245 356.0
331.178101 316.0
331.238068 92.0
331.312347 140.0
331.386658 60.0
331.429077 36.0
331.474121 104.0
331.54364 72.0
331.573456 132.0
331.619446 88.0
331.633942 56.0
331.69989 24.0
331.727509 72.0
331.77475 108.0
331.838257 104.0
331.888458 128.0
331.961548 60.0
331.995453 160.0
332.035889 144.0
332.096039 5572.0
332.166351 72.0
332.193298 40.0
332.22995 64.0
332.287994 56.0
332.334869 48.0
332.384308 44.0
332.419922 100.0
332.552917 84.0
332.596466 104.0
332.638672 212.0
332.770721 96.0
332.858063 128.0
332.908722 40.0
333.019257 64.0
333.092316 10380.0
333.159485 180.0
333.242889 44.0
333.347473 92.0
333.384613 88.0
333.560211 52.0
333.59906 80.0
333.718781 56.0
333.791779 72.0
333.84787 132.0
333.922699 84.0
333.979401 156.0
334.009979 68.0
334.094116 1336.0
334.179779 144.0
334.221008 76.0
334.24646 80.0
334.271667 52.0
334.293793 152.0
334.366577 76.0
334.423798 112.0
334.462341 140.0
334.54129 152.0
334.639587 52.0
334.708771 60.0
334.752472 40.0
334.883575 32.0
335.025635 76.0
335.098511 72.0
335.185974 120.0
335.215118 52.0
335.465179 132.0
335.517639 28.0
335.67807 32.0
335.984467 76.0
336.137726 108.0
336.18515 68.0
336.228943 112.0
336.329254 92.0
336.462555 44.0
336.685303 52.0
337.010437 36.0
337.463654 28.0
337.503876 76.0
337.917206 64.0
338.524841 76.0
338.744598 136.0
338.942444 44.0
339.899506 40.0
340.76239 68.0
341.872894 56.0
342.963074 88.0
343.287506 76.0
344.538788 40.0
345.126465 88.0
345.851593 76.0
348.061188 132.0
348.47348 48.0
350.736176 48.0
351.194824 148.0
351.676147 72.0
351.82547 104.0
351.88147 48.0
352.299744 124.0
352.624847 32.0
354.885956 100.0
357.62085 76.0
359.626099 104.0
363.596436 68.0
370.322083 60.0
370.9505 108.0
371.510406 116.0
374.85553 72.0
375.993195 36.0
377.318146 60.0
379.738403 104.0
388.703705 84.0
392.661407 132.0
394.106232 48.0
394.291962 76.0
397.539459 64.0
402.216064 112.0
407.265411 56.0
408.016876 176.0
409.272217 64.0
410.957062 76.0
414.365509 52.0
414.564056 40.0
416.836609 56.0
417.40976 68.0
419.816498 28.0
424.982971 96.0
427.802399 108.0
429.364075 60.0
429.722961 52.0
431.325317 44.0
432.736053 52.0
441.583344 92.0
445.082672 40.0
445.855621 168.0
446.519897 96.0
448.836121 32.0
449.734741 68.0
453.482269 60.0
453.524658 120.0
453.643341 92.0
455.404358 32.0
466.858704 76.0
474.614471 44.0
475.213043 56.0
477.050171 60.0
480.979431 120.0
482.29425 112.0
482.910767 68.0
484.328918 48.0
490.150208 92.0
490.648254 96.0
491.949707 32.0
495.820099 40.0
496.91983 88.0
503.543793 76.0
505.627258 96.0
507.315948 40.0
512.790955 92.0
518.871033 96.0
519.356262 80.0
532.786682 60.0
533.480591 80.0
538.18927 84.0
539.020752 48.0
548.554016 56.0
563.260986 80.0
569.527893 28.0
569.936462 56.0
577.545349 84.0
596.350769 128.0
599.621521 76.0
600.333313 112.0
615.862427 48.0
633.472046 48.0
644.435913 92.0
649.16272 160.0
650.522461 80.0
652.752991 44.0
658.016541 92.0
660.812317 40.0
660.909546 156.0
684.109924 48.0
684.932739 164.0
705.40387 60.0
705.736938 36.0
714.264954 48.0
729.83905 80.0
738.310852 116.0
742.036377 76.0
744.461914 48.0
761.28241 128.0
774.796509 120.0
792.010315 36.0
805.832825 96.0
813.995178 68.0
832.486511 104.0
844.757751 48.0
859.433716 88.0
880.745239 100.0
888.83844 168.0
894.693054 148.0
912.299927 44.0
949.131775 32.0
949.849365 104.0
978.818115 32.0
981.896729 52.0
983.637573 52.0
985.717407 72.0
993.700989 228.0
1001.05542 124.0
1006.636414 100.0
1007.072144 152.0
1007.154297 72.0
1020.303833 88.0
1025.338989 68.0
1046.202026 156.0
1047.039185 148.0
1047.116455 60.0
1050.82312 172.0
1053.81897 192.0
1062.618164 64.0
1063.688965 184.0
1093.680176 112.0
1113.662476 180.0
1117.478271 220.0
1124.075073 48.0
1128.069092 116.0
1128.149414 216.0
1131.407471 60.0
1143.692261 160.0
1144.042358 204.0
1145.220703 140.0
1147.208618 172.0
1186.347656 160.0
1187.067627 200.0
1187.177246 128.0
1187.979858 52.0
1200.546509 52.0
1212.105103 168.0
1217.460571 212.0
1229.902588 172.0
1252.502808 108.0
1256.5 212.0
1257.812622 100.0
1261.775879 188.0
1263.685547 132.0
1264.73291 56.0
1267.225708 124.0
1274.058105 156.0
1281.64978 172.0
1281.913452 48.0
1282.248413 180.0
1284.701294 96.0
1289.449829 160.0
1298.435181 224.0
1300.105591 220.0
1302.806763 140.0
1303.122803 148.0
1305.207275 48.0
1306.23584 156.0
1310.245728 164.0
1325.593018 80.0
1335.568726 160.0
1338.785645 52.0
1343.202637 176.0
1346.764771 60.0
1351.4729 132.0
1352.416992 136.0
1354.767578 152.0
1355.998657 136.0
1362.808838 44.0
1385.570801 124.0
1387.505127 188.0
1393.338745 132.0
1394.475586 124.0
1397.494873 232.0
1400.994263 104.0
1401.612671 64.0
1403.916138 212.0
1404.33374 168.0
1405.736328 132.0
1408.431641 144.0
1409.948364 84.0
1431.133179 144.0
1433.82251 156.0
1439.390015 68.0
1440.658936 124.0
1442.767456 120.0
1444.272339 172.0
1446.762085 164.0
1449.663086 196.0
1450.117798 156.0
1450.443726 164.0
1457.760376 72.0
1458.269531 228.0
1461.935425 64.0
1465.712524 60.0
1475.29895 156.0
1478.281982 96.0
1480.456177 196.0
1484.571533 132.0
1485.21582 192.0
1485.983032 204.0
1486.351318 140.0
1489.437622 152.0
1494.773438 116.0
1495.427612 156.0
1501.005371 212.0
1501.653198 264.0
