>compound MLS001074333-01!
>formula C21H30O5
>ionization [M+H]+
>parentmass 363.215179
#inchi InChI=1S/C21H30O5/c1-19-7-5-13(23)9-12(19)3-4-14-15-6-8-21(26,17(25)11-22)20(15,2)10-16(24)18(14)19/h9,14-16,18,22,24,26H,3-8,10-11H2,1-2H3
#inchikey JYGXADMDTFJGBT
#Ion_Source LC-ESI
#Instrument qTof
#Compound_Source NIH Pharmacologically Active Library
#PI Dorrestein
#Data_Collector VP/LMS
#Scan -1
#Precursor_MZ 363.214
#ExactMass 362.209
#Charge 1
#CAS_Number N/A
#Pubmed_ID N/A
#Smiles CC12CC(O)C3C(CCC4=CC(=O)CCC34C)C2CCC1(O)C(=O)CO
#INCHI_AUX N/A
#Library_Class 1
#SpectrumID CCMSLIB00000085976
#IonMode Positive
#UpdateWorkflowName UPDATE-SINGLE-ANNOTATED-GOLD
#LibraryQualityString Gold
#TaskID d252d724072548979f1f6f1ced849daf
##Scan# 1641
#SpectrumFile p4-H10_GH10_01_18418.mzXML
#LibraryName Pharm_Active_Library.mgf
#MQScore -1
#Organism Pharm_Active_Library
#TIC_Query 0
#RT_Query -1
#MZErrorPPM -1
#SharedPeaks 0
#MassDiff 0
#LibMZ -1
#SpecMZ 363.214
#SpecCharge 0
#internalFilename spec-00000.mgf

>collision 10
44.902824 204.0
45.092411 180.0
45.107117 124.0
45.179874 236.0
45.214119 80.0
45.472786 188.0
45.561413 188.0
45.702587 208.0
45.714699 64.0
45.73085 232.0
45.756424 192.0
45.866894 140.0
45.880371 204.0
45.995037 176.0
46.008537 28.0
46.077415 244.0
46.205856 200.0
46.228859 116.0
46.356155 88.0
46.368351 152.0
46.426647 216.0
46.55014 192.0
46.588173 140.0
46.748615 144.0
46.777199 168.0
46.872536 136.0
46.883438 132.0
46.897068 200.0
46.947514 176.0
47.176903 124.0
47.283596 232.0
47.430153 192.0
47.53027 108.0
47.781712 156.0
47.811985 240.0
47.992443 32.0
48.037956 148.0
48.054512 144.0
48.127666 156.0
48.180153 152.0
48.27829 176.0
48.293503 196.0
48.384834 168.0
48.431919 156.0
48.443001 132.0
48.538925 192.0
48.601055 40.0
48.614933 64.0
48.627422 132.0
48.737129 368.0
48.81802 252.0
48.908932 240.0
48.940208 212.0
48.952744 136.0
48.979206 380.0
49.058636 220.0
49.104649 52.0
49.173016 160.0
49.372803 172.0
49.438557 204.0
49.617851 180.0
49.668571 144.0
49.723057 188.0
49.81292 100.0
49.822754 44.0
49.863506 172.0
50.115402 192.0
50.232418 148.0
50.574375 120.0
50.638092 200.0
50.667839 196.0
50.699013 60.0
50.744373 48.0
50.808193 120.0
50.998516 160.0
51.012695 132.0
51.156376 80.0
51.186275 92.0
51.370132 176.0
51.40723 248.0
51.458618 148.0
51.56004 120.0
51.608643 196.0
51.72739 104.0
51.968159 124.0
52.006908 108.0
52.024132 184.0
52.041363 120.0
52.154854 176.0
52.169228 200.0
52.205173 112.0
52.246887 160.0
52.261276 92.0
52.287178 188.0
52.363483 172.0
53.103497 192.0
53.407066 184.0
53.439072 164.0
53.498741 196.0
53.567188 192.0
53.806358 168.0
53.857468 140.0
53.873535 160.0
53.923218 232.0
54.078255 116.0
54.239376 144.0
54.408081 128.0
54.430103 208.0
54.45507 144.0
54.477104 212.0
54.512367 180.0
54.55352 188.0
54.746273 204.0
54.780148 40.0
54.871521 180.0
54.936409 208.0
55.014626 136.0
55.061878 216.0
55.222977 140.0
55.233334 168.0
55.248123 172.0
55.307823 164.0
55.31916 104.0
55.373947 180.0
55.480637 60.0
55.498428 216.0
55.523636 44.0
55.605236 184.0
55.637894 204.0
55.661652 120.0
55.688381 304.0
55.709179 84.0
55.871223 160.0
55.899982 256.0
55.942657 216.0
56.273632 124.0
56.346817 140.0
56.476871 184.0
56.493328 168.0
56.548691 88.0
56.571865 216.0
56.595051 120.0
56.634037 152.0
56.722446 148.0
56.786922 72.0
56.882954 60.0
57.153481 80.0
57.185081 248.0
57.213684 120.0
57.243446 172.0
57.305553 160.0
57.325142 104.0
57.35466 192.0
57.42012 156.0
57.444256 36.0
57.564999 140.0
57.644615 148.0
57.667732 172.0
57.776611 188.0
57.793251 152.0
57.876503 144.0
57.987091 264.0
58.096268 172.0
58.191883 164.0
58.238266 184.0
58.249592 124.0
58.511166 120.0
58.563503 108.0
58.665035 152.0
58.796211 188.0
58.848114 112.0
58.985611 192.0
59.182671 124.0
59.360718 48.0
59.376053 64.0
59.479744 200.0
59.50956 160.0
59.547951 128.0
59.603256 184.0
59.664738 216.0
59.713943 52.0
59.775482 124.0
59.895569 88.0
59.914055 196.0
59.947952 136.0
59.998817 68.0
60.034283 196.0
60.117588 160.0
60.137653 128.0
60.244198 232.0
60.324558 84.0
60.415939 88.0
60.521046 40.0
60.556664 152.0
60.609337 124.0
60.750423 192.0
60.924297 180.0
60.958481 196.0
60.970913 188.0
61.012882 52.0
61.105301 180.0
61.117088 84.0
61.146656 172.0
61.207371 120.0
61.313301 48.0
61.473934 32.0
61.497345 116.0
61.511391 216.0
61.570724 124.0
61.617588 180.0
61.733257 152.0
61.831814 156.0
61.855968 200.0
61.941418 188.0
61.952385 132.0
61.99469 200.0
62.052586 244.0
62.082123 176.0
62.110714 140.0
62.124832 160.0
62.208004 152.0
62.226845 84.0
62.272385 176.0
62.291233 132.0
62.357227 176.0
62.420113 156.0
62.623127 32.0
62.681419 76.0
62.727127 168.0
62.749195 128.0
62.858032 152.0
62.914852 140.0
62.984337 168.0
63.128162 112.0
63.440208 148.0
63.462276 320.0
63.891102 48.0
63.919743 168.0
64.038063 128.0
64.123589 176.0
64.150688 180.0
64.329353 196.0
64.436356 100.0
64.807556 124.0
64.943817 152.0
65.054543 100.0
65.104317 144.0
65.191071 172.0
65.279488 128.0
65.367958 76.0
65.379227 140.0
65.396927 152.0
65.54187 148.0
65.588608 80.0
65.711166 184.0
65.751511 192.0
65.904922 160.0
65.930603 180.0
66.056892 172.0
66.074692 40.0
66.118385 76.0
66.179893 196.0
66.192848 168.0
66.238197 92.0
66.29261 172.0
66.306252 180.0
66.6073 140.0
66.757576 224.0
66.923553 136.0
67.00499 132.0
67.021278 172.0
67.309998 140.0
67.471756 228.0
67.509369 204.0
67.550255 140.0
67.833549 192.0
67.962555 244.0
68.1996 168.0
68.267014 208.0
68.489197 88.0
68.522148 204.0
68.571579 76.0
68.92144 212.0
69.194344 144.0
69.210907 104.0
69.229118 272.0
69.293724 112.0
69.382156 156.0
69.486046 160.0
69.603889 156.0
69.673653 180.0
69.74511 32.0
69.966354 180.0
70.052956 148.0
70.394875 100.0
70.523521 236.0
70.571999 116.0
70.641609 200.0
70.756042 156.0
70.811302 128.0
70.992302 164.0
71.017464 64.0
71.139954 132.0
71.361725 164.0
71.383583 156.0
71.45591 216.0
71.46769 156.0
71.479469 52.0
71.514809 136.0
71.592255 148.0
71.607414 200.0
71.799545 124.0
71.861961 204.0
71.94635 252.0
72.042938 144.0
72.08316 132.0
72.10006 152.0
72.118652 132.0
72.130486 64.0
72.177826 192.0
72.221794 216.0
72.274239 96.0
72.363945 228.0
72.516411 180.0
72.543526 148.0
72.691086 240.0
72.723335 152.0
72.740654 236.0
72.820114 184.0
72.882973 180.0
73.233421 188.0
73.301567 140.0
73.342476 92.0
73.670113 152.0
73.709404 160.0
74.078964 156.0
74.0961 112.0
74.11837 188.0
74.152649 224.0
74.217789 156.0
74.269241 220.0
74.471779 112.0
74.593781 160.0
74.700401 212.0
74.721039 204.0
74.831192 232.0
74.91214 116.0
75.019875 124.0
75.032776 204.0
75.155235 176.0
75.198303 188.0
75.277794 164.0
75.34861 228.0
75.43502 188.0
75.454033 136.0
75.471321 208.0
75.547424 292.0
75.628754 188.0
75.678955 144.0
75.722252 152.0
75.736107 112.0
75.74823 128.0
75.762093 64.0
75.774223 60.0
75.959717 100.0
75.989212 176.0
76.164551 144.0
76.292618 120.0
76.383568 112.0
76.611618 132.0
76.667374 68.0
76.777206 120.0
76.833023 160.0
76.887115 228.0
76.991867 172.0
77.005836 156.0
77.107079 152.0
77.142136 192.0
77.199829 168.0
77.229561 104.0
77.320541 140.0
77.402824 32.0
77.448357 204.0
77.474632 152.0
77.537712 96.0
77.565758 172.0
77.639397 64.0
77.746414 96.0
77.839455 148.0
78.080215 40.0
78.175217 188.0
78.19902 180.0
78.360535 164.0
78.479958 184.0
78.621078 128.0
78.757027 144.0
78.937294 140.0
78.95562 188.0
79.002739 188.0
79.190376 208.0
79.204544 100.0
79.22049 164.0
79.238205 180.0
79.287819 132.0
79.325043 156.0
79.390648 136.0
79.426117 120.0
79.61425 228.0
79.735062 168.0
79.749283 184.0
79.806168 188.0
79.866631 172.0
79.889763 172.0
79.93602 172.0
79.952034 212.0
80.032143 204.0
80.065979 172.0
80.162178 112.0
80.183563 132.0
80.240608 188.0
80.294098 228.0
80.311935 104.0
80.333344 140.0
80.418991 240.0
80.567207 208.0
80.898048 180.0
80.930275 164.0
81.249306 212.0
81.341209 208.0
81.396484 136.0
81.45755 168.0
81.844223 220.0
82.011772 208.0
82.099213 160.0
82.199333 164.0
82.314865 204.0
82.526276 140.0
82.544357 144.0
82.708992 152.0
82.79409 124.0
82.922905 120.0
82.980736 112.0
83.000679 148.0
83.017677 208.0
83.185738 124.0
83.292877 168.0
83.341927 56.0
83.418259 152.0
83.507362 140.0
83.601967 132.0
83.669312 188.0
83.93351 212.0
84.037476 160.0
84.157944 104.0
84.291283 52.0
84.421074 112.0
84.578423 84.0
84.726631 180.0
84.880714 148.0
84.952248 196.0
85.007286 404.0
85.207428 244.0
85.229477 76.0
85.395172 184.0
85.417007 200.0
85.586319 152.0
85.735535 200.0
85.829552 352.0
86.246788 216.0
86.259521 184.0
86.2967 212.0
86.366974 100.0
86.518715 132.0
86.672356 168.0
86.703949 132.0
86.718773 100.0
86.820747 64.0
86.839294 144.0
87.039719 136.0
87.510147 84.0
87.580917 88.0
87.748634 144.0
87.805695 180.0
87.849342 168.0
87.922112 32.0
87.983711 196.0
88.138733 144.0
88.31073 112.0
88.415504 212.0
88.471657 156.0
88.582039 140.0
88.681458 80.0
88.758316 92.0
89.419594 184.0
89.528435 192.0
89.575874 312.0
89.737953 196.0
89.892624 208.0
89.943581 148.0
90.075768 144.0
90.094658 108.0
90.109123 140.0
90.276108 204.0
90.300316 120.0
90.349876 160.0
90.671783 152.0
90.738129 124.0
90.78743 228.0
90.834846 188.0
90.850021 200.0
91.055367 1620.0
91.125313 132.0
91.222237 72.0
91.245049 180.0
91.364861 148.0
91.498978 248.0
91.644737 204.0
91.661888 212.0
91.707626 168.0
91.740036 144.0
91.84301 144.0
91.875435 120.0
91.922356 172.0
91.967033 164.0
91.994186 196.0
92.010941 124.0
92.060486 160.0
92.079681 128.0
92.245918 56.0
92.276505 52.0
92.370216 136.0
92.395088 144.0
92.603737 120.0
92.657372 212.0
92.686111 56.0
92.705276 216.0
92.931549 180.0
93.071327 772.0
93.102394 80.0
93.229187 148.0
93.298378 112.0
93.423386 116.0
93.492653 152.0
93.521523 172.0
93.538849 208.0
93.558098 208.0
93.780891 188.0
93.853874 248.0
93.937744 156.0
94.075241 492.0
94.314285 188.0
94.517349 212.0
94.565735 160.0
94.633492 140.0
94.685776 120.0
94.755508 168.0
94.80201 192.0
94.962929 148.0
95.030823 192.0
95.048859 428.0
95.067696 152.0
95.086411 1172.0
95.128967 240.0
95.345406 156.0
95.674675 144.0
95.877686 32.0
96.049667 144.0
96.087311 180.0
96.177078 192.0
96.241501 156.0
96.360641 168.0
96.481819 88.0
96.534607 204.0
96.714607 124.0
96.767464 164.0
96.857544 148.0
96.99691 164.0
97.029999 92.0
97.06517 3708.0
97.11628 68.0
97.157478 72.0
97.194756 64.0
97.234703 168.0
97.279152 168.0
97.387146 48.0
97.41465 220.0
97.450012 224.0
97.5326 148.0
97.649483 204.0
97.750854 224.0
97.794151 88.0
97.839432 224.0
98.070915 352.0
98.098236 216.0
98.172424 240.0
98.21582 136.0
98.269081 104.0
98.375656 176.0
98.423302 180.0
98.472412 56.0
98.486237 148.0
98.503311 216.0
98.63443 80.0
98.656181 208.0
98.670021 148.0
98.72538 120.0
98.831543 192.0
98.88398 172.0
99.044212 352.0
99.059883 180.0
99.190666 164.0
99.25808 188.0
99.443634 264.0
99.474335 164.0
99.506104 136.0
99.549782 196.0
99.569641 116.0
99.59745 208.0
99.835953 152.0
100.017006 144.0
100.16436 232.0
100.583115 168.0
100.65242 168.0
100.734879 176.0
100.812798 204.0
101.106781 64.0
101.272957 184.0
101.327042 144.0
101.471352 240.0
101.538879 148.0
101.67997 136.0
101.714088 92.0
101.820503 144.0
101.874741 120.0
101.890808 224.0
101.959129 44.0
101.999329 200.0
102.019432 72.0
102.059647 152.0
102.120056 196.0
102.238678 156.0
102.284973 180.0
102.355438 204.0
102.385643 204.0
102.45211 228.0
102.536743 192.0
102.669807 168.0
102.691994 120.0
102.792862 152.0
102.837265 200.0
102.93013 88.0
103.021019 124.0
103.054886 580.0
103.091736 124.0
103.122047 160.0
103.184853 184.0
103.281784 160.0
103.336403 124.0
103.358665 168.0
103.415329 232.0
103.482132 176.0
103.508453 140.0
103.58744 184.0
103.613777 168.0
103.686729 156.0
103.721184 60.0
103.816475 176.0
104.06192 292.0
104.094498 104.0
104.120895 72.0
104.145271 192.0
104.202148 112.0
104.290039 176.0
104.391182 204.0
104.448135 160.0
104.484749 112.0
104.60482 92.0
104.694405 80.0
104.784035 64.0
105.025444 228.0
105.070427 5148.0
105.122513 180.0
105.24295 108.0
105.283791 188.0
105.362076 116.0
105.641022 140.0
105.654228 140.0
105.729469 88.0
105.788826 56.0
105.858444 192.0
105.915787 76.0
106.014397 156.0
106.07412 656.0
106.098175 68.0
106.122772 160.0
106.319702 132.0
106.352097 184.0
106.395653 184.0
106.52092 132.0
106.734665 216.0
106.765511 136.0
106.794304 144.0
106.897171 148.0
106.97744 168.0
106.993912 104.0
107.048424 1140.0
107.086479 1992.0
107.164856 40.0
107.188255 112.0
107.391624 156.0
107.444168 156.0
107.567017 56.0
107.608307 172.0
107.709496 136.0
107.976128 112.0
108.059349 172.0
108.092529 164.0
108.245163 188.0
108.485504 264.0
108.553925 144.0
108.599548 160.0
108.663857 180.0
108.711586 144.0
108.732338 132.0
108.879745 84.0
108.910896 268.0
109.011856 216.0
109.033485 52.0
109.065529 3476.0
109.099823 680.0
109.127029 240.0
109.255974 164.0
109.289261 128.0
109.312149 172.0
109.518265 200.0
109.70372 160.0
109.864296 120.0
110.067024 436.0
110.089722 100.0
110.118965 224.0
110.148209 172.0
110.309113 180.0
110.41156 84.0
110.67942 172.0
110.729683 76.0
110.746437 220.0
110.792526 124.0
110.844955 156.0
110.867958 96.0
110.888916 136.0
110.918259 204.0
111.038948 300.0
111.084091 452.0
111.272797 188.0
111.289597 64.0
111.342094 164.0
111.415611 152.0
111.569031 160.0
111.596634 152.0
111.742599 148.0
111.758316 108.0
111.86776 112.0
111.922501 220.0
112.046768 148.0
112.072044 60.0
112.093117 164.0
112.344025 148.0
112.371452 144.0
112.411537 128.0
112.850899 124.0
112.886848 96.0
112.943954 164.0
113.060318 272.0
113.180984 180.0
113.242393 180.0
113.341965 144.0
113.433098 164.0
113.517761 172.0
113.543358 100.0
113.693985 116.0
113.725822 116.0
113.95517 100.0
114.1082 136.0
114.123085 172.0
114.198776 228.0
114.242188 132.0
114.306015 184.0
114.344322 112.0
114.399666 116.0
114.480576 120.0
114.521042 184.0
114.540161 164.0
114.64035 92.0
114.755455 172.0
114.966629 168.0
115.003609 208.0
115.054993 2476.0
115.513611 168.0
115.62487 184.0
115.639854 124.0
115.698212 244.0
115.725479 112.0
115.768311 172.0
115.901604 232.0
115.915504 180.0
116.003998 144.0
116.040718 280.0
116.062546 684.0
116.205589 144.0
116.257088 136.0
116.426689 204.0
116.628654 144.0
116.705147 220.0
116.755501 144.0
116.938377 72.0
116.970665 120.0
116.985733 192.0
117.011566 236.0
117.069901 3688.0
117.117088 76.0
117.272224 100.0
117.321808 152.0
117.34552 136.0
117.37571 52.0
117.477074 48.0
117.521889 104.0
117.574173 124.0
117.591438 168.0
117.716652 176.0
117.738251 116.0
117.833298 148.0
117.93486 156.0
117.97377 128.0
118.074013 396.0
118.151108 196.0
118.168419 132.0
118.183563 200.0
118.21386 196.0
118.250648 36.0
118.317749 156.0
118.575523 136.0
118.618874 204.0
118.746803 112.0
118.788017 120.0
118.822731 136.0
118.855278 204.0
118.952942 68.0
119.026756 128.0
119.053017 176.0
119.086868 5176.0
119.128838 148.0
119.163597 96.0
119.19619 84.0
119.211403 164.0
119.263565 48.0
119.363571 104.0
119.394012 208.0
119.511482 104.0
119.570236 48.0
119.960129 72.0
120.059311 148.0
120.0914 500.0
120.49263 116.0
120.60408 96.0
120.680595 208.0
120.727409 136.0
120.781189 208.0
120.849007 152.0
120.866516 148.0
120.940926 64.0
120.956245 140.0
120.986893 236.0
121.029976 136.0
121.065598 21952.0
121.101562 628.0
121.124435 184.0
121.17086 140.0
121.196472 128.0
121.210304 228.0
121.266014 192.0
121.327644 156.0
121.392242 136.0
121.504112 76.0
121.591881 168.0
121.622612 152.0
121.736778 152.0
121.815849 64.0
121.872971 120.0
121.958679 52.0
121.993851 176.0
122.068886 1936.0
122.116417 108.0
122.138985 36.0
122.242386 140.0
122.348038 228.0
122.374458 52.0
122.493385 140.0
122.519821 44.0
122.61898 172.0
122.698334 160.0
122.717072 128.0
122.730301 128.0
122.790947 140.0
122.852707 52.0
122.923317 120.0
122.949799 84.0
122.97628 140.0
122.998352 160.0
123.044487 220.0
123.080528 5808.0
123.122093 192.0
123.195709 132.0
123.239075 132.0
123.263786 152.0
123.358421 160.0
123.420326 76.0
123.466766 128.0
123.502151 204.0
123.559669 116.0
123.648178 32.0
123.690231 164.0
123.710159 164.0
123.747795 116.0
123.904228 152.0
124.006981 140.0
124.044189 180.0
124.085052 664.0
124.483963 132.0
124.526161 136.0
124.54171 72.0
124.586136 80.0
124.907112 164.0
124.997467 164.0
125.015266 140.0
125.061348 300.0
125.086494 132.0
125.113205 64.0
125.200043 184.0
125.215637 216.0
125.407249 44.0
125.523178 220.0
125.585625 140.0
125.630234 112.0
125.697174 152.0
125.719482 88.0
126.049034 208.0
126.134918 124.0
126.371979 120.0
126.627174 148.0
126.660774 276.0
126.698853 200.0
126.79969 136.0
126.889351 148.0
127.053047 628.0
127.115898 44.0
127.524643 132.0
127.596573 92.0
127.778748 164.0
127.907021 60.0
128.001587 128.0
128.035019 212.0
128.063171 2876.0
128.166016 56.0
128.414825 232.0
128.434296 156.0
128.529053 40.0
128.547104 68.0
128.820297 64.0
128.871048 196.0
128.969437 184.0
129.069748 4404.0
129.102341 184.0
129.136749 232.0
129.189774 164.0
129.279282 28.0
129.337418 204.0
129.480774 216.0
129.541931 176.0
129.902374 96.0
130.076187 1692.0
130.131592 32.0
130.156143 152.0
130.201981 76.0
130.240601 172.0
130.599731 168.0
130.631577 104.0
130.745346 128.0
130.768097 36.0
130.793472 140.0
131.026611 124.0
131.050171 208.0
131.085312 5416.0
131.214584 84.0
131.250549 160.0
131.261093 180.0
131.399323 52.0
131.435837 164.0
131.464691 124.0
131.641281 164.0
131.982391 188.0
132.054947 436.0
132.088516 1200.0
132.450912 128.0
132.620483 40.0
132.650269 112.0
132.817673 96.0
132.914032 56.0
132.935898 172.0
133.001236 88.0
133.026489 124.0
133.064499 700.0
133.1008 2624.0
133.357254 212.0
133.389435 152.0
133.985474 96.0
134.070724 260.0
134.10463 764.0
134.245941 204.0
134.308212 204.0
134.386642 72.0
134.412033 92.0
134.608246 216.0
134.635956 64.0
134.695999 76.0
134.788422 136.0
134.923935 76.0
135.045975 128.0
135.080963 3116.0
135.116745 1000.0
135.359772 192.0
135.51265 184.0
135.827942 196.0
135.916107 152.0
135.962509 104.0
136.083038 368.0
136.118057 124.0
136.148239 76.0
136.220245 180.0
136.268051 204.0
136.289948 120.0
136.352692 68.0
136.529373 148.0
136.794632 112.0
136.964615 172.0
137.056229 408.0
137.094757 416.0
137.153351 172.0
137.407547 36.0
137.570908 64.0
137.697006 148.0
137.77948 208.0
137.886246 204.0
138.068665 192.0
138.279175 204.0
138.384506 84.0
138.595322 140.0
138.761734 240.0
138.85553 120.0
138.888367 212.0
138.937622 140.0
138.991592 140.0
139.010361 140.0
139.050262 172.0
139.076981 332.0
139.341446 108.0
139.489502 64.0
139.710556 128.0
139.936493 100.0
139.995361 164.0
140.216812 56.0
140.306381 120.0
140.530441 204.0
140.591797 44.0
140.889313 244.0
140.910568 96.0
140.953094 184.0
141.007462 144.0
141.024002 132.0
141.042328 196.0
141.070557 3480.0
141.094925 148.0
141.113831 124.0
141.196594 56.0
141.423737 96.0
141.461609 44.0
141.587097 148.0
141.69133 80.0
141.935455 136.0
142.035065 136.0
142.077057 3032.0
142.205902 60.0
142.236755 60.0
142.49086 116.0
142.53125 144.0
142.600174 140.0
142.630859 228.0
142.690506 136.0
142.773727 52.0
142.811783 64.0
142.864471 132.0
142.909317 84.0
143.044983 180.0
143.0858 6012.0
143.175934 28.0
143.478851 180.0
143.779099 52.0
143.891296 116.0
143.953369 140.0
144.058792 572.0
144.090683 1140.0
144.115799 36.0
144.158813 44.0
144.204224 108.0
144.220963 68.0
144.296188 40.0
144.443329 80.0
144.488785 148.0
144.517502 172.0
144.902985 176.0
144.948502 156.0
144.986847 152.0
145.013214 68.0
145.066544 1868.0
145.100922 8296.0
145.14267 68.0
145.181259 128.0
145.384949 40.0
145.473755 76.0
145.840363 168.0
145.856354 176.0
145.949463 72.0
146.072266 452.0
146.104813 1404.0
146.141891 116.0
146.202057 40.0
146.221298 92.0
146.676529 116.0
146.712692 228.0
146.785034 48.0
146.883911 108.0
147.021439 96.0
147.080719 3788.0
147.116577 6192.0
147.183182 72.0
147.25563 44.0
147.369446 104.0
147.517395 108.0
147.593948 212.0
147.629517 68.0
147.668213 136.0
147.712463 52.0
147.891525 48.0
147.917175 100.0
148.0271 152.0
148.089478 988.0
148.120407 956.0
148.199081 160.0
148.509384 136.0
148.555481 160.0
148.810303 56.0
148.883148 96.0
148.941437 60.0
149.065445 200.0
149.095947 1180.0
149.131683 768.0
149.313309 164.0
149.332108 176.0
149.573654 128.0
149.640213 236.0
150.014572 104.0
150.052139 216.0
150.099243 220.0
150.439041 124.0
150.485428 112.0
150.563568 144.0
150.925247 124.0
150.991272 84.0
151.078003 200.0
151.118469 192.0
151.223694 44.0
151.277557 140.0
151.439163 148.0
151.458755 136.0
151.9785 240.0
152.059189 204.0
152.08226 352.0
152.366425 64.0
152.425385 128.0
152.501572 120.0
152.690887 204.0
152.86557 132.0
153.018173 92.0
153.070679 608.0
153.119141 200.0
153.222595 116.0
153.617035 100.0
153.666382 208.0
153.91568 212.0
154.016937 60.0
154.039169 136.0
154.075211 1928.0
154.137985 96.0
154.219543 108.0
154.506393 160.0
154.531143 144.0
154.595474 108.0
154.895065 124.0
155.059174 460.0
155.085327 2520.0
155.1819 204.0
155.247009 80.0
155.274292 112.0
155.388397 72.0
155.696198 128.0
155.795547 148.0
155.967026 68.0
156.026688 164.0
156.093552 828.0
156.501892 116.0
156.636383 128.0
156.703644 132.0
156.728561 40.0
156.810806 152.0
156.950409 120.0
157.000275 100.0
157.030212 192.0
157.065308 800.0
157.100555 4436.0
157.214828 200.0
157.314667 168.0
157.374588 92.0
157.404541 56.0
157.437012 48.0
157.464478 136.0
157.489456 44.0
157.704346 220.0
157.834335 100.0
158.071045 1040.0
158.105423 720.0
158.213623 128.0
158.282242 132.0
158.418991 200.0
158.580322 196.0
158.596954 136.0
158.630508 168.0
158.77092 144.0
158.821075 212.0
159.081512 2276.0
159.117691 4852.0
159.169922 60.0
159.267868 196.0
159.46637 164.0
159.512207 68.0
159.599609 64.0
159.682587 68.0
159.749161 180.0
159.803345 140.0
160.084 696.0
160.121033 812.0
160.155777 32.0
160.380035 84.0
160.74826 64.0
160.813873 176.0
160.84668 92.0
161.066666 140.0
161.095505 2248.0
161.131165 1508.0
161.177536 144.0
161.334229 84.0
161.475845 76.0
161.503662 148.0
161.690887 56.0
161.759232 152.0
162.104568 884.0
162.139099 140.0
162.537308 68.0
162.610901 112.0
162.636276 48.0
162.775909 60.0
162.984207 136.0
163.056412 148.0
163.075699 676.0
163.110718 4760.0
163.296906 48.0
163.368118 68.0
163.464813 76.0
163.505524 252.0
163.556427 48.0
163.752487 196.0
163.859482 60.0
164.076736 136.0
164.115356 808.0
164.622147 48.0
164.864838 96.0
164.926178 160.0
165.06868 1076.0
165.095245 172.0
165.125153 200.0
165.169098 32.0
165.38147 148.0
165.555756 216.0
165.634964 116.0
165.75795 192.0
166.076233 428.0
166.107315 240.0
166.134842 124.0
166.167053 72.0
166.632919 112.0
167.083969 1516.0
167.358231 44.0
167.40715 144.0
167.564285 144.0
167.63385 180.0
167.742096 80.0
167.796234 216.0
167.816864 144.0
168.007721 192.0
168.093246 1284.0
168.167709 104.0
168.206421 48.0
168.245148 124.0
168.265808 88.0
168.322601 92.0
168.532455 168.0
168.650711 120.0
168.909286 124.0
168.937744 132.0
168.989487 140.0
169.036057 236.0
169.064072 284.0
169.100861 3896.0
169.162888 52.0
169.181 92.0
169.2043 44.0
169.284576 104.0
169.313065 60.0
169.665466 176.0
169.704346 52.0
170.072403 248.0
170.106735 924.0
170.166183 112.0
170.205139 52.0
170.246689 104.0
170.264862 68.0
170.376556 48.0
170.410339 104.0
170.464127 176.0
170.535065 36.0
170.662445 56.0
170.927765 200.0
171.03447 76.0
171.079742 1900.0
171.116669 2824.0
171.167252 28.0
171.279907 140.0
171.320923 60.0
171.341766 96.0
171.367813 60.0
171.422531 76.0
171.691055 124.0
171.850174 64.0
172.00415 160.0
172.085754 540.0
172.122849 1420.0
172.320267 176.0
172.578903 196.0
172.816925 108.0
172.911133 172.0
173.061234 176.0
173.096085 2548.0
173.131393 1984.0
173.18866 56.0
173.639481 64.0
173.678818 176.0
173.712921 112.0
173.859848 96.0
174.017349 88.0
174.100037 1128.0
174.138931 392.0
174.403519 56.0
174.548126 132.0
174.750656 144.0
175.069397 208.0
175.110703 1980.0
175.144363 480.0
175.453873 212.0
175.575165 92.0
175.846909 40.0
175.931381 44.0
175.989456 180.0
176.035187 152.0
176.073959 136.0
176.117996 932.0
176.150558 228.0
176.557602 124.0
177.063095 100.0
177.091873 684.0
177.126312 468.0
178.004547 80.0
178.041718 128.0
178.078995 508.0
178.135605 116.0
178.607849 160.0
178.772797 132.0
178.794098 128.0
178.865952 108.0
178.884583 128.0
178.937836 100.0
179.085037 988.0
179.145569 204.0
179.318771 88.0
179.678757 184.0
179.753464 132.0
179.782822 60.0
180.060471 136.0
180.093216 820.0
180.298248 136.0
180.482697 184.0
180.90274 152.0
181.036621 140.0
181.072617 164.0
181.100937 2128.0
181.167862 260.0
181.521667 212.0
182.073273 272.0
182.109253 708.0
182.321655 64.0
182.466812 264.0
182.507141 68.0
182.899918 124.0
183.080215 416.0
183.117844 3792.0
183.554596 48.0
183.773087 124.0
183.896179 144.0
184.087234 232.0
184.120712 884.0
184.328812 84.0
184.399597 60.0
184.480682 32.0
184.55098 104.0
184.637512 88.0
184.764648 48.0
185.035294 92.0
185.095688 2056.0
185.131653 2748.0
185.163376 128.0
185.392838 120.0
185.425354 120.0
185.617844 132.0
185.685638 160.0
185.748016 48.0
185.82399 116.0
186.10408 504.0
186.136826 684.0
186.228256 52.0
186.262741 180.0
186.587173 176.0
186.625229 40.0
186.734009 132.0
187.026718 148.0
187.079941 216.0
187.110611 2212.0
187.146942 408.0
187.176865 160.0
187.22934 48.0
187.428207 232.0
187.465744 72.0
187.662613 160.0
187.72261 112.0
187.818054 108.0
187.842606 32.0
187.875351 104.0
188.115417 576.0
188.144943 204.0
188.380386 84.0
188.462341 92.0
189.087357 188.0
189.128586 956.0
189.488373 32.0
189.597992 132.0
189.839233 88.0
190.077896 144.0
190.095856 140.0
190.135422 340.0
190.357895 164.0
190.486984 184.0
191.006516 216.0
191.088287 280.0
191.106384 232.0
191.13858 172.0
191.328491 132.0
191.367035 200.0
191.735168 100.0
192.091965 640.0
192.115097 252.0
192.138748 212.0
192.284988 160.0
192.707504 64.0
192.837372 88.0
192.925827 132.0
193.036438 76.0
193.101776 1396.0
193.862381 100.0
194.002731 96.0
194.05542 240.0
194.078918 252.0
194.107361 880.0
194.137894 220.0
194.188522 40.0
194.496506 156.0
194.654755 136.0
194.732529 120.0
194.751968 52.0
194.868637 136.0
195.049286 144.0
195.089249 508.0
195.115295 2576.0
195.302307 36.0
195.605621 128.0
196.001099 168.0
196.020599 92.0
196.090134 212.0
196.121262 724.0
197.095276 888.0
197.131912 2332.0
197.175964 40.0
197.268204 156.0
197.49588 120.0
197.519867 156.0
197.833298 140.0
197.85849 76.0
198.100906 928.0
198.136948 824.0
198.337524 136.0
198.587067 48.0
198.685242 68.0
198.707687 52.0
199.075409 224.0
199.113388 744.0
199.146255 1096.0
199.443451 192.0
199.913147 144.0
200.114441 428.0
200.148666 196.0
200.197464 48.0
200.279144 36.0
200.828781 132.0
200.848526 168.0
200.950089 232.0
201.086273 184.0
201.127808 1212.0
201.235153 72.0
201.350937 84.0
201.480789 136.0
201.695633 176.0
201.989716 164.0
202.078445 236.0
202.133743 344.0
202.890259 32.0
203.083176 344.0
203.106155 132.0
203.14386 124.0
203.287354 144.0
203.454819 72.0
203.508759 220.0
203.781433 168.0
204.089432 256.0
204.116837 172.0
204.153809 160.0
204.572067 60.0
204.631851 124.0
205.067703 164.0
205.102753 600.0
205.122375 488.0
205.288971 144.0
205.392746 72.0
205.506866 128.0
205.660965 44.0
205.746613 156.0
205.843689 168.0
205.889374 112.0
205.977921 68.0
206.108017 812.0
206.460953 180.0
207.084152 172.0
207.118713 2016.0
207.448792 188.0
207.715485 64.0
207.99382 72.0
208.122131 872.0
208.467178 192.0
208.525192 140.0
208.582687 48.0
209.09761 508.0
209.130753 2440.0
209.195404 96.0
209.261627 44.0
209.964737 64.0
210.103958 776.0
210.135788 536.0
210.507278 152.0
211.079865 140.0
211.111359 1272.0
211.147049 1816.0
211.281921 44.0
211.507629 180.0
211.530792 124.0
211.603165 60.0
211.672653 68.0
211.988419 224.0
212.089188 176.0
212.116455 664.0
212.156342 328.0
212.730927 52.0
213.128113 1552.0
213.160568 420.0
213.625977 236.0
213.786011 64.0
214.13298 468.0
214.168335 180.0
214.773682 52.0
215.010025 100.0
215.073151 124.0
215.106339 144.0
215.140945 1072.0
215.284439 236.0
215.46846 64.0
215.56781 140.0
215.711029 180.0
216.097061 196.0
216.148529 320.0
216.187775 160.0
216.249237 40.0
217.028488 148.0
217.086288 180.0
217.124557 412.0
217.161911 208.0
217.415695 32.0
217.518433 80.0
217.656418 112.0
217.988358 76.0
218.108383 652.0
218.188995 136.0
218.535278 100.0
218.85022 172.0
218.973907 164.0
219.071106 92.0
219.117065 664.0
219.142807 300.0
219.507812 48.0
219.852463 188.0
219.902634 88.0
220.073853 124.0
220.12471 280.0
220.292404 96.0
220.593826 116.0
221.093918 360.0
221.131897 808.0
221.45787 64.0
221.499329 104.0
221.90831 68.0
222.104218 276.0
222.135071 480.0
222.837296 52.0
222.93956 48.0
223.058731 212.0
223.070312 108.0
223.075851 148.0
223.113998 912.0
223.147003 1844.0
223.363495 168.0
223.409714 172.0
223.440842 68.0
223.637253 84.0
223.6819 40.0
224.116501 276.0
224.131012 120.0
224.150101 888.0
224.215057 48.0
224.313416 176.0
224.471436 76.0
224.730942 60.0
224.754807 128.0
224.972687 148.0
225.12915 2028.0
225.160782 1172.0
225.208893 40.0
225.271317 68.0
225.770477 92.0
225.940964 64.0
226.09938 296.0
226.134064 1100.0
226.170349 380.0
226.572662 76.0
226.605621 48.0
226.863373 180.0
226.965302 112.0
226.995285 104.0
227.109131 200.0
227.142044 1592.0
227.178345 488.0
227.289261 92.0
227.325272 92.0
227.68251 52.0
228.150253 432.0
228.304611 208.0
228.626511 108.0
228.662628 32.0
228.764969 120.0
228.9366 36.0
229.09021 188.0
229.120331 280.0
229.156525 468.0
230.103943 148.0
230.130707 264.0
230.162521 192.0
231.05545 120.0
231.069046 104.0
231.080917 168.0
231.118866 828.0
231.137878 796.0
232.115662 60.0
232.146088 124.0
232.36438 88.0
232.525208 40.0
233.130386 432.0
233.786453 84.0
233.853409 160.0
233.947769 112.0
234.101791 144.0
234.137405 196.0
234.173096 84.0
234.593613 228.0
234.736908 148.0
235.113663 676.0
235.143936 552.0
235.396042 128.0
235.658737 164.0
235.701508 68.0
236.077515 160.0
236.117783 188.0
236.153473 508.0
236.20903 148.0
236.962143 48.0
237.124634 496.0
237.160431 692.0
237.190445 224.0
237.421936 68.0
237.627457 104.0
237.756332 60.0
238.134354 384.0
238.17157 148.0
238.712051 40.0
238.831696 108.0
238.868607 124.0
238.954742 156.0
238.979355 124.0
239.053207 104.0
239.102386 424.0
239.143707 1932.0
239.17836 400.0
239.388748 44.0
239.675232 72.0
239.946457 104.0
240.145981 660.0
240.18718 440.0
240.21785 64.0
240.254868 104.0
240.298065 192.0
240.353607 192.0
240.665359 40.0
240.890808 100.0
240.949509 212.0
241.036026 128.0
241.157883 3280.0
241.199127 304.0
241.413162 48.0
242.129593 148.0
242.162674 788.0
242.481247 56.0
242.620728 116.0
242.70134 132.0
242.732361 80.0
242.899826 72.0
242.957077 168.0
243.132187 400.0
243.175613 1340.0
243.362244 56.0
243.424347 140.0
243.517517 60.0
243.707016 92.0
243.772278 68.0
243.853073 40.0
243.911102 108.0
244.005402 124.0
244.12355 172.0
244.144974 168.0
244.181381 292.0
244.338181 88.0
244.982605 108.0
245.141556 160.0
245.18515 208.0
245.409592 32.0
245.883743 128.0
246.121002 168.0
246.336502 128.0
247.108337 148.0
247.151352 508.0
248.11824 384.0
248.137756 64.0
248.156937 100.0
248.361786 128.0
248.986374 236.0
249.12413 420.0
249.162521 444.0
249.467117 56.0
249.652634 32.0
249.721817 144.0
249.791016 64.0
249.986084 160.0
250.136673 332.0
250.167572 420.0
250.782898 172.0
250.886917 72.0
250.975189 108.0
251.142853 1948.0
251.175171 776.0
251.366333 28.0
251.406281 232.0
251.51152 136.0
251.543076 56.0
251.647263 104.0
251.868332 128.0
252.048401 220.0
252.118744 144.0
252.149277 472.0
252.184845 208.0
252.575012 120.0
252.842163 140.0
253.122025 284.0
253.159653 2612.0
253.421661 84.0
253.545242 124.0
253.941544 68.0
254.068436 80.0
254.116028 92.0
254.162384 952.0
254.239777 112.0
254.385788 52.0
254.512772 216.0
254.614395 168.0
255.128693 280.0
255.170212 416.0
255.590332 104.0
255.794022 112.0
256.153931 172.0
256.18158 272.0
256.682922 184.0
257.104004 140.0
257.152863 472.0
257.188599 156.0
257.321075 184.0
258.141968 312.0
258.705383 112.0
258.987183 144.0
259.106445 196.0
259.129852 316.0
259.159576 136.0
260.172791 176.0
260.86438 112.0
261.047638 108.0
261.125153 240.0
261.163696 352.0
261.881195 88.0
262.116364 152.0
262.163666 136.0
263.140442 504.0
263.180145 876.0
264.053345 52.0
264.146088 176.0
264.894928 148.0
265.1185 88.0
265.155487 572.0
265.228699 40.0
265.935791 108.0
266.164062 804.0
266.923401 52.0
267.135437 256.0
267.174622 2652.0
267.297485 52.0
267.489532 76.0
267.75 60.0
268.139557 316.0
268.179932 2972.0
268.617004 216.0
268.734467 40.0
269.14743 376.0
269.186768 1880.0
269.446228 84.0
269.537689 140.0
270.073853 52.0
270.103302 32.0
270.158234 176.0
270.162933 160.0
270.194092 328.0
270.469788 148.0
271.033081 236.0
271.168304 748.0
271.971039 108.0
272.102356 76.0
272.177856 100.0
272.637756 80.0
273.167389 432.0
273.562042 60.0
274.276855 160.0
274.481262 40.0
275.16095 100.0
275.973755 48.0
276.147858 180.0
276.774475 68.0
277.56311 84.0
278.253265 104.0
279.093872 168.0
279.117828 120.0
279.140167 212.0
279.17337 732.0
279.596191 80.0
279.782227 72.0
280.18808 332.0
280.222229 176.0
281.153809 496.0
281.190643 1008.0
281.221344 176.0
281.46637 44.0
281.529816 52.0
281.586578 64.0
282.160492 292.0
282.197205 172.0
282.365326 84.0
282.853821 124.0
283.125031 68.0
283.166016 236.0
283.537109 180.0
283.798584 120.0
284.170959 164.0
284.338654 108.0
285.064056 92.0
285.183258 576.0
286.147156 188.0
286.18988 452.0
286.251526 52.0
287.161469 256.0
287.197205 368.0
288.201233 232.0
289.165009 116.0
291.171448 568.0
292.171509 88.0
292.270172 244.0
293.157318 132.0
293.186188 128.0
294.158417 112.0
294.660309 68.0
295.1698 136.0
295.313232 52.0
296.175201 308.0
296.66922 64.0
296.7995 48.0
297.019012 80.0
297.046448 128.0
297.139069 164.0
297.183441 1236.0
297.26947 184.0
298.083313 104.0
298.191711 428.0
298.217346 180.0
298.262024 120.0
298.92926 140.0
299.16098 288.0
299.198822 496.0
300.175781 116.0
301.182617 248.0
301.222046 60.0
301.954803 80.0
303.187317 140.0
304.797516 116.0
307.15799 132.0
309.183136 1280.0
309.275085 68.0
310.188019 688.0
310.231812 56.0
310.421143 52.0
310.515839 192.0
311.196808 152.0
311.916809 48.0
312.17215 268.0
312.278992 116.0
313.179047 156.0
315.187408 424.0
315.427734 112.0
315.668152 40.0
316.193298 144.0
316.287323 92.0
316.829132 84.0
317.196747 168.0
317.250854 52.0
318.20163 136.0
320.51004 128.0
321.073273 196.0
321.854797 40.0
324.21936 136.0
325.209259 156.0
325.571869 116.0
327.192413 1500.0
327.686981 80.0
327.937042 92.0
328.199951 288.0
328.252869 172.0
330.231964 120.0
330.405609 88.0
331.274445 76.0
345.2052 600.0
345.638367 92.0
346.20813 188.0
347.094116 112.0
352.472961 36.0
352.936493 108.0
354.074097 76.0
354.400024 96.0
356.584076 68.0
356.975067 100.0
358.989746 64.0
359.246246 156.0
360.208862 104.0
362.929993 88.0
363.215179 884.0
363.988678 56.0
364.226868 128.0
365.220032 160.0
367.505798 60.0
372.428986 88.0
378.503204 148.0
379.374939 96.0
390.122528 96.0
398.23111 88.0
402.308685 40.0
407.290253 112.0
407.414764 68.0
413.596741 76.0
416.374084 84.0
418.464233 120.0
427.304932 52.0
427.695862 32.0
428.593658 100.0
432.51709 144.0
433.967072 92.0
437.261261 108.0
438.606598 124.0
441.115356 32.0
449.886932 108.0
453.728333 44.0
455.701874 44.0
456.768951 88.0
466.179504 76.0
467.254486 100.0
472.457489 76.0
475.785858 64.0
476.076782 96.0
481.95755 36.0
497.34549 108.0
502.008148 56.0
509.914429 72.0
518.362732 80.0
525.761719 32.0
540.730957 100.0
541.833008 68.0
548.669556 68.0
563.174744 64.0
566.348572 88.0
587.637207 84.0
595.309387 68.0
600.707153 132.0
610.149109 40.0
610.557251 96.0
617.961487 72.0
622.000488 60.0
625.325806 64.0
653.02002 48.0
679.056274 140.0
679.554321 84.0
685.330933 200.0
691.990417 148.0
711.928284 120.0
716.865051 160.0
735.001038 88.0
759.28064 44.0
781.265442 120.0
786.213379 92.0
794.769653 132.0
800.002136 136.0
806.297058 128.0
810.042786 104.0
820.989868 136.0
841.134888 116.0
843.855896 176.0
848.690613 80.0
849.792664 184.0
863.365295 172.0
901.157837 244.0
904.578735 204.0
906.38147 176.0
910.682922 180.0
913.303589 136.0
916.199097 200.0
918.900085 196.0
919.871704 192.0
925.669922 192.0
931.000427 112.0
932.136414 44.0
940.18103 168.0
947.880188 176.0
948.24176 148.0
949.76239 124.0
952.149963 136.0
957.359009 80.0
960.243286 144.0
963.193665 148.0
963.675537 240.0
970.192627 152.0
970.403442 164.0
976.370972 136.0
979.881775 124.0
980.155884 140.0
982.943237 208.0
983.810791 196.0
984.772461 100.0
987.541321 244.0
993.561218 144.0
994.125977 172.0
994.57782 156.0
1000.947083 224.0
1004.154297 204.0
1007.259766 184.0
1013.662537 176.0
1014.619629 140.0
1019.564392 144.0
1022.502625 156.0
1025.94873 152.0
1031.841431 168.0
1033.696411 88.0
1033.95874 136.0
1037.013794 156.0
1040.66394 80.0
1040.946533 236.0
1041.929199 164.0
1045.813354 204.0
1047.397339 228.0
1047.629272 80.0
1051.250366 196.0
1056.421875 84.0
1057.146484 112.0
1062.641357 164.0
1066.979858 132.0
1067.415527 148.0
1078.243774 244.0
1080.44751 196.0
1080.807373 172.0
1082.456909 156.0
1082.8302 176.0
1083.675171 180.0
1085.877808 188.0
1088.292725 208.0
1090.822144 152.0
1092.531982 168.0
1092.834595 128.0
1093.361084 108.0
1095.099243 252.0
1097.227661 144.0
1101.028442 220.0
1102.131714 152.0
1102.369507 184.0
1102.785889 92.0
1106.06665 156.0
1111.202637 200.0
1114.130493 196.0
1114.655396 84.0
1115.133911 88.0
1115.572632 204.0
1119.69812 140.0
1121.683716 188.0
1122.34375 156.0
1122.617065 168.0
1124.671997 164.0
1127.096313 244.0
1128.560181 184.0
1128.613647 140.0
1129.549927 144.0
1130.392944 124.0
1130.70752 196.0
1132.62915 140.0
1134.002686 160.0
1135.578369 152.0
1135.992798 96.0
1136.255859 216.0
1136.497437 44.0
1137.765869 196.0
1138.350098 124.0
1139.45166 180.0
1140.271484 148.0
1141.562256 44.0
1142.06665 144.0
1145.149414 208.0
1145.304321 144.0
1148.762329 68.0
1149.092896 64.0
1149.153687 140.0
1150.125488 176.0
1151.577148 148.0
1152.590454 188.0
1153.99646 204.0
1154.043701 192.0
1154.253418 48.0
1155.301758 124.0
1159.005249 204.0
1159.77478 160.0
1163.77356 88.0
1164.276123 136.0
1166.470703 136.0
1167.327393 184.0
1169.790405 144.0
1171.738159 136.0
1172.97168 192.0
1173.387451 216.0
1173.84436 48.0
1175.037964 100.0
1175.6521 156.0
1175.79541 196.0
1176.396118 40.0
1177.645752 212.0
1178.27417 164.0
1179.682007 108.0
1180.844482 132.0
1183.848877 132.0
1184.780396 172.0
1185.328613 76.0
1186.33606 140.0
1186.50061 184.0
1186.610352 136.0
1186.905151 196.0
1189.120972 200.0
1192.362793 176.0
1193.380127 232.0
1193.662109 220.0
1196.703491 48.0
1196.799805 112.0
1197.447144 168.0
1197.936157 144.0
1198.370239 176.0
1203.17749 136.0
1207.43396 160.0
1210.430542 168.0
1213.111816 40.0
1213.659546 108.0
1215.317383 164.0
1216.01123 172.0
1217.46228 64.0
1217.726196 168.0
1218.013916 160.0
1219.401855 92.0
1219.998413 176.0
1220.464233 104.0
1222.704224 152.0
1230.511597 88.0
1233.948975 188.0
1235.207764 212.0
1236.796265 168.0
1239.541626 140.0
1240.449097 216.0
1240.922485 232.0
1240.999634 232.0
1241.125854 104.0
1241.280029 28.0
1248.049194 140.0
1248.365601 104.0
1249.864014 200.0
1250.21582 200.0
1252.278687 140.0
1254.794434 80.0
1254.893066 68.0
1255.0271 112.0
1255.154053 208.0
1255.584229 156.0
1256.995117 144.0
1261.536621 192.0
1261.62146 112.0
1263.575195 176.0
1263.665405 124.0
1264.447876 236.0
1266.057983 96.0
1267.411011 176.0
1267.708618 264.0
1269.800049 164.0
1269.913452 180.0
1269.963135 64.0
1270.651245 60.0
1271.38916 184.0
1273.362915 184.0
1273.980835 140.0
1275.238647 132.0
1275.466064 184.0
1277.499878 192.0
1278.78064 144.0
1278.830444 80.0
1279.321655 168.0
1279.558228 180.0
1280.517944 248.0
1282.512939 184.0
1283.133179 132.0
1283.596558 172.0
1284.13147 72.0
1284.538086 96.0
1284.830566 184.0
1285.486938 168.0
1287.328735 180.0
1288.050171 80.0
1289.064697 160.0
1289.819214 188.0
1291.302368 164.0
1291.53125 136.0
1291.989014 180.0
1292.96228 212.0
1293.398804 160.0
1296.693604 192.0
1298.47168 32.0
1299.267944 40.0
1300.365845 184.0
1302.383423 164.0
1302.627686 164.0
1305.056763 108.0
1306.761475 252.0
1309.194458 104.0
1309.785034 72.0
1310.534302 224.0
1310.642456 164.0
1312.624756 208.0
1315.756104 116.0
1315.821167 228.0
1315.893311 144.0
1316.384399 244.0
1317.511108 168.0
1318.36377 196.0
1319.332275 60.0
1322.486206 164.0
1324.209473 164.0
1325.354126 132.0
1326.820801 120.0
1327.812012 212.0
1328.740112 144.0
1331.629272 140.0
1332.842407 200.0
1333.176758 192.0
1334.543335 172.0
1335.219604 164.0
1335.481445 216.0
1338.39978 136.0
1342.44397 228.0
1343.472412 120.0
1343.888306 104.0
1345.129028 128.0
1346.377563 160.0
1347.787476 124.0
1349.19812 116.0
1349.804932 220.0
1350.009644 236.0
1350.660645 200.0
1352.555786 156.0
1352.753418 208.0
1352.87793 128.0
1353.28064 148.0
1354.052979 152.0
1354.489014 164.0
1354.657471 168.0
1355.316895 200.0
1355.881104 196.0
1356.225586 36.0
1357.515991 164.0
1357.574585 180.0
1360.465576 36.0
1360.722534 144.0
1361.331909 100.0
1361.581665 120.0
1361.809326 156.0
1362.867188 216.0
1363.366943 192.0
1363.638794 164.0
1365.315063 176.0
1365.616699 156.0
1365.903564 160.0
1366.617188 160.0
1366.977661 148.0
1367.367798 160.0
1367.853516 208.0
1370.497559 208.0
1373.188232 128.0
1375.084473 180.0
1377.240356 168.0
1380.174438 224.0
1380.240967 180.0
1380.588501 356.0
1380.906494 76.0
1381.017456 192.0
1381.209717 44.0
1381.87561 184.0
1382.54895 196.0
1383.200317 200.0
1383.629639 60.0
1383.940674 180.0
1384.355347 208.0
1385.399658 140.0
1386.236938 140.0
1388.824463 68.0
1389.262085 160.0
1389.692383 176.0
1389.744263 144.0
1390.115356 140.0
1391.340088 168.0
1391.577637 48.0
1392.646973 152.0
1393.731689 172.0
1394.103149 144.0
1394.222046 148.0
1395.374268 180.0
1396.80957 120.0
1397.412231 72.0
1397.873535 140.0
1398.647583 196.0
1399.570679 180.0
1401.753296 140.0
1401.894775 100.0
1403.057617 56.0
1403.333496 76.0
1403.406982 112.0
1403.751099 176.0
1405.384644 196.0
1406.608643 152.0
1408.161743 180.0
1408.430542 184.0
1409.102905 164.0
1409.401855 104.0
1411.494751 188.0
1412.167847 200.0
1412.601685 132.0
1414.098267 184.0
1415.550659 124.0
1415.632935 116.0
1417.198608 124.0
1417.633179 200.0
1418.217773 136.0
1419.702271 180.0
1420.339722 120.0
1421.990479 164.0
1422.418335 236.0
1423.499512 40.0
1423.912598 100.0
1424.626099 176.0
1425.572876 172.0
1426.670288 144.0
1427.286743 48.0
1427.971069 140.0
1428.03125 188.0
1428.136597 136.0
1428.753418 172.0
1429.75415 136.0
1429.867065 176.0
1430.416504 148.0
1431.011353 164.0
1431.9375 240.0
1432.691772 152.0
1434.295898 152.0
1435.155396 152.0
1435.20813 156.0
1435.607788 164.0
1436.445068 124.0
1439.554688 164.0
1440.302368 220.0
1441.088013 200.0
1442.168701 168.0
1442.433228 152.0
1444.14209 224.0
1445.624878 176.0
1446.260742 136.0
1447.676514 132.0
1449.38855 204.0
1449.71875 176.0
1450.252441 176.0
1450.381348 164.0
1450.495117 168.0
1450.616333 48.0
1451.215332 200.0
1451.389648 240.0
1452.428711 248.0
1453.035522 164.0
1454.560913 84.0
1455.866943 200.0
1456.497314 184.0
1457.013794 196.0
1458.060913 136.0
1458.951782 168.0
1459.818604 236.0
1462.382446 160.0
1463.897583 124.0
1465.344849 92.0
1465.443848 216.0
1467.799194 144.0
1468.905029 156.0
1470.16394 164.0
1470.797485 208.0
1471.026489 60.0
1471.515015 140.0
1471.606689 140.0
1472.492554 120.0
1473.332764 168.0
1473.500854 156.0
1473.638428 168.0
1473.814087 128.0
1474.265015 176.0
1475.212769 20.0
1476.130249 96.0
1478.195679 156.0
1478.379272 48.0
1479.30542 164.0
1480.584106 212.0
1481.143311 196.0
1482.46106 192.0
1483.074219 172.0
1483.189209 112.0
1483.932861 204.0
1484.645996 184.0
1484.960449 188.0
1485.627808 76.0
1486.295288 32.0
1486.418091 140.0
1486.770996 44.0
1487.101074 180.0
1487.860962 88.0
1488.252563 144.0
1488.691162 144.0
1488.920654 176.0
1488.974487 220.0
1489.535156 164.0
1489.857056 196.0
1490.795166 244.0
1491.010376 180.0
1491.248657 180.0
1491.356201 160.0
1491.433105 184.0
1491.925049 152.0
1492.171143 104.0
1492.463257 136.0
1492.686279 192.0
1493.932251 144.0
1494.324707 244.0
1497.5271 164.0
1500.709839 180.0
1503.008423 268.0
1503.486816 176.0
1503.571655 164.0
1503.69519 188.0
1504.243286 224.0
1504.718384 144.0
