>compound MLS001076107-01!
>formula C18H28N2O4
>ionization [M+H]+
>parentmass 337.212799
#inchi InChI=1S/C18H28N2O4/c1-5-6-18(23)20-14-7-8-17(16(9-14)13(4)21)24-11-15(22)10-19-12(2)3/h7-9,12,15,19,22H,5-6,10-11H2,1-4H3,(H,20,23)
#inchikey GOEMGAFJFRBGGG
#origInchi InChI=1S/C18H28N2O4.ClH/c1-5-6-18(23)20-14-7-8-17(16(9-14)13(4)21)24-11-15(22)10-19-12(2)3;/h7-9,12,15,19,22H,5-6,10-11H2,1-4H3,(H,20,23);1H
#Ion_Source LC-ESI
#Instrument qTof
#Compound_Source NIH Pharmacologically Active Library
#PI Dorrestein
#Data_Collector VP/LMS
#Scan -1
#Precursor_MZ 337.221
#ExactMass 336.205
#Charge 1
#CAS_Number N/A
#Pubmed_ID N/A
#Smiles CCCC(=O)Nc1ccc(OCC(O)CNC(C)C)c(c1)C(=O)C.Cl
#INCHI_AUX N/A
#Library_Class 1
#SpectrumID CCMSLIB00000085517
#IonMode Positive
#UpdateWorkflowName UPDATE-SINGLE-ANNOTATED-GOLD
#LibraryQualityString Gold
#TaskID d252d724072548979f1f6f1ced849daf
##Scan# 1320
#SpectrumFile p4-C02_GC2_01_18350.mzXML
#LibraryName Pharm_Active_Library.mgf
#MQScore -1
#Organism Pharm_Active_Library
#TIC_Query 0
#RT_Query -1
#MZErrorPPM -1
#SharedPeaks 0
#MassDiff 0
#LibMZ -1
#SpecMZ 337.221
#SpecCharge 0
#internalFilename spec-00000.mgf

>collision 10
44.897003 140.0
44.971714 72.0
45.065193 212.0
45.415928 136.0
45.89492 200.0
46.048515 140.0
46.085129 156.0
46.102554 184.0
46.168797 184.0
46.20126 56.0
46.316021 180.0
46.327156 188.0
46.363739 188.0
46.876179 180.0
47.154995 152.0
47.826519 144.0
48.027687 40.0
48.111862 44.0
48.308094 212.0
48.37175 112.0
48.402206 144.0
48.414669 100.0
48.510273 164.0
48.653156 96.0
48.736488 188.0
48.797642 200.0
48.826843 248.0
48.967407 252.0
48.985516 204.0
49.193291 132.0
49.468678 244.0
49.563911 208.0
49.575123 108.0
49.603153 188.0
49.706936 104.0
49.930298 164.0
50.093567 168.0
50.135838 128.0
50.169662 140.0
50.528374 232.0
50.559502 224.0
50.730885 120.0
50.990635 164.0
51.456432 160.0
51.613598 168.0
51.623608 128.0
51.871296 180.0
51.941559 188.0
52.044888 100.0
52.182816 64.0
52.48806 216.0
52.508251 112.0
52.641018 112.0
52.671345 128.0
52.720467 224.0
52.828907 164.0
52.852859 140.0
52.863632 224.0
52.876656 248.0
52.944698 252.0
53.46151 128.0
53.476063 148.0
53.543034 88.0
53.662521 144.0
53.700436 136.0
53.996918 156.0
54.108124 152.0
54.133015 128.0
54.182816 176.0
54.571743 224.0
54.61586 120.0
54.659996 40.0
54.795452 188.0
54.811661 204.0
55.089027 216.0
55.158478 200.0
55.294552 164.0
55.336002 60.0
55.418941 196.0
55.57127 184.0
55.760242 132.0
56.056389 180.0
56.266693 128.0
56.383202 136.0
56.850269 172.0
57.167522 80.0
57.200634 136.0
57.254837 212.0
57.275921 144.0
57.297012 288.0
57.360302 180.0
57.778603 124.0
57.845188 236.0
58.064888 164.0
58.137707 148.0
58.180206 136.0
58.499443 144.0
58.542076 60.0
58.717182 164.0
58.753937 32.0
58.830242 164.0
59.500774 208.0
59.755898 184.0
59.823612 40.0
59.914471 136.0
59.97765 252.0
60.247692 180.0
60.272415 204.0
60.338875 104.0
60.471905 176.0
60.746159 124.0
60.783394 180.0
61.120579 144.0
61.333935 176.0
61.578896 76.0
61.692959 180.0
61.768021 200.0
61.786793 144.0
61.998173 80.0
62.060875 136.0
62.081257 156.0
62.222473 156.0
62.440887 240.0
62.494373 124.0
62.51955 140.0
62.584087 192.0
62.730602 184.0
63.198071 176.0
63.224972 172.0
63.267708 76.0
63.487946 76.0
63.84367 148.0
63.939125 216.0
64.404678 72.0
64.514931 236.0
64.692497 160.0
64.862297 128.0
65.06282 160.0
65.122231 164.0
65.191315 184.0
65.392334 140.0
65.478806 68.0
65.608185 164.0
65.619469 224.0
65.656555 216.0
65.798271 164.0
65.990807 128.0
66.055496 156.0
66.30484 184.0
66.389137 168.0
66.436172 148.0
66.511642 148.0
66.59362 84.0
66.645607 52.0
66.788666 160.0
66.900948 196.0
67.417984 144.0
67.468651 148.0
67.488274 68.0
67.755051 124.0
67.876335 120.0
67.974037 128.0
68.012497 100.0
68.270439 216.0
68.380661 48.0
68.393829 136.0
68.946342 144.0
69.283882 220.0
69.323654 148.0
69.341881 140.0
69.384979 148.0
69.424774 124.0
69.462921 132.0
69.658791 224.0
69.72525 132.0
69.813362 160.0
69.963112 268.0
69.974762 148.0
70.003067 32.0
70.021385 128.0
70.078026 160.0
70.535881 216.0
71.136642 88.0
71.235718 196.0
71.703468 172.0
71.799568 184.0
71.968925 220.0
72.19812 132.0
72.567253 76.0
72.60965 48.0
72.684288 264.0
72.798019 192.0
73.042755 184.0
73.054665 56.0
73.090393 116.0
73.511276 112.0
73.743538 260.0
73.882042 168.0
73.976158 208.0
74.030945 76.0
74.22287 260.0
74.454529 160.0
74.850044 228.0
74.862099 140.0
75.011993 212.0
75.186188 136.0
75.25869 44.0
75.322586 248.0
75.396881 140.0
75.516174 144.0
75.545578 212.0
75.673645 212.0
76.162674 120.0
76.178307 160.0
76.322556 188.0
76.353859 44.0
76.372986 236.0
76.635857 172.0
76.850311 152.0
76.951538 100.0
77.061569 172.0
77.229507 176.0
77.681305 188.0
77.753242 52.0
78.243652 144.0
78.289429 68.0
78.656151 124.0
79.07328 116.0
79.144089 168.0
79.156479 224.0
79.172417 192.0
79.253899 172.0
79.42054 48.0
80.0746 140.0
80.156548 236.0
80.40799 236.0
80.579414 136.0
80.849411 116.0
81.044594 172.0
81.353065 96.0
81.39975 160.0
81.67112 280.0
81.744881 196.0
81.941139 228.0
82.060089 144.0
82.285614 216.0
82.31089 160.0
82.325333 80.0
82.352425 248.0
82.464439 192.0
82.496979 168.0
82.665184 216.0
82.790092 156.0
82.900597 188.0
83.098236 148.0
83.316093 96.0
83.39241 180.0
83.459671 180.0
83.483307 144.0
83.557686 184.0
84.23056 136.0
84.57431 196.0
84.6567 184.0
84.684166 172.0
84.940773 64.0
85.589516 176.0
85.68898 192.0
86.020927 104.0
86.222244 136.0
86.248123 148.0
86.488579 100.0
86.920387 152.0
87.018753 144.0
87.089317 76.0
87.388611 96.0
87.440712 176.0
87.762985 144.0
87.804008 128.0
87.826385 160.0
87.873024 104.0
88.325104 220.0
88.467316 156.0
88.617134 200.0
88.688347 160.0
88.818726 248.0
88.922791 176.0
89.428368 104.0
89.467903 224.0
89.616684 124.0
89.646828 172.0
89.703377 152.0
89.839149 132.0
90.050552 188.0
90.09211 136.0
90.377586 108.0
90.415436 156.0
90.472221 160.0
90.635094 260.0
90.665413 32.0
90.847435 116.0
90.932823 136.0
91.041039 144.0
91.088516 84.0
91.229134 172.0
91.735497 156.0
91.771721 228.0
92.050301 136.0
92.077034 140.0
92.442169 188.0
92.602982 220.0
93.063721 136.0
93.107376 160.0
93.124657 224.0
93.141945 60.0
93.15731 100.0
93.193817 48.0
93.223175 228.0
93.397591 176.0
93.447609 180.0
93.484169 88.0
93.578484 164.0
93.747986 112.0
93.771111 184.0
93.823158 144.0
93.8675 144.0
94.066261 184.0
94.282539 52.0
94.330856 208.0
94.452682 116.0
94.576515 148.0
94.611359 104.0
94.706238 184.0
94.835243 204.0
95.055199 32.0
95.097893 244.0
95.127007 208.0
95.453407 184.0
95.48452 116.0
95.716095 36.0
95.799843 140.0
95.860237 160.0
95.924553 168.0
96.070808 160.0
96.24646 252.0
96.271843 180.0
96.289421 204.0
96.303093 204.0
96.455498 148.0
96.780243 48.0
97.027107 116.0
97.044746 116.0
97.254654 108.0
97.337105 164.0
97.423523 100.0
97.568947 156.0
97.893593 52.0
98.019669 136.0
98.09687 3424.0
98.121986 184.0
98.175392 52.0
98.362823 116.0
98.404282 32.0
98.522781 160.0
98.694725 64.0
98.791634 64.0
99.011337 144.0
99.103218 372.0
99.169456 192.0
99.205513 136.0
99.270935 140.0
99.564636 156.0
99.644089 220.0
99.82795 184.0
100.047806 160.0
100.075058 336.0
100.113228 716.0
100.137505 156.0
100.211113 164.0
100.266907 88.0
100.322716 240.0
100.338669 168.0
100.582039 216.0
100.622154 168.0
100.795731 172.0
100.865677 96.0
101.109688 116.0
101.169731 96.0
101.223793 244.0
101.237808 172.0
101.313919 128.0
101.436157 132.0
101.480263 116.0
101.578529 132.0
101.813354 168.0
101.901741 52.0
102.17717 176.0
102.428802 236.0
102.630333 164.0
102.828026 204.0
103.029945 196.0
103.055862 456.0
103.286667 204.0
103.521439 204.0
103.882202 236.0
104.048401 156.0
104.066879 228.0
104.150139 64.0
104.805199 196.0
105.059723 204.0
105.073532 156.0
105.147781 164.0
105.374443 92.0
105.539993 140.0
105.564529 200.0
105.705673 220.0
105.867393 140.0
105.916542 180.0
106.039482 76.0
106.064751 952.0
106.185043 100.0
106.304031 80.0
106.351227 164.0
106.815277 128.0
106.864975 96.0
106.895836 140.0
107.0214 208.0
107.073631 412.0
107.227051 120.0
107.32428 100.0
107.412956 140.0
107.429459 68.0
107.582169 136.0
107.728783 160.0
107.784569 180.0
107.922592 196.0
108.050652 184.0
108.079414 328.0
108.125778 216.0
108.241699 228.0
108.351471 164.0
108.494469 180.0
108.803581 184.0
109.007126 28.0
109.054352 416.0
109.206703 120.0
109.2379 148.0
109.423119 112.0
109.589729 140.0
109.654335 176.0
109.681427 176.0
109.750221 88.0
109.885796 116.0
110.02562 188.0
110.060844 5976.0
110.11541 104.0
110.186432 96.0
110.215683 112.0
110.541878 52.0
110.579544 204.0
110.623497 76.0
110.673744 164.0
110.700966 48.0
110.818268 200.0
110.918854 232.0
110.941917 116.0
111.061806 676.0
111.088707 156.0
111.132759 56.0
111.199913 108.0
111.763092 112.0
111.893585 60.0
111.908325 208.0
111.944115 272.0
112.00309 180.0
112.095787 168.0
112.118965 240.0
112.589417 152.0
112.70137 112.0
112.727234 200.0
112.749969 240.0
112.940254 140.0
113.031219 356.0
113.268333 168.0
113.285278 172.0
113.433617 176.0
113.535385 192.0
113.582047 68.0
114.093437 308.0
114.115074 108.0
114.176735 96.0
114.268204 116.0
114.325653 56.0
114.398018 32.0
114.43634 208.0
114.674919 200.0
114.801163 204.0
114.824158 136.0
115.054337 532.0
115.103592 72.0
115.563255 176.0
115.704514 208.0
115.74305 188.0
115.849106 168.0
115.890839 164.0
115.908775 184.0
115.99585 188.0
116.038727 152.0
116.065361 180.0
116.085472 268.0
116.108231 31724.0
116.147125 160.0
116.18885 68.0
116.238197 68.0
116.462387 112.0
116.532356 184.0
116.561035 128.0
116.593208 136.0
116.624763 56.0
116.652702 64.0
116.67205 32.0
116.729431 128.0
116.823875 120.0
116.856468 64.0
117.056007 148.0
117.070099 412.0
117.111603 1020.0
117.151947 212.0
117.217445 120.0
117.233818 48.0
117.31572 60.0
117.335121 84.0
117.35022 88.0
117.550812 104.0
117.568077 36.0
117.734306 76.0
117.796936 72.0
117.859032 108.0
117.915771 128.0
117.96981 120.0
118.019539 60.0
118.066391 476.0
118.113068 84.0
118.117798 92.0
118.124237 68.0
118.33326 100.0
118.513023 188.0
118.643059 76.0
118.669075 208.0
118.835266 128.0
118.974976 64.0
119.047066 180.0
119.070656 316.0
119.172615 228.0
119.396507 176.0
119.429131 88.0
119.74472 148.0
119.866714 136.0
119.890678 100.0
119.938629 184.0
119.99749 224.0
120.049652 156.0
120.081207 5316.0
120.171967 36.0
120.305092 108.0
120.350945 108.0
120.713661 80.0
121.017807 108.0
121.065483 176.0
121.084518 640.0
121.302605 152.0
121.326714 52.0
121.557014 96.0
121.752388 124.0
121.862213 72.0
122.0606 1112.0
122.097374 856.0
122.368065 172.0
122.822029 32.0
122.848495 132.0
122.903648 144.0
123.062469 180.0
123.093475 144.0
123.195076 88.0
123.276825 112.0
123.495689 136.0
123.6063 120.0
123.697044 164.0
123.785599 192.0
123.825462 96.0
123.993835 112.0
124.076195 208.0
124.188942 220.0
124.350906 40.0
124.993141 160.0
125.180122 128.0
125.425827 196.0
125.454163 212.0
125.661568 104.0
126.07019 84.0
126.157356 108.0
126.28257 96.0
126.940979 160.0
127.035179 168.0
127.241638 88.0
127.481979 180.0
127.756279 104.0
127.990341 260.0
128.443329 156.0
129.068893 372.0
129.17067 180.0
129.249847 120.0
129.711853 96.0
129.743591 220.0
130.024841 168.0
130.063843 1052.0
130.683823 116.0
131.050995 300.0
131.067307 512.0
131.88562 232.0
131.935913 108.0
132.027359 96.0
132.05574 176.0
132.081436 780.0
132.098923 168.0
132.115814 144.0
132.192078 200.0
133.05098 728.0
133.078247 324.0
133.669479 196.0
133.759613 116.0
133.934601 84.0
134.061005 1348.0
134.097977 1028.0
134.261871 96.0
134.326462 160.0
134.351837 68.0
134.40065 124.0
134.744293 100.0
135.021667 56.0
135.095093 156.0
135.551788 52.0
135.660721 156.0
136.006348 240.0
136.037689 828.0
136.076859 1200.0
136.107666 188.0
136.736145 152.0
136.887466 144.0
137.03653 160.0
137.077728 384.0
138.079956 156.0
138.201599 132.0
138.236694 52.0
138.349045 160.0
138.684006 136.0
138.937256 172.0
139.092133 236.0
139.846634 252.0
140.254105 144.0
140.563049 156.0
140.64093 184.0
141.470612 148.0
142.062653 196.0
142.193542 44.0
142.509369 60.0
143.048004 172.0
143.070175 204.0
143.454178 84.0
143.675949 156.0
143.702194 196.0
143.840607 64.0
144.019684 160.0
144.081146 1308.0
144.344711 152.0
144.464294 160.0
144.61264 240.0
144.94072 172.0
145.049332 176.0
145.08287 260.0
145.113297 148.0
145.324356 168.0
146.061783 816.0
146.09465 388.0
146.172531 136.0
147.043655 172.0
147.069458 172.0
147.49173 104.0
147.646469 124.0
147.936813 112.0
147.977966 140.0
147.999756 168.0
148.02272 168.0
148.040039 120.0
148.076035 11772.0
148.125687 80.0
148.193527 56.0
148.258942 28.0
148.275909 48.0
148.292877 116.0
148.360748 80.0
148.438324 52.0
148.690628 52.0
148.71489 56.0
148.950409 32.0
148.974701 92.0
149.030579 56.0
149.080322 1488.0
149.280945 192.0
149.422012 144.0
149.529083 84.0
149.738464 76.0
150.055862 824.0
150.091217 1688.0
150.212799 128.0
150.256989 204.0
150.306458 160.0
150.343063 144.0
150.807083 48.0
150.851074 56.0
150.90976 92.0
151.063721 516.0
151.096832 660.0
151.154343 116.0
151.240005 176.0
151.573059 120.0
151.68541 176.0
151.935928 140.0
152.071548 1564.0
152.100342 104.0
152.198532 76.0
152.485947 116.0
152.751495 28.0
153.073837 152.0
153.263565 152.0
153.662994 212.0
154.028351 200.0
154.060455 80.0
154.441132 172.0
154.634109 140.0
154.859421 92.0
155.082397 144.0
155.40477 156.0
155.55864 92.0
155.680298 160.0
155.836792 132.0
155.871567 124.0
156.063705 292.0
156.443604 156.0
156.879547 164.0
157.575821 64.0
157.915787 132.0
158.010834 72.0
158.561295 236.0
159.005615 108.0
159.069489 424.0
159.126114 120.0
159.832382 148.0
160.076218 4032.0
160.260422 44.0
160.293167 64.0
160.520035 100.0
160.56543 152.0
160.59317 60.0
160.913651 100.0
161.075134 448.0
161.080856 484.0
161.108109 184.0
161.854202 84.0
162.049225 144.0
162.092041 1152.0
162.178467 56.0
162.519608 100.0
163.062622 156.0
163.09256 344.0
163.188797 96.0
163.412613 56.0
163.763916 128.0
164.07132 1024.0
164.436996 192.0
164.899261 100.0
165.052277 212.0
165.072815 180.0
165.144714 68.0
165.372421 52.0
165.70787 48.0
166.090561 420.0
166.1745 116.0
166.567261 64.0
167.083969 132.0
167.382523 80.0
167.789612 140.0
168.972443 60.0
169.050064 192.0
169.184662 92.0
169.692429 160.0
170.029648 104.0
170.079361 128.0
170.1828 156.0
170.96521 200.0
171.066711 44.0
171.436554 132.0
171.6138 192.0
171.812012 120.0
172.074661 1128.0
172.247955 36.0
172.676605 196.0
173.054291 156.0
173.078476 180.0
173.116272 88.0
173.310104 68.0
173.441132 68.0
173.536438 152.0
174.091873 224.0
175.025269 64.0
175.056213 192.0
175.080154 192.0
175.122711 228.0
175.175385 160.0
175.602386 140.0
176.066879 64.0
177.103638 112.0
177.2202 204.0
177.51442 128.0
177.782333 232.0
178.085983 196.0
178.43309 152.0
179.351486 192.0
179.559052 136.0
179.602112 52.0
179.927673 160.0
180.044113 252.0
180.071106 240.0
180.101974 7192.0
180.232147 72.0
180.30162 44.0
180.341721 44.0
180.401733 88.0
180.424576 56.0
180.467361 72.0
180.576996 64.0
181.104248 704.0
181.294464 92.0
181.350754 80.0
182.108139 360.0
182.413666 92.0
182.553482 116.0
182.585754 44.0
182.609955 144.0
183.102463 160.0
183.525528 88.0
183.630707 208.0
183.757492 132.0
185.634628 196.0
186.093185 172.0
186.42186 104.0
187.080063 276.0
188.069534 164.0
188.098358 136.0
188.109116 112.0
188.117081 192.0
188.897461 188.0
189.101761 300.0
189.718979 64.0
190.085831 2448.0
190.126038 176.0
190.473602 204.0
190.815002 204.0
191.072815 156.0
191.126083 188.0
191.422424 96.0
191.725449 52.0
192.034225 180.0
192.100983 652.0
192.43988 120.0
192.517197 64.0
193.103073 68.0
193.601227 40.0
194.707733 104.0
195.664261 160.0
196.36087 276.0
196.991684 224.0
198.30957 100.0
198.511429 36.0
198.716187 112.0
200.110413 160.0
200.653961 212.0
201.109497 140.0
201.127869 236.0
201.469543 148.0
202.128128 188.0
203.951828 156.0
204.100266 308.0
204.170761 72.0
204.634567 96.0
204.999161 196.0
205.110992 132.0
205.307037 152.0
206.07782 140.0
206.117737 1196.0
206.703918 116.0
206.841278 188.0
207.121277 252.0
207.982086 80.0
208.102661 152.0
208.17157 128.0
208.838318 88.0
209.517639 224.0
210.668686 200.0
210.911407 140.0
212.295288 84.0
213.17778 176.0
213.674973 40.0
214.117416 168.0
214.289276 164.0
214.93364 200.0
216.098938 420.0
216.793396 148.0
216.951675 100.0
217.033768 200.0
217.112854 232.0
217.17746 80.0
217.197998 136.0
217.374023 156.0
217.47673 168.0
217.550598 184.0
217.620575 100.0
217.644073 112.0
217.729218 120.0
218.014191 108.0
218.058273 160.0
218.117676 12128.0
218.196426 76.0
218.237579 40.0
218.278748 80.0
218.384171 52.0
218.403412 72.0
218.428741 148.0
218.46698 104.0
218.541336 44.0
218.61998 36.0
218.790695 72.0
218.867233 60.0
219.120895 1592.0
219.335648 68.0
219.486008 112.0
219.509598 32.0
219.660004 160.0
219.919662 72.0
219.996414 80.0
220.131332 1288.0
220.265121 72.0
220.519226 220.0
220.661118 96.0
220.797134 132.0
220.915451 36.0
221.121735 172.0
221.128876 124.0
221.138367 188.0
221.42572 152.0
221.6082 80.0
221.74646 128.0
221.857147 204.0
221.922379 232.0
222.112305 4472.0
222.192261 40.0
222.275345 48.0
222.385818 52.0
222.524658 60.0
222.765213 112.0
222.861176 92.0
222.946442 164.0
222.996964 120.0
223.113495 268.0
223.193176 124.0
223.237778 68.0
223.341858 40.0
223.548935 60.0
224.105667 216.0
224.288712 92.0
224.512329 140.0
225.342133 200.0
225.694809 104.0
227.063324 160.0
228.631531 60.0
229.631744 84.0
229.740326 108.0
230.030014 132.0
230.116226 1856.0
230.510223 52.0
230.540436 116.0
231.124496 320.0
231.402496 48.0
232.131393 160.0
232.606003 80.0
233.130295 276.0
233.845825 184.0
234.113037 1516.0
234.26326 44.0
234.446075 72.0
234.491791 40.0
235.111206 116.0
235.145676 340.0
236.060928 72.0
236.130341 348.0
236.155746 92.0
237.129349 148.0
237.923798 112.0
238.562775 80.0
241.13652 180.0
242.1129 500.0
242.324783 36.0
242.448715 48.0
242.944809 96.0
243.122635 168.0
243.392517 192.0
243.720978 136.0
243.786224 40.0
244.103302 212.0
244.134766 324.0
244.266205 84.0
244.448593 76.0
244.91246 216.0
245.139877 128.0
246.431671 92.0
247.197723 144.0
248.127625 1816.0
248.31926 36.0
249.132431 212.0
249.364731 124.0
249.836395 80.0
249.908752 44.0
250.856689 68.0
251.039551 116.0
251.556992 136.0
252.85289 60.0
253.156845 300.0
255.165283 192.0
255.73468 60.0
257.116821 144.0
257.197662 92.0
258.124146 256.0
258.4216 124.0
259.151581 176.0
259.953217 172.0
260.004547 128.0
260.04306 172.0
260.128601 4900.0
260.450836 88.0
260.492584 100.0
260.543976 64.0
260.579315 100.0
260.650024 204.0
261.130981 908.0
261.479034 60.0
261.659943 52.0
262.131317 124.0
262.151672 184.0
262.49765 100.0
262.858948 124.0
263.120361 88.0
263.14621 116.0
263.178497 64.0
263.685638 80.0
267.688873 52.0
272.786255 176.0
272.907898 168.0
273.17099 164.0
274.643372 136.0
275.167511 176.0
277.153839 740.0
277.185242 396.0
277.799011 48.0
278.14389 468.0
278.196838 184.0
279.140778 140.0
279.959381 68.0
281.763885 52.0
281.874146 96.0
291.158478 108.0
293.356476 68.0
294.629364 28.0
295.164917 300.0
295.17337 188.0
295.203705 284.0
296.161835 104.0
296.197479 176.0
297.701691 48.0
298.234222 124.0
299.755341 76.0
299.910431 100.0
301.204346 136.0
302.196503 172.0
304.68576 68.0
306.425293 152.0
307.527191 156.0
311.61377 68.0
315.745026 100.0
316.668732 152.0
318.101196 88.0
318.651642 72.0
319.151062 156.0
319.201538 1524.0
319.814484 124.0
319.867859 148.0
320.198334 508.0
320.690643 156.0
321.204803 152.0
321.703674 104.0
321.889313 80.0
322.160767 124.0
322.4216 76.0
324.734344 72.0
333.206512 56.0
333.933533 80.0
334.413788 160.0
334.632202 140.0
334.985443 40.0
335.189453 120.0
336.45871 108.0
336.754486 104.0
336.845795 36.0
336.980957 168.0
337.054047 184.0
337.15271 68.0
337.212799 7400.0
337.26889 132.0
337.298889 132.0
337.350067 352.0
337.379333 60.0
337.492645 52.0
337.540192 60.0
337.568237 108.0
337.62796 100.0
337.935028 80.0
338.139282 68.0
338.2146 1224.0
338.484253 92.0
338.58313 60.0
338.916473 64.0
338.942108 112.0
339.211182 364.0
339.594635 140.0
340.093628 56.0
340.212524 192.0
340.257812 88.0
340.574615 72.0
345.399506 48.0
355.391205 48.0
357.021423 96.0
358.855194 68.0
389.167999 96.0
389.847534 64.0
427.904602 32.0
436.523376 64.0
445.013916 40.0
502.347534 92.0
524.219971 116.0
539.213013 88.0
540.128479 96.0
546.423584 84.0
557.966003 60.0
585.017639 48.0
592.779175 72.0
594.228882 80.0
598.564453 64.0
602.182922 84.0
621.063721 100.0
621.177795 64.0
623.416992 72.0
632.148682 68.0
643.089478 112.0
650.789124 120.0
678.401978 220.0
683.902832 92.0
715.983704 96.0
725.15686 80.0
730.429504 52.0
741.671509 120.0
760.675842 72.0
789.045898 164.0
808.559143 84.0
826.667542 112.0
834.847778 64.0
863.854431 192.0
891.970886 184.0
892.440552 68.0
909.064087 192.0
916.291382 232.0
918.009216 220.0
944.061279 132.0
947.78302 156.0
959.707214 188.0
962.780151 204.0
966.897522 176.0
970.899536 204.0
976.128296 172.0
984.141296 120.0
985.821594 164.0
1006.298645 56.0
1009.483215 200.0
1023.856873 160.0
1024.340942 208.0
1042.312256 180.0
1051.656616 192.0
1052.276245 228.0
1053.748779 88.0
1057.557617 212.0
1058.768311 128.0
1062.501831 128.0
1064.195801 88.0
1066.203003 196.0
1071.818726 236.0
1074.374512 212.0
1076.659058 204.0
1080.509033 200.0
1081.857056 120.0
1088.229492 204.0
1092.626343 156.0
1096.28064 176.0
1097.71106 108.0
1098.245239 212.0
1099.551636 172.0
1100.000366 144.0
1104.23291 76.0
1114.470825 176.0
1114.53064 192.0
1117.868652 208.0
1121.105103 264.0
1121.418335 188.0
1123.005127 96.0
1125.788086 120.0
1128.755005 176.0
1133.380249 124.0
1135.237061 136.0
1135.545532 224.0
1140.950928 116.0
1142.248779 136.0
1146.234375 164.0
1146.921753 52.0
1147.494751 192.0
1150.631958 140.0
1154.1521 188.0
1156.167847 148.0
1160.245483 124.0
1160.977661 220.0
1165.872314 136.0
1171.056396 204.0
1171.655884 124.0
1172.078247 156.0
1172.868896 176.0
1173.461914 64.0
1174.293823 112.0
1180.426392 148.0
1180.891479 200.0
1181.76709 184.0
1186.526978 228.0
1187.075562 172.0
1190.932495 196.0
1191.481934 168.0
1191.722412 208.0
1194.369141 152.0
1198.541016 172.0
1200.057373 172.0
1211.031128 116.0
1212.818726 184.0
1213.955688 152.0
1217.800415 236.0
1218.693359 136.0
1220.135254 188.0
1223.314453 88.0
1226.818359 232.0
1226.909058 148.0
1227.836426 160.0
1229.873657 88.0
1230.627563 164.0
1233.666626 144.0
1234.288818 140.0
1235.233032 152.0
1236.002563 196.0
1236.548462 156.0
1237.402466 32.0
1238.802979 160.0
1239.601807 160.0
1241.445312 200.0
1242.181763 104.0
1242.700928 200.0
1247.483521 212.0
1255.53833 152.0
1264.35498 144.0
1269.065552 76.0
1269.781738 204.0
1271.328369 224.0
1271.839355 92.0
1271.995483 144.0
1272.677002 152.0
1278.370605 176.0
1279.794312 132.0
1280.79126 36.0
1281.596313 168.0
1282.800659 88.0
1283.577759 176.0
1284.084106 236.0
1284.940063 208.0
1289.38147 168.0
1289.903198 196.0
1291.791016 148.0
1292.098633 220.0
1292.66394 164.0
1293.057495 40.0
1293.23645 140.0
1295.219727 152.0
1296.960938 184.0
1299.442139 168.0
1300.949219 176.0
1302.09082 200.0
1303.319214 176.0
1304.25354 200.0
1306.079834 236.0
1306.194946 132.0
1309.412231 208.0
1310.687256 36.0
1311.335815 132.0
1312.741699 132.0
1313.268066 248.0
1313.571045 156.0
1314.364624 176.0
1315.930908 104.0
1317.035767 144.0
1317.238037 80.0
1319.702393 104.0
1322.878296 60.0
1323.805054 40.0
1325.659546 140.0
1326.210327 144.0
1326.891724 152.0
1328.204346 104.0
1329.844116 172.0
1331.550293 240.0
1331.993286 88.0
1333.77356 172.0
1333.926147 44.0
1334.078857 164.0
1334.413208 152.0
1334.827759 196.0
1334.905884 196.0
1335.285889 48.0
1336.085938 112.0
1337.679688 88.0
1340.520142 172.0
1342.74353 168.0
1342.816528 160.0
1345.574707 180.0
1348.525879 108.0
1349.629761 188.0
1350.251343 140.0
1351.567993 176.0
1352.614624 260.0
1355.88855 124.0
1356.782715 224.0
1357.662598 120.0
1358.718872 176.0
1361.69165 180.0
1362.191162 176.0
1364.476562 28.0
1364.903809 188.0
1366.557983 192.0
1366.719849 156.0
1369.539429 148.0
1369.664551 152.0
1370.651733 44.0
1375.482422 144.0
1375.917969 176.0
1378.007935 216.0
1380.254883 184.0
1382.14856 168.0
1385.539429 112.0
1389.097778 216.0
1389.342529 204.0
1389.646729 184.0
1389.772827 68.0
1391.0625 136.0
1393.11377 132.0
1398.184692 212.0
1398.675903 148.0
1399.345825 212.0
1399.479858 184.0
1400.187256 168.0
1403.041138 216.0
1403.846313 160.0
1404.569824 160.0
1407.204102 204.0
1408.697754 76.0
1409.168335 204.0
1409.833374 216.0
1410.610718 208.0
1412.637207 184.0
1413.639771 180.0
1414.141113 192.0
1414.814819 144.0
1415.825684 216.0
1424.21814 188.0
1427.87085 204.0
1428.73584 168.0
1430.075317 148.0
1432.356689 224.0
1434.36853 136.0
1434.474121 200.0
1434.632446 36.0
1435.869019 212.0
1439.763184 132.0
1440.004883 128.0
1442.279053 216.0
1447.037354 40.0
1448.21106 120.0
1449.983887 184.0
1451.333252 216.0
1452.083984 204.0
1452.645264 160.0
1453.411499 212.0
1453.973022 196.0
1454.041382 200.0
1454.253906 96.0
1454.610596 136.0
1457.375 176.0
1458.400879 88.0
1459.069824 180.0
1459.723755 224.0
1459.936646 144.0
1460.263672 172.0
1460.887329 92.0
1462.447266 112.0
1464.350708 124.0
1464.998169 232.0
1466.430664 132.0
1468.443359 76.0
1469.450317 88.0
1470.8927 252.0
1471.594971 228.0
1471.854614 268.0
1472.289795 144.0
1474.046875 180.0
1475.101562 148.0
1476.844849 116.0
1477.028442 216.0
1481.108276 168.0
1481.889648 152.0
1485.408325 164.0
1485.838013 184.0
1485.937744 84.0
1487.119385 140.0
1488.516602 140.0
1489.415161 92.0
1489.853027 112.0
1490.137329 164.0
1492.258545 224.0
1493.035156 172.0
1495.397095 140.0
1496.213013 184.0
1496.605713 80.0
1497.768555 100.0
1497.999634 212.0
1500.550415 176.0
1501.159546 44.0
1501.545166 36.0
1504.091309 228.0
1505.156738 164.0
