>compound MLS002207052-01!5-Chloroindole-2-carboxylic acid10517-21-2
>formula C9H6ClNO2
>ionization [M+H]+
>parentmass 196.014465
#inchi InChI=1S/C9H6ClNO2/c10-6-1-2-7-5(3-6)4-8(11-7)9(12)13/h1-4,11H,(H,12,13)
#inchikey FUQOTYRCMBZFOL
#Ion_Source LC-ESI
#Instrument qTof
#Compound_Source NIH Pharmacologically Active Library
#PI Dorrestein
#Data_Collector VP/LMS
#Scan -1
#Precursor_MZ 196.016
#ExactMass 195.009
#Charge 1
#CAS_Number N/A
#Pubmed_ID N/A
#Smiles OC(=O)c1cc2cc(Cl)ccc2[nH]1
#INCHI_AUX N/A
#Library_Class 1
#SpectrumID CCMSLIB00000085749
#IonMode Positive
#UpdateWorkflowName UPDATE-SINGLE-ANNOTATED-GOLD
#LibraryQualityString Gold
#TaskID d252d724072548979f1f6f1ced849daf
##Scan# 1894
#SpectrumFile p4-E11_GE11_01_18383.mzXML
#LibraryName Pharm_Active_Library.mgf
#MQScore -1
#Organism Pharm_Active_Library
#TIC_Query 0
#RT_Query -1
#MZErrorPPM -1
#SharedPeaks 0
#MassDiff 0
#LibMZ -1
#SpecMZ 196.016
#SpecCharge 0
#internalFilename spec-00000.mgf

>collision 10
45.103909 180.0
46.872013 168.0
47.745426 172.0
48.117481 152.0
49.394665 40.0
50.667328 40.0
52.37162 148.0
52.696213 144.0
52.914608 160.0
53.636631 208.0
53.646835 176.0
54.096786 140.0
58.077587 272.0
58.124619 132.0
58.373745 128.0
58.384388 84.0
60.345734 136.0
61.269211 144.0
61.876751 184.0
65.201874 156.0
67.022476 152.0
67.138222 152.0
67.254059 48.0
67.281815 80.0
67.544922 64.0
69.386116 152.0
69.565285 120.0
69.766304 172.0
70.615067 156.0
70.807541 68.0
71.300804 156.0
71.32769 96.0
71.575012 184.0
71.628906 164.0
75.966278 204.0
76.967049 180.0
80.108376 164.0
80.388306 156.0
81.071449 152.0
81.144943 128.0
81.606377 228.0
81.649536 84.0
83.978775 140.0
84.801567 140.0
86.006348 164.0
88.407722 176.0
89.03389 196.0
89.765953 56.0
90.03582 120.0
93.48085 120.0
93.677246 148.0
93.981865 168.0
94.846344 224.0
94.925835 84.0
95.044167 232.0
95.679741 48.0
96.126099 196.0
96.978798 180.0
97.508743 148.0
97.982979 172.0
98.134743 228.0
99.000778 180.0
100.750656 180.0
100.986542 144.0
101.296799 120.0
102.137886 80.0
102.21032 140.0
102.619209 128.0
102.693825 228.0
102.788643 176.0
104.281235 184.0
105.684288 96.0
105.798904 224.0
106.892906 200.0
108.537201 180.0
108.919075 60.0
109.983124 112.0
110.99572 184.0
113.946587 148.0
114.032715 524.0
114.350616 120.0
115.039124 168.0
115.306122 108.0
115.380943 132.0
115.716843 80.0
116.047775 504.0
117.056557 1288.0
117.170883 120.0
118.059586 624.0
119.033279 156.0
121.697227 172.0
122.550652 140.0
122.956406 152.0
122.998734 5264.0
123.042496 148.0
123.113152 80.0
123.415894 116.0
123.893967 52.0
124.002838 340.0
124.128906 64.0
124.819519 188.0
124.996239 2732.0
125.168877 44.0
125.318115 104.0
125.372772 76.0
126.000847 136.0
128.838409 64.0
135.336731 204.0
138.019623 176.0
138.961105 164.0
139.001114 200.0
144.041931 120.0
150.009338 1444.0
151.015854 236.0
152.005417 296.0
152.602631 132.0
152.954437 108.0
153.009659 168.0
153.54332 64.0
154.024628 144.0
156.004608 116.0
156.970657 128.0
161.772247 200.0
164.99736 308.0
166.002304 188.0
166.096771 140.0
166.994949 204.0
168.01181 160.0
170.017334 176.0
174.969604 100.0
175.114426 156.0
177.005844 192.0
178.004395 1220.0
179.007599 424.0
180.004196 356.0
181.007721 92.0
184.057083 148.0
194.153168 172.0
196.014465 132.0
273.089783 124.0
332.611237 44.0
333.828369 36.0
386.728516 88.0
581.041748 104.0
792.126343 216.0
825.533264 212.0
987.577759 40.0
1021.929077 256.0
1025.253174 184.0
1076.068237 136.0
1091.518799 144.0
1121.450439 108.0
1122.01709 112.0
1134.941406 124.0
1159.188599 104.0
1183.418091 44.0
1192.803345 184.0
1197.757812 84.0
1221.703247 188.0
1224.424927 204.0
1245.822388 188.0
1262.039917 60.0
1263.419067 144.0
1266.080566 112.0
1291.311157 188.0
1301.695679 148.0
1303.089111 176.0
1304.713379 148.0
1315.981812 144.0
1360.005371 208.0
1391.238647 156.0
1391.78064 208.0
1398.166382 224.0
1400.519165 132.0
1410.458374 148.0
1420.6427 152.0
1421.197876 164.0
1421.453003 72.0
1422.744019 188.0
1437.519409 200.0
1441.60498 156.0
1451.931274 92.0
1453.242798 176.0
1454.837402 136.0
1457.510986 148.0
1480.204712 160.0
1482.21936 124.0
1491.959473 144.0
