>compound MLS001032303-01!2-[(5-hydroxy-2,2-dimethyl-4-oxo-3H-chromen-7-yl)oxy]-N-[2-(4-methoxyphenyl)ethyl]acetamide
>formula C22H25NO6
>ionization [M+H]+
>parentmass 400.176
#inchi InChI=1S/C22H25NO6/c1-22(2)12-18(25)21-17(24)10-16(11-19(21)29-22)28-13-20(26)23-9-8-14-4-6-15(27-3)7-5-14/h4-7,10-11,24H,8-9,12-13H2,1-3H3,(H,23,26)
#inchikey HFMFAKFFMCRLRG
#Ion_Source LC-ESI
#Instrument qTof
#Compound_Source NIH Natural Product Library
#PI Dorrestein
#Data_Collector VVP/LMS
#Scan -1
#Precursor_MZ 400.176
#ExactMass 399.168
#Charge 1
#CAS_Number N/A
#Pubmed_ID N/A
#Smiles COc1ccc(CCNC(=O)COc2cc(O)c3C(=O)CC(C)(C)Oc3c2)cc1
#INCHI_AUX N/A
#Library_Class 1
#SpectrumID CCMSLIB00000079764
#IonMode Positive
#UpdateWorkflowName UPDATE-SINGLE-ANNOTATED-GOLD
#LibraryQualityString Gold
#TaskID b1d8e8f6646f4e71acdff9ca3d919d08
##Scan# 2295
#SpectrumFile p1-G10_GG10_01_17954.mzXML
#LibraryName NIH_Natural_Products_Library.mgf
#MQScore -1
#Organism NIH_Natural_Products_Library
#TIC_Query 0
#RT_Query -1
#MZErrorPPM -1
#SharedPeaks 0
#MassDiff 0
#LibMZ -1
#SpecMZ 400.176
#SpecCharge 0
#internalFilename spec-00000.mgf

>collision 10
94.958656 60.0
95.008415 184.0
95.049377 168.0
95.130058 60.0
95.183777 92.0
95.277 128.0
95.360558 176.0
95.411102 132.0
95.469429 152.0
95.568634 32.0
95.664001 232.0
95.693321 136.0
95.732201 148.0
95.981575 176.0
96.266472 156.0
96.313347 136.0
96.352417 172.0
96.514641 164.0
96.635902 176.0
96.723969 188.0
96.759209 236.0
96.806305 152.0
96.845367 144.0
96.902184 204.0
97.00605 208.0
97.023064 224.0
97.066826 160.0
97.142174 220.0
97.342041 192.0
97.374931 180.0
97.412254 184.0
97.591095 128.0
97.671722 152.0
97.713036 224.0
97.738617 128.0
97.854744 116.0
98.016251 148.0
98.05764 140.0
98.086349 240.0
98.471962 132.0
98.552956 160.0
98.72493 104.0
98.803368 232.0
98.869347 212.0
98.899033 176.0
98.996048 208.0
99.008644 144.0
99.047539 192.0
99.104988 144.0
99.18158 204.0
99.366707 84.0
99.490456 204.0
99.515564 176.0
99.567192 236.0
99.652611 168.0
99.785774 196.0
99.809631 76.0
99.881226 152.0
99.96479 176.0
100.016533 132.0
100.060326 164.0
100.104134 160.0
100.163879 164.0
100.183807 136.0
100.241585 152.0
100.269585 156.0
100.401062 60.0
100.415024 100.0
100.458908 148.0
100.49482 192.0
100.564667 156.0
100.594337 216.0
100.724403 244.0
100.818306 124.0
100.863213 180.0
100.978241 208.0
101.070267 208.0
101.086273 144.0
101.102287 152.0
101.140312 160.0
101.234413 288.0
101.286484 208.0
101.352592 156.0
101.520981 180.0
101.689499 104.0
101.70536 204.0
101.785866 88.0
101.82402 152.0
101.934509 52.0
101.962646 148.0
102.012894 136.0
102.045647 192.0
102.079239 168.0
102.286469 208.0
102.379089 188.0
102.455627 200.0
102.604759 132.0
102.635002 180.0
102.731812 164.0
102.760056 112.0
102.827095 180.0
102.889221 164.0
102.961914 172.0
103.006172 180.0
103.054214 5900.0
103.091209 176.0
103.116341 116.0
103.1716 228.0
103.192276 60.0
103.3116 176.0
103.333855 108.0
103.384438 204.0
103.447182 144.0
103.511971 44.0
103.528175 136.0
103.578804 72.0
103.592987 208.0
103.656929 136.0
103.862587 92.0
103.959976 112.0
104.058838 1144.0
104.10817 36.0
104.152847 112.0
104.195511 212.0
104.336098 180.0
104.3993 124.0
104.42318 96.0
104.491829 192.0
104.557457 140.0
104.63073 136.0
104.716255 188.0
104.763107 128.0
104.781441 132.0
104.7957 260.0
104.812004 208.0
104.944489 156.0
104.964882 180.0
105.002403 160.0
105.069824 22392.0
105.136238 92.0
105.166855 44.0
105.187263 168.0
105.244431 56.0
105.293434 120.0
105.326439 204.0
105.354713 132.0
105.375145 176.0
105.403748 108.0
105.507988 156.0
105.590874 60.0
105.629471 188.0
105.684753 160.0
105.757553 204.0
105.907021 184.0
105.978722 44.0
106.013557 36.0
106.073502 2060.0
106.113998 80.0
106.159111 156.0
106.212433 156.0
106.251411 76.0
106.325279 180.0
106.442291 180.0
106.46283 44.0
106.481308 48.0
106.544991 156.0
106.585747 172.0
106.631287 156.0
106.658012 132.0
106.729965 176.0
106.762863 220.0
106.797829 128.0
106.836914 152.0
106.903175 196.0
106.935684 112.0
106.975349 172.0
107.014709 256.0
107.048393 1472.0
107.085396 704.0
107.114822 68.0
107.139488 164.0
107.170441 104.0
107.279678 296.0
107.337402 188.0
107.382774 52.0
107.504494 180.0
107.527199 88.0
107.541641 152.0
107.564346 176.0
107.582924 156.0
107.663452 120.0
107.721283 184.0
107.735748 164.0
107.863869 84.0
107.938293 32.0
108.05555 412.0
108.074493 104.0
108.079163 160.0
108.124481 176.0
108.161736 180.0
108.184502 180.0
108.211418 116.0
108.277679 140.0
108.300034 192.0
108.428925 176.0
108.47245 120.0
108.5616 76.0
108.642494 176.0
108.681915 164.0
108.773232 164.0
108.825127 108.0
108.892014 192.0
109.045326 152.0
109.063568 484.0
109.170067 168.0
109.213737 124.0
109.255341 256.0
109.286552 156.0
109.315681 220.0
109.34066 160.0
109.392693 48.0
109.473892 228.0
109.540123 160.0
109.594711 76.0
109.625969 172.0
109.690575 156.0
109.742699 92.0
109.784401 60.0
109.798996 208.0
109.83654 160.0
109.853226 116.0
109.924164 196.0
109.999306 160.0
110.040627 176.0
110.064026 168.0
110.084908 160.0
110.183075 132.0
110.318916 100.0
110.341911 228.0
110.373276 84.0
110.406731 232.0
110.467384 56.0
110.611778 164.0
110.682961 180.0
110.703896 124.0
110.735313 80.0
110.884064 108.0
110.923889 208.0
111.008224 792.0
111.108437 152.0
111.139908 104.0
111.188171 132.0
111.242744 184.0
111.48008 140.0
111.509499 144.0
111.534721 172.0
111.700211 200.0
111.726089 136.0
111.745018 156.0
111.770271 120.0
111.810249 144.0
111.913399 104.0
112.010277 236.0
112.100868 180.0
112.187286 164.0
112.23156 200.0
112.26741 124.0
112.410858 140.0
112.482613 208.0
112.522148 204.0
112.687462 132.0
112.791016 156.0
112.858665 40.0
112.928909 176.0
112.982361 124.0
113.05751 248.0
113.203575 192.0
113.250168 92.0
113.284065 104.0
113.385666 164.0
113.430283 124.0
113.587196 152.0
113.642357 140.0
113.693283 156.0
113.83551 116.0
113.880112 52.0
114.035217 36.0
114.129883 160.0
114.188293 172.0
114.244621 160.0
114.313812 144.0
114.479858 136.0
114.526711 120.0
114.545883 208.0
114.586357 108.0
114.656677 144.0
114.760666 184.0
114.893356 176.0
114.993652 44.0
115.029938 192.0
115.05439 1852.0
115.090042 236.0
115.153778 32.0
115.318291 160.0
115.511948 232.0
115.520653 132.0
115.52845 184.0
115.763283 128.0
115.810402 200.0
115.874664 144.0
116.060371 408.0
116.234886 140.0
116.359375 176.0
116.403465 172.0
116.447411 212.0
116.4646 196.0
116.518303 172.0
116.939774 124.0
117.069168 2096.0
117.124939 124.0
117.197952 180.0
117.243439 108.0
117.295174 80.0
117.383568 184.0
117.443954 140.0
117.517296 112.0
117.564774 36.0
117.623047 64.0
117.64463 140.0
117.736443 300.0
117.924133 192.0
118.038513 192.0
118.066093 964.0
118.135185 40.0
118.337578 384.0
118.379761 188.0
118.420906 136.0
118.436073 292.0
118.462067 120.0
118.672287 176.0
118.756859 144.0
118.811089 36.0
118.880524 152.0
118.900055 148.0
119.048218 904.0
119.082016 924.0
119.106316 220.0
119.241714 104.0
119.349724 48.0
119.371468 160.0
119.436714 244.0
119.593376 128.0
119.663033 220.0
119.706581 152.0
119.730537 168.0
119.755669 140.0
119.839455 104.0
119.854706 168.0
120.057198 5596.0
120.1707 248.0
120.216362 136.0
120.266022 172.0
120.344887 208.0
120.531136 188.0
120.563911 36.0
120.642601 244.0
120.804428 180.0
120.853325 148.0
120.944473 56.0
120.990631 228.0
121.03231 232.0
121.064117 10108.0
121.087685 420.0
121.115578 220.0
121.275215 172.0
121.323441 72.0
121.373863 64.0
121.411148 256.0
121.466072 192.0
121.492302 48.0
121.575684 116.0
121.718369 152.0
121.733742 188.0
121.812805 196.0
121.873749 168.0
121.951241 132.0
122.008392 76.0
122.032578 144.0
122.066467 952.0
122.096344 124.0
122.270149 196.0
122.435265 200.0
122.556419 68.0
122.698616 192.0
122.763626 140.0
122.80069 144.0
122.829788 204.0
122.957764 252.0
123.011383 176.0
123.045876 548.0
123.081253 476.0
123.145424 200.0
123.218826 176.0
123.375237 52.0
123.60968 220.0
123.879799 112.0
123.986153 176.0
124.019547 120.0
124.041557 120.0
124.083534 176.0
124.405365 108.0
124.458649 100.0
124.500839 160.0
124.591911 76.0
124.699158 196.0
124.783043 120.0
124.892006 168.0
124.936493 220.0
124.992119 204.0
125.019943 376.0
125.083366 156.0
125.167969 112.0
125.20137 184.0
125.255844 184.0
125.549026 200.0
125.60479 148.0
125.897942 184.0
125.919502 148.0
125.953003 172.0
125.968643 64.0
126.038223 164.0
126.087067 92.0
126.180946 132.0
126.232376 144.0
126.270393 132.0
126.286049 140.0
126.341972 164.0
126.375526 136.0
126.482948 188.0
126.675522 148.0
126.738258 176.0
126.765144 124.0
126.868248 136.0
126.984848 52.0
127.042419 180.0
127.059586 176.0
127.409096 112.0
127.48774 68.0
127.690071 260.0
127.775551 136.0
127.79805 232.0
128.000626 72.0
128.031967 136.0
128.061554 304.0
128.167313 120.0
128.458145 148.0
128.476196 72.0
128.625137 128.0
128.751572 140.0
128.930054 144.0
128.950394 124.0
129.027252 152.0
129.067413 456.0
129.117691 264.0
129.135391 160.0
129.17424 172.0
129.219482 200.0
129.372925 100.0
129.391495 148.0
129.540955 188.0
129.57135 172.0
129.589661 188.0
129.738113 184.0
129.776657 212.0
129.808395 72.0
129.83107 176.0
129.926346 228.0
130.035263 56.0
130.06221 284.0
130.216888 248.0
130.314575 40.0
130.335022 228.0
130.430695 124.0
130.489578 184.0
130.514587 128.0
130.562347 220.0
130.598022 180.0
130.616928 232.0
130.639709 372.0
130.735245 132.0
130.764832 136.0
130.808075 76.0
130.826294 116.0
131.049774 548.0
131.072632 364.0
131.183945 132.0
131.393753 52.0
131.414627 180.0
131.466766 112.0
131.53981 88.0
131.809296 188.0
131.896149 128.0
131.935013 176.0
132.020691 312.0
132.055923 2572.0
132.078522 2504.0
132.13855 152.0
132.241531 84.0
132.289597 108.0
132.317062 196.0
132.360565 192.0
132.530075 108.0
132.628616 116.0
132.775345 156.0
132.887253 148.0
132.922165 172.0
133.02774 116.0
133.062912 1064.0
133.083069 540.0
133.155594 188.0
133.248215 192.0
133.712708 164.0
133.777161 96.0
133.822647 164.0
133.882217 240.0
133.915314 296.0
133.956772 136.0
134.072037 3100.0
134.180313 272.0
134.233353 200.0
134.427124 76.0
134.452499 64.0
134.521744 108.0
134.579468 36.0
134.614746 188.0
134.647324 208.0
134.708801 272.0
134.744263 204.0
134.791977 132.0
134.835876 140.0
134.861557 208.0
134.890915 232.0
134.914307 176.0
134.932541 188.0
134.974945 180.0
135.005661 640.0
135.028687 324.0
135.035507 164.0
135.04776 220.0
135.053864 196.0
135.080521 86392.0
135.158264 172.0
135.182358 68.0
135.19632 56.0
135.219803 48.0
135.244064 204.0
135.30545 128.0
135.323303 140.0
135.379547 120.0
135.395157 76.0
135.43512 36.0
135.459625 500.0
135.484421 172.0
135.523163 188.0
135.550964 56.0
135.569504 76.0
135.588043 76.0
135.616684 100.0
135.642654 64.0
135.680756 80.0
135.700623 68.0
135.71553 164.0
135.734085 52.0
135.757874 172.0
135.850052 112.0
135.91037 68.0
135.931259 168.0
135.963745 40.0
136.001923 156.0
136.023865 160.0
136.048172 204.0
136.083176 7932.0
136.154358 156.0
136.202774 76.0
136.210876 64.0
136.235413 32.0
136.28479 180.0
136.326035 132.0
136.400406 104.0
136.428299 176.0
136.458527 72.0
136.507355 88.0
136.681808 52.0
136.746979 60.0
136.816803 212.0
136.837753 120.0
136.85405 76.0
136.884323 32.0
136.935562 120.0
136.97641 120.0
136.982239 96.0
136.99176 124.0
137.022415 800.0
137.056412 96.0
137.059982 108.0
137.089279 380.0
137.11438 64.0
137.120743 124.0
137.194901 68.0
137.256546 136.0
137.322464 48.0
137.345779 72.0
137.539444 164.0
137.667358 204.0
137.793991 80.0
137.829041 132.0
137.845398 140.0
137.873444 204.0
137.915512 48.0
137.944443 116.0
137.973953 128.0
137.990311 156.0
138.009735 144.0
138.028397 196.0
138.051117 96.0
138.094238 164.0
138.151688 68.0
138.175079 44.0
138.20784 60.0
138.254639 68.0
138.648071 144.0
138.739487 44.0
138.792038 104.0
138.877838 72.0
139.002182 264.0
139.037933 824.0
139.074936 220.0
139.234589 136.0
139.288605 160.0
139.384933 148.0
139.427231 72.0
139.467194 52.0
139.511856 160.0
139.871765 172.0
140.03894 208.0
140.121384 132.0
140.208572 60.0
140.247803 224.0
140.432556 168.0
140.456146 64.0
140.604782 104.0
140.668518 124.0
140.718094 68.0
140.803101 192.0
141.155212 128.0
141.602493 132.0
142.003036 144.0
142.038483 520.0
142.071823 148.0
142.260727 200.0
142.903351 128.0
143.049805 164.0
143.072052 304.0
143.18663 164.0
143.269989 128.0
143.412964 180.0
143.453491 60.0
143.477325 140.0
143.527405 168.0
143.9617 276.0
144.00946 120.0
144.056503 316.0
144.138474 152.0
144.265137 144.0
144.339264 80.0
144.370346 164.0
144.446884 200.0
144.530609 100.0
144.547363 128.0
144.688583 172.0
144.743652 52.0
145.067703 632.0
145.129425 116.0
145.164291 176.0
145.218155 156.0
145.359695 152.0
145.412491 196.0
145.472504 156.0
145.621384 220.0
145.64299 152.0
146.056427 112.0
146.075867 344.0
146.118973 140.0
146.405411 152.0
146.552353 160.0
146.569214 144.0
146.651154 244.0
146.752258 140.0
146.810272 160.0
147.015335 204.0
147.049316 344.0
147.07988 16832.0
147.140152 168.0
147.161545 56.0
147.191071 60.0
147.199707 96.0
147.222946 68.0
147.253098 124.0
147.285431 32.0
147.289368 80.0
147.317139 96.0
147.338882 40.0
147.387207 68.0
147.487961 52.0
147.544525 88.0
147.619263 108.0
147.665207 56.0
147.764389 100.0
147.832138 156.0
147.868439 100.0
147.941544 228.0
148.045166 148.0
148.081192 2332.0
148.118637 60.0
148.205048 140.0
148.321381 92.0
148.46257 100.0
148.539612 56.0
148.561447 220.0
148.716736 52.0
148.80899 76.0
148.828415 160.0
148.872116 40.0
148.896408 88.0
148.931564 128.0
148.97171 108.0
149.002335 112.0
149.021347 364.0
149.053833 564.0
149.085419 1812.0
149.128967 72.0
149.174042 76.0
149.215195 188.0
149.401993 108.0
149.589371 76.0
149.61615 176.0
149.652664 200.0
149.7379 100.0
149.769562 40.0
150.027863 40.0
150.058701 216.0
150.090485 1752.0
150.176605 48.0
150.315674 52.0
150.376678 176.0
150.762558 48.0
150.818771 248.0
150.860321 48.0
150.980133 28.0
151.038254 2128.0
151.078735 256.0
151.091217 304.0
151.300674 196.0
151.332504 156.0
151.717148 168.0
151.86673 36.0
151.9207 108.0
151.97467 160.0
152.038406 296.0
152.0802 124.0
152.112106 164.0
152.153839 156.0
152.195572 176.0
152.293808 76.0
152.453506 188.0
152.490372 76.0
152.51741 160.0
152.556732 72.0
152.608368 156.0
152.630493 112.0
152.657547 136.0
152.679092 252.0
152.721481 156.0
152.757263 168.0
152.827271 236.0
152.866638 236.0
152.891251 120.0
152.913391 116.0
152.963852 160.0
152.989761 172.0
153.01825 47848.0
153.076614 108.0
153.104965 104.0
153.190567 148.0
153.227478 136.0
153.270142 60.0
153.328323 76.0
153.356735 128.0
153.401093 48.0
153.424606 100.0
153.460266 64.0
153.487396 52.0
153.524384 20.0
153.5737 108.0
153.595901 80.0
153.615631 104.0
153.697052 48.0
153.725983 84.0
153.776031 180.0
153.803177 220.0
153.829086 80.0
153.869827 40.0
153.941437 48.0
154.02179 5404.0
154.100922 148.0
154.153885 84.0
154.368942 92.0
154.470352 60.0
154.542099 48.0
154.584152 132.0
154.707916 152.0
154.782181 116.0
154.810257 96.0
154.945663 104.0
154.972244 60.0
154.980576 44.0
155.025543 392.0
155.062119 156.0
155.134003 132.0
155.150772 84.0
155.191818 88.0
155.220673 96.0
155.267899 68.0
155.41922 48.0
155.44899 48.0
155.744431 60.0
155.799088 32.0
155.945694 56.0
156.007843 148.0
156.052582 72.0
156.094055 136.0
156.145386 76.0
156.191849 212.0
156.221695 76.0
156.385544 104.0
156.48053 228.0
156.567673 184.0
156.739563 40.0
156.766983 128.0
156.794388 112.0
157.064911 152.0
157.56044 164.0
157.614792 260.0
158.063263 192.0
158.536285 160.0
158.847183 156.0
158.959534 92.0
159.065369 644.0
159.178467 44.0
159.201065 84.0
159.48497 72.0
159.608154 136.0
159.713776 72.0
159.799316 132.0
159.882355 80.0
160.052368 2460.0
160.119003 64.0
160.237396 52.0
160.275848 172.0
160.456665 60.0
160.529785 108.0
160.705658 72.0
160.930984 168.0
161.055374 408.0
161.08252 76.0
161.378204 108.0
161.443954 180.0
161.866547 116.0
162.047073 132.0
162.097061 228.0
162.264359 72.0
162.302383 40.0
162.340424 156.0
162.386078 124.0
162.436798 44.0
162.573807 128.0
162.93512 176.0
163.005508 104.0
163.034241 156.0
163.073563 2848.0
163.211411 184.0
163.290237 148.0
163.366547 100.0
163.407257 36.0
163.712708 96.0
163.794205 88.0
163.817139 60.0
164.043442 148.0
164.078766 672.0
164.106323 5868.0
164.143997 176.0
164.173965 120.0
164.23262 72.0
164.273438 48.0
164.572037 136.0
164.592468 80.0
164.661407 76.0
164.715668 116.0
164.745712 132.0
164.791687 60.0
164.955246 172.0
165.017242 7220.0
165.110153 820.0
165.277496 72.0
165.323563 36.0
165.384979 52.0
165.487381 168.0
165.730713 148.0
165.898544 136.0
165.969086 76.0
166.021606 792.0
166.06485 136.0
166.112701 188.0
166.169144 36.0
166.212769 44.0
166.27179 80.0
166.387299 40.0
166.477158 256.0
166.582474 300.0
167.035187 556.0
167.068192 172.0
167.209854 140.0
167.276779 96.0
167.2948 168.0
167.341141 36.0
167.56778 212.0
167.609009 44.0
167.76178 180.0
167.822952 148.0
168.003479 148.0
168.03978 224.0
168.06543 320.0
168.509491 80.0
168.571503 184.0
168.669724 180.0
168.81192 180.0
168.832611 212.0
168.928314 72.0
168.956757 168.0
169.148254 152.0
169.370956 56.0
169.560089 64.0
169.73378 128.0
170.473587 164.0
170.785568 200.0
171.024506 508.0
171.308777 136.0
171.426025 144.0
172.031128 152.0
172.088562 116.0
173.057297 168.0
173.077637 192.0
173.129288 84.0
173.359833 144.0
173.897461 136.0
174.060226 172.0
174.091476 1064.0
174.12851 124.0
174.173157 120.0
174.196793 104.0
174.236206 84.0
174.338669 72.0
174.391373 160.0
174.713501 116.0
174.93837 148.0
175.074448 5312.0
175.196442 168.0
175.25177 132.0
175.498322 324.0
176.045532 564.0
176.077789 1068.0
176.119705 52.0
176.340317 116.0
177.020569 216.0
177.051102 352.0
177.077057 296.0
177.135437 240.0
177.239883 152.0
177.397781 56.0
177.56218 68.0
177.795639 68.0
177.827484 116.0
178.053162 124.0
178.079514 156.0
178.584717 180.0
178.65654 68.0
179.033829 716.0
179.07045 1404.0
179.516846 96.0
179.754257 68.0
180.039902 160.0
180.071945 368.0
180.285675 132.0
180.304382 216.0
180.531616 144.0
180.70282 132.0
180.858032 148.0
181.027908 112.0
181.084106 172.0
181.667282 48.0
182.053772 176.0
182.201508 48.0
183.028671 568.0
183.539185 80.0
183.598511 112.0
184.46521 140.0
184.573349 204.0
184.713989 136.0
185.072342 340.0
185.36647 96.0
185.577896 128.0
185.664673 64.0
186.451981 164.0
186.838089 204.0
187.696045 140.0
187.941528 76.0
188.752792 72.0
189.00444 192.0
189.050964 136.0
189.423325 56.0
189.707016 220.0
189.828949 108.0
189.982544 136.0
190.055862 324.0
190.089554 124.0
190.35582 208.0
190.405258 48.0
190.46843 112.0
190.539444 184.0
190.836685 120.0
190.855927 176.0
190.924683 56.0
190.98793 212.0
191.034698 212.0
191.069733 10880.0
191.108978 124.0
191.155762 124.0
191.182617 100.0
191.212769 56.0
191.246582 80.0
191.400742 44.0
191.453064 44.0
191.50264 108.0
191.648636 60.0
191.871887 192.0
191.954605 92.0
192.037338 64.0
192.072769 1944.0
192.100113 3844.0
192.143402 144.0
192.332581 144.0
192.445755 120.0
192.517563 104.0
192.66394 40.0
192.930832 84.0
193.012817 1468.0
193.051743 776.0
193.104614 540.0
193.158768 36.0
193.335846 44.0
193.373489 140.0
193.421646 60.0
193.554535 88.0
194.005203 188.0
194.033875 220.0
194.057144 284.0
194.183609 52.0
194.264053 72.0
194.583206 60.0
195.066879 152.0
195.405869 136.0
195.531082 88.0
195.788864 148.0
195.948776 116.0
196.035156 180.0
196.263733 108.0
197.086578 180.0
197.713531 144.0
198.080307 204.0
198.153152 176.0
198.186768 120.0
198.276443 60.0
198.343719 148.0
198.868225 44.0
199.382202 176.0
200.101837 168.0
200.254364 36.0
202.702026 180.0
202.904968 104.0
203.066605 196.0
203.713776 196.0
205.085312 108.0
205.202194 84.0
206.015564 104.0
206.409973 104.0
206.79332 100.0
207.142654 84.0
207.423477 156.0
207.810638 144.0
208.071121 164.0
208.264206 92.0
208.347305 108.0
208.419342 96.0
208.528534 136.0
208.580276 112.0
208.657898 128.0
208.874191 188.0
208.928879 252.0
208.973526 172.0
209.014542 72.0
209.080338 31112.0
209.141174 148.0
209.161331 52.0
209.190109 80.0
209.279999 36.0
209.308151 68.0
209.334961 168.0
209.380142 36.0
209.466553 40.0
209.49144 88.0
209.53569 68.0
209.594955 176.0
209.676895 76.0
209.700684 184.0
209.755234 108.0
209.907516 36.0
210.014221 88.0
210.083801 3184.0
210.190201 52.0
210.24791 84.0
210.268112 48.0
210.484634 40.0
210.631927 40.0
210.709915 68.0
210.978699 68.0
210.998932 120.0
211.042297 196.0
211.086075 372.0
211.326981 104.0
211.415451 52.0
211.502274 116.0
211.528336 116.0
211.549561 132.0
211.570419 96.0
211.620972 120.0
211.736801 124.0
212.006226 32.0
212.086533 276.0
212.41214 104.0
213.028534 176.0
213.257095 64.0
213.384613 120.0
213.832977 80.0
213.905746 160.0
216.750381 124.0
217.18428 76.0
218.04184 152.0
218.082748 132.0
219.301285 112.0
219.463425 72.0
219.58728 96.0
220.047623 136.0
220.115524 92.0
220.340012 100.0
220.381363 60.0
220.523209 132.0
220.679886 164.0
220.783386 88.0
220.863235 48.0
220.996368 148.0
221.07988 11008.0
221.129532 196.0
221.271622 72.0
221.313065 64.0
221.564819 60.0
221.929367 140.0
222.08223 1148.0
222.172562 92.0
222.217072 44.0
222.608871 176.0
222.864334 68.0
223.089264 212.0
223.146698 44.0
223.444107 76.0
223.473862 48.0
223.619675 68.0
224.009735 128.0
224.085678 164.0
224.143814 132.0
224.212357 48.0
224.367355 104.0
224.781937 40.0
224.978928 44.0
225.107315 60.0
226.950562 92.0
227.199493 168.0
227.637711 108.0
230.07959 56.0
230.354401 132.0
230.423874 144.0
231.161652 132.0
232.061264 180.0
232.631622 220.0
232.671097 180.0
233.686203 76.0
236.057281 504.0
237.962112 80.0
238.057297 140.0
238.933304 80.0
240.094559 172.0
240.119232 136.0
241.094803 112.0
242.087845 152.0
243.818924 56.0
245.409592 164.0
245.459488 108.0
246.314636 152.0
248.7948 116.0
248.976913 76.0
249.074921 440.0
249.168518 48.0
249.225082 56.0
249.262787 48.0
249.460785 148.0
249.567688 72.0
249.926254 56.0
250.026947 88.0
250.081268 156.0
251.14859 184.0
255.357986 60.0
256.83905 100.0
258.108582 572.0
259.111938 52.0
260.09967 124.0
260.90274 40.0
262.50943 108.0
265.552673 40.0
267.785553 176.0
268.06897 132.0
270.102997 152.0
271.393311 100.0
272.138123 168.0
276.264374 124.0
280.091827 56.0
280.75177 116.0
281.082001 112.0
286.109589 140.0
288.548798 116.0
292.119598 224.0
293.069702 116.0
293.113983 152.0
294.085938 112.0
294.635712 100.0
295.901123 188.0
299.090302 52.0
300.127258 180.0
300.347961 124.0
301.121124 152.0
301.750031 224.0
301.867584 132.0
304.341675 204.0
305.430847 188.0
306.606262 112.0
308.097076 176.0
308.159088 124.0
308.445648 68.0
309.089142 204.0
311.866699 92.0
315.918304 148.0
316.108429 220.0
317.125793 172.0
318.136078 356.0
319.123291 140.0
321.050812 112.0
323.297882 108.0
325.04306 180.0
325.901245 88.0
326.10022 176.0
327.001648 164.0
327.106018 112.0
327.858795 128.0
329.551178 40.0
334.395966 72.0
334.654419 136.0
337.423645 92.0
340.487 144.0
341.32486 56.0
342.12326 100.0
342.226349 120.0
343.158508 144.0
343.224884 152.0
343.272827 152.0
343.645386 168.0
343.792969 152.0
343.892609 112.0
343.955353 132.0
344.062408 128.0
344.112091 8528.0
344.180573 28.0
344.819672 28.0
345.041443 80.0
345.117157 1456.0
346.1091 468.0
346.232941 76.0
346.347748 84.0
346.629303 132.0
346.766418 32.0
347.088959 100.0
347.159393 36.0
347.470978 96.0
347.53775 76.0
347.706818 60.0
348.413971 112.0
348.941711 48.0
348.993774 112.0
351.190948 56.0
354.154938 108.0
355.106964 52.0
358.151459 128.0
361.685699 52.0
361.856049 160.0
367.82843 80.0
375.344299 56.0
377.603455 52.0
380.595123 32.0
383.220551 64.0
387.326447 52.0
391.025116 48.0
399.592346 148.0
399.878845 148.0
400.170074 796.0
400.635406 48.0
401.165955 140.0
401.257111 132.0
401.54422 48.0
402.188324 172.0
402.549896 40.0
402.993286 44.0
403.185089 48.0
404.076782 80.0
408.674774 76.0
413.225952 36.0
414.331238 80.0
425.764832 76.0
438.257782 40.0
441.81076 28.0
463.498413 60.0
470.634399 32.0
477.55954 140.0
481.394745 48.0
492.707336 20.0
521.030823 112.0
529.588562 44.0
540.777039 68.0
541.411316 68.0
563.240417 72.0
569.008362 84.0
580.709229 20.0
592.257812 48.0
593.968872 48.0
599.930725 44.0
616.704102 88.0
620.183655 80.0
623.717773 80.0
628.82312 108.0
631.621155 84.0
636.864136 100.0
639.664917 132.0
644.607544 108.0
645.335449 100.0
646.023254 56.0
648.104065 80.0
655.319092 44.0
658.328613 104.0
661.769897 192.0
687.716919 44.0
694.199036 80.0
714.939636 48.0
715.445312 88.0
718.301636 224.0
723.196106 68.0
737.741394 120.0
752.338745 196.0
756.252625 156.0
758.372253 72.0
768.711609 188.0
775.563965 144.0
786.036194 72.0
791.979004 168.0
793.536865 72.0
794.770813 172.0
797.443909 48.0
807.824768 156.0
808.362244 164.0
812.118347 176.0
814.593201 192.0
817.276672 176.0
821.104736 180.0
837.854126 140.0
841.198853 196.0
841.424011 120.0
844.463562 204.0
845.418152 120.0
853.144043 136.0
861.016052 164.0
863.417114 124.0
876.373535 132.0
880.809937 160.0
881.164429 204.0
881.719849 228.0
882.245911 168.0
883.192078 180.0
885.026611 68.0
885.257568 172.0
891.587463 168.0
891.807312 192.0
892.699097 56.0
893.133301 236.0
894.644714 84.0
899.604614 136.0
900.536133 68.0
902.191284 212.0
902.245117 160.0
902.460327 56.0
905.781799 252.0
910.862488 204.0
914.584534 112.0
917.500122 224.0
917.801575 256.0
922.849304 152.0
923.284668 72.0
923.720154 60.0
924.555115 280.0
925.172546 68.0
929.612549 184.0
929.845947 108.0
931.218079 176.0
936.302551 116.0
937.417358 160.0
939.874756 144.0
943.04425 120.0
947.039673 120.0
948.7677 132.0
950.276367 152.0
951.626648 220.0
953.936646 148.0
960.716736 120.0
960.833984 228.0
963.828491 204.0
964.427917 68.0
966.375916 44.0
970.414185 120.0
972.169617 232.0
978.478638 232.0
983.091125 224.0
984.295898 124.0
984.526978 48.0
986.507629 168.0
986.956665 200.0
988.2901 136.0
990.368469 144.0
992.574463 112.0
994.324707 180.0
998.710205 92.0
1000.226624 80.0
1000.566589 172.0
1000.742859 80.0
1005.382263 184.0
1012.868164 144.0
1015.473206 48.0
1015.758667 144.0
1016.335999 164.0
1016.805603 168.0
1017.173706 188.0
1018.06897 204.0
1019.816101 116.0
1020.152954 188.0
1023.333984 220.0
1024.059937 156.0
1025.850464 124.0
1026.23938 84.0
1027.712769 72.0
1028.733887 224.0
1030.73291 184.0
1031.960205 120.0
1032.516479 140.0
1034.192749 128.0
1035.165894 248.0
1036.126587 140.0
1036.901978 120.0
1041.49585 128.0
1041.73999 168.0
1042.382446 140.0
1042.645996 48.0
1050.062744 160.0
1050.19165 176.0
1051.20459 148.0
1053.522461 140.0
1053.735718 144.0
1053.877808 128.0
1055.215698 172.0
1055.642456 124.0
1056.450928 220.0
1057.356812 152.0
1058.599854 108.0
1063.540039 224.0
1065.260742 140.0
1065.670044 168.0
1066.287476 108.0
1067.288574 164.0
1067.366577 168.0
1068.511353 196.0
1070.320679 60.0
1070.967529 192.0
1072.483643 84.0
1072.542236 156.0
1072.874756 172.0
1073.891968 108.0
1074.837891 208.0
1075.816895 144.0
1077.4104 156.0
1078.560425 240.0
1080.371826 220.0
1081.507568 172.0
1082.453125 148.0
1083.094971 44.0
1084.661011 172.0
1085.85437 180.0
1086.516846 224.0
1087.888428 88.0
1089.201782 144.0
1089.766846 156.0
1091.061523 72.0
1096.1427 180.0
1098.094116 120.0
1098.628418 88.0
1099.307983 176.0
1101.321655 124.0
1102.008667 128.0
1102.31543 200.0
1102.451416 224.0
1102.629883 192.0
1102.761963 188.0
1104.441406 180.0
1104.911133 112.0
1105.55957 236.0
1108.910645 180.0
1110.395752 176.0
1114.524902 172.0
1114.983398 156.0
1118.095825 128.0
1119.347412 272.0
1119.600952 236.0
1119.700317 176.0
1120.166626 224.0
1121.092651 92.0
1121.765869 100.0
1121.845825 104.0
1121.892578 176.0
1125.094727 196.0
1125.481934 168.0
1127.158569 176.0
1128.227905 120.0
1128.328247 52.0
1128.682617 160.0
1129.699219 192.0
1132.457031 160.0
1132.704834 176.0
1133.213989 116.0
1133.669678 176.0
1134.594604 148.0
1135.352295 48.0
1135.835205 80.0
1136.184082 168.0
1136.291382 196.0
1136.673828 132.0
1139.278931 192.0
1140.414551 160.0
1141.577637 160.0
1142.512573 68.0
1143.730469 188.0
1143.959351 168.0
1144.131104 20.0
1146.195435 192.0
1148.204346 172.0
1152.234131 192.0
1152.680054 176.0
1152.930054 216.0
1155.188354 208.0
1155.682251 100.0
1156.96814 168.0
1157.929688 140.0
1158.193848 180.0
1158.898438 148.0
1159.128784 168.0
1159.271118 144.0
1160.497925 176.0
1160.864136 256.0
1162.037598 152.0
1162.451538 196.0
1163.496826 208.0
1164.257202 116.0
1165.004395 116.0
1166.574219 132.0
1166.805298 152.0
1166.982056 136.0
1168.519165 132.0
1169.669312 128.0
1171.19458 128.0
1171.603271 188.0
1172.325562 96.0
1172.884399 228.0
1172.932129 120.0
1173.170654 224.0
1173.477539 88.0
1176.281372 164.0
1176.848022 128.0
1177.162109 68.0
1178.473633 140.0
1179.635376 176.0
1179.806274 224.0
1179.956665 116.0
1180.114014 124.0
1180.585815 52.0
1182.207031 252.0
1184.904907 196.0
1185.144653 184.0
1185.322876 56.0
1186.296143 176.0
1188.099731 140.0
1188.607422 156.0
1189.451538 120.0
1190.296021 164.0
1190.584473 168.0
1191.90332 180.0
1192.205688 184.0
1194.068848 216.0
1195.91272 156.0
1196.132935 108.0
1196.504761 184.0
1196.594238 200.0
1196.945435 164.0
1197.027954 200.0
1197.248413 112.0
1198.260986 44.0
1198.653687 236.0
1199.149902 260.0
1199.460083 168.0
1199.535889 136.0
1199.728882 196.0
1199.7771 152.0
1200.714844 184.0
1200.977051 236.0
1201.577148 164.0
1201.929077 192.0
1203.799683 156.0
1204.469604 136.0
1205.056885 44.0
1206.197144 216.0
1206.556641 44.0
1207.047485 164.0
1208.167969 184.0
1209.773438 180.0
1210.9021 80.0
1211.179199 188.0
1212.052124 192.0
1212.724365 124.0
1213.002808 188.0
1213.500732 180.0
1213.646362 148.0
1213.868286 208.0
1214.49939 140.0
1215.921631 132.0
1218.136597 180.0
1219.373413 52.0
1219.971191 80.0
1220.346558 152.0
1220.499634 124.0
1220.819458 152.0
1224.563721 180.0
1225.05127 76.0
1225.363892 152.0
1226.988647 220.0
1227.156006 192.0
1230.197754 132.0
1232.935791 164.0
1233.627686 164.0
1233.774536 72.0
1236.193604 136.0
1236.537476 156.0
1237.916626 60.0
1238.631104 108.0
1239.275513 104.0
1239.555786 104.0
1240.922607 148.0
1241.406494 168.0
1242.465576 152.0
1244.648438 116.0
1245.175049 248.0
1245.751099 36.0
1246.594238 188.0
1246.755859 120.0
1247.583496 184.0
1247.662598 120.0
1248.182861 176.0
1249.174561 188.0
1249.250122 212.0
1250.518433 200.0
1250.719849 156.0
1250.842285 56.0
1251.764526 164.0
1252.018066 148.0
1252.419556 148.0
1253.194458 252.0
1254.526489 192.0
1254.81543 160.0
1255.069336 144.0
1255.252686 144.0
1255.675781 152.0
1255.802734 212.0
1258.442627 204.0
1258.816162 220.0
1260.949707 208.0
1262.363647 224.0
1262.611084 160.0
1263.636841 344.0
1264.500122 140.0
1264.570923 204.0
1269.140137 144.0
1270.579956 80.0
1270.927612 152.0
1271.86438 104.0
1273.348267 124.0
1273.955078 156.0
1275.778442 144.0
1276.247681 164.0
1276.546265 112.0
1276.688477 132.0
1277.150757 196.0
1277.39978 172.0
1277.598999 148.0
1277.662964 224.0
1278.139648 128.0
1279.641479 208.0
1279.862183 128.0
1280.581421 220.0
1281.030273 88.0
1281.315186 180.0
1281.578857 136.0
1281.726807 196.0
1281.935059 140.0
1283.168213 240.0
1283.653076 136.0
1284.187988 160.0
1284.587402 152.0
1285.172363 136.0
1285.807495 172.0
1285.928833 108.0
1286.014526 136.0
1286.064453 188.0
1286.128662 180.0
1286.292847 160.0
1286.614136 184.0
1287.185303 88.0
1288.470947 228.0
1289.171997 164.0
1290.20752 212.0
1290.336304 124.0
1290.614746 224.0
1293.69873 220.0
1293.89917 252.0
1294.529297 164.0
1294.594238 204.0
1295.474609 112.0
1295.754028 116.0
1295.968994 180.0
1297.223145 216.0
1298.133789 152.0
1299.503784 204.0
1299.711914 236.0
1299.805176 152.0
1300.278809 212.0
1300.605713 148.0
1300.946289 204.0
1301.470459 144.0
1301.585327 172.0
1301.973022 216.0
1302.138306 204.0
1302.389648 260.0
1302.569214 240.0
1303.71167 192.0
1304.466309 128.0
1305.4729 172.0
1305.846802 200.0
1306.134521 220.0
1306.897095 160.0
1307.105835 116.0
1307.566406 76.0
1307.940674 204.0
1308.336548 148.0
1308.922485 216.0
1309.459839 180.0
1309.639893 148.0
1310.915161 176.0
1311.996338 124.0
1312.342285 164.0
1313.496216 168.0
1314.196045 100.0
1314.72998 168.0
1315.805542 132.0
1318.008423 176.0
1318.319092 108.0
1319.280396 184.0
1319.396118 136.0
1320.017944 176.0
1320.849609 168.0
1321.023193 148.0
1321.334351 164.0
1321.392212 180.0
1322.564575 116.0
1322.629639 56.0
1322.955444 116.0
1323.201538 52.0
1323.520142 164.0
1323.715698 132.0
1325.446899 176.0
1326.041138 172.0
1326.418091 208.0
1326.606567 132.0
1328.230835 220.0
1329.130493 200.0
1329.486084 196.0
1329.936035 204.0
1330.92334 120.0
1331.329956 144.0
1331.62561 164.0
1331.998169 180.0
1332.470337 228.0
1332.717407 112.0
1332.790039 108.0
1333.048828 196.0
1335.218018 224.0
1336.040039 168.0
1336.46875 192.0
1336.629272 152.0
1336.800781 184.0
1337.357056 184.0
1337.728271 116.0
1339.16272 144.0
1341.232056 152.0
1341.727783 120.0
1342.34021 224.0
1344.696655 148.0
1344.747681 56.0
1345.525757 200.0
1345.835449 164.0
1346.222412 148.0
1346.536499 132.0
1346.989258 136.0
1347.909912 176.0
1348.182007 200.0
1349.525269 148.0
1350.059082 116.0
1350.249146 260.0
1350.67334 40.0
1351.346436 208.0
1352.334351 208.0
1352.649048 124.0
1352.820068 204.0
1352.971191 128.0
1353.593506 44.0
1353.696045 232.0
1355.608032 228.0
1357.682617 84.0
1358.247437 120.0
1360.015747 96.0
1361.873413 148.0
1363.063477 196.0
1363.283936 140.0
1364.158569 172.0
1365.165894 156.0
1365.474731 108.0
1366.423706 232.0
1366.673828 180.0
1366.821045 196.0
1367.866089 168.0
1368.150513 124.0
1368.418213 144.0
1369.699585 148.0
1370.060547 168.0
1370.156372 156.0
1371.099487 228.0
1371.416382 164.0
1372.161011 192.0
1372.308472 160.0
1372.610718 132.0
1373.436768 160.0
1373.532593 88.0
1374.02417 200.0
1374.476929 36.0
1374.565552 52.0
1375.082031 88.0
1375.88562 136.0
1376.529053 180.0
1376.639771 104.0
1376.691528 56.0
1376.994263 112.0
1377.489136 108.0
1377.784668 212.0
1378.131958 112.0
1378.228027 144.0
1378.323975 172.0
1378.582642 156.0
1378.77478 188.0
1378.974365 136.0
1380.691406 84.0
1381.355225 120.0
1381.577148 160.0
1381.961914 160.0
1382.546509 204.0
1382.6427 164.0
1382.810181 260.0
1383.123779 140.0
1383.493896 168.0
1384.456421 188.0
1384.574951 124.0
1384.997192 184.0
1385.686035 220.0
1385.989868 180.0
1386.679077 156.0
1386.790161 160.0
1387.494385 224.0
1387.761353 248.0
1388.169189 108.0
1390.372437 204.0
1391.114746 144.0
1391.315186 148.0
1392.094727 184.0
1392.243286 168.0
1392.466064 28.0
1392.680908 164.0
1393.075195 144.0
1393.483765 188.0
1394.672729 148.0
1394.880859 200.0
1395.341797 180.0
1395.862305 92.0
1396.68042 188.0
1397.119263 176.0
1397.796265 184.0
1400.059326 168.0
1400.461548 160.0
1400.625366 268.0
1400.67749 80.0
1400.871216 196.0
1401.042603 168.0
1401.139404 220.0
1401.407593 216.0
1401.996338 152.0
1402.711792 180.0
1402.786377 188.0
1403.185303 216.0
1404.87439 68.0
1406.396606 124.0
1406.672852 140.0
1406.963989 232.0
1407.195435 240.0
1407.53894 148.0
1407.867432 180.0
1407.919678 132.0
1408.90564 112.0
1410.317993 176.0
1410.407715 276.0
1411.110352 172.0
1411.663696 68.0
1411.895508 164.0
1412.613647 132.0
1412.875366 172.0
1413.39917 96.0
1413.69104 160.0
1413.900513 132.0
1414.072632 136.0
1415.180542 180.0
1415.277954 148.0
1415.517578 92.0
1415.622314 232.0
1418.851807 124.0
1420.471558 84.0
1420.584106 216.0
1421.244263 128.0
1422.122314 124.0
1422.490112 192.0
1422.662842 172.0
1423.286011 136.0
1423.436157 156.0
1423.653931 160.0
1424.525146 64.0
1424.998413 168.0
1425.096191 144.0
1425.216309 156.0
1425.562012 176.0
1425.727295 156.0
1428.095581 56.0
1428.215942 84.0
1428.279175 188.0
1428.712402 76.0
1429.239136 188.0
1429.351929 80.0
1429.592773 84.0
1430.330322 140.0
1431.143433 104.0
1431.339111 40.0
1431.685547 204.0
1432.160034 100.0
1432.800293 112.0
1433.561401 156.0
1433.983398 132.0
1434.420532 152.0
1434.488403 152.0
1434.60144 160.0
1434.895508 192.0
1435.182007 160.0
1435.800415 136.0
1435.981323 192.0
1436.547119 148.0
1437.165771 136.0
1437.31665 124.0
1437.482666 96.0
1438.320435 128.0
1438.501587 44.0
1439.022461 160.0
1440.04834 180.0
1440.495117 124.0
1440.676392 180.0
1441.643555 52.0
1442.890747 40.0
1443.238525 136.0
1443.979614 216.0
1444.584717 176.0
1445.83313 116.0
1445.984497 204.0
1446.075317 160.0
1446.552246 184.0
1447.665161 224.0
1447.72583 108.0
1447.998413 232.0
1448.051392 196.0
1448.233276 180.0
1448.448608 156.0
1449.172607 156.0
1449.642334 132.0
1453.540039 180.0
1454.693726 96.0
1455.016724 208.0
1455.187134 128.0
1455.346558 132.0
1455.407349 92.0
1455.870483 124.0
1456.155884 168.0
1456.235107 164.0
1456.379395 188.0
1456.6604 120.0
1456.72876 176.0
1457.800049 168.0
1457.997681 160.0
1458.864136 196.0
1459.867798 168.0
1460.316528 200.0
1460.529541 48.0
1461.716309 196.0
1461.891357 140.0
1462.385986 156.0
1462.736206 104.0
1463.368042 44.0
1463.550781 148.0
1464.327515 128.0
1464.822632 152.0
1465.630249 128.0
1466.00354 160.0
1466.346558 40.0
1467.1698 244.0
1467.253662 120.0
1467.871216 148.0
1467.970337 200.0
1468.427979 88.0
1468.610962 196.0
1469.038208 168.0
1469.167847 172.0
1469.266968 164.0
1469.678955 132.0
1469.740112 180.0
1469.877441 152.0
1470.144531 164.0
1470.228394 208.0
1470.320068 160.0
1471.006958 208.0
1471.42688 216.0
1471.487915 176.0
1471.984253 32.0
1472.144531 236.0
1472.534058 144.0
1473.114624 256.0
1473.168091 148.0
1473.374268 128.0
1473.496582 168.0
1473.947388 152.0
1474.45166 120.0
1476.49292 56.0
1476.569458 132.0
1477.280762 248.0
1477.625 212.0
1478.221924 184.0
1478.665771 180.0
1479.354614 160.0
1479.484741 204.0
1480.679321 60.0
1480.978027 240.0
1481.223145 140.0
1482.303345 164.0
1482.916504 56.0
1483.468384 120.0
1483.951294 124.0
1484.277832 176.0
1484.403687 200.0
1484.455933 148.0
1485.147583 172.0
1485.991455 204.0
1486.129517 212.0
1487.104126 176.0
1487.864136 176.0
1489.522827 212.0
1489.845459 136.0
1490.268066 124.0
1490.921143 172.0
1490.998047 52.0
1491.14563 76.0
1491.459229 260.0
1493.56604 160.0
1493.858398 88.0
1494.327637 108.0
1495.443481 140.0
1496.244019 176.0
1496.590454 200.0
1496.967773 180.0
1497.622437 128.0
1498.03833 88.0
1498.377808 176.0
1498.446655 152.0
1498.639282 200.0
1498.978271 212.0
1499.040039 172.0
1499.425293 196.0
1500.080444 52.0
1500.219238 188.0
1500.334839 184.0
1500.581543 52.0
1500.677368 228.0
1501.375854 100.0
1501.638062 168.0
1501.786743 196.0
1502.039062 80.0
1502.309082 208.0
1504.099365 172.0
