>compound MLS001076149-01!
>formula C19H24O2
>ionization [M+H]+
>parentmass 285.18490646009053
#inchi InChI=1S/C19H24O2/c1-19-10-9-15-14-6-4-13(21-2)11-12(14)3-5-16(15)17(19)7-8-18(19)20/h4,6,11,15-17H,3,5,7-10H2,1-2H3/t15-,16-,17+,19+/m1/s1
#inchikey BCWWDWHFBMPLFQ
#Ion_Source LC-ESI
#Instrument qTof
#Compound_Source NIH Pharmacologically Active Library
#PI Dorrestein
#Data_Collector VP/LMS
#Scan -1
#Precursor_MZ 285.189
#ExactMass 284.178
#Charge 1
#CAS_Number N/A
#Pubmed_ID N/A
#Smiles COc1ccc2[C@H]3CC[C@@]4(C)[C@@H](CCC4=O)[C@@H]3CCc2c1
#INCHI_AUX N/A
#Library_Class 1
#SpectrumID CCMSLIB00000085462
#IonMode Positive
#UpdateWorkflowName UPDATE-SINGLE-ANNOTATED-GOLD
#LibraryQualityString Gold
#TaskID d252d724072548979f1f6f1ced849daf
##Scan# 2532
#SpectrumFile p4-B04_GB4_01_18340.mzXML
#LibraryName Pharm_Active_Library.mgf
#MQScore -1
#Organism Pharm_Active_Library
#TIC_Query 0
#RT_Query -1
#MZErrorPPM -1
#SharedPeaks 0
#MassDiff 0
#LibMZ -1
#SpecMZ 285.189
#SpecCharge 0
#internalFilename spec-00000.mgf

>collision 10
44.980904 184.0
45.016949 124.0
45.146576 184.0
45.252281 188.0
45.460045 244.0
45.636005 136.0
45.715366 144.0
45.800186 148.0
45.819042 288.0
46.144299 216.0
46.168636 196.0
46.222748 68.0
46.463921 88.0
46.776474 120.0
46.798256 196.0
46.818684 192.0
46.953754 176.0
46.965874 116.0
47.077789 172.0
47.296535 144.0
47.458187 136.0
47.542076 256.0
47.648964 152.0
47.676445 200.0
47.720428 176.0
47.747932 156.0
47.835991 184.0
47.964096 264.0
48.132404 216.0
48.223583 116.0
48.323147 32.0
48.354973 184.0
48.468525 136.0
48.510101 188.0
48.73632 136.0
48.850319 120.0
48.911545 152.0
49.000671 160.0
49.070354 136.0
49.12056 120.0
49.179161 144.0
49.587563 48.0
49.900593 136.0
49.96529 104.0
50.393887 148.0
50.490005 132.0
50.579144 128.0
50.659855 128.0
50.900963 100.0
50.940544 184.0
50.994724 216.0
51.07719 120.0
51.189625 96.0
51.31691 156.0
51.656322 176.0
51.666336 148.0
51.703541 168.0
51.813793 112.0
51.869682 112.0
52.036091 172.0
52.161072 236.0
52.18047 172.0
52.55423 192.0
52.635059 192.0
52.737629 140.0
52.766541 152.0
52.788227 228.0
52.870686 132.0
52.927139 188.0
52.945965 168.0
52.977333 256.0
53.118443 192.0
53.33334 172.0
53.363869 220.0
53.545761 240.0
53.569065 172.0
53.73526 156.0
53.944092 236.0
54.178234 136.0
54.207535 168.0
54.521576 80.0
54.759911 232.0
54.908859 188.0
54.945641 184.0
55.1642 132.0
55.180462 152.0
55.284004 132.0
55.706558 132.0
55.723907 136.0
55.754105 136.0
55.975754 156.0
56.468491 224.0
56.53405 152.0
56.883266 136.0
56.940323 164.0
57.119179 92.0
57.304344 160.0
57.822285 224.0
57.94342 112.0
58.052555 212.0
58.09502 152.0
58.148129 156.0
58.213406 212.0
58.251377 212.0
58.306076 184.0
58.397297 84.0
58.714729 140.0
58.871262 160.0
59.014896 132.0
59.126564 172.0
59.35788 80.0
59.370148 124.0
59.49136 160.0
59.929668 140.0
60.097729 160.0
60.264481 128.0
60.330936 208.0
60.364948 192.0
60.5042 100.0
60.659111 88.0
60.794044 96.0
60.832848 124.0
61.028599 148.0
61.13126 148.0
61.16394 128.0
61.252697 116.0
61.508419 228.0
61.716198 140.0
61.800659 132.0
61.830391 132.0
61.878914 228.0
61.939987 132.0
62.201851 212.0
62.297638 192.0
62.336918 48.0
62.508316 152.0
62.607491 204.0
62.765068 104.0
62.910217 116.0
62.963902 216.0
62.981274 224.0
63.104813 204.0
63.329243 316.0
63.535313 200.0
63.60672 220.0
63.835499 180.0
63.922989 144.0
64.004166 164.0
64.267166 152.0
64.2911 88.0
64.404449 100.0
64.492332 300.0
64.796371 232.0
64.963097 156.0
64.977531 144.0
65.057777 180.0
65.297188 228.0
65.364754 44.0
65.643425 136.0
65.654716 144.0
65.759575 132.0
65.859634 140.0
65.871262 164.0
66.162071 168.0
66.382423 108.0
66.463524 72.0
66.647003 116.0
66.812836 144.0
66.864906 44.0
67.099464 192.0
67.119026 156.0
67.148384 128.0
67.295242 128.0
67.414482 228.0
67.528923 136.0
67.643456 180.0
67.8843 168.0
67.989288 112.0
68.746284 180.0
68.956017 216.0
69.190903 52.0
69.260452 140.0
69.583824 168.0
69.645264 184.0
69.736649 172.0
69.779869 148.0
69.912933 116.0
69.964531 220.0
70.016151 172.0
70.077782 92.0
70.156113 136.0
70.219475 108.0
70.234482 192.0
70.291206 228.0
70.351463 152.0
70.379669 176.0
70.613625 184.0
70.697266 116.0
70.729065 164.0
71.06591 168.0
71.296127 156.0
71.314438 148.0
71.516273 160.0
71.777397 176.0
72.160667 160.0
72.209709 164.0
72.287529 204.0
72.631447 188.0
72.728157 60.0
72.965981 220.0
73.103752 44.0
73.139488 224.0
73.381393 148.0
73.424019 136.0
73.44278 160.0
73.58783 180.0
73.674934 180.0
73.835602 144.0
73.904022 136.0
73.938248 192.0
74.231186 192.0
74.41478 192.0
74.579689 36.0
74.60891 164.0
75.106567 92.0
75.464035 108.0
75.740921 124.0
75.765175 140.0
75.858749 180.0
76.018311 156.0
76.271873 176.0
76.426651 200.0
76.445793 108.0
76.506714 160.0
76.571899 228.0
76.647781 152.0
76.908615 160.0
77.364784 184.0
77.40062 156.0
77.663498 44.0
77.695068 136.0
78.599403 104.0
78.69648 148.0
78.79892 172.0
78.843094 208.0
79.145584 56.0
79.173912 172.0
79.191628 160.0
79.393661 196.0
79.778954 128.0
79.999542 164.0
80.019127 148.0
80.081451 184.0
80.117073 124.0
80.220428 160.0
80.363106 152.0
80.380943 84.0
80.589851 236.0
80.707817 216.0
80.809769 164.0
80.836609 76.0
80.963707 176.0
81.04969 180.0
81.124962 156.0
81.155441 216.0
81.263054 236.0
81.567421 156.0
81.740997 172.0
81.785988 116.0
81.821991 100.0
81.845398 172.0
81.897621 36.0
82.14817 204.0
82.191475 192.0
82.236588 168.0
82.399109 200.0
82.435242 112.0
82.588913 196.0
82.605194 180.0
82.715569 208.0
82.749969 248.0
82.78437 328.0
83.315804 188.0
83.504845 200.0
83.828896 112.0
84.126183 112.0
84.173653 192.0
84.279594 216.0
84.394745 248.0
84.856125 76.0
84.909302 112.0
85.098305 164.0
85.190132 244.0
85.36657 156.0
85.441986 160.0
85.543198 224.0
85.594749 208.0
85.667328 176.0
86.090782 176.0
86.360611 136.0
86.393906 144.0
86.412407 172.0
86.717949 152.0
86.801369 180.0
87.126167 152.0
87.313904 88.0
87.356682 164.0
87.377144 176.0
87.403191 52.0
87.418083 192.0
87.449715 156.0
87.531631 80.0
87.589363 200.0
87.606125 144.0
87.803703 152.0
88.460045 200.0
88.478241 36.0
88.536659 160.0
88.658051 156.0
88.770531 132.0
88.813667 184.0
88.971291 232.0
89.048279 36.0
89.428062 128.0
89.601303 164.0
89.784134 156.0
89.897324 76.0
89.918083 120.0
90.014359 172.0
90.05024 112.0
90.063461 124.0
90.208961 104.0
90.250549 216.0
90.691635 128.0
90.884979 172.0
91.055733 1532.0
91.076805 60.0
91.23262 124.0
91.77903 180.0
91.817169 116.0
91.948807 140.0
91.983162 156.0
92.05999 592.0
92.19516 176.0
92.231476 164.0
92.265884 80.0
92.380623 136.0
92.432281 248.0
92.503098 168.0
92.581596 120.0
92.609947 244.0
92.769363 188.0
92.782555 136.0
92.855644 176.0
93.070572 196.0
93.149307 168.0
93.270363 148.0
93.558907 164.0
93.641701 224.0
93.745735 164.0
93.797768 172.0
94.044662 148.0
94.067825 148.0
94.280281 92.0
94.607155 128.0
94.642006 184.0
94.711723 204.0
94.748528 140.0
94.901634 240.0
94.994728 64.0
95.05014 580.0
95.085915 420.0
95.303406 100.0
95.466682 228.0
95.488075 196.0
95.608696 156.0
96.013908 148.0
96.049019 184.0
96.130959 176.0
96.1856 212.0
96.232452 212.0
96.490349 144.0
96.607681 148.0
96.662468 188.0
96.946404 188.0
96.97776 148.0
97.003029 172.0
97.18367 184.0
97.623665 240.0
97.727554 240.0
97.871597 216.0
97.895226 108.0
98.005531 240.0
98.096191 120.0
98.125763 100.0
98.220413 164.0
98.317154 236.0
98.397514 140.0
98.678566 124.0
98.860535 148.0
98.923874 236.0
99.318192 188.0
99.379692 120.0
99.824623 104.0
100.302437 140.0
100.360252 164.0
100.52581 152.0
100.673531 192.0
100.943298 192.0
100.987297 152.0
101.037819 244.0
101.431801 160.0
101.477905 68.0
101.588203 144.0
101.703857 220.0
101.722656 220.0
101.905403 152.0
102.046326 188.0
102.076256 168.0
102.299576 96.0
102.444565 60.0
102.472771 160.0
102.70459 156.0
102.738884 100.0
102.952835 176.0
103.055084 544.0
103.086159 220.0
103.179138 164.0
103.468437 148.0
103.555504 116.0
103.595108 128.0
103.737869 276.0
103.758141 276.0
103.847359 168.0
104.011063 112.0
104.044189 140.0
104.060875 656.0
104.206657 68.0
104.346893 176.0
104.576759 176.0
104.690765 144.0
104.890427 132.0
104.984215 124.0
105.029083 92.0
105.070679 908.0
105.224983 120.0
105.339348 68.0
105.537582 204.0
105.558029 132.0
105.705307 168.0
105.944855 216.0
105.981735 152.0
106.04731 152.0
106.074661 384.0
106.131355 148.0
106.348808 120.0
106.46994 112.0
106.665123 204.0
106.698013 124.0
106.909874 192.0
106.924278 56.0
107.008675 36.0
107.027206 140.0
107.050247 1092.0
107.087738 560.0
107.15078 144.0
107.858597 176.0
107.949562 136.0
108.054245 392.0
108.092293 140.0
108.243401 152.0
108.340744 128.0
108.529343 136.0
108.772064 184.0
108.979736 76.0
109.098198 220.0
109.28537 160.0
109.510193 236.0
109.55394 168.0
109.595604 144.0
109.785294 152.0
109.931313 48.0
110.434799 120.0
110.704773 140.0
110.901703 180.0
110.977173 180.0
111.019104 188.0
111.077339 220.0
111.365395 116.0
111.518768 132.0
111.569214 64.0
111.766914 76.0
112.057472 200.0
112.441246 184.0
112.580574 60.0
112.692528 184.0
112.751694 220.0
113.11972 220.0
113.181114 96.0
113.270058 184.0
113.469261 92.0
113.4841 40.0
113.50106 76.0
113.543472 180.0
113.579529 144.0
113.751404 156.0
113.842697 164.0
114.274231 208.0
114.310364 244.0
114.504082 76.0
114.715019 172.0
114.815231 208.0
115.05574 4896.0
115.301979 60.0
115.432381 60.0
115.624916 44.0
115.87973 196.0
115.933296 120.0
115.986877 144.0
116.063354 536.0
116.267838 160.0
116.304321 116.0
116.476097 180.0
116.655312 160.0
117.071625 1352.0
117.120819 168.0
117.497398 204.0
117.590401 200.0
117.787888 108.0
117.835419 160.0
117.872147 108.0
117.97805 96.0
118.038589 132.0
118.07309 176.0
118.138077 120.0
118.190002 40.0
118.300377 112.0
118.352333 196.0
118.516945 120.0
118.607971 164.0
118.666496 176.0
118.684982 160.0
119.034805 188.0
119.052017 524.0
119.086754 1348.0
119.25695 148.0
119.517906 184.0
119.613663 96.0
120.05262 216.0
120.088661 188.0
120.382149 224.0
120.422592 240.0
120.54493 152.0
120.579895 240.0
120.858337 156.0
121.065308 2464.0
121.100861 188.0
121.14003 76.0
121.46006 56.0
121.604874 156.0
121.644379 176.0
121.804672 168.0
121.857399 180.0
121.969475 160.0
122.033226 208.0
122.050812 44.0
122.068878 336.0
122.121185 260.0
122.141701 172.0
122.339027 60.0
122.829941 92.0
122.86351 136.0
122.967216 148.0
123.077965 168.0
123.148262 60.0
123.305122 136.0
123.473145 160.0
123.621368 172.0
123.800674 52.0
124.068771 180.0
124.164116 204.0
124.705833 128.0
124.730278 192.0
124.77919 124.0
124.997154 80.0
125.072823 132.0
125.186371 208.0
125.226456 132.0
125.24427 248.0
125.351212 116.0
125.728073 156.0
125.902206 76.0
126.045174 288.0
126.112213 156.0
126.6716 112.0
126.803795 108.0
127.05513 268.0
127.090828 104.0
127.290192 176.0
127.683861 76.0
127.755836 152.0
127.823334 192.0
127.893097 176.0
128.063202 5332.0
128.098007 220.0
128.286697 216.0
128.404541 76.0
128.679825 100.0
128.71962 148.0
128.982544 192.0
129.070862 1868.0
129.315018 184.0
129.33313 148.0
129.380661 212.0
129.831558 128.0
129.981277 160.0
130.041138 164.0
130.078995 1016.0
130.144699 172.0
130.162872 164.0
130.221909 188.0
130.242035 120.0
130.578949 84.0
130.60376 132.0
130.68338 200.0
130.772125 120.0
130.849518 204.0
131.024872 168.0
131.049484 1528.0
131.088837 404.0
131.17984 40.0
131.280167 140.0
131.353149 184.0
131.647568 132.0
131.796036 180.0
131.876022 140.0
132.058151 1356.0
132.092026 280.0
132.127548 180.0
132.264847 100.0
132.292313 112.0
132.367874 192.0
132.395355 56.0
132.702393 200.0
132.757431 164.0
132.912292 68.0
132.929474 144.0
133.061935 180.0
133.103607 496.0
133.161331 56.0
133.404892 160.0
133.832809 188.0
134.10318 252.0
134.169189 100.0
134.877853 184.0
134.933334 100.0
134.951843 140.0
135.082565 1448.0
135.122986 208.0
135.238678 144.0
135.35907 164.0
135.484131 144.0
135.669525 124.0
135.857361 168.0
136.008194 68.0
136.085754 392.0
136.156586 188.0
136.463516 108.0
136.647247 136.0
136.689133 220.0
136.733337 240.0
136.779892 208.0
136.861374 212.0
137.010437 168.0
137.075668 132.0
137.208527 236.0
137.39975 144.0
137.417618 116.0
137.679855 240.0
138.197006 216.0
138.306427 148.0
138.360275 180.0
138.610886 68.0
138.753845 164.0
138.882828 96.0
139.091644 216.0
139.300797 172.0
139.404007 208.0
139.679092 112.0
140.055695 128.0
140.098099 172.0
140.131073 40.0
140.605042 96.0
140.80098 56.0
140.926178 176.0
140.963989 248.0
141.014008 400.0
141.069717 1904.0
141.102692 140.0
141.15303 172.0
141.176727 92.0
141.24295 160.0
141.328125 140.0
141.614563 200.0
141.645355 232.0
142.041199 36.0
142.077621 588.0
142.147964 56.0
142.164581 60.0
142.356857 224.0
142.444733 148.0
142.608673 48.0
142.708527 120.0
142.737061 56.0
142.765594 84.0
142.998734 172.0
143.049423 488.0
143.085617 1312.0
143.251129 60.0
143.270187 108.0
143.303543 48.0
143.439377 76.0
143.472748 140.0
143.529968 60.0
143.62059 224.0
143.69693 188.0
143.773285 192.0
143.911728 144.0
144.057571 716.0
144.090515 196.0
144.222275 224.0
144.432693 56.0
144.537949 128.0
144.664795 132.0
144.86116 168.0
145.012115 108.0
145.066101 2048.0
145.102325 460.0
145.151154 56.0
145.177536 64.0
145.356018 64.0
145.513458 112.0
145.655136 156.0
145.670883 100.0
145.705582 52.0
146.025284 168.0
146.042114 224.0
146.071198 696.0
146.122574 176.0
146.227371 136.0
146.256256 56.0
146.424789 152.0
146.557281 116.0
146.605469 156.0
146.701889 48.0
146.911682 140.0
146.981644 156.0
147.004166 112.0
147.034744 164.0
147.081406 16148.0
147.117874 420.0
147.154922 76.0
147.186813 72.0
147.247192 88.0
147.295044 160.0
147.348648 48.0
147.370392 44.0
147.483963 56.0
147.508133 44.0
147.563736 124.0
147.592758 48.0
147.612091 32.0
147.629028 48.0
147.776566 180.0
147.987137 188.0
148.019821 160.0
148.084152 2812.0
148.117905 44.0
148.20195 52.0
148.265701 76.0
148.466919 160.0
148.561508 276.0
148.58577 144.0
148.70224 148.0
148.741074 76.0
148.81633 60.0
148.879471 52.0
149.013062 148.0
149.090286 480.0
149.11998 140.0
149.163727 84.0
149.214783 132.0
149.370422 168.0
149.613754 148.0
149.81102 160.0
150.032776 156.0
150.323013 48.0
150.386475 168.0
150.667282 144.0
151.124466 152.0
151.523544 116.0
151.562744 164.0
151.731857 72.0
152.011459 136.0
152.062119 176.0
152.180832 176.0
152.271683 168.0
152.475601 76.0
152.982285 180.0
153.068665 640.0
153.137405 48.0
153.206375 120.0
153.277832 72.0
153.445419 164.0
153.482407 228.0
153.502136 184.0
153.556396 176.0
154.078369 804.0
154.304581 160.0
154.534592 116.0
155.024857 172.0
155.052444 180.0
155.084808 516.0
155.488602 148.0
155.617691 48.0
155.672318 200.0
155.719498 132.0
155.746811 172.0
156.05838 972.0
156.09346 264.0
156.236511 116.0
156.258911 208.0
156.472931 72.0
156.632309 72.0
156.677155 92.0
156.69957 96.0
156.968765 136.0
157.064972 728.0
157.100952 196.0
157.333023 80.0
157.455383 184.0
157.637741 208.0
157.697723 224.0
157.750214 92.0
158.015289 132.0
158.072662 11056.0
158.117889 80.0
158.146484 84.0
158.185364 160.0
158.260574 80.0
158.293121 156.0
158.395813 60.0
158.425095 232.0
158.453415 108.0
158.508545 68.0
158.579681 72.0
158.603775 140.0
158.839478 68.0
158.932297 136.0
159.002563 84.0
159.078979 5348.0
159.115036 308.0
159.148148 88.0
159.21344 68.0
159.243576 112.0
159.316422 92.0
159.349075 32.0
159.524994 108.0
159.577789 56.0
159.746292 132.0
159.766403 60.0
160.015564 116.0
160.08577 364.0
160.196167 128.0
160.320343 148.0
160.388382 100.0
160.476608 140.0
160.70108 64.0
160.738937 104.0
160.986313 36.0
161.054504 152.0
161.095718 956.0
161.13028 148.0
161.160599 136.0
161.18335 80.0
161.221252 164.0
161.603073 204.0
161.725571 68.0
162.081604 32.0
162.105759 360.0
162.373123 176.0
162.652222 84.0
162.677597 44.0
163.075012 156.0
163.106888 224.0
163.442581 188.0
163.636017 44.0
163.829575 108.0
164.234863 184.0
164.68663 196.0
164.80925 196.0
164.962601 36.0
165.019608 80.0
165.069901 604.0
165.38208 252.0
165.627884 152.0
165.727798 48.0
165.968735 140.0
166.017456 176.0
166.073059 304.0
166.70285 148.0
166.821075 196.0
166.864792 68.0
166.931641 192.0
166.970215 80.0
167.029373 72.0
167.085007 524.0
167.1194 144.0
167.196609 124.0
167.230057 168.0
167.57254 88.0
167.724594 84.0
168.053192 180.0
168.092575 440.0
168.330856 136.0
168.522003 156.0
168.568512 148.0
168.81926 32.0
169.073029 668.0
169.10318 184.0
169.191833 64.0
169.217728 116.0
169.481903 208.0
169.53891 232.0
169.720367 204.0
170.073685 984.0
170.223755 124.0
170.312057 80.0
170.402969 76.0
170.436752 144.0
170.629074 152.0
170.71228 100.0
170.764297 80.0
170.831924 140.0
170.954208 76.0
171.010773 168.0
171.0401 104.0
171.080917 18736.0
171.196304 56.0
171.252426 68.0
171.275345 52.0
171.378632 152.0
171.406479 128.0
171.435959 136.0
171.471924 120.0
171.64711 76.0
171.774902 76.0
172.086121 3296.0
172.116791 84.0
172.145645 76.0
172.283936 56.0
172.377991 92.0
172.400711 144.0
172.485153 128.0
172.55835 52.0
172.600174 108.0
172.644638 112.0
172.723099 96.0
172.772797 136.0
172.819885 168.0
172.859131 196.0
172.887924 128.0
172.908859 160.0
172.962509 60.0
173.00119 156.0
173.037659 1624.0
173.09671 20512.0
173.183762 160.0
173.22818 100.0
173.245209 160.0
173.34552 140.0
173.369766 72.0
173.464127 64.0
173.490341 100.0
173.508698 60.0
173.560822 68.0
173.602829 144.0
173.652908 76.0
173.715866 68.0
173.734222 64.0
173.794571 88.0
173.868042 36.0
173.886414 116.0
173.915283 68.0
173.936279 72.0
174.042114 436.0
174.099182 2560.0
174.172592 64.0
174.340744 108.0
174.374908 48.0
174.409073 108.0
174.461655 116.0
174.722 112.0
174.764099 96.0
174.811462 36.0
174.837769 80.0
175.019409 148.0
175.072067 164.0
175.09758 140.0
175.127243 220.0
175.177414 28.0
175.234924 164.0
175.274902 88.0
175.33287 120.0
175.369766 108.0
175.425125 96.0
175.506851 148.0
175.546402 228.0
175.572769 120.0
176.079483 132.0
176.66626 196.0
176.994446 220.0
177.044754 64.0
177.070297 180.0
177.091949 400.0
177.516449 120.0
178.077576 536.0
179.084641 1900.0
179.153671 44.0
179.206955 40.0
179.284225 92.0
179.577499 140.0
180.09288 748.0
180.247559 108.0
180.637878 236.0
181.066284 820.0
181.104706 808.0
181.213455 76.0
181.821472 80.0
182.070496 596.0
182.101624 80.0
182.110092 176.0
182.20343 116.0
182.97258 144.0
183.079514 592.0
183.115784 156.0
183.241898 168.0
183.522202 92.0
183.576126 96.0
183.764938 132.0
183.85939 184.0
184.087799 736.0
184.183365 168.0
184.461685 124.0
185.035187 156.0
185.096436 2700.0
185.125977 128.0
185.306015 76.0
185.387314 104.0
185.539093 164.0
185.574341 84.0
185.840134 76.0
186.102798 940.0
186.807281 92.0
186.921555 160.0
187.014084 136.0
187.060349 144.0
187.112411 1232.0
187.568405 180.0
188.118866 228.0
189.085129 352.0
189.389496 100.0
191.085693 160.0
191.581512 100.0
192.096115 160.0
192.848053 124.0
193.06369 120.0
193.10231 204.0
193.730728 136.0
194.035568 36.0
194.078629 188.0
194.087463 184.0
194.113602 312.0
194.18808 84.0
194.21582 68.0
194.712616 48.0
194.982101 172.0
195.07933 1092.0
195.116043 268.0
195.282364 60.0
195.315735 188.0
196.050751 116.0
196.090515 1660.0
196.429932 72.0
196.597504 64.0
196.65593 52.0
197.094864 2808.0
197.689972 40.0
197.86351 144.0
197.978302 64.0
198.104416 1212.0
198.524765 72.0
198.749161 168.0
198.934387 68.0
199.046692 44.0
199.07196 92.0
199.111084 1924.0
199.198349 92.0
199.44281 40.0
199.555252 76.0
200.116867 624.0
200.312271 72.0
202.181366 36.0
202.795944 156.0
205.10675 164.0
205.312027 68.0
205.78569 76.0
205.997025 152.0
206.268478 164.0
207.118622 188.0
207.65715 60.0
208.088272 700.0
208.127777 172.0
208.162231 44.0
208.958405 140.0
209.096161 712.0
209.138077 156.0
209.168472 36.0
210.103958 516.0
210.503326 32.0
210.757507 40.0
211.00029 76.0
211.0271 280.0
211.11235 4628.0
211.180176 232.0
211.251877 40.0
211.286591 108.0
211.324203 44.0
211.431274 60.0
211.471786 60.0
211.885864 128.0
211.993729 88.0
212.051041 124.0
212.118256 1708.0
212.265564 52.0
212.323563 52.0
212.480194 128.0
213.055008 156.0
213.089874 68.0
213.126114 356.0
213.540436 136.0
214.070084 140.0
214.128113 164.0
214.343903 32.0
214.574158 104.0
214.792862 120.0
214.813278 48.0
215.017517 56.0
215.105087 148.0
215.140152 148.0
215.537308 68.0
216.119171 164.0
216.160141 244.0
217.123917 84.0
219.163971 76.0
220.022217 128.0
221.129395 212.0
222.102493 108.0
222.13356 160.0
222.509048 176.0
223.111374 616.0
223.150772 116.0
223.228073 140.0
223.296478 36.0
224.118622 424.0
224.219391 20.0
224.863586 124.0
225.063583 128.0
225.126404 1908.0
225.227829 60.0
225.362274 92.0
226.132721 836.0
226.517029 76.0
226.789703 128.0
227.017548 136.0
227.110519 156.0
227.143539 2256.0
227.221512 28.0
227.464584 144.0
227.503601 40.0
228.068329 176.0
228.110413 164.0
228.143494 300.0
228.55249 60.0
228.62471 72.0
229.090393 156.0
229.639984 100.0
234.119308 76.0
235.151398 176.0
235.910309 76.0
236.161041 172.0
236.592499 152.0
237.128387 428.0
238.134628 288.0
239.144791 176.0
239.377274 56.0
239.725357 88.0
240.149094 160.0
241.163513 44.0
243.136353 68.0
245.497528 84.0
248.713715 176.0
250.726593 140.0
251.143326 312.0
251.60347 108.0
251.631882 40.0
251.960327 88.0
252.150375 400.0
253.155914 116.0
255.180298 140.0
256.208252 188.0
256.393066 76.0
258.35672 64.0
259.432709 56.0
263.940125 40.0
265.306396 52.0
265.783142 132.0
266.159668 260.0
266.780212 96.0
266.998047 120.0
267.172302 1764.0
267.33963 200.0
268.175201 512.0
268.352631 120.0
269.187988 208.0
270.099762 140.0
270.181549 88.0
271.285126 56.0
273.209503 56.0
274.807343 52.0
280.864929 132.0
282.729218 112.0
284.335175 196.0
285.172791 160.0
285.338837 88.0
285.860168 44.0
286.153015 76.0
286.183319 140.0
286.213623 80.0
286.94812 88.0
287.329193 96.0
288.957611 104.0
289.604156 56.0
291.361267 80.0
291.775879 48.0
296.054626 108.0
304.841064 80.0
309.539795 80.0
317.837463 72.0
320.700226 72.0
329.943665 120.0
330.464478 52.0
331.119659 144.0
346.875763 100.0
364.231476 124.0
373.089355 80.0
407.734314 76.0
416.752686 80.0
425.888153 92.0
433.019318 56.0
435.956512 92.0
445.398712 116.0
452.652618 128.0
471.618408 44.0
476.962769 80.0
532.668518 76.0
559.709595 80.0
571.33844 40.0
583.158936 48.0
628.688477 100.0
632.511841 72.0
640.66687 52.0
641.558838 64.0
650.619324 164.0
653.969116 84.0
704.006714 36.0
713.84729 96.0
718.054382 176.0
720.09845 96.0
728.685242 48.0
738.231079 132.0
741.14325 64.0
743.442383 176.0
754.105835 56.0
764.536987 64.0
770.945007 172.0
813.311462 176.0
818.798035 100.0
824.177307 156.0
832.109863 108.0
834.19519 204.0
846.171509 160.0
850.124573 228.0
854.046143 148.0
861.717651 144.0
869.734497 108.0
880.739258 64.0
931.144348 192.0
934.883179 104.0
935.595276 124.0
941.882263 156.0
942.034973 148.0
945.789429 216.0
950.054321 168.0
951.74823 212.0
961.43103 164.0
967.649292 184.0
982.18457 84.0
988.119141 272.0
995.471375 196.0
1009.618835 128.0
1010.358887 184.0
1026.759399 192.0
1029.937866 204.0
1033.274658 140.0
1035.105225 156.0
1038.572266 224.0
1040.369019 192.0
1046.676147 144.0
1050.549561 144.0
1052.246826 64.0
1054.488281 148.0
1060.676025 176.0
1074.227295 192.0
1080.91748 216.0
1084.919189 168.0
1086.985229 172.0
1090.137085 184.0
1094.425903 164.0
1102.724487 176.0
1102.836914 136.0
1109.396606 208.0
1110.550293 136.0
1112.421509 40.0
1113.111938 160.0
1113.51709 172.0
1118.157593 132.0
1125.470337 76.0
1129.199219 116.0
1131.594727 88.0
1131.795654 132.0
1134.509033 84.0
1135.44104 200.0
1136.890015 160.0
1137.078003 140.0
1140.933594 148.0
1143.105957 156.0
1145.25354 216.0
1145.549927 204.0
1148.981323 96.0
1150.864258 152.0
1152.505615 132.0
1154.567261 44.0
1157.849487 56.0
1160.532959 188.0
1160.580444 84.0
1164.074951 140.0
1164.557129 196.0
1165.256714 140.0
1168.438477 164.0
1171.699463 104.0
1172.455811 156.0
1175.224365 176.0
1178.699829 80.0
1184.754761 92.0
1187.140015 84.0
1192.728516 172.0
1193.127197 184.0
1197.00769 256.0
1198.233765 192.0
1198.695312 148.0
1199.088135 180.0
1202.902466 68.0
1203.751587 156.0
1204.725464 140.0
1208.182007 140.0
1208.700806 92.0
1213.029419 140.0
1213.819702 176.0
1216.678223 196.0
1217.025391 144.0
1217.775391 276.0
1219.755615 236.0
1223.282349 172.0
1226.131104 128.0
1232.683838 100.0
1233.669312 160.0
1234.228638 112.0
1239.835693 176.0
1241.483154 196.0
1244.156372 168.0
1245.42041 168.0
1250.278564 224.0
1253.785645 212.0
1255.280151 184.0
1257.904663 36.0
1258.285889 140.0
1260.64502 184.0
1267.353027 140.0
1267.544312 204.0
1268.416016 172.0
1269.394409 168.0
1270.706543 100.0
1276.154053 168.0
1279.469482 140.0
1281.000488 184.0
1283.088501 52.0
1290.742432 128.0
1292.130005 292.0
1293.511108 184.0
1296.218262 188.0
1296.641113 220.0
1298.368896 188.0
1300.298706 120.0
1302.201294 84.0
1304.824097 196.0
1305.866699 80.0
1308.730835 172.0
1311.30249 140.0
1312.722656 100.0
1313.148193 164.0
1315.218872 184.0
1318.483398 204.0
1320.138916 140.0
1322.11377 80.0
1322.215698 184.0
1326.698608 172.0
1327.256958 188.0
1327.481689 156.0
1328.584106 180.0
1330.536377 124.0
1331.393188 168.0
1335.804932 116.0
1335.935913 144.0
1340.566528 184.0
1342.709717 136.0
1343.694458 232.0
1346.146973 128.0
1347.878174 172.0
1348.082764 248.0
1351.292603 184.0
1352.888062 268.0
1353.97168 128.0
1356.741455 224.0
1357.885254 156.0
1358.662842 208.0
1360.725098 124.0
1364.030762 144.0
1369.65979 192.0
1371.096558 136.0
1371.877808 156.0
1373.286255 152.0
1374.680542 132.0
1375.927979 188.0
1376.186279 160.0
1379.762207 164.0
1380.871338 172.0
1382.876343 232.0
1384.008911 220.0
1385.630981 156.0
1390.118774 164.0
1390.83667 232.0
1392.173096 232.0
1393.079224 68.0
1394.134277 228.0
1394.669312 124.0
1395.234253 176.0
1395.360718 140.0
1396.795898 144.0
1396.870361 224.0
1397.710938 212.0
1398.328613 188.0
1399.862183 180.0
1400.837891 228.0
1406.169067 116.0
1408.543457 224.0
1409.223267 180.0
1410.202148 120.0
1412.609863 144.0
1416.127808 180.0
1417.176514 104.0
1418.398071 256.0
1418.780396 160.0
1419.432739 144.0
1419.725098 208.0
1420.332642 204.0
1420.506226 252.0
1421.173584 196.0
1421.765625 196.0
1425.084595 164.0
1427.354492 176.0
1428.189331 148.0
1428.527832 188.0
1429.897217 148.0
1433.609985 128.0
1433.851074 72.0
1436.603149 104.0
1437.56897 180.0
1438.821899 180.0
1439.154053 164.0
1439.826172 204.0
1441.510742 160.0
1441.744995 152.0
1446.229858 176.0
1447.282104 108.0
1451.745239 180.0
1451.874146 212.0
1452.845093 128.0
1454.081909 212.0
1454.286743 136.0
1454.415771 156.0
1454.613159 140.0
1455.319214 176.0
1457.028076 44.0
1459.285278 212.0
1463.119629 176.0
1463.279541 164.0
1465.480591 152.0
1465.58728 192.0
1466.280762 144.0
1467.305664 180.0
1469.140137 216.0
1469.285034 128.0
1471.811279 164.0
1472.872803 188.0
1473.514526 148.0
1475.516846 196.0
1476.258545 172.0
1477.543579 120.0
1478.454102 192.0
1479.480957 200.0
1479.632812 188.0
1480.360229 168.0
1480.444458 180.0
1480.858032 92.0
1481.371216 120.0
1481.600952 140.0
1482.236938 220.0
1482.964966 208.0
1483.164185 104.0
1483.892456 160.0
1484.766602 148.0
1485.004395 136.0
1485.51062 212.0
1487.743774 80.0
1488.081543 156.0
1488.688721 160.0
1489.25647 200.0
1493.422241 212.0
1493.529907 188.0
1494.2146 104.0
1494.714722 152.0
1499.573975 152.0
1500.684082 220.0
1502.812744 160.0
1503.237183 188.0
1504.472046 180.0
1504.804077 104.0
