>compound MLS001140564-01!1-[2-(6-oxobenzo[c]chromen-3-yl)oxyacetyl]piperidine-4-carboxamide
>formula C21H20N2O5
>ionization [M+H]+
>parentmass 381.145294
#inchi InChI=1S/C21H20N2O5/c22-20(25)13-7-9-23(10-8-13)19(24)12-27-14-5-6-16-15-3-1-2-4-17(15)21(26)28-18(16)11-14/h1-6,11,13H,7-10,12H2,(H2,22,25)
#inchikey JQLPMTBMSSQHKI
#Ion_Source LC-ESI
#Instrument qTof
#Compound_Source NIH Natural Product Library
#PI Dorrestein
#Data_Collector VVP/LMS
#Scan -1
#Precursor_MZ 381.145
#ExactMass 380.137
#Charge 1
#CAS_Number N/A
#Pubmed_ID N/A
#Smiles NC(=O)C1CCN(CC1)C(=O)COc2ccc3c(c2)oc(=O)c4ccccc43
#INCHI_AUX N/A
#Library_Class 1
#SpectrumID CCMSLIB00000080108
#IonMode Positive
#UpdateWorkflowName UPDATE-SINGLE-ANNOTATED-GOLD
#LibraryQualityString Gold
#TaskID b1d8e8f6646f4e71acdff9ca3d919d08
##Scan# 1791
#SpectrumFile p2-B04_GB4_01_17992.mzXML
#LibraryName NIH_Natural_Products_Library.mgf
#MQScore -1
#Organism NIH_Natural_Products_Library
#TIC_Query 0
#RT_Query -1
#MZErrorPPM -1
#SharedPeaks 0
#MassDiff 0
#LibMZ -1
#SpecMZ 381.145
#SpecCharge 0
#internalFilename spec-00000.mgf

>collision 10
95.075272 184.0
95.269653 152.0
95.962494 180.0
96.052208 172.0
96.081177 512.0
96.771378 152.0
96.896729 152.0
97.051567 88.0
97.067253 116.0
97.088104 304.0
97.222221 52.0
97.292885 152.0
97.640678 144.0
97.800049 28.0
98.024567 232.0
98.061508 520.0
98.083687 160.0
98.375633 180.0
98.430916 116.0
98.650223 116.0
98.705582 100.0
98.913322 160.0
99.04599 116.0
99.147034 104.0
99.200554 92.0
99.242188 220.0
99.319527 60.0
99.400681 212.0
99.535851 176.0
99.565636 40.0
100.056778 220.0
100.255966 168.0
100.279884 96.0
100.69088 156.0
100.920685 108.0
102.049522 72.0
102.106964 188.0
102.339256 188.0
102.498383 36.0
103.00679 172.0
103.047195 148.0
103.806244 140.0
104.035332 172.0
104.054565 188.0
104.09034 64.0
104.330086 152.0
104.486473 192.0
104.604713 164.0
105.248962 60.0
105.506393 156.0
105.772331 36.0
106.130852 48.0
106.309311 120.0
107.082321 192.0
107.412109 224.0
108.083382 216.0
108.773689 204.0
109.064362 192.0
109.081123 128.0
109.57225 32.0
109.599335 180.0
110.016464 180.0
110.059113 536.0
110.089546 144.0
110.321465 176.0
111.06694 376.0
111.092117 180.0
111.560417 120.0
111.678169 220.0
111.899132 152.0
112.019165 164.0
112.076653 1652.0
112.160347 40.0
112.255226 40.0
112.666809 184.0
112.772461 56.0
112.833763 172.0
112.935265 96.0
113.036819 156.0
113.080223 508.0
113.382004 156.0
113.492233 52.0
113.823242 88.0
113.927315 120.0
114.0867 156.0
114.186638 172.0
114.350464 140.0
114.642235 148.0
115.054489 536.0
115.783035 88.0
115.845154 132.0
115.980148 172.0
116.329796 124.0
116.516632 220.0
116.53167 236.0
116.636971 136.0
117.897827 160.0
117.928085 116.0
118.661926 144.0
118.792046 180.0
118.9179 136.0
119.171974 208.0
119.278465 152.0
119.846474 176.0
119.946724 200.0
121.795723 140.0
122.099037 184.0
123.835991 92.0
124.076561 1168.0
124.363686 36.0
125.084114 1332.0
126.091446 760.0
127.01226 172.0
127.087624 5268.0
127.131493 196.0
127.337715 48.0
127.366913 40.0
128.0625 160.0
128.093857 884.0
128.208389 140.0
128.964447 120.0
129.034531 164.0
129.071976 172.0
129.103821 300.0
129.324081 200.0
130.074356 120.0
130.10614 204.0
130.131104 168.0
130.712997 48.0
131.284775 100.0
131.380569 72.0
131.542587 128.0
131.786957 160.0
132.959396 152.0
132.991531 84.0
133.058105 180.0
133.120102 64.0
133.23494 204.0
133.510773 172.0
133.602768 108.0
134.180832 148.0
134.739349 144.0
135.201797 148.0
136.008362 144.0
136.384644 148.0
138.021225 164.0
138.047241 160.0
138.096069 176.0
138.437759 72.0
138.536133 148.0
139.054291 3776.0
139.089539 160.0
139.636993 68.0
139.728729 188.0
140.05983 648.0
140.206741 56.0
140.725693 32.0
140.81543 196.0
141.009171 48.0
141.069656 1048.0
141.101791 2632.0
141.240875 72.0
141.278732 56.0
141.321304 48.0
141.342606 60.0
141.442001 92.0
141.790176 88.0
142.073792 200.0
142.134033 224.0
142.587616 148.0
142.884842 224.0
143.049026 312.0
143.082382 160.0
143.687729 196.0
144.595749 128.0
144.942993 180.0
145.050842 224.0
147.513412 188.0
148.11351 148.0
148.625046 156.0
149.502274 36.0
149.852921 108.0
150.025955 64.0
150.08934 156.0
151.235107 196.0
151.448135 132.0
151.867264 216.0
151.96048 36.0
152.061234 652.0
152.35083 168.0
152.530228 172.0
152.658066 256.0
152.734314 152.0
152.931152 96.0
153.070831 3368.0
153.24884 60.0
153.949371 60.0
154.072113 816.0
154.703491 56.0
154.980881 64.0
155.049377 492.0
155.085876 136.0
155.973572 216.0
156.053589 148.0
156.307083 200.0
156.408875 100.0
156.692444 136.0
156.824829 192.0
157.030167 320.0
157.067383 408.0
157.166489 236.0
158.076172 216.0
158.18866 48.0
158.37146 88.0
158.424057 264.0
158.719376 116.0
159.076065 264.0
159.181519 120.0
159.704254 172.0
161.080536 136.0
161.530487 140.0
161.576019 148.0
161.722778 200.0
162.224335 160.0
163.278061 172.0
163.392532 184.0
163.583389 180.0
163.945068 144.0
164.281631 140.0
164.309692 192.0
164.743683 196.0
164.784561 96.0
165.065475 168.0
165.467438 164.0
165.531448 112.0
165.64119 132.0
165.69281 140.0
165.972183 100.0
166.26976 108.0
166.303116 36.0
166.38269 160.0
166.90683 100.0
167.050156 11200.0
167.087509 328.0
167.122894 40.0
167.146057 48.0
167.197525 64.0
167.233551 164.0
167.256714 52.0
167.422119 132.0
167.529678 48.0
167.707474 240.0
167.756454 120.0
167.911163 92.0
168.052368 1596.0
168.334396 104.0
168.414459 60.0
168.579803 88.0
168.68576 44.0
169.065643 2204.0
169.097565 340.0
169.353043 100.0
169.397385 64.0
169.4207 100.0
169.560623 84.0
170.040436 160.0
170.071793 744.0
170.107422 280.0
170.237732 124.0
170.869705 148.0
171.046753 1012.0
171.085358 164.0
171.106186 188.0
171.236389 96.0
172.073441 120.0
172.091721 52.0
172.562012 40.0
173.025085 136.0
174.535965 132.0
174.654709 152.0
175.12059 60.0
176.355392 68.0
176.405624 92.0
176.439987 68.0
176.633026 132.0
177.690033 144.0
178.032455 244.0
178.074936 52.0
179.056335 172.0
179.090958 144.0
180.127243 40.0
180.553558 248.0
180.660538 88.0
180.772919 156.0
181.062775 548.0
181.979126 204.0
182.059677 208.0
182.110718 124.0
183.049286 144.0
183.162415 164.0
183.496567 176.0
183.620605 132.0
183.777069 148.0
183.984894 252.0
184.052872 164.0
184.082092 116.0
185.055511 148.0
185.207169 92.0
185.724869 136.0
186.455231 92.0
186.776062 140.0
187.832932 156.0
188.160416 208.0
188.387085 108.0
188.961197 228.0
189.111694 132.0
191.07373 172.0
191.985474 136.0
192.957428 140.0
193.0625 204.0
193.433243 200.0
193.757248 136.0
194.106491 108.0
194.718048 156.0
194.975388 128.0
195.043732 4344.0
195.097687 248.0
195.129196 108.0
195.150513 112.0
195.320145 44.0
195.445343 60.0
195.723694 68.0
195.868515 56.0
195.954865 180.0
195.999451 200.0
196.046417 252.0
196.3479 88.0
196.526443 180.0
196.660385 48.0
196.738541 68.0
196.84465 176.0
196.942032 156.0
196.964737 112.0
197.017807 140.0
197.060165 6616.0
197.255341 72.0
197.301392 68.0
197.344803 56.0
197.43988 52.0
197.817612 100.0
197.865204 72.0
198.063873 828.0
198.164871 204.0
198.195694 64.0
198.481598 160.0
198.585373 120.0
199.036514 352.0
199.063904 140.0
199.318085 88.0
199.630096 60.0
200.294312 144.0
202.078476 144.0
202.568253 152.0
204.112183 104.0
205.667694 152.0
205.761902 108.0
205.850403 216.0
205.94751 172.0
206.036072 268.0
206.636444 76.0
206.999954 96.0
207.033432 168.0
207.071548 120.0
207.200455 88.0
207.234833 76.0
207.337997 112.0
207.664841 104.0
208.35376 108.0
208.497437 32.0
208.954636 120.0
209.05925 296.0
209.977234 148.0
210.065048 196.0
210.482239 100.0
210.54866 176.0
211.051468 216.0
211.563568 128.0
211.980652 128.0
212.046295 1372.0
212.566406 32.0
212.630249 96.0
212.850876 136.0
212.938004 148.0
213.060181 820.0
213.083633 96.0
213.31282 32.0
213.382584 40.0
214.05632 176.0
214.136261 104.0
214.270264 156.0
214.523804 160.0
214.555862 100.0
215.080734 164.0
215.516083 212.0
218.524338 168.0
218.665588 184.0
219.278198 28.0
220.083527 208.0
220.201645 112.0
220.627151 100.0
221.061951 160.0
221.387573 160.0
221.971359 144.0
222.060333 128.0
222.737061 72.0
223.011581 164.0
223.051498 4000.0
223.179871 52.0
223.27504 208.0
223.394012 96.0
223.435654 64.0
223.980423 184.0
224.053741 644.0
224.191376 144.0
224.58252 76.0
224.63324 168.0
224.933685 204.0
225.05603 14860.0
225.212311 56.0
225.272049 84.0
225.394547 52.0
225.532013 104.0
225.570877 72.0
225.804092 152.0
225.971619 44.0
225.995544 64.0
226.058395 2204.0
226.384689 48.0
226.407074 92.0
226.465546 60.0
226.992996 36.0
227.060699 428.0
227.130966 76.0
227.199951 40.0
227.440018 44.0
227.473038 60.0
227.650177 80.0
227.716248 140.0
227.821381 48.0
227.88147 220.0
228.013687 96.0
228.073807 196.0
228.112885 44.0
228.293274 100.0
228.567017 216.0
228.747589 52.0
228.825867 48.0
231.077377 176.0
233.63797 152.0
235.033386 148.0
236.075027 176.0
237.054825 296.0
237.091736 324.0
237.603455 44.0
238.057739 112.0
239.032196 328.0
239.075073 300.0
240.06723 188.0
241.271423 80.0
243.074036 196.0
244.48175 76.0
246.858871 64.0
247.077805 140.0
247.202972 104.0
249.058975 188.0
249.090698 124.0
250.046234 116.0
250.7202 96.0
251.042252 140.0
251.070129 136.0
251.092209 176.0
252.644913 176.0
253.050522 884.0
253.171707 52.0
254.050934 132.0
254.081406 40.0
254.268616 80.0
255.075378 100.0
261.057465 180.0
261.0896 156.0
262.097198 72.0
262.277649 104.0
263.087341 120.0
263.455475 156.0
264.063171 156.0
265.057831 160.0
265.102386 212.0
266.08551 624.0
266.124146 168.0
266.822693 48.0
267.087158 444.0
270.0802 376.0
273.00592 128.0
276.072845 164.0
277.085724 108.0
279.070465 208.0
279.09671 340.0
280.062134 156.0
280.103271 172.0
281.566345 160.0
282.074097 792.0
282.923889 188.0
283.075836 200.0
284.043152 92.0
284.080048 92.0
286.012207 204.0
289.85553 104.0
290.080963 108.0
290.197876 32.0
291.100586 176.0
292.028656 160.0
293.076294 600.0
294.028137 104.0
294.074005 1552.0
294.110046 276.0
295.086578 456.0
295.713074 96.0
296.086243 124.0
296.260956 124.0
297.00824 64.0
298.667267 128.0
300.317108 64.0
301.081024 164.0
304.970642 100.0
306.090851 176.0
307.726135 100.0
308.073853 184.0
308.128571 2552.0
308.365387 160.0
309.064819 108.0
309.135559 600.0
310.129425 140.0
310.308197 48.0
310.392334 48.0
311.508423 64.0
312.06369 68.0
316.102417 196.0
318.111938 260.0
319.074707 96.0
319.107819 220.0
321.24707 92.0
323.709656 92.0
326.073792 68.0
327.066467 208.0
328.099335 456.0
330.256134 100.0
330.560028 112.0
331.229797 152.0
332.709351 48.0
332.978058 44.0
333.930267 192.0
334.650787 100.0
334.825592 40.0
335.444977 52.0
335.51062 76.0
335.623627 104.0
335.802338 192.0
335.922699 128.0
336.124146 3136.0
336.236481 52.0
336.269318 40.0
336.320435 52.0
336.445526 60.0
336.725708 92.0
336.985046 64.0
337.076416 56.0
337.126709 864.0
337.678467 44.0
338.100342 160.0
338.138519 168.0
338.433441 52.0
338.481049 48.0
338.634857 28.0
338.876617 128.0
339.250458 120.0
339.80423 100.0
340.593475 48.0
346.104095 160.0
348.952789 52.0
362.590729 100.0
363.134277 344.0
363.16153 184.0
364.119995 96.0
365.119202 164.0
365.195251 152.0
380.171692 164.0
381.145294 280.0
391.631042 92.0
448.398132 96.0
455.17099 72.0
514.941162 52.0
527.628235 40.0
623.6203 148.0
626.954834 152.0
736.871948 200.0
811.936401 148.0
837.242676 68.0
862.989929 104.0
909.587463 152.0
914.979675 56.0
955.366638 152.0
993.034973 228.0
996.795349 56.0
997.128418 116.0
1007.891663 140.0
1020.651123 144.0
1031.067261 168.0
1042.114502 180.0
1051.838745 176.0
1063.262451 84.0
1066.360352 128.0
1078.692383 212.0
1084.301636 148.0
1093.647705 220.0
1110.383179 156.0
1127.406128 192.0
1139.829956 108.0
1142.391479 76.0
1166.016357 152.0
1171.51416 148.0
1187.556885 164.0
1188.078247 144.0
1200.403442 28.0
1204.060913 68.0
1204.40625 64.0
1220.101685 148.0
1227.991089 160.0
1232.682373 140.0
1252.494751 168.0
1259.795532 180.0
1260.141724 144.0
1263.761719 200.0
1264.101318 184.0
1270.102051 168.0
1273.672241 144.0
1274.034546 168.0
1274.38269 136.0
1285.005371 100.0
1285.283569 180.0
1288.882324 164.0
1289.453979 140.0
1298.101807 212.0
1299.550659 120.0
1300.426147 196.0
1311.106201 92.0
1311.315186 192.0
1324.711304 124.0
1332.168457 64.0
1336.581543 128.0
1346.181519 140.0
1346.546753 124.0
1352.139526 160.0
1354.658325 128.0
1356.952026 228.0
1359.255127 180.0
1361.163574 192.0
1361.809937 168.0
1366.521851 180.0
1370.858765 124.0
1376.00708 188.0
1378.562744 152.0
1381.786499 220.0
1382.533813 148.0
1384.888184 248.0
1388.237915 164.0
1389.202148 148.0
1395.893921 192.0
1400.023926 172.0
1407.435913 100.0
1415.541504 204.0
1416.305298 160.0
1416.844727 180.0
1427.743286 204.0
1429.887329 180.0
1431.265015 176.0
1444.956177 96.0
1446.901245 168.0
1457.063599 104.0
1457.823364 192.0
1459.130737 152.0
1463.543579 164.0
1467.688477 180.0
1467.810425 148.0
1473.275146 224.0
1473.680054 112.0
1477.189087 188.0
1477.846924 120.0
1479.247437 72.0
1480.863037 216.0
1481.805298 188.0
1492.143066 116.0
1499.309204 128.0
1500.018311 160.0
1503.851807 176.0
