>compound MLS001049073-01!4-[(2R)-2-[(1R,3R,5S)-3,5-dimethyl-2-oxocyclohexyl]-2-hydroxyethyl]piperidine-2,6-dione
>formula C15H23NO4
>ionization [M+H]+
>parentmass 282.171
#inchi InChI=1S/C15H23NO4/c1-8-3-9(2)15(20)11(4-8)12(17)5-10-6-13(18)16-14(19)7-10/h8-12,17H,3-7H2,1-2H3,(H,16,18,19)/t8-,9+,11+,12+/m0/s1
#inchikey YPHMISFOHDHNIV
#Ion_Source LC-ESI
#Instrument qTof
#Compound_Source NIH Natural Product Library
#PI Dorrestein
#Data_Collector VVP/LMS
#Scan -1
#Precursor_MZ 282.171
#ExactMass 281.163
#Charge 1
#CAS_Number N/A
#Pubmed_ID N/A
#Smiles C[C@H]1C[C@@H](C)C(=O)[C@H](C1)[C@H](O)CC2CC(=O)NC(=O)C2
#INCHI_AUX N/A
#Library_Class 3
#SpectrumID CCMSLIB00000080451
#IonMode Positive
#UpdateWorkflowName UPDATE-SINGLE-ANNOTATED-BRONZE
#LibraryQualityString Bronze
#TaskID b1d8e8f6646f4e71acdff9ca3d919d08
##Scan# 1659
#SpectrumFile p2-B09_GB9_01_17997.mzXML
#LibraryName NIH_Natural_Products_Library.mgf
#MQScore -1
#Organism NIH_Natural_Products_Library
#TIC_Query 0
#RT_Query -1
#MZErrorPPM -1
#SharedPeaks 0
#MassDiff 0
#LibMZ -1
#SpecMZ 282.171
#SpecCharge 0
#internalFilename spec-00000.mgf

>collision 10
95.051155 180.0
95.086929 500.0
95.155968 140.0
95.247238 44.0
95.377426 68.0
96.090172 204.0
96.250221 196.0
96.699852 180.0
97.025017 224.0
97.052467 180.0
97.066193 340.0
97.698624 204.0
98.063042 172.0
100.073608 176.0
100.532066 172.0
103.051125 128.0
104.444855 92.0
104.935638 132.0
105.070038 1284.0
105.176361 68.0
105.251892 40.0
105.356056 132.0
105.370361 164.0
106.072372 300.0
107.05043 704.0
107.087555 856.0
107.118225 48.0
107.402679 52.0
108.040985 188.0
108.055473 412.0
108.140312 64.0
108.359818 60.0
108.633469 196.0
108.841011 152.0
109.023811 164.0
109.064377 248.0
109.10257 184.0
109.583557 208.0
110.054932 176.0
110.39344 52.0
110.722 36.0
111.044754 152.0
111.080414 176.0
112.079041 152.0
112.361572 84.0
112.832535 128.0
113.84111 88.0
114.357727 168.0
114.623932 208.0
114.954453 188.0
115.052025 308.0
116.051773 40.0
117.069313 744.0
117.255569 32.0
117.658936 136.0
118.069344 180.0
118.337807 208.0
118.545753 204.0
119.085899 728.0
120.044044 216.0
120.092484 300.0
120.685493 160.0
120.748917 172.0
121.031593 396.0
121.06601 716.0
121.09964 356.0
121.342331 84.0
122.060089 156.0
122.066406 140.0
122.095497 196.0
122.522522 100.0
122.610664 88.0
122.637108 152.0
122.983398 100.0
123.043747 308.0
123.080963 360.0
123.564575 124.0
123.723923 180.0
123.943184 88.0
125.024628 184.0
125.062462 192.0
125.096123 372.0
125.43222 240.0
125.87619 252.0
126.097359 120.0
126.182304 192.0
126.759781 36.0
127.053177 140.0
128.062607 716.0
128.152908 192.0
128.272339 48.0
128.497864 52.0
129.071823 652.0
129.139404 36.0
129.798416 140.0
130.072876 176.0
130.111526 116.0
131.059952 408.0
131.085175 1004.0
131.123749 56.0
131.374573 116.0
131.7444 104.0
132.056351 160.0
132.084335 164.0
132.162781 176.0
132.987778 188.0
133.066971 328.0
133.079941 192.0
133.102554 408.0
133.392044 172.0
133.456421 148.0
133.861389 168.0
134.0737 340.0
134.102158 176.0
134.216248 376.0
134.985184 168.0
135.04364 324.0
135.080368 264.0
135.119339 200.0
136.03241 164.0
136.146179 156.0
136.164764 116.0
136.43895 80.0
136.618011 188.0
136.785568 220.0
138.052399 232.0
138.072723 204.0
139.012909 136.0
139.038727 204.0
140.072113 232.0
141.047806 204.0
141.06929 628.0
141.964066 184.0
142.080795 148.0
142.203201 60.0
142.521896 56.0
143.08699 1068.0
144.091614 372.0
145.062668 256.0
145.100525 1076.0
145.824539 188.0
146.080948 244.0
146.101547 624.0
147.079605 640.0
147.113052 188.0
147.23877 104.0
147.271057 108.0
147.765717 152.0
147.992554 52.0
148.081482 200.0
148.114319 136.0
149.065933 220.0
149.100754 284.0
149.136002 176.0
149.753845 80.0
149.963379 72.0
150.054016 224.0
150.102341 128.0
150.155991 192.0
151.966187 120.0
152.069244 96.0
152.776932 196.0
152.855652 156.0
153.07135 148.0
153.104294 140.0
154.077667 580.0
154.11319 48.0
154.63002 92.0
154.790939 64.0
154.932114 216.0
155.084991 624.0
155.499954 60.0
155.626556 272.0
156.088318 204.0
156.150879 128.0
157.07045 244.0
157.101761 756.0
158.076065 212.0
158.105499 508.0
159.08316 656.0
159.116699 2912.0
159.280243 40.0
159.501358 104.0
160.095566 140.0
160.122986 672.0
160.344528 144.0
161.054031 192.0
161.097916 656.0
161.131073 228.0
162.97377 176.0
163.024597 156.0
163.069519 172.0
163.11084 804.0
163.151688 92.0
163.347488 56.0
164.066162 132.0
164.122391 180.0
165.092422 216.0
166.083206 164.0
166.594025 148.0
167.088989 436.0
167.1185 36.0
168.093872 380.0
168.128616 188.0
168.78476 120.0
169.10173 828.0
169.196136 68.0
169.722092 164.0
170.099899 364.0
171.0793 72.0
171.113083 196.0
171.120422 240.0
171.429901 40.0
172.090393 348.0
173.099686 504.0
173.133148 752.0
173.623245 60.0
174.13974 140.0
175.058105 32.0
175.114441 92.0
175.144226 172.0
175.303085 120.0
176.105103 160.0
176.631104 156.0
177.094437 320.0
177.128204 1504.0
177.71463 52.0
178.088928 208.0
178.126907 316.0
179.111679 188.0
180.11058 268.0
180.305618 96.0
180.605072 124.0
181.057388 44.0
181.094879 176.0
182.108719 176.0
182.85347 172.0
183.119308 864.0
183.168488 96.0
183.311279 128.0
183.389435 92.0
184.096283 172.0
184.122665 328.0
184.347504 92.0
184.650299 56.0
185.050034 204.0
185.093597 768.0
185.133102 204.0
185.256607 108.0
185.861206 200.0
185.923615 124.0
185.980606 160.0
186.100586 216.0
186.415146 76.0
186.673386 56.0
187.113586 1632.0
187.320236 180.0
187.544586 76.0
188.119385 208.0
189.096405 308.0
189.123322 156.0
189.446426 164.0
190.09404 120.0
190.692184 168.0
191.140854 156.0
192.137833 156.0
193.104675 180.0
193.154419 196.0
193.256775 92.0
193.683105 132.0
194.115463 168.0
196.080902 180.0
197.888229 152.0
198.131897 156.0
199.077133 132.0
199.120514 124.0
200.323105 108.0
201.128052 976.0
202.123703 228.0
202.5802 84.0
203.105087 232.0
203.142792 112.0
203.984863 60.0
204.144073 224.0
205.124313 1244.0
205.508484 72.0
206.122223 148.0
206.626266 252.0
207.102371 136.0
211.104111 152.0
211.130127 172.0
217.120804 140.0
217.323212 148.0
218.160522 120.0
218.792725 172.0
219.104889 164.0
219.137909 968.0
220.143051 156.0
221.113739 328.0
221.136475 236.0
222.124512 152.0
222.728683 56.0
225.018738 76.0
228.134766 184.0
228.206589 64.0
229.123657 1256.0
230.119797 136.0
231.126297 52.0
232.80867 60.0
236.161133 164.0
246.152573 292.0
247.015671 152.0
247.13446 1112.0
248.137772 264.0
252.630875 72.0
258.05014 116.0
264.157318 112.0
271.991028 156.0
343.272705 128.0
344.088135 172.0
347.600677 144.0
366.123718 124.0
366.161804 44.0
379.10498 84.0
392.028595 80.0
409.003784 88.0
412.81723 96.0
443.24115 76.0
450.431152 44.0
470.468384 76.0
487.099365 88.0
511.855469 64.0
585.785828 76.0
585.96405 88.0
599.512085 52.0
611.678162 68.0
672.090149 212.0
764.344727 80.0
768.725464 144.0
774.685608 100.0
787.786194 136.0
802.34906 164.0
818.963623 252.0
822.076416 144.0
824.697754 52.0
830.331482 160.0
832.26532 140.0
840.046204 40.0
893.300232 176.0
900.775269 48.0
903.417419 228.0
927.613464 40.0
933.539124 200.0
969.359131 172.0
1008.923462 152.0
1027.831177 176.0
1043.002808 160.0
1056.582764 236.0
1061.862549 220.0
1084.021118 124.0
1101.680298 152.0
1120.228027 164.0
1122.66748 192.0
1131.105713 208.0
1141.719849 180.0
1143.953613 220.0
1145.953735 156.0
1151.924072 180.0
1159.813843 296.0
1162.492676 140.0
1180.223389 216.0
1190.213379 160.0
1190.577393 172.0
1195.004028 192.0
1201.086914 148.0
1215.386475 176.0
1215.865234 192.0
1223.546021 204.0
1227.210571 196.0
1230.685181 152.0
1236.410156 196.0
1237.271118 188.0
1240.780884 164.0
1244.436157 176.0
1249.369751 216.0
1255.758423 136.0
1257.755249 160.0
1265.453613 164.0
1278.934204 144.0
1295.414307 136.0
1297.707642 152.0
1301.237427 56.0
1314.849121 140.0
1328.945068 196.0
1338.175415 168.0
1347.613037 212.0
1363.756714 160.0
1363.947754 84.0
1369.164185 200.0
1373.689697 192.0
1374.641357 204.0
1379.83374 192.0
1382.489136 140.0
1384.065796 184.0
1396.019897 144.0
1396.957031 128.0
1398.869507 40.0
1408.369019 184.0
1416.22998 184.0
1417.600952 164.0
1421.958008 92.0
1423.098999 180.0
1431.174072 164.0
1431.904419 128.0
1440.46521 172.0
1453.107422 236.0
1455.156616 156.0
1456.97168 120.0
1464.745972 148.0
1477.731323 140.0
1478.22876 220.0
1497.012573 112.0
1497.59021 196.0
1498.853638 176.0
1502.70105 252.0
1503.704102 204.0
1504.275269 32.0
