>compound MLS001139463-01!(2R)-1-[2-(3,4,7-trimethyl-2-oxochromen-5-yl)oxyacetyl]pyrrolidine-2-carboxylic acid
>formula C19H21NO6
>ionization [M+H]+
>parentmass 360.145111
#inchi InChI=1S/C19H21NO6/c1-10-7-14(17-11(2)12(3)19(24)26-15(17)8-10)25-9-16(21)20-6-4-5-13(20)18(22)23/h7-8,13H,4-6,9H2,1-3H3,(H,22,23)/t13-/m1/s1
#inchikey QHINZRLGOWBIBL
#Ion_Source LC-ESI
#Instrument qTof
#Compound_Source NIH Natural Product Library
#PI Dorrestein
#Data_Collector VVP/LMS
#Scan -1
#Precursor_MZ 360.145
#ExactMass 359.137
#Charge 1
#CAS_Number N/A
#Pubmed_ID N/A
#Smiles Cc1cc(OCC(=O)N2CCC[C@@H]2C(=O)O)c3c(C)c(C)c(=O)oc3c1
#INCHI_AUX N/A
#Library_Class 3
#SpectrumID CCMSLIB00000079397
#IonMode Positive
#UpdateWorkflowName UPDATE-SINGLE-ANNOTATED-BRONZE
#LibraryQualityString Bronze
#TaskID b1d8e8f6646f4e71acdff9ca3d919d08
##Scan# 1860
#SpectrumFile p1-G05_GG5_01_17949.mzXML
#LibraryName NIH_Natural_Products_Library.mgf
#MQScore -1
#Organism NIH_Natural_Products_Library
#TIC_Query 0
#RT_Query -1
#MZErrorPPM -1
#SharedPeaks 0
#MassDiff 0
#LibMZ -1
#SpecMZ 360.145
#SpecCharge 0
#internalFilename spec-00000.mgf

>collision 10
95.03746 256.0
95.050346 320.0
95.082092 248.0
95.774254 68.0
95.897003 116.0
95.959381 160.0
96.025681 164.0
96.809364 156.0
96.995491 140.0
97.31723 160.0
97.588371 140.0
97.83036 176.0
97.972153 212.0
98.021408 160.0
98.059464 1208.0
98.336945 116.0
98.848793 176.0
98.953697 144.0
98.993683 164.0
99.254868 208.0
99.278664 264.0
99.379822 184.0
99.701515 116.0
99.77108 196.0
100.074745 2216.0
100.398293 68.0
100.523972 192.0
100.617783 180.0
100.897476 108.0
100.985466 152.0
101.081055 368.0
101.167549 52.0
101.247643 80.0
101.578354 128.0
102.006073 168.0
102.168961 132.0
102.543495 120.0
102.69471 176.0
102.841995 164.0
102.965157 140.0
103.052017 140.0
103.16317 132.0
103.444359 240.0
103.689445 216.0
103.98555 132.0
104.184547 160.0
104.215019 56.0
105.027756 212.0
105.069962 952.0
105.253822 100.0
105.959465 164.0
106.068619 132.0
106.08857 156.0
106.123428 204.0
106.232124 112.0
106.410667 128.0
106.562653 40.0
106.885468 164.0
107.026764 204.0
107.043968 208.0
107.08654 336.0
107.247925 180.0
107.338638 168.0
107.518105 140.0
107.591629 220.0
107.62545 140.0
108.057426 188.0
108.087593 124.0
108.109154 88.0
108.353485 116.0
108.66655 128.0
108.932281 188.0
108.969673 104.0
109.066322 236.0
109.094368 152.0
109.319 136.0
109.620949 176.0
109.762695 172.0
109.885757 216.0
110.031853 168.0
110.117462 156.0
110.447708 92.0
110.462349 244.0
110.589989 104.0
111.042549 152.0
111.064026 232.0
111.113869 156.0
111.185211 224.0
112.07457 2768.0
112.148476 36.0
112.167442 48.0
112.374115 60.0
112.405769 36.0
112.965652 212.0
113.075874 308.0
113.830063 240.0
113.919586 120.0
114.002449 100.0
114.056702 588.0
114.18103 172.0
114.709076 124.0
115.037582 192.0
115.059975 312.0
115.873772 144.0
115.989494 44.0
116.064308 636.0
116.067032 572.0
116.291924 148.0
116.311241 104.0
116.874306 228.0
117.071907 256.0
117.106804 152.0
117.128342 176.0
117.734406 152.0
117.874817 124.0
118.634506 208.0
118.894791 124.0
118.940369 188.0
119.084915 428.0
120.694138 120.0
120.709442 144.0
121.028915 176.0
121.064568 1244.0
121.102097 192.0
121.250168 44.0
121.289619 40.0
121.627411 92.0
122.066811 376.0
122.841011 200.0
122.861923 176.0
123.038483 192.0
123.319016 212.0
123.732674 164.0
124.677597 220.0
125.111336 84.0
125.360794 148.0
125.499001 160.0
125.603813 160.0
125.722061 136.0
126.130791 144.0
126.909859 112.0
127.053398 116.0
127.866821 148.0
128.068863 2140.0
128.093231 152.0
128.101501 196.0
128.175339 32.0
128.371445 88.0
128.389496 100.0
128.513565 184.0
128.590286 168.0
128.689606 132.0
129.044327 72.0
129.070374 408.0
129.091812 84.0
129.109909 208.0
129.381439 120.0
129.426712 180.0
129.508636 116.0
129.988861 196.0
130.075943 628.0
130.925461 196.0
131.048996 424.0
131.083115 536.0
131.684921 124.0
131.906555 92.0
132.055222 220.0
132.083206 156.0
132.451157 172.0
133.066238 184.0
133.100708 700.0
133.132339 120.0
134.106277 216.0
134.289963 56.0
134.414536 120.0
134.700821 192.0
134.716995 160.0
134.753952 44.0
135.042557 204.0
135.07785 188.0
135.147018 116.0
135.512833 136.0
135.735352 172.0
136.020721 160.0
136.064819 120.0
137.059128 384.0
137.09758 176.0
137.265427 184.0
137.664459 128.0
137.757889 52.0
138.019638 128.0
138.379974 188.0
139.064301 684.0
140.094391 220.0
140.214554 88.0
140.285278 56.0
141.021729 60.0
141.06131 164.0
141.28894 148.0
141.620346 152.0
142.084961 136.0
143.083191 436.0
143.135513 156.0
143.669388 204.0
144.057709 332.0
144.101517 120.0
144.962906 228.0
145.062943 808.0
145.086731 176.0
146.072327 748.0
146.305557 84.0
146.505432 160.0
146.736801 184.0
147.040741 52.0
147.078934 932.0
147.09671 312.0
147.939911 36.0
148.087616 120.0
148.475403 124.0
148.941406 124.0
149.057236 436.0
149.094238 932.0
149.383804 52.0
149.936523 44.0
150.061508 136.0
150.095078 180.0
150.236435 108.0
150.429214 188.0
151.669403 164.0
151.742935 172.0
151.804245 100.0
151.877823 136.0
151.894989 76.0
152.039749 212.0
152.634232 224.0
152.983597 136.0
153.057449 156.0
153.503464 200.0
153.616913 96.0
154.085526 132.0
154.862717 132.0
155.078278 220.0
155.331177 176.0
155.686111 160.0
156.065109 1508.0
156.086929 148.0
156.417908 204.0
156.489273 168.0
156.955215 228.0
156.982635 156.0
157.072556 504.0
157.284515 80.0
157.426834 144.0
157.844147 140.0
158.07312 364.0
158.407272 88.0
158.697983 300.0
158.773209 104.0
158.840927 220.0
158.897415 140.0
159.006531 228.0
159.079758 5988.0
159.217422 104.0
159.285233 28.0
159.307846 212.0
159.59938 44.0
159.619492 108.0
159.64212 60.0
159.752792 44.0
159.770401 96.0
160.046677 204.0
160.083191 1328.0
160.216003 140.0
160.273956 120.0
160.684921 180.0
160.755569 84.0
160.788376 108.0
160.944901 120.0
161.058517 3652.0
161.094498 2480.0
161.157059 88.0
161.177277 76.0
161.263199 44.0
161.364319 116.0
161.672913 64.0
161.784271 120.0
161.93367 152.0
162.061844 932.0
162.100052 368.0
162.152878 224.0
162.752777 52.0
163.034744 88.0
163.062698 308.0
163.08812 56.0
163.159286 132.0
163.240662 184.0
163.383087 192.0
163.400894 140.0
163.533218 200.0
163.551041 88.0
164.101303 116.0
164.271515 156.0
164.535019 32.0
164.708664 136.0
164.882401 188.0
165.051056 320.0
165.478424 80.0
165.637192 168.0
166.414246 172.0
166.776459 216.0
168.071838 244.0
170.074905 148.0
171.078888 300.0
171.10463 136.0
171.169418 60.0
171.792328 156.0
172.082199 300.0
173.020599 148.0
173.09404 440.0
174.067993 868.0
174.426682 168.0
174.516068 40.0
174.83699 112.0
175.07457 2188.0
175.139771 140.0
175.706528 180.0
175.822632 120.0
176.028549 172.0
176.081329 6956.0
176.120972 332.0
176.250427 80.0
176.285812 92.0
176.345566 80.0
176.385208 180.0
176.578232 48.0
176.644348 192.0
176.882507 96.0
176.9328 60.0
176.953979 68.0
177.017532 172.0
177.086823 1156.0
177.478592 92.0
177.536926 44.0
177.939301 200.0
177.950455 128.0
177.9543 180.0
178.089539 388.0
178.460999 64.0
178.482285 48.0
179.731522 124.0
180.313675 160.0
180.856628 192.0
181.054749 176.0
181.797333 180.0
182.821213 56.0
183.074265 144.0
183.297852 84.0
183.483826 196.0
184.009933 168.0
185.10228 32.0
185.636108 112.0
186.852966 188.0
187.075928 760.0
187.138748 128.0
187.353897 68.0
187.961914 28.0
188.085144 208.0
188.780777 156.0
188.847046 164.0
188.930176 380.0
188.972885 192.0
188.994766 136.0
189.055283 216.0
189.090073 8144.0
189.132355 168.0
189.334213 32.0
189.405411 80.0
189.424591 80.0
189.476639 64.0
189.725189 168.0
189.868622 76.0
190.005768 48.0
190.093246 1376.0
190.293945 52.0
190.335129 64.0
190.395538 220.0
190.444977 144.0
190.920441 100.0
191.008453 112.0
191.093399 332.0
191.126755 136.0
191.556244 108.0
192.071716 152.0
192.121368 64.0
192.184814 128.0
192.303482 120.0
192.891815 116.0
193.15451 92.0
193.555801 96.0
195.56575 152.0
195.835831 196.0
195.958405 160.0
196.153473 156.0
196.418381 140.0
198.358994 188.0
198.381424 156.0
199.074768 336.0
200.072601 156.0
200.097931 172.0
201.016815 192.0
201.124054 180.0
201.38382 168.0
201.912338 76.0
202.063263 140.0
203.064529 460.0
203.169983 164.0
203.783218 96.0
204.075882 2720.0
204.269363 112.0
204.4543 56.0
205.084015 4848.0
205.263336 120.0
205.346039 40.0
205.562851 108.0
205.668442 200.0
206.055634 136.0
206.089294 404.0
206.548523 84.0
206.61145 108.0
206.906219 124.0
207.089493 132.0
207.143921 180.0
207.895111 60.0
208.340149 48.0
208.673523 88.0
208.900726 100.0
209.087753 192.0
211.445648 56.0
211.573013 80.0
213.052032 48.0
213.331024 64.0
214.058395 104.0
214.463348 216.0
215.113815 184.0
215.976822 164.0
216.634445 112.0
216.707687 108.0
216.977325 172.0
217.033035 192.0
217.084076 7292.0
217.346878 48.0
217.41272 120.0
217.558197 80.0
217.81955 48.0
217.840118 64.0
217.895935 92.0
217.925308 32.0
217.96788 164.0
218.028168 64.0
218.086655 992.0
218.310379 76.0
218.363312 48.0
218.516281 112.0
218.881256 72.0
219.102692 200.0
219.520386 168.0
219.600327 128.0
219.795029 132.0
220.559937 52.0
220.695923 116.0
221.42981 48.0
222.28952 120.0
224.980164 72.0
225.19516 92.0
227.062744 168.0
230.129135 144.0
231.093292 208.0
232.365799 76.0
232.972977 128.0
234.91214 120.0
239.31308 216.0
240.064941 132.0
240.762375 132.0
242.662308 84.0
243.239319 108.0
244.466995 172.0
244.610168 196.0
244.915314 96.0
245.027466 76.0
245.078934 3296.0
245.121765 136.0
245.183258 72.0
245.318146 72.0
245.741425 44.0
246.085449 300.0
246.315842 64.0
247.09845 176.0
247.206894 116.0
247.736038 88.0
249.999832 112.0
250.050186 52.0
255.104813 432.0
255.76326 44.0
257.775696 80.0
257.897125 48.0
258.143311 128.0
261.982025 56.0
263.089996 568.0
264.093109 272.0
264.976837 96.0
265.586304 88.0
273.079132 132.0
276.123322 84.0
282.11853 136.0
286.136444 132.0
287.14856 136.0
288.174774 100.0
296.13855 188.0
307.165222 64.0
315.138092 152.0
317.087891 132.0
317.935516 108.0
320.132477 96.0
321.672729 52.0
321.972137 140.0
322.019073 156.0
325.661621 32.0
328.083344 116.0
332.138733 136.0
335.260162 64.0
339.90802 72.0
350.751953 72.0
358.069702 128.0
360.145111 756.0
360.510437 120.0
361.124542 168.0
361.149384 268.0
361.179657 148.0
361.766174 64.0
362.137268 60.0
362.428955 104.0
363.866425 108.0
446.101562 112.0
460.991547 168.0
462.342896 144.0
473.95697 128.0
493.510101 96.0
509.272766 52.0
512.196472 136.0
538.932373 100.0
591.009094 104.0
637.738525 64.0
657.149475 60.0
700.758789 56.0
717.31488 104.0
733.562866 132.0
854.364502 128.0
875.412537 216.0
881.216675 168.0
898.803833 172.0
914.667725 236.0
919.803406 136.0
937.574646 220.0
946.266846 136.0
978.807251 264.0
981.817139 184.0
993.275452 160.0
1000.451782 188.0
1009.942322 180.0
1018.442139 220.0
1021.105225 160.0
1024.434204 212.0
1037.348999 164.0
1039.54248 64.0
1043.422119 108.0
1056.89563 140.0
1063.239746 152.0
1093.407959 168.0
1095.903687 64.0
1097.86792 144.0
1120.584229 212.0
1123.170898 92.0
1128.118896 116.0
1131.075562 120.0
1134.297607 168.0
1138.302856 196.0
1139.431274 116.0
1139.794067 184.0
1145.014404 48.0
1147.838013 148.0
1152.137329 176.0
1154.455688 192.0
1156.234985 68.0
1183.37085 184.0
1196.846558 120.0
1218.009033 80.0
1231.040039 120.0
1241.396851 76.0
1242.862915 220.0
1243.571655 164.0
1246.331543 208.0
1253.586304 196.0
1264.638916 216.0
1268.059937 140.0
1269.158691 148.0
1273.345459 184.0
1274.098511 136.0
1274.467896 236.0
1275.057739 188.0
1276.537842 204.0
1280.842163 116.0
1289.354126 160.0
1289.754395 180.0
1294.411743 152.0
1297.170166 136.0
1298.690308 156.0
1315.102295 172.0
1317.962036 204.0
1318.554688 136.0
1329.628174 160.0
1336.240601 180.0
1338.278564 116.0
1342.26416 168.0
1345.700806 124.0
1346.555298 84.0
1348.396362 152.0
1348.476685 160.0
1351.445679 204.0
1352.872803 164.0
1356.96814 216.0
1359.337402 124.0
1360.959595 184.0
1363.449829 144.0
1363.604126 160.0
1364.000977 56.0
1382.968018 120.0
1392.499878 160.0
1399.534668 184.0
1401.381836 124.0
1404.662109 180.0
1408.939575 192.0
1409.074097 152.0
1413.837158 48.0
1417.92627 124.0
1419.013184 104.0
1420.430542 136.0
1422.088745 100.0
1423.838135 216.0
1426.272461 112.0
1430.718262 160.0
1432.013428 176.0
1433.241333 52.0
1435.91748 212.0
1436.204102 52.0
1438.369629 184.0
1443.386108 144.0
1446.313965 172.0
1452.512207 132.0
1456.398438 156.0
1457.659668 240.0
1461.453857 192.0
1461.956177 116.0
1464.118164 60.0
1465.588379 116.0
1473.034424 32.0
1474.967651 192.0
1477.345825 180.0
1483.686768 128.0
1487.814209 188.0
1489.096558 144.0
1493.346802 140.0
1493.831421 76.0
1496.563477 112.0
1497.911255 160.0
1504.28064 172.0
