>compound MLS000860057-01!6-Hydroxymelatonin
>formula C13H16N2O3
>ionization [M+H]+
>parentmass 249.1233688240905
#inchi InChI=1S/C13H16N2O3/c1-8(16)14-4-3-9-7-15-11-6-12(17)13(18-2)5-10(9)11/h5-7,15,17H,3-4H2,1-2H3,(H,14,16)
#inchikey OMYMRCXOJJZYKE
#Ion_Source LC-ESI
#Instrument qTof
#Compound_Source NIH Pharmacologically Active Library
#PI Dorrestein
#Data_Collector VP/LMS
#Scan -1
#Precursor_MZ 249.12
#ExactMass 248.116
#Charge 1
#CAS_Number N/A
#Pubmed_ID N/A
#Smiles COc1cc2c(CCNC(=O)C)c[nH]c2cc1O
#INCHI_AUX N/A
#Library_Class 1
#SpectrumID CCMSLIB00000085292
#IonMode Positive
#UpdateWorkflowName UPDATE-SINGLE-ANNOTATED-GOLD
#LibraryQualityString Gold
#TaskID d252d724072548979f1f6f1ced849daf
##Scan# 1310
#SpectrumFile p3-G11_GG11_01_18304.mzXML
#LibraryName Pharm_Active_Library.mgf
#MQScore -1
#Organism Pharm_Active_Library
#TIC_Query 0
#RT_Query -1
#MZErrorPPM -1
#SharedPeaks 0
#MassDiff 0
#LibMZ -1
#SpecMZ 249.12
#SpecCharge 0
#internalFilename spec-00000.mgf

>collision 10
45.061871 196.0
45.127365 216.0
45.186218 208.0
45.532085 156.0
45.544174 192.0
45.701473 104.0
45.934753 140.0
46.088482 160.0
46.110104 140.0
46.147957 164.0
46.535488 184.0
46.675449 140.0
46.976467 80.0
47.121189 140.0
47.31815 164.0
47.647327 176.0
48.268997 148.0
48.285595 208.0
48.401848 188.0
48.475269 124.0
48.786194 216.0
49.156712 192.0
49.172062 152.0
49.197189 172.0
49.209755 144.0
49.658989 184.0
49.89632 92.0
49.951172 176.0
50.106037 132.0
50.28231 280.0
50.326077 188.0
50.383987 136.0
50.644287 148.0
50.719391 176.0
50.736401 172.0
50.776108 172.0
50.893898 220.0
51.024624 56.0
51.232418 112.0
51.424934 168.0
51.963028 160.0
52.103737 172.0
52.179913 148.0
52.599159 124.0
52.737835 100.0
52.94474 136.0
52.989647 216.0
53.297935 104.0
53.773499 56.0
54.071671 68.0
54.083382 184.0
54.219601 88.0
54.289974 168.0
54.375072 120.0
54.438202 140.0
54.510189 140.0
54.95195 60.0
55.118809 92.0
55.672874 120.0
56.077572 176.0
56.12677 132.0
56.462791 132.0
56.549572 136.0
56.601971 184.0
56.763817 80.0
56.796814 156.0
56.825321 184.0
56.934906 168.0
57.325745 224.0
57.703449 180.0
58.025955 44.0
58.18071 92.0
58.303753 168.0
58.598976 252.0
58.678234 124.0
59.073799 92.0
59.282043 132.0
59.486046 84.0
60.023029 188.0
60.249928 144.0
60.447849 144.0
61.032681 188.0
61.074673 52.0
61.395531 164.0
61.439209 212.0
61.535976 208.0
61.723488 192.0
61.99432 56.0
62.184093 256.0
62.415039 168.0
62.471664 168.0
62.496838 116.0
62.618061 144.0
62.76778 208.0
62.793015 236.0
62.824562 212.0
62.897156 244.0
62.908207 60.0
62.942944 228.0
62.976109 84.0
62.990326 60.0
63.074081 60.0
63.129421 164.0
63.200607 116.0
63.230679 68.0
63.533344 140.0
63.707981 108.0
63.997456 164.0
64.26844 144.0
64.780075 112.0
64.978874 168.0
65.113724 148.0
65.153885 188.0
65.190842 108.0
65.256744 184.0
65.456284 248.0
65.644829 192.0
65.788437 132.0
65.820732 168.0
65.864334 240.0
66.11496 196.0
66.273659 176.0
66.658249 128.0
66.772057 168.0
66.824112 48.0
67.184181 140.0
67.282104 152.0
67.36377 180.0
67.39785 228.0
67.50106 196.0
67.604126 172.0
67.749863 156.0
68.018814 148.0
68.609421 136.0
69.022209 212.0
69.081757 168.0
69.31356 212.0
69.383179 148.0
70.630547 220.0
70.674049 236.0
70.789551 212.0
71.084602 96.0
71.128242 160.0
71.15007 180.0
71.373543 168.0
71.846848 60.0
71.883965 204.0
72.049446 100.0
72.254021 144.0
72.501251 204.0
72.737022 132.0
73.110962 196.0
73.197784 160.0
73.525116 184.0
73.87883 148.0
73.892517 124.0
73.943855 48.0
74.041451 156.0
74.062004 252.0
74.140823 160.0
74.180244 176.0
74.355209 188.0
74.872726 132.0
75.862602 140.0
75.977318 212.0
76.439713 176.0
76.80191 208.0
77.006134 184.0
77.681824 152.0
77.790627 228.0
77.862625 132.0
78.61615 140.0
78.68853 164.0
78.868729 168.0
79.024353 232.0
79.213799 176.0
79.447807 148.0
79.580925 136.0
79.65374 180.0
79.694603 216.0
79.731926 184.0
79.8386 184.0
79.984505 160.0
80.050377 176.0
80.266006 212.0
80.283844 192.0
80.430153 156.0
80.460503 148.0
80.565872 32.0
80.64093 124.0
81.30542 128.0
81.4814 176.0
81.497574 160.0
81.976242 108.0
82.378609 184.0
82.613632 140.0
82.749374 100.0
83.032074 152.0
83.179047 200.0
83.229881 72.0
83.406113 136.0
83.484299 176.0
83.526131 128.0
83.626213 120.0
83.80912 176.0
83.877586 236.0
84.012543 160.0
84.039909 60.0
84.672432 164.0
85.399277 216.0
85.708572 56.0
85.924309 132.0
85.963058 172.0
86.220039 136.0
86.323296 204.0
86.454643 124.0
86.992188 196.0
87.1259 156.0
87.656204 240.0
87.799751 232.0
88.126442 204.0
88.288933 232.0
88.539871 152.0
89.390327 232.0
89.618179 152.0
89.767097 148.0
90.79023 196.0
91.055939 276.0
91.29351 208.0
91.693321 188.0
91.905006 152.0
92.055817 156.0
92.508972 156.0
92.767601 152.0
92.884583 140.0
93.057304 120.0
93.299393 164.0
93.707428 140.0
93.738258 180.0
93.788368 152.0
93.896347 248.0
94.239975 172.0
94.471985 180.0
94.638435 176.0
94.692657 116.0
94.925224 224.0
95.04744 200.0
95.065063 192.0
95.261017 168.0
95.297928 120.0
95.348457 180.0
95.41066 108.0
95.550697 96.0
95.587662 200.0
96.061127 148.0
96.512299 48.0
97.270523 104.0
97.303894 204.0
97.372627 156.0
97.56324 316.0
97.698936 196.0
97.726486 128.0
97.744194 148.0
97.783554 128.0
98.061272 136.0
98.254532 196.0
98.604057 120.0
98.720703 152.0
100.09198 176.0
100.28125 152.0
101.128151 188.0
101.168182 104.0
101.234261 64.0
102.045685 504.0
102.195808 152.0
102.614761 176.0
102.735779 148.0
103.053375 2676.0
103.111366 152.0
103.236717 56.0
103.437027 184.0
103.54232 220.0
103.584854 192.0
103.603088 144.0
104.049339 632.0
104.156914 128.0
104.624649 68.0
104.752953 120.0
104.801849 244.0
105.054672 40.0
105.168945 56.0
105.230194 136.0
105.669632 60.0
106.038246 444.0
106.06694 240.0
106.39518 216.0
106.832939 104.0
107.067596 188.0
107.676025 240.0
108.166077 136.0
108.406342 228.0
108.448898 216.0
108.491325 264.0
108.925056 72.0
108.985306 196.0
109.102074 180.0
109.195274 40.0
109.417938 144.0
110.035088 112.0
110.055183 192.0
110.40287 176.0
110.610008 208.0
110.645599 124.0
110.938911 172.0
111.341789 128.0
111.913795 136.0
112.795685 104.0
113.263344 232.0
113.41803 128.0
113.462555 180.0
114.418633 84.0
114.55706 204.0
114.571976 212.0
114.669998 108.0
114.996338 164.0
115.051842 180.0
115.16288 96.0
115.271843 224.0
115.327415 148.0
115.601173 88.0
115.877411 132.0
115.958839 176.0
116.051025 208.0
116.216187 132.0
116.310616 108.0
116.684425 152.0
117.057991 336.0
117.155762 36.0
117.241951 56.0
117.822418 108.0
117.880753 124.0
117.988831 168.0
118.010452 184.0
118.065071 2588.0
118.107773 204.0
118.584145 60.0
119.031067 120.0
119.073265 4000.0
119.113594 164.0
119.182228 156.0
119.204849 164.0
119.372246 44.0
119.968849 40.0
120.053307 316.0
120.075356 540.0
120.10405 160.0
120.466423 180.0
120.546608 224.0
120.641258 184.0
120.737473 180.0
120.803093 116.0
120.951897 80.0
121.05825 464.0
121.271706 144.0
121.324318 204.0
121.93676 140.0
122.051079 168.0
122.286476 72.0
122.550751 168.0
122.727089 132.0
123.263489 128.0
123.643875 164.0
123.783348 148.0
123.852005 136.0
124.020409 232.0
124.457466 204.0
125.336113 164.0
126.119476 48.0
126.331917 180.0
126.365479 452.0
127.646301 204.0
128.050034 272.0
128.292511 168.0
129.054626 140.0
129.435806 204.0
129.654739 168.0
129.884567 192.0
129.966232 172.0
129.982117 164.0
130.024124 188.0
130.064728 13776.0
130.11969 80.0
130.172806 88.0
130.193253 44.0
130.309097 88.0
130.384094 56.0
130.722946 144.0
130.984787 92.0
131.065704 1092.0
131.199005 80.0
131.278809 40.0
131.310745 88.0
131.797012 72.0
131.83815 80.0
131.961578 124.0
132.043579 128.0
132.075211 136.0
132.101089 148.0
132.137695 68.0
132.178894 100.0
132.199478 180.0
132.236099 40.0
132.258987 88.0
132.316223 160.0
132.524658 52.0
132.59111 192.0
132.822693 248.0
133.327835 32.0
133.380707 180.0
133.500259 196.0
133.7948 188.0
134.056717 188.0
134.354843 160.0
134.411362 48.0
134.966919 124.0
135.070999 192.0
135.642975 68.0
136.039658 220.0
136.972183 124.0
137.578522 168.0
138.076248 108.0
138.504578 48.0
138.731903 240.0
139.412598 68.0
139.996048 52.0
140.047867 184.0
140.368393 56.0
140.795547 204.0
140.840424 212.0
141.187866 124.0
141.209152 188.0
141.280121 164.0
141.393707 236.0
141.58548 64.0
141.763153 60.0
142.05954 208.0
142.095139 56.0
142.66275 176.0
143.064819 216.0
143.384003 188.0
144.0569 212.0
144.355682 104.0
144.676315 168.0
145.049957 136.0
145.083588 64.0
146.059662 2184.0
146.106705 196.0
146.145203 60.0
146.296829 168.0
146.397034 200.0
146.957214 104.0
147.037018 176.0
147.067352 5068.0
147.100815 144.0
147.131699 180.0
147.25174 44.0
147.319366 40.0
147.626343 180.0
147.74971 52.0
148.03775 160.0
148.075012 428.0
148.799164 104.0
149.020187 144.0
149.050522 304.0
149.071213 140.0
149.236511 196.0
149.358109 200.0
149.68425 88.0
151.190521 128.0
151.940338 176.0
152.028687 168.0
152.163696 136.0
152.254547 236.0
152.44371 136.0
152.502701 88.0
153.208862 188.0
153.270554 104.0
153.46936 228.0
154.069992 164.0
154.542236 136.0
154.742722 200.0
154.774902 224.0
154.845383 192.0
154.918564 72.0
154.958206 44.0
155.015198 132.0
155.34993 128.0
156.037872 112.0
156.105011 156.0
156.333893 56.0
156.809586 132.0
156.894333 204.0
157.053177 332.0
157.335938 156.0
157.439926 228.0
157.495758 108.0
157.525742 184.0
157.543228 96.0
157.623184 184.0
157.750641 136.0
157.859726 212.0
157.89328 192.0
157.950699 244.0
157.993362 140.0
158.015747 152.0
158.060104 27104.0
158.118225 116.0
158.155899 76.0
158.185928 44.0
158.218475 64.0
158.258545 48.0
158.300812 96.0
158.328659 60.0
158.368729 44.0
158.388763 68.0
158.431351 76.0
158.468933 68.0
158.496506 64.0
158.523651 72.0
158.683228 252.0
158.713379 92.0
158.777908 80.0
158.88765 68.0
158.915253 108.0
159.064377 4936.0
159.18515 52.0
159.367218 64.0
159.389832 40.0
159.442612 64.0
159.676422 80.0
159.943146 116.0
160.006073 84.0
160.038193 164.0
160.072693 340.0
160.172287 104.0
160.212601 52.0
160.23584 36.0
160.34111 168.0
160.520111 56.0
161.045517 204.0
161.950607 164.0
162.054077 488.0
162.090027 132.0
162.340912 108.0
163.07019 316.0
164.072327 236.0
164.943085 136.0
165.362579 52.0
165.792862 116.0
166.04924 104.0
168.368195 28.0
168.419846 120.0
170.045929 160.0
171.062286 124.0
172.094727 220.0
172.274948 180.0
172.92868 124.0
174.052704 544.0
174.129532 164.0
174.897324 140.0
175.06337 6948.0
175.113235 48.0
175.184357 56.0
175.426804 72.0
175.519089 56.0
175.582382 52.0
175.693176 176.0
176.066971 1108.0
176.356003 104.0
177.062241 256.0
177.412216 120.0
177.998611 116.0
178.075012 132.0
180.094635 216.0
180.912918 76.0
182.369949 108.0
183.521774 172.0
185.029449 144.0
185.970123 68.0
188.077835 200.0
188.546738 112.0
189.076614 128.0
190.041946 84.0
190.08609 8776.0
190.142822 216.0
190.21759 104.0
190.571884 96.0
190.874252 44.0
190.92099 44.0
191.089478 1132.0
191.394333 72.0
192.090912 140.0
192.856522 60.0
193.005814 32.0
193.238159 112.0
193.747604 72.0
194.202225 44.0
194.590744 84.0
197.111603 104.0
198.926575 124.0
199.064087 196.0
201.271912 44.0
213.094345 48.0
215.086365 232.0
216.065353 172.0
217.072693 164.0
218.412277 40.0
219.720276 140.0
232.090088 432.0
232.128754 184.0
233.104538 152.0
235.058258 160.0
237.944717 68.0
244.081345 56.0
257.156799 100.0
263.089111 136.0
287.046112 160.0
290.513031 136.0
311.674286 68.0
335.133423 80.0
405.567474 80.0
461.485809 84.0
473.514038 36.0
516.666382 92.0
571.74054 152.0
656.188049 76.0
723.538879 44.0
736.245483 92.0
763.227173 52.0
764.530945 108.0
774.231079 128.0
781.620117 232.0
789.066528 176.0
820.846924 132.0
838.372253 44.0
868.033508 188.0
886.947754 140.0
911.111511 204.0
911.646301 248.0
916.815979 212.0
924.582703 136.0
926.532532 160.0
952.44812 48.0
957.929138 156.0
964.964783 156.0
981.157288 140.0
1005.244263 40.0
1037.128662 132.0
1044.931396 116.0
1045.156616 68.0
1051.052612 152.0
1064.699341 172.0
1068.749268 132.0
1069.959961 196.0
1077.296997 176.0
1084.023315 156.0
1084.22644 192.0
1091.158447 132.0
1098.983276 136.0
1118.434814 192.0
1121.138916 184.0
1131.774048 160.0
1137.593628 124.0
1145.583008 144.0
1146.600464 48.0
1152.079712 256.0
1153.174438 176.0
1167.86792 236.0
1172.961426 200.0
1174.891357 224.0
1176.857056 136.0
1177.478394 80.0
1208.925903 216.0
1210.72583 48.0
1215.849365 160.0
1219.189941 168.0
1220.197876 188.0
1221.714111 120.0
1222.618652 136.0
1224.087524 128.0
1227.781128 156.0
1230.949585 124.0
1236.234619 248.0
1237.634644 140.0
1240.044556 168.0
1242.891968 164.0
1243.439331 108.0
1244.618774 148.0
1249.610107 176.0
1255.583008 240.0
1262.638672 228.0
1263.296509 196.0
1263.395508 204.0
1274.314087 176.0
1274.669434 124.0
1283.460693 104.0
1283.902832 132.0
1284.330811 148.0
1288.235596 212.0
1288.435669 160.0
1289.63623 208.0
1290.243896 136.0
1295.2677 104.0
1295.848022 64.0
1296.041504 72.0
1296.349609 168.0
1296.49292 60.0
1297.245605 128.0
1301.270386 176.0
1303.741577 36.0
1304.309326 48.0
1307.123047 96.0
1307.39502 144.0
1315.092529 212.0
1318.313721 100.0
1318.841431 220.0
1320.84436 156.0
1324.760742 148.0
1329.459351 196.0
1331.695557 172.0
1332.392944 160.0
1335.737183 200.0
1339.86499 144.0
1341.038208 68.0
1342.292236 176.0
1344.159668 256.0
1344.254517 204.0
1347.723145 128.0
1352.952759 208.0
1353.179688 216.0
1356.696533 256.0
1358.984863 192.0
1367.22998 212.0
1367.296265 168.0
1369.969238 136.0
1370.337524 232.0
1372.991333 188.0
1373.138916 48.0
1376.733154 60.0
1377.102417 152.0
1379.533569 160.0
1380.487427 60.0
1380.561401 208.0
1383.846924 132.0
1386.002441 240.0
1393.05835 140.0
1393.340698 128.0
1395.377197 196.0
1396.678589 108.0
1397.482056 100.0
1398.412354 76.0
1399.931152 52.0
1402.106567 68.0
1402.755127 156.0
1404.850708 148.0
1406.910522 164.0
1408.030518 148.0
1408.47876 168.0
1409.689087 196.0
1410.826172 160.0
1412.223633 196.0
1413.532959 192.0
1413.974487 172.0
1414.505859 200.0
1416.66272 100.0
1417.232056 44.0
1418.236328 140.0
1418.851074 152.0
1421.633911 92.0
1427.764404 128.0
1430.164551 72.0
1430.480713 168.0
1433.011353 176.0
1433.719604 176.0
1446.091187 220.0
1447.900635 148.0
1449.544678 188.0
1450.113037 204.0
1451.333618 64.0
1452.782349 56.0
1453.791504 212.0
1455.104736 176.0
1455.271729 124.0
1457.626465 72.0
1461.847046 132.0
1463.795898 224.0
1464.824219 144.0
1470.123413 124.0
1472.665894 88.0
1476.892822 152.0
1481.59314 204.0
1482.696655 72.0
1485.42627 192.0
1486.60791 196.0
1487.04541 68.0
1487.849487 204.0
1489.072388 188.0
1500.853271 108.0
1500.924194 96.0
1503.462158 180.0
1504.427124 44.0
