>compound MLS001074941-01!Sulfinpyrazone
>formula C23H20N2O3S
>ionization [M+H]+
>parentmass 405.1267399520905
#inchi InChI=1S/C23H20N2O3S/c26-22-21(16-17-29(28)20-14-8-3-9-15-20)23(27)25(19-12-6-2-7-13-19)24(22)18-10-4-1-5-11-18/h1-15,21H,16-17H2
#inchikey MBGGBVCUIVRRBF
#Ion_Source LC-ESI
#Instrument qTof
#Compound_Source NIH Pharmacologically Active Library
#PI Dorrestein
#Data_Collector VP/LMS
#Scan -1
#Precursor_MZ 405.132
#ExactMass 404.119
#Charge 1
#CAS_Number N/A
#Pubmed_ID N/A
#Smiles O=C1C(CCS(=O)c2ccccc2)C(=O)N(N1c3ccccc3)c4ccccc4
#INCHI_AUX N/A
#Library_Class 1
#SpectrumID CCMSLIB00000086032
#IonMode Positive
#UpdateWorkflowName UPDATE-SINGLE-ANNOTATED-GOLD
#LibraryQualityString Gold
#TaskID d252d724072548979f1f6f1ced849daf
##Scan# 1977
#SpectrumFile p5-B05_GB5_01_18444.mzXML
#LibraryName Pharm_Active_Library.mgf
#MQScore -1
#Organism Pharm_Active_Library
#TIC_Query 0
#RT_Query -1
#MZErrorPPM -1
#SharedPeaks 0
#MassDiff 0
#LibMZ -1
#SpecMZ 405.132
#SpecCharge 0
#internalFilename spec-00000.mgf

>collision 10
44.952503 152.0
45.02993 128.0
45.099407 244.0
45.147537 192.0
45.361759 140.0
45.379185 164.0
45.435513 128.0
45.501274 228.0
45.520069 176.0
45.988564 160.0
46.018261 76.0
46.183125 176.0
47.413921 260.0
47.849346 132.0
48.111282 164.0
48.183094 168.0
48.288147 212.0
49.275089 184.0
49.454079 128.0
49.641808 108.0
49.654427 88.0
49.692303 172.0
50.021145 136.0
50.178921 120.0
50.396271 104.0
50.551811 40.0
50.706169 192.0
51.139347 152.0
51.207687 152.0
51.219082 120.0
51.330242 56.0
51.447235 156.0
52.07515 216.0
52.080711 112.0
52.086243 148.0
52.366364 212.0
52.669254 184.0
52.936806 56.0
52.988949 108.0
53.107815 40.0
53.299442 112.0
53.412838 200.0
53.594814 204.0
53.658943 164.0
53.854481 60.0
53.947998 196.0
54.088425 76.0
54.346348 176.0
54.482887 212.0
54.624008 208.0
54.945148 192.0
55.00565 152.0
55.110504 176.0
55.292385 160.0
55.376774 108.0
55.387142 64.0
55.419735 152.0
55.658535 144.0
55.766979 168.0
56.04377 52.0
56.089966 176.0
56.599403 224.0
57.204433 160.0
57.230026 192.0
57.300816 136.0
57.416878 260.0
57.549667 120.0
57.758217 184.0
58.351147 152.0
58.858513 112.0
59.311344 168.0
59.435566 152.0
59.656723 204.0
59.829018 176.0
59.87059 132.0
59.952236 136.0
60.183613 128.0
60.531517 52.0
60.976742 208.0
61.105804 140.0
61.252136 124.0
61.518784 136.0
61.623421 104.0
61.764111 132.0
61.901833 52.0
62.185585 216.0
62.364635 228.0
62.454254 116.0
62.465267 172.0
63.493488 88.0
63.885807 180.0
64.153343 176.0
64.667671 188.0
64.718895 124.0
64.806992 228.0
65.063599 132.0
65.108559 168.0
65.237099 204.0
65.531601 284.0
65.936623 212.0
65.981888 184.0
66.493744 132.0
66.89521 52.0
67.521759 84.0
67.595367 192.0
67.935486 148.0
67.988655 176.0
68.136436 316.0
68.220245 136.0
68.34359 80.0
68.963646 144.0
69.296257 204.0
69.387413 132.0
69.403908 160.0
69.598122 128.0
69.716057 204.0
69.874016 180.0
69.908958 172.0
70.358986 112.0
70.467537 128.0
70.86573 184.0
71.070282 192.0
71.325546 204.0
71.582954 132.0
71.658745 144.0
71.712669 164.0
71.864441 80.0
72.173531 164.0
72.554466 240.0
73.358551 128.0
73.559837 40.0
74.006035 156.0
74.091667 136.0
74.197922 212.0
74.350578 196.0
74.37632 64.0
75.162804 204.0
75.360077 172.0
75.591331 120.0
76.631393 196.0
77.113014 148.0
77.240646 160.0
77.441933 148.0
77.696106 148.0
78.152901 180.0
78.344795 176.0
78.904228 184.0
79.070503 196.0
79.566811 168.0
79.852898 228.0
80.253563 108.0
80.539085 152.0
80.633781 48.0
80.726746 116.0
81.084778 200.0
81.612534 152.0
81.790894 140.0
82.128967 88.0
82.183495 156.0
82.235825 156.0
82.257484 136.0
82.318871 156.0
82.358604 144.0
82.441711 92.0
82.790848 140.0
82.85968 128.0
82.875984 152.0
83.088104 136.0
83.545906 204.0
83.696968 228.0
83.769814 132.0
83.844521 136.0
84.079773 160.0
84.229492 56.0
84.452484 196.0
84.48175 64.0
84.877342 236.0
84.930527 156.0
85.286728 204.0
85.465111 76.0
86.156487 92.0
86.261818 108.0
86.328377 160.0
87.112366 148.0
87.298225 144.0
87.432159 108.0
87.711533 236.0
88.288445 120.0
88.441864 176.0
88.466194 124.0
88.505508 192.0
88.616013 136.0
88.677856 212.0
89.036186 120.0
89.220329 192.0
89.252289 148.0
89.998428 180.0
90.08152 196.0
90.575226 224.0
90.915573 176.0
90.984818 172.0
91.254601 40.0
91.435303 192.0
91.90789 136.0
92.047226 188.0
92.135086 220.0
92.525215 164.0
92.918091 216.0
92.987167 128.0
93.004448 188.0
93.031319 140.0
93.056969 556.0
93.085075 228.0
93.771858 152.0
93.991692 168.0
94.031319 136.0
94.070824 136.0
94.23111 188.0
94.368332 220.0
94.708916 144.0
94.78447 168.0
94.825165 192.0
94.96476 152.0
94.982216 164.0
95.042358 76.0
95.065643 168.0
95.098633 108.0
95.259796 124.0
95.358887 204.0
95.458038 184.0
95.557236 176.0
95.820061 188.0
95.894112 56.0
96.255005 116.0
96.337036 172.0
96.383926 132.0
96.959244 140.0
97.029808 136.0
97.286797 208.0
97.538231 140.0
97.669975 184.0
97.72506 132.0
97.825912 224.0
98.308304 100.0
98.474136 136.0
98.612434 184.0
98.778519 196.0
98.826004 148.0
98.901199 108.0
98.97049 140.0
99.079414 120.0
99.273659 132.0
99.867462 172.0
100.273621 172.0
100.381271 216.0
100.590759 192.0
101.318657 100.0
101.900459 212.0
102.019035 52.0
102.049271 240.0
102.739975 212.0
102.869125 144.0
103.053497 480.0
103.528244 164.0
103.880905 168.0
103.962059 120.0
104.05011 2844.0
104.075836 160.0
104.140717 156.0
104.177277 56.0
104.53511 76.0
104.673531 76.0
104.795738 152.0
104.975113 132.0
104.99958 212.0
105.031357 76.0
105.036499 200.0
105.056862 372.0
105.07196 328.0
105.105659 44.0
105.653206 136.0
105.733002 152.0
106.034561 196.0
106.067146 560.0
106.097595 104.0
106.138603 228.0
106.179619 40.0
106.224739 140.0
106.637444 48.0
106.742287 112.0
106.808098 272.0
107.034477 164.0
107.067421 416.0
107.10656 40.0
107.527161 156.0
107.994087 64.0
108.010635 220.0
108.047867 188.0
108.089249 112.0
108.484825 136.0
108.503487 156.0
108.526291 108.0
108.854126 160.0
109.016602 132.0
109.326004 124.0
109.363464 116.0
109.396774 132.0
110.377342 68.0
111.001335 108.0
111.709114 208.0
111.753288 172.0
112.33474 200.0
112.619698 176.0
113.040398 160.0
113.59124 156.0
113.67823 208.0
114.863266 260.0
115.008354 176.0
115.054321 524.0
115.448463 176.0
115.557549 124.0
116.050072 660.0
116.101616 204.0
116.292557 136.0
116.41922 60.0
117.004059 60.0
117.058159 1936.0
117.085884 164.0
117.111725 144.0
117.139725 56.0
117.204361 164.0
117.391891 120.0
117.495422 120.0
117.6875 224.0
117.719894 116.0
117.871101 220.0
118.065834 2756.0
118.113235 116.0
118.217079 112.0
118.342621 232.0
118.444405 116.0
118.487732 48.0
118.589577 136.0
118.613419 212.0
118.689293 68.0
118.773872 108.0
118.838951 84.0
119.038773 536.0
119.069199 572.0
119.414604 120.0
119.484215 184.0
119.616959 192.0
120.044518 700.0
120.076691 168.0
120.183578 168.0
120.216309 136.0
120.388763 252.0
120.476128 180.0
120.749352 96.0
121.049355 140.0
121.160858 32.0
121.176201 120.0
121.656479 212.0
122.016754 196.0
122.49649 160.0
122.935242 168.0
122.998703 212.0
123.030174 300.0
123.069885 248.0
123.111839 196.0
123.379189 124.0
123.416779 200.0
123.449944 168.0
123.589294 220.0
124.003395 136.0
124.032722 208.0
124.076546 52.0
125.561882 180.0
125.637718 40.0
125.885468 152.0
125.968102 148.0
126.066406 216.0
126.348129 136.0
126.372742 60.0
126.912521 64.0
127.085228 48.0
127.489403 52.0
127.941498 64.0
128.050644 1048.0
128.090118 80.0
128.117157 96.0
128.615494 144.0
128.64032 88.0
128.807419 224.0
128.949768 52.0
129.026306 116.0
129.058533 5624.0
129.144211 84.0
129.160721 40.0
129.483688 160.0
129.717072 204.0
129.769211 144.0
129.884857 184.0
130.004044 136.0
130.040543 200.0
130.066666 7172.0
130.12767 132.0
130.158859 212.0
130.198074 100.0
130.261658 136.0
130.284378 180.0
130.418442 64.0
130.536667 120.0
130.63446 40.0
130.736847 32.0
130.887863 152.0
131.048904 344.0
131.069046 816.0
131.162735 96.0
131.826874 40.0
131.906876 284.0
131.970886 272.0
132.044678 652.0
132.082367 1944.0
132.110382 36.0
132.135544 104.0
132.543091 60.0
132.650803 44.0
132.742508 92.0
133.015533 148.0
133.046616 336.0
133.085678 820.0
133.302612 152.0
133.410629 32.0
133.47731 164.0
133.900726 160.0
133.983658 96.0
134.05246 488.0
134.058731 116.0
135.025818 1248.0
135.346313 180.0
135.561737 164.0
135.587234 204.0
135.728638 180.0
135.935074 136.0
135.981491 112.0
136.029449 140.0
136.069702 148.0
136.229935 152.0
136.501862 192.0
136.846222 104.0
136.925385 180.0
136.983627 212.0
137.013763 164.0
137.043274 148.0
137.225983 132.0
137.522247 136.0
137.59227 164.0
137.947357 144.0
137.984756 172.0
138.010468 84.0
139.041168 180.0
139.217224 152.0
140.047424 104.0
140.146362 156.0
140.316055 156.0
140.976944 116.0
141.06572 200.0
141.547028 120.0
141.826584 152.0
142.067841 780.0
142.094543 144.0
142.564682 212.0
142.693024 92.0
142.84285 144.0
143.067169 424.0
143.450058 156.0
143.791138 168.0
143.853195 48.0
144.046265 600.0
144.09201 116.0
144.658768 192.0
144.924606 160.0
145.015671 64.0
145.049942 164.0
145.070786 164.0
146.016815 192.0
146.060318 436.0
146.120255 144.0
146.233353 160.0
146.739197 96.0
147.028473 300.0
147.063461 176.0
147.386047 36.0
147.531052 128.0
148.027039 216.0
149.011795 156.0
150.060745 152.0
150.372986 176.0
150.63913 116.0
151.468353 144.0
151.485504 84.0
151.536942 164.0
151.735458 144.0
153.015442 148.0
153.367706 164.0
153.616745 144.0
153.666092 188.0
153.76973 172.0
154.679291 28.0
155.064667 216.0
155.745499 124.0
156.0401 184.0
156.070267 360.0
156.678314 180.0
156.735626 44.0
157.055328 232.0
157.077164 100.0
157.181946 172.0
157.319214 184.0
157.871384 244.0
157.926407 220.0
157.962814 144.0
158.061462 11316.0
158.119064 40.0
158.141083 80.0
158.184128 44.0
158.374435 124.0
158.399475 60.0
158.429535 32.0
158.46962 52.0
158.692688 92.0
158.712738 40.0
159.064819 1360.0
159.815384 80.0
159.836441 140.0
160.017578 448.0
160.07634 1460.0
160.175385 124.0
160.268585 72.0
160.533264 112.0
161.046234 196.0
161.075806 220.0
161.128937 196.0
161.199677 172.0
161.594116 128.0
161.745956 116.0
161.834564 116.0
161.90799 28.0
162.053894 700.0
162.092911 256.0
162.45546 96.0
163.036896 100.0
163.057236 168.0
163.991089 168.0
164.386566 72.0
164.774658 168.0
165.068588 148.0
166.000671 332.0
166.067627 712.0
166.76828 104.0
166.901962 180.0
167.068542 844.0
167.280136 84.0
167.370255 120.0
167.975204 200.0
168.082993 328.0
169.05484 208.0
169.083664 212.0
169.091095 160.0
169.330246 152.0
169.350967 80.0
169.576385 140.0
170.050217 132.0
170.069641 316.0
170.336609 160.0
170.391159 56.0
170.804489 112.0
170.843506 204.0
171.054306 348.0
171.223526 116.0
171.830872 80.0
172.050079 44.0
172.070969 144.0
172.611816 172.0
173.0383 160.0
173.061859 136.0
174.003098 52.0
174.055099 532.0
174.073975 132.0
174.365585 232.0
175.023224 112.0
175.473755 184.0
175.626709 80.0
176.066986 228.0
176.479675 132.0
176.643646 172.0
176.844727 140.0
177.045944 140.0
178.082901 172.0
178.122742 44.0
178.260895 216.0
179.066971 92.0
180.084412 132.0
180.163239 140.0
181.067322 208.0
181.089798 212.0
181.254837 100.0
182.084671 640.0
182.333603 44.0
182.833801 228.0
183.01416 128.0
183.063065 180.0
183.092178 2224.0
183.337402 136.0
183.504517 40.0
183.547653 180.0
183.615463 192.0
183.833588 212.0
184.092133 748.0
184.330444 44.0
184.554794 152.0
184.665665 60.0
184.817154 140.0
184.852325 104.0
185.005249 96.0
185.048096 6220.0
185.108017 96.0
185.12886 176.0
185.320755 56.0
185.44902 60.0
185.480652 108.0
185.5186 56.0
185.863037 64.0
185.91188 52.0
186.055939 8184.0
186.213226 84.0
186.270264 52.0
186.376205 32.0
186.463165 40.0
186.631699 60.0
187.060944 856.0
187.088776 292.0
187.140503 132.0
187.246689 92.0
187.276657 96.0
187.404694 132.0
187.444489 172.0
187.619995 120.0
187.868149 84.0
188.073029 224.0
188.326721 80.0
188.537094 96.0
188.673767 168.0
188.99649 84.0
189.029327 136.0
189.067627 156.0
189.65921 124.0
190.078796 100.0
190.375259 228.0
191.07341 168.0
191.318344 124.0
191.946518 132.0
192.018204 44.0
192.078888 148.0
192.214066 84.0
192.352066 36.0
193.074875 124.0
193.096649 148.0
193.139557 164.0
194.057602 656.0
194.858261 152.0
194.911041 160.0
195.091064 320.0
195.489426 140.0
196.102112 136.0
196.80043 192.0
197.031311 184.0
198.096832 148.0
198.419403 176.0
198.946823 168.0
199.047897 148.0
199.52272 104.0
200.060028 128.0
201.065735 288.0
201.990173 64.0
202.077774 176.0
202.103333 104.0
202.256149 176.0
203.05777 1044.0
203.196976 168.0
203.406967 136.0
203.543243 76.0
203.960861 48.0
204.058945 340.0
204.083267 184.0
204.228119 128.0
205.061737 244.0
205.073624 192.0
205.085526 236.0
205.393082 188.0
206.052505 152.0
206.084869 440.0
206.129639 52.0
206.38118 72.0
207.098969 116.0
207.222641 164.0
207.526443 92.0
207.644012 36.0
208.106003 76.0
208.654755 52.0
209.076355 324.0
209.112106 180.0
209.371216 272.0
210.078384 148.0
210.406357 144.0
210.559387 192.0
211.024612 132.0
211.086136 4732.0
211.143173 164.0
211.284897 48.0
211.35434 72.0
211.380386 52.0
211.449829 52.0
211.504822 52.0
211.591675 44.0
211.707489 152.0
211.965302 156.0
212.090591 1416.0
212.171082 52.0
212.365356 44.0
212.812256 56.0
213.095642 168.0
213.195679 44.0
213.419495 120.0
213.666702 100.0
215.077087 176.0
216.021362 232.0
216.084167 212.0
217.088013 132.0
217.676819 124.0
217.973495 112.0
217.994064 76.0
218.082855 148.0
219.017868 228.0
219.095215 468.0
219.504135 80.0
220.083679 156.0
220.114944 56.0
221.070465 144.0
221.114365 236.0
221.783478 76.0
222.113358 124.0
222.39447 48.0
222.724045 136.0
223.082764 116.0
223.12822 232.0
223.199539 60.0
223.648758 116.0
224.071609 148.0
224.12822 136.0
224.217606 116.0
225.106583 64.0
225.261887 120.0
227.030746 140.0
228.331085 176.0
229.032349 140.0
229.098618 180.0
230.803818 132.0
231.096115 432.0
231.790588 108.0
232.103348 696.0
233.079788 204.0
233.108261 1736.0
233.147018 232.0
233.21405 72.0
233.663925 100.0
233.694351 32.0
233.715652 44.0
233.846512 40.0
234.110825 800.0
234.133316 192.0
234.217957 48.0
234.275833 112.0
234.364182 64.0
234.601898 120.0
234.820206 148.0
235.016678 60.0
235.083679 204.0
235.123474 332.0
235.743408 244.0
235.770905 48.0
235.80452 60.0
236.101074 160.0
236.122482 124.0
237.102142 216.0
237.402573 128.0
238.060699 300.0
239.544785 172.0
240.069046 156.0
240.707489 144.0
242.092972 176.0
243.010315 32.0
243.089996 344.0
243.680939 232.0
244.094223 128.0
244.781998 124.0
245.130875 112.0
247.08606 196.0
247.423416 80.0
248.058746 192.0
248.098068 224.0
248.846756 156.0
248.991196 148.0
249.083359 340.0
249.11998 112.0
249.19223 200.0
249.324203 148.0
250.069061 152.0
250.111252 180.0
251.080872 192.0
251.115829 868.0
252.084747 116.0
252.126083 196.0
252.343933 52.0
252.404007 84.0
253.087448 164.0
253.124985 196.0
253.556274 116.0
254.101654 220.0
254.460281 76.0
256.078827 128.0
258.866821 120.0
259.08847 428.0
259.555725 44.0
260.095306 820.0
261.101227 2344.0
261.270813 64.0
261.415588 56.0
261.444885 160.0
261.637665 64.0
261.9758 44.0
262.069 144.0
262.079956 124.0
262.107269 372.0
262.223907 92.0
262.462463 100.0
263.084778 208.0
263.122253 180.0
263.282104 104.0
263.343445 180.0
263.828125 60.0
263.902496 192.0
264.071381 196.0
264.099579 140.0
264.361816 116.0
265.100586 488.0
265.197357 124.0
266.06366 524.0
266.090088 284.0
266.125519 100.0
266.336212 64.0
267.077393 368.0
268.083282 120.0
277.056641 148.0
277.100067 268.0
277.789246 168.0
278.105347 128.0
278.978058 176.0
279.113007 3256.0
279.152802 116.0
279.194183 64.0
279.553467 168.0
280.11911 1092.0
281.124878 128.0
281.193085 32.0
281.51355 92.0
281.700592 112.0
282.05481 140.0
282.14505 200.0
282.783936 140.0
284.090729 48.0
290.768219 36.0
290.954895 40.0
291.121277 128.0
292.045685 136.0
292.270203 108.0
294.062653 572.0
295.077179 144.0
295.213959 104.0
296.062622 136.0
299.008179 52.0
299.195465 192.0
303.748596 68.0
308.103424 132.0
318.040863 76.0
338.169312 160.0
339.213196 160.0
340.152252 132.0
347.247589 84.0
351.90274 104.0
353.341614 60.0
354.685974 120.0
361.15097 132.0
374.776062 32.0
375.292542 72.0
388.112152 104.0
404.954926 96.0
405.103149 200.0
408.302063 212.0
410.004974 52.0
442.8284 84.0
447.380035 104.0
452.776184 44.0
486.67926 108.0
512.964966 76.0
536.248596 108.0
612.579407 96.0
622.267334 80.0
622.883118 76.0
638.773926 128.0
694.092224 100.0
703.372498 76.0
757.349304 188.0
763.188232 180.0
777.317566 204.0
785.596252 188.0
788.058289 72.0
805.993225 176.0
833.354492 112.0
849.873291 172.0
856.762695 40.0
861.58136 220.0
868.3479 112.0
868.641113 52.0
878.989746 188.0
890.884155 184.0
910.805664 148.0
924.539856 168.0
945.223694 108.0
946.552002 220.0
950.094543 216.0
998.082153 180.0
1005.610107 216.0
1008.060364 192.0
1014.268921 256.0
1018.958435 192.0
1028.561401 108.0
1029.634033 212.0
1033.962158 144.0
1045.481567 204.0
1045.803345 176.0
1054.814087 136.0
1069.271362 260.0
1073.192871 204.0
1077.337036 188.0
1090.895264 172.0
1092.519531 224.0
1102.693726 172.0
1105.616821 120.0
1106.391235 156.0
1111.52771 188.0
1111.673706 140.0
1117.381226 148.0
1127.41626 100.0
1133.344849 160.0
1134.068604 200.0
1137.818237 172.0
1145.956055 52.0
1149.630859 124.0
1151.514404 240.0
1156.971069 180.0
1158.244141 172.0
1161.456909 224.0
1162.746094 144.0
1163.852539 184.0
1166.617554 40.0
1168.508179 164.0
1171.626221 204.0
1176.474854 192.0
1177.963501 72.0
1193.84375 216.0
1193.974365 60.0
1194.648438 120.0
1194.834229 184.0
1196.265503 188.0
1199.854614 228.0
1208.328491 192.0
1214.479736 172.0
1217.929443 84.0
1223.965698 168.0
1225.247314 112.0
1225.421387 164.0
1228.795776 144.0
1229.772705 212.0
1233.04834 152.0
1239.458252 204.0
1240.130981 192.0
1242.402954 128.0
1245.751465 176.0
1249.983765 56.0
1259.289307 184.0
1259.939209 140.0
1262.292725 144.0
1267.516602 116.0
1270.515747 76.0
1271.367065 204.0
1272.233032 56.0
1278.87915 196.0
1280.246094 164.0
1280.566528 160.0
1282.84668 140.0
1283.138916 208.0
1289.570435 156.0
1291.429321 168.0
1293.02478 144.0
1293.797852 148.0
1294.535278 92.0
1296.992676 64.0
1315.377808 168.0
1316.041992 256.0
1317.847656 188.0
1318.635254 156.0
1327.568726 112.0
1332.889526 148.0
1339.670166 120.0
1348.937622 168.0
1356.074097 232.0
1356.257324 100.0
1358.28833 152.0
1359.682373 108.0
1366.074707 164.0
1369.43103 124.0
1369.48999 208.0
1372.260742 172.0
1372.437744 196.0
1373.374268 176.0
1373.890625 204.0
1384.852539 160.0
1387.208862 204.0
1389.819336 220.0
1391.207153 220.0
1392.825928 116.0
1396.52002 172.0
1402.804321 164.0
1404.489502 100.0
1410.574951 152.0
1415.25061 184.0
1415.894653 148.0
1419.191772 252.0
1419.724121 164.0
1426.646729 232.0
1427.879883 212.0
1433.834839 192.0
1435.078613 240.0
1435.629028 188.0
1437.273438 196.0
1437.582764 160.0
1439.182983 48.0
1448.662476 188.0
1453.192627 180.0
1453.397461 136.0
1456.284668 60.0
1456.517578 144.0
1458.630005 148.0
1459.040527 164.0
1459.283813 172.0
1462.646118 176.0
1463.506348 224.0
1463.681519 56.0
1467.872437 176.0
1468.383301 172.0
1469.283447 52.0
1471.336304 248.0
1472.344116 152.0
1480.396729 204.0
1480.450317 164.0
1481.537964 188.0
1485.263306 144.0
1486.751709 100.0
1488.302368 128.0
1491.744141 152.0
1492.928101 156.0
1493.051147 128.0
1496.452271 184.0
1498.077148 124.0
1499.664429 64.0
1500.304199 120.0
1500.396729 184.0
1501.561035 160.0
1502.502075 72.0
