>compound MLS000028447-01!
>formula C18H20O2
>ionization [M+H]+
>parentmass 269.152
#inchi InChI=1S/C18H20O2/c1-3-17(13-5-9-15(19)10-6-13)18(4-2)14-7-11-16(20)12-8-14/h5-12,19-20H,3-4H2,1-2H3/b18-17+
#inchikey RGLYKWWBQGJZGM
#Ion_Source LC-ESI
#Instrument qTof
#Compound_Source NIH Pharmacologically Active Library
#PI Dorrestein
#Data_Collector VP/LMS
#Scan -1
#Precursor_MZ 269.152
#ExactMass 268.146
#Charge 1
#CAS_Number N/A
#Pubmed_ID N/A
#Smiles CC/C(=C(/CC)\c1ccc(O)cc1)/c2ccc(O)cc2
#INCHI_AUX N/A
#Library_Class 1
#SpectrumID CCMSLIB00000085010
#IonMode Positive
#UpdateWorkflowName UPDATE-SINGLE-ANNOTATED-GOLD
#LibraryQualityString Gold
#TaskID d252d724072548979f1f6f1ced849daf
##Scan# 2235
#SpectrumFile p3-D09_GD9_01_18266.mzXML
#LibraryName Pharm_Active_Library.mgf
#MQScore -1
#Organism Pharm_Active_Library
#TIC_Query 0
#RT_Query -1
#MZErrorPPM -1
#SharedPeaks 0
#MassDiff 0
#LibMZ -1
#SpecMZ 269.152
#SpecCharge 0
#internalFilename spec-00000.mgf

>collision 10
45.015503 68.0
46.053719 168.0
47.3582 172.0
48.073147 168.0
48.583733 56.0
49.028702 144.0
49.535919 172.0
50.114765 120.0
50.293873 188.0
50.395557 244.0
51.558006 164.0
51.675266 176.0
52.170078 144.0
53.047829 72.0
53.232098 144.0
53.709488 160.0
54.630928 128.0
54.742794 176.0
54.810558 136.0
56.001713 128.0
56.28043 180.0
59.109051 104.0
59.801216 144.0
60.457165 128.0
60.736053 72.0
61.928501 156.0
66.424316 60.0
67.833275 180.0
67.874268 40.0
68.495522 252.0
70.091042 152.0
70.434731 164.0
72.673927 124.0
73.321838 104.0
74.555809 160.0
76.425194 196.0
78.12738 156.0
78.264893 128.0
78.388199 104.0
82.112701 80.0
82.745171 176.0
84.179848 156.0
84.561943 144.0
86.33371 200.0
86.839325 124.0
87.023041 132.0
88.659019 236.0
89.01358 124.0
89.528862 156.0
89.579712 168.0
91.054222 348.0
93.069939 320.0
93.123634 152.0
93.369652 176.0
95.044556 140.0
97.880959 212.0
98.36203 144.0
98.383743 60.0
98.903648 192.0
98.992737 224.0
99.424919 156.0
99.51226 84.0
100.651215 168.0
100.930962 232.0
100.986961 128.0
101.038971 88.0
102.271118 136.0
102.970764 44.0
103.052383 360.0
104.052116 192.0
104.533852 208.0
104.818947 28.0
105.521103 120.0
106.595177 168.0
106.837799 180.0
107.016861 212.0
107.048645 7684.0
107.071205 508.0
107.132195 112.0
107.189888 64.0
107.243469 52.0
107.367172 48.0
107.868919 68.0
108.026077 72.0
108.052681 952.0
108.548019 76.0
108.620613 72.0
108.709831 80.0
108.828148 56.0
108.842682 168.0
108.967308 128.0
109.059196 204.0
109.651939 128.0
110.113029 72.0
110.776108 92.0
111.143013 148.0
112.620918 84.0
112.984512 196.0
113.014137 192.0
115.053009 524.0
116.852715 176.0
116.990456 112.0
117.06797 176.0
118.071503 36.0
119.050613 196.0
119.701302 200.0
119.991096 108.0
120.057198 324.0
121.064392 796.0
121.112175 140.0
121.497993 96.0
121.897606 92.0
122.068024 176.0
122.212051 32.0
124.991287 148.0
127.051353 120.0
128.061279 480.0
129.058151 124.0
131.049393 160.0
132.055511 228.0
133.063583 320.0
134.960068 204.0
135.078094 992.0
136.044357 44.0
137.070084 172.0
137.709305 56.0
137.985062 164.0
141.07019 352.0
143.086258 336.0
144.053848 292.0
145.063141 148.0
145.803528 200.0
146.070419 560.0
147.115768 280.0
148.061722 208.0
148.107742 148.0
151.053619 196.0
152.063309 656.0
153.068619 384.0
154.06958 124.0
154.138763 132.0
154.947861 192.0
155.061905 176.0
156.082169 156.0
157.071014 240.0
159.017593 196.0
160.083572 300.0
161.998108 192.0
162.107056 76.0
163.061295 100.0
166.071594 156.0
167.086288 168.0
169.065094 188.0
170.066498 96.0
171.077423 188.0
172.0625 136.0
173.514542 124.0
176.571777 104.0
179.061295 272.0
181.066803 1144.0
181.11528 184.0
181.627243 40.0
181.672852 160.0
182.066833 364.0
182.071457 112.0
183.089386 180.0
183.404633 104.0
183.458542 132.0
184.033203 160.0
184.053772 204.0
185.67038 56.0
186.09642 228.0
194.070358 148.0
195.072601 132.0
196.102127 176.0
197.056915 388.0
197.096008 180.0
197.11557 160.0
198.036011 136.0
198.067749 140.0
198.989471 164.0
199.01474 84.0
199.074219 1152.0
199.13829 152.0
199.304047 44.0
200.076004 176.0
201.078201 120.0
201.44809 40.0
201.50177 116.0
201.530029 84.0
210.072632 124.0
210.092834 72.0
210.127457 124.0
212.08815 172.0
220.997299 92.0
224.075134 152.0
225.108322 116.0
226.163696 212.0
234.9487 80.0
247.892899 144.0
258.866943 168.0
266.018433 104.0
266.216492 152.0
272.373169 40.0
295.201996 124.0
307.88916 164.0
320.372833 112.0
350.87735 120.0
747.026794 88.0
876.294922 156.0
1073.750122 212.0
1087.470337 200.0
1113.099243 180.0
1118.111816 168.0
1127.067871 184.0
1152.933472 228.0
1184.717163 196.0
1184.806152 124.0
1189.140015 180.0
1204.315308 160.0
1210.885986 196.0
1223.914062 152.0
1233.961548 164.0
1244.134277 204.0
1244.351929 168.0
1249.074585 176.0
1259.372925 140.0
1272.267944 172.0
1276.367554 128.0
1278.964355 128.0
1280.288696 120.0
1283.160278 128.0
1292.960938 180.0
1311.635742 108.0
1313.445557 100.0
1314.397949 196.0
1318.622681 132.0
1327.244751 164.0
1329.09436 232.0
1330.059692 184.0
1334.60022 216.0
1338.646118 200.0
1342.982544 224.0
1344.660645 168.0
1350.586304 192.0
1352.84021 200.0
1358.739746 60.0
1362.506104 196.0
1363.703857 64.0
1364.608032 240.0
1369.789185 148.0
1403.049194 168.0
1412.189331 200.0
1413.842773 196.0
1433.420776 144.0
1443.869019 148.0
1468.461914 44.0
1475.594238 200.0
1482.866577 164.0
1490.533325 244.0
