>compound MLS001141325-01!(2S)-2-[6-[(10aS)-1,3-dioxo-10,10a-dihydro-5H-imidazo[1,5-b]isoquinolin-2-yl]hexanoylamino]-3-(4-hydroxyphenyl)propanoic acid
>formula C26H29N3O6
>ionization [M+H]+
>parentmass 480.213
#inchi InChI=1S/C26H29N3O6/c30-20-11-9-17(10-12-20)14-21(25(33)34)27-23(31)8-2-1-5-13-28-24(32)22-15-18-6-3-4-7-19(18)16-29(22)26(28)35/h3-4,6-7,9-12,21-22,30H,1-2,5,8,13-16H2,(H,27,31)(H,33,34)/t21-,22-/m0/s1
#inchikey SGHIPUDQOSQOLZ
#Ion_Source LC-ESI
#Instrument qTof
#Compound_Source NIH Natural Product Library
#PI Dorrestein
#Data_Collector VVP/LMS
#Scan -1
#Precursor_MZ 480.213
#ExactMass 479.206
#Charge 1
#CAS_Number N/A
#Pubmed_ID N/A
#Smiles OC(=O)[C@H](Cc1ccc(O)cc1)NC(=O)CCCCCN2C(=O)[C@@H]3Cc4ccccc4CN3C2=O
#INCHI_AUX N/A
#Library_Class 1
#SpectrumID CCMSLIB00000080567
#IonMode Positive
#UpdateWorkflowName UPDATE-SINGLE-ANNOTATED-GOLD
#LibraryQualityString Gold
#TaskID b1d8e8f6646f4e71acdff9ca3d919d08
##Scan# 1850
#SpectrumFile p2-F10_GF10_01_18046.mzXML
#LibraryName NIH_Natural_Products_Library.mgf
#MQScore -1
#Organism NIH_Natural_Products_Library
#TIC_Query 0
#RT_Query -1
#MZErrorPPM -1
#SharedPeaks 0
#MassDiff 0
#LibMZ -1
#SpecMZ 480.213
#SpecCharge 0
#internalFilename spec-00000.mgf

>collision 10
94.965561 148.0
95.050018 364.0
95.083916 160.0
95.252838 216.0
95.276146 188.0
95.307236 128.0
95.443298 200.0
95.780029 204.0
95.830643 68.0
95.967079 136.0
95.988525 212.0
96.080048 156.0
96.16996 132.0
96.459053 208.0
96.680069 92.0
96.813194 172.0
96.917015 116.0
96.940529 180.0
97.066078 344.0
97.460533 48.0
97.682701 176.0
97.802727 176.0
97.824387 128.0
98.066666 156.0
98.619324 156.0
98.680611 192.0
98.700378 140.0
99.022957 136.0
99.187416 172.0
99.645836 48.0
99.778999 252.0
100.037628 164.0
100.167061 204.0
100.384308 160.0
100.440155 116.0
100.635735 152.0
100.649712 60.0
100.707626 184.0
100.989449 128.0
101.367836 200.0
101.40992 112.0
101.740906 140.0
101.947792 88.0
102.152878 152.0
102.193115 192.0
102.295753 168.0
102.315887 248.0
102.334007 168.0
102.616081 168.0
102.696747 200.0
102.771385 200.0
103.05706 160.0
103.169266 104.0
103.229927 112.0
103.266327 184.0
103.306786 180.0
103.705696 192.0
103.945694 224.0
104.310585 200.0
104.334984 140.0
105.07019 188.0
105.441833 148.0
105.53791 160.0
105.836655 204.0
105.943153 220.0
106.133759 144.0
106.182976 76.0
106.215797 140.0
106.289658 140.0
106.390228 256.0
106.438606 220.0
106.529869 124.0
106.558632 52.0
106.908195 172.0
106.955536 164.0
107.045677 420.0
107.233597 136.0
107.406799 132.0
107.530602 232.0
107.65654 92.0
108.080307 148.0
108.223129 168.0
108.324608 36.0
108.52771 112.0
108.760063 156.0
108.776672 204.0
109.050858 180.0
109.064392 144.0
109.088272 68.0
109.20472 32.0
109.225517 148.0
109.387825 120.0
109.469025 232.0
109.537758 204.0
109.869217 192.0
110.023659 168.0
110.062431 240.0
110.217628 156.0
110.891533 148.0
110.94207 196.0
110.979813 160.0
111.011261 224.0
111.1707 80.0
111.231567 208.0
111.435272 128.0
111.519333 136.0
111.893394 200.0
111.959053 64.0
112.074409 348.0
112.617088 204.0
113.145752 116.0
113.277046 140.0
113.395706 76.0
113.459297 220.0
113.749931 220.0
114.3983 220.0
114.9674 152.0
115.007706 176.0
115.054878 572.0
115.942604 184.0
116.054077 228.0
116.751976 152.0
117.048599 200.0
117.066086 156.0
117.266533 168.0
117.417458 200.0
117.652657 180.0
118.063957 376.0
118.320282 188.0
118.426804 140.0
118.467148 140.0
118.782288 204.0
119.049568 2908.0
119.116585 160.0
119.233917 92.0
119.542732 132.0
119.629791 64.0
119.679863 88.0
119.882446 52.0
120.052666 308.0
120.078659 244.0
120.357994 60.0
120.52607 144.0
120.61142 164.0
120.930763 112.0
121.046799 68.0
121.063637 396.0
121.092789 124.0
121.169456 96.0
121.257111 200.0
121.728783 140.0
121.900131 152.0
121.963867 184.0
122.060371 440.0
122.102379 172.0
122.11998 96.0
122.135376 196.0
122.318008 204.0
122.436905 204.0
122.851295 152.0
123.044029 3260.0
123.36364 184.0
123.544975 84.0
123.613251 140.0
123.691032 92.0
123.89698 152.0
124.04776 520.0
124.07428 124.0
124.220642 212.0
124.309395 156.0
124.555832 160.0
124.666924 164.0
124.867012 192.0
125.065033 148.0
125.180801 104.0
125.303314 176.0
125.653351 196.0
125.818504 28.0
125.896652 88.0
126.071381 132.0
126.343697 116.0
126.480202 184.0
126.513779 84.0
126.706383 144.0
126.744308 112.0
127.105484 140.0
127.305275 136.0
127.570404 232.0
127.651344 164.0
127.797554 188.0
128.056442 184.0
128.288528 132.0
128.374222 84.0
128.428345 224.0
128.446381 224.0
128.489243 128.0
128.708191 184.0
128.945389 140.0
129.004166 124.0
129.067459 148.0
129.112686 136.0
129.540482 164.0
129.633377 160.0
129.708176 32.0
130.007553 120.0
130.065063 9968.0
130.132401 172.0
130.180084 48.0
130.40274 96.0
130.439102 188.0
130.502762 96.0
130.598267 52.0
130.839493 216.0
130.998154 172.0
131.039917 132.0
131.06897 924.0
131.194885 76.0
131.224518 180.0
131.598709 52.0
131.706039 144.0
131.811142 176.0
131.844955 196.0
131.948273 84.0
132.007736 168.0
132.03746 136.0
132.053467 180.0
132.080673 8320.0
132.126663 36.0
132.149551 52.0
132.257111 28.0
132.334946 88.0
132.651108 40.0
132.741165 196.0
133.083923 824.0
133.116852 68.0
133.270828 132.0
134.088867 276.0
134.362091 116.0
134.482086 148.0
134.530563 96.0
134.650635 168.0
134.71994 164.0
134.740723 136.0
135.175415 164.0
135.39534 108.0
135.54129 176.0
135.627045 220.0
135.696594 144.0
135.742966 192.0
135.847336 136.0
135.944778 112.0
135.998169 176.0
136.028336 72.0
136.075439 16716.0
136.107269 152.0
136.127914 36.0
136.153717 156.0
136.169983 68.0
136.259903 56.0
136.362823 28.0
136.432556 52.0
136.679092 48.0
136.768784 172.0
136.888596 68.0
136.91188 184.0
137.078018 1348.0
137.357056 92.0
137.422379 64.0
137.571747 80.0
137.655807 68.0
137.686691 124.0
137.767914 80.0
137.863724 56.0
137.896439 52.0
137.919815 196.0
138.084076 248.0
138.167694 36.0
138.489136 216.0
138.586792 124.0
139.203705 188.0
139.377533 64.0
139.687866 84.0
139.810226 104.0
140.019745 172.0
140.062149 92.0
140.531296 80.0
140.842911 168.0
140.858627 68.0
140.97049 148.0
141.048492 80.0
141.152512 116.0
142.064072 468.0
142.235229 224.0
143.043442 96.0
143.075455 152.0
143.519943 152.0
143.901703 164.0
143.93512 152.0
144.079742 1616.0
144.638016 132.0
145.01886 168.0
145.03804 160.0
145.08548 284.0
145.642715 216.0
146.056473 208.0
146.207718 64.0
146.270309 100.0
146.699097 248.0
146.766602 136.0
146.988525 148.0
147.042236 2668.0
147.196121 188.0
147.213013 192.0
148.047852 236.0
148.379303 116.0
148.444763 132.0
149.037064 132.0
149.054062 164.0
149.185318 76.0
149.416351 200.0
150.520493 140.0
150.960342 88.0
150.983292 200.0
151.940109 212.0
152.013718 204.0
152.096085 196.0
152.17572 240.0
152.708984 36.0
153.573517 132.0
153.91655 48.0
154.381134 188.0
154.408325 156.0
154.806778 84.0
155.004959 152.0
155.143753 108.0
155.381836 180.0
155.771591 168.0
156.039993 168.0
156.079773 164.0
156.146927 112.0
156.654709 192.0
157.011139 128.0
157.083633 196.0
157.570282 184.0
157.635254 156.0
157.907745 160.0
158.060318 3672.0
158.115417 152.0
158.162964 204.0
158.223053 168.0
158.355759 40.0
158.395844 120.0
158.964981 52.0
159.01767 132.0
159.061142 304.0
159.251175 36.0
159.801712 124.0
159.854553 128.0
160.033279 200.0
160.077072 492.0
160.108826 192.0
160.207062 44.0
160.275085 180.0
160.411179 140.0
161.072891 188.0
161.127899 128.0
161.552612 128.0
162.043762 176.0
162.074173 260.0
162.155273 136.0
162.718414 76.0
162.741272 228.0
162.764114 128.0
163.107101 164.0
163.514053 200.0
163.544601 156.0
164.263168 256.0
164.342255 144.0
164.385635 100.0
164.983322 156.0
165.054626 4356.0
165.126511 56.0
165.500137 64.0
165.551346 92.0
165.582092 36.0
165.69223 76.0
166.060959 356.0
166.169098 164.0
166.497681 92.0
166.5439 80.0
166.721176 164.0
167.059631 292.0
167.130905 176.0
167.289627 128.0
167.52655 44.0
167.758469 104.0
167.944138 196.0
168.075714 256.0
168.101517 112.0
168.532745 176.0
169.077209 80.0
169.119781 212.0
169.829742 196.0
170.061127 156.0
170.369675 92.0
170.598373 128.0
170.668564 92.0
171.094543 320.0
171.49382 176.0
171.871964 208.0
172.075546 84.0
173.176483 116.0
173.393951 176.0
173.612732 44.0
175.085312 3624.0
175.254471 172.0
175.649933 128.0
175.831985 144.0
175.855743 140.0
176.024704 196.0
176.068192 816.0
177.072906 212.0
177.307755 136.0
177.968292 92.0
178.010773 88.0
178.071854 176.0
178.917465 188.0
179.159805 100.0
179.351669 208.0
180.339264 124.0
180.462234 56.0
180.673523 152.0
181.077713 132.0
181.455551 108.0
182.016342 84.0
182.043198 132.0
182.081909 1584.0
182.153305 52.0
182.27153 80.0
182.384399 108.0
182.879318 120.0
183.082062 172.0
183.199753 108.0
183.598679 176.0
184.068237 180.0
184.165451 92.0
184.387009 192.0
184.473511 68.0
184.576248 108.0
184.876511 116.0
184.898163 156.0
185.072906 892.0
185.12558 164.0
185.323318 184.0
185.396484 52.0
185.53743 84.0
185.887329 164.0
186.074432 288.0
186.191376 124.0
186.234833 132.0
186.272858 80.0
186.805664 216.0
186.849197 300.0
186.928101 108.0
187.034241 132.0
187.053833 180.0
187.086166 23232.0
187.154022 64.0
187.204453 116.0
187.227631 128.0
187.325607 84.0
187.374649 84.0
187.602509 92.0
187.701721 32.0
187.985428 80.0
188.090775 1744.0
188.166306 60.0
188.206528 60.0
188.326691 40.0
188.397705 124.0
188.736618 56.0
188.91713 48.0
189.097733 292.0
189.21698 220.0
189.294846 72.0
189.328751 140.0
189.396179 184.0
189.453705 104.0
189.481094 160.0
189.572388 76.0
189.631805 48.0
190.243515 84.0
190.476929 40.0
190.545609 40.0
191.070724 248.0
191.566269 204.0
191.910767 72.0
192.584122 196.0
193.715469 144.0
194.045258 28.0
194.57518 180.0
195.033539 176.0
195.261536 52.0
195.72905 188.0
195.924026 96.0
196.027115 164.0
196.075592 976.0
196.18042 80.0
196.783035 96.0
196.875183 56.0
196.986893 88.0
197.076874 180.0
197.216034 220.0
197.442505 124.0
197.473267 32.0
197.523605 72.0
198.122025 172.0
198.941574 216.0
198.96965 208.0
199.084213 160.0
199.45845 112.0
199.489365 144.0
199.615891 40.0
200.158981 136.0
200.212494 88.0
200.322769 112.0
200.364594 104.0
200.454758 124.0
200.629517 212.0
200.824081 128.0
200.922821 156.0
201.063034 332.0
201.103424 288.0
201.968033 152.0
202.01329 100.0
202.06987 92.0
202.092514 168.0
202.177399 124.0
202.318924 96.0
202.491653 136.0
202.630463 56.0
202.854355 200.0
202.959244 124.0
203.002731 48.0
203.082123 28468.0
203.171967 64.0
203.194656 48.0
203.240067 68.0
203.339386 40.0
203.421692 84.0
203.523911 60.0
203.546616 64.0
203.623291 100.0
203.822159 68.0
203.881836 32.0
203.947205 48.0
203.97847 184.0
204.012589 64.0
204.08432 3844.0
204.203094 172.0
204.288437 48.0
204.348175 124.0
204.666962 32.0
204.870697 60.0
204.93515 52.0
205.0896 336.0
205.322388 272.0
205.348053 84.0
205.504959 116.0
205.587708 108.0
205.613388 140.0
205.833206 140.0
205.89032 92.0
205.996002 48.0
206.293198 112.0
206.533401 128.0
206.659286 136.0
207.604568 88.0
207.690613 80.0
208.113647 196.0
209.325912 200.0
210.092346 136.0
210.127914 408.0
210.170502 76.0
210.826004 220.0
211.126663 108.0
211.146912 132.0
211.170044 172.0
212.137177 180.0
213.004837 204.0
213.072708 120.0
213.106522 120.0
213.947037 168.0
214.261566 60.0
214.984695 48.0
215.080353 2788.0
215.311676 84.0
215.348755 120.0
215.472443 108.0
215.834763 92.0
215.925415 80.0
216.083054 340.0
216.683563 188.0
216.727524 172.0
216.932678 104.0
217.086121 144.0
218.209747 56.0
219.455185 224.0
220.116135 88.0
220.346527 72.0
221.096283 368.0
223.778107 76.0
224.496231 136.0
225.104996 192.0
225.278229 116.0
226.723434 188.0
227.587357 204.0
228.140182 176.0
229.094086 172.0
229.136337 144.0
230.092392 128.0
231.07579 324.0
232.083252 100.0
233.093689 184.0
233.519653 116.0
234.091812 140.0
235.62912 112.0
236.240555 56.0
236.341522 172.0
236.672089 164.0
237.061127 160.0
237.133224 136.0
237.309402 60.0
237.757263 168.0
237.907669 200.0
238.051971 172.0
238.123734 1424.0
238.251633 60.0
238.912598 116.0
239.081833 136.0
239.125244 692.0
240.121292 132.0
241.012222 84.0
242.026779 108.0
243.05899 152.0
243.11174 140.0
243.145508 136.0
243.207947 68.0
244.102707 132.0
244.151459 404.0
246.859375 156.0
247.861084 104.0
248.230972 160.0
250.515961 64.0
252.542496 120.0
253.134735 428.0
254.137802 176.0
254.427963 56.0
255.106216 120.0
255.150757 924.0
256.146332 156.0
256.291748 168.0
256.95813 56.0
257.136841 184.0
257.539124 96.0
259.032928 124.0
261.331604 112.0
266.33606 128.0
266.755219 112.0
269.097626 204.0
270.107452 132.0
270.627808 188.0
271.14267 3452.0
271.458466 144.0
271.692993 60.0
272.083527 48.0
272.149384 1080.0
272.553192 112.0
273.155701 152.0
273.959991 56.0
274.050323 112.0
274.584351 84.0
277.186096 272.0
277.703278 180.0
278.247467 88.0
279.331909 164.0
279.650299 80.0
281.130127 1288.0
281.27356 72.0
282.129425 396.0
285.700378 80.0
286.420776 116.0
295.060974 164.0
295.704071 84.0
296.29306 220.0
298.403778 136.0
298.641052 208.0
298.671997 152.0
298.775208 144.0
298.961029 180.0
299.138245 5884.0
299.360352 68.0
299.494659 80.0
299.701385 64.0
299.808197 64.0
299.915039 76.0
299.994324 44.0
300.145996 784.0
300.290863 60.0
300.339142 220.0
300.442627 92.0
300.808441 76.0
300.887848 60.0
301.142975 168.0
301.471588 76.0
301.571808 60.0
301.599457 52.0
301.640961 108.0
301.733185 140.0
302.052429 32.0
302.183899 48.0
303.122253 52.0
307.783478 72.0
308.559143 64.0
308.880859 92.0
309.080292 120.0
318.131348 172.0
327.871429 52.0
337.133148 168.0
338.098633 88.0
347.67337 44.0
352.865997 48.0
355.10376 192.0
368.128448 64.0
368.155182 32.0
383.281403 20.0
384.923615 80.0
391.496063 132.0
393.696594 104.0
399.113617 268.0
412.213715 68.0
413.099152 72.0
413.98175 124.0
416.198364 172.0
416.414825 28.0
417.288513 84.0
418.35849 96.0
420.249573 48.0
424.16333 92.0
433.631256 44.0
434.181396 104.0
434.208893 200.0
457.334656 204.0
461.246094 48.0
466.785309 56.0
474.180511 128.0
477.118042 268.0
479.116302 148.0
479.665863 32.0
481.105438 64.0
481.153442 176.0
481.821655 44.0
482.258636 188.0
485.055634 52.0
489.849792 116.0
500.434509 100.0
505.353119 96.0
515.804749 28.0
516.62323 124.0
532.752625 132.0
536.650818 64.0
544.499084 84.0
553.19519 32.0
570.722656 88.0
591.351562 76.0
643.404663 60.0
659.053162 112.0
677.068237 196.0
733.314392 228.0
773.768311 68.0
790.377075 52.0
792.106995 68.0
795.544495 192.0
841.792603 88.0
841.937012 220.0
854.120056 168.0
857.590332 244.0
874.09967 176.0
883.741211 220.0
912.664307 80.0
912.958984 224.0
950.980835 216.0
962.832581 196.0
968.151123 136.0
968.634216 176.0
985.637512 116.0
1000.728821 172.0
1004.106384 96.0
1008.298462 236.0
1009.53125 220.0
1010.676208 76.0
1011.365967 180.0
1012.366272 164.0
1020.914368 180.0
1029.4729 204.0
1047.083374 68.0
1066.896606 100.0
1070.468628 168.0
1084.161011 148.0
1097.511841 156.0
1112.915405 132.0
1114.343384 96.0
1119.385254 220.0
1123.130737 184.0
1125.266113 132.0
1129.737183 196.0
1132.173462 124.0
1140.654175 160.0
1142.50354 136.0
1142.880249 184.0
1143.909912 176.0
1157.500732 68.0
1157.906982 212.0
1165.158203 104.0
1165.858032 136.0
1188.275513 232.0
1189.826538 256.0
1190.595581 120.0
1194.616455 192.0
1196.378174 160.0
1207.563477 44.0
1208.102905 180.0
1212.57605 132.0
1218.147705 144.0
1221.011353 188.0
1222.33313 136.0
1223.251709 144.0
1227.062378 204.0
1232.059448 132.0
1233.813477 160.0
1234.64563 168.0
1245.417847 220.0
1245.776123 180.0
1251.9375 128.0
1256.893066 172.0
1262.254395 168.0
1262.60791 208.0
1263.032349 128.0
1269.136841 212.0
1273.110596 144.0
1273.543823 96.0
1274.339478 100.0
1277.055054 260.0
1278.058105 244.0
1278.321411 132.0
1279.567017 184.0
1291.476929 80.0
1291.619995 196.0
1293.752441 188.0
1298.058594 116.0
1298.237793 156.0
1298.818726 76.0
1299.679688 128.0
1300.519287 224.0
1303.866211 148.0
1310.853882 188.0
1311.279053 224.0
1312.684814 144.0
1315.065552 156.0
1315.996826 120.0
1319.385132 200.0
1322.24231 196.0
1326.109863 184.0
1333.629272 228.0
1334.152588 140.0
1335.563354 44.0
1335.635986 220.0
1339.275391 160.0
1341.97168 148.0
1344.276733 116.0
1344.670776 232.0
1347.737793 148.0
1354.570923 224.0
1356.754639 108.0
1357.216553 108.0
1358.727417 92.0
1360.099731 128.0
1362.699341 252.0
1364.316162 192.0
1364.698486 208.0
1365.801636 176.0
1381.121704 160.0
1384.185547 104.0
1385.266846 164.0
1385.896606 144.0
1386.48938 76.0
1387.749512 48.0
1396.422974 40.0
1402.558228 164.0
1406.332397 108.0
1408.86377 172.0
1410.612427 208.0
1412.968018 132.0
1419.716797 128.0
1427.549316 208.0
1428.918213 132.0
1429.971802 92.0
1430.317993 180.0
1435.388306 232.0
1436.481812 184.0
1437.145752 124.0
1441.374146 144.0
1441.699097 192.0
1442.432251 148.0
1448.167603 48.0
1448.417603 68.0
1450.706055 236.0
1452.055664 192.0
1452.58667 148.0
1453.436279 96.0
1454.954346 176.0
1460.32666 96.0
1461.787231 116.0
1467.423706 208.0
1469.238892 132.0
1471.772705 80.0
1474.324097 144.0
1475.608276 184.0
1476.977173 120.0
1477.726807 148.0
1477.994629 152.0
1478.201172 156.0
1478.736938 88.0
1479.96936 176.0
1481.470459 216.0
1481.738647 192.0
1483.907593 144.0
1486.415649 184.0
1487.252197 144.0
1488.995117 208.0
1489.839966 128.0
1492.837524 180.0
1493.545166 128.0
1494.12207 76.0
1494.175903 52.0
1494.614502 148.0
1496.384766 212.0
1496.661865 188.0
1496.923706 176.0
1498.572021 180.0
1499.87439 204.0
1501.732666 228.0
1501.840576 132.0
1502.681519 152.0
1503.275635 128.0
1504.309814 104.0
