>compound MLS000697728-01!
>formula C15H10O4
>ionization [M+H]+
>parentmass 255.06518525209054
#inchi InChI=1S/C15H10O4/c16-10-6-11(17)15-12(18)8-13(19-14(15)7-10)9-4-2-1-3-5-9/h1-8,16-17H
#inchikey RTIXKCRFFJGDFG
#Ion_Source LC-ESI
#Instrument qTof
#Compound_Source NIH Natural Product Library
#PI Dorrestein
#Data_Collector VVP/LMS
#Scan -1
#Precursor_MZ 255.066
#ExactMass 254.058
#Charge 1
#CAS_Number N/A
#Pubmed_ID N/A
#Smiles Oc1cc(O)c2c(=O)cc(oc2c1)c3ccccc3
#INCHI_AUX N/A
#Library_Class 1
#SpectrumID CCMSLIB00000080328
#IonMode Positive
#UpdateWorkflowName UPDATE-SINGLE-ANNOTATED-GOLD
#LibraryQualityString Gold
#TaskID b1d8e8f6646f4e71acdff9ca3d919d08
##Scan# 2142
#SpectrumFile p2-C07_GC7_01_18007.mzXML
#LibraryName NIH_Natural_Products_Library.mgf
#MQScore -1
#Organism NIH_Natural_Products_Library
#TIC_Query 0
#RT_Query -1
#MZErrorPPM -1
#SharedPeaks 0
#MassDiff 0
#LibMZ -1
#SpecMZ 255.066
#SpecCharge 0
#internalFilename spec-00000.mgf

>collision 10
95.065544 188.0
95.134636 172.0
95.459106 184.0
95.505775 136.0
95.56414 112.0
95.815292 128.0
95.85231 144.0
95.984856 180.0
96.314674 64.0
96.449501 140.0
96.631371 88.0
96.694374 192.0
96.929283 256.0
96.970131 208.0
97.029846 364.0
97.128952 180.0
97.176033 156.0
97.238823 92.0
97.643547 188.0
97.942711 152.0
98.102325 216.0
98.273903 148.0
98.623436 136.0
99.385872 164.0
99.459297 268.0
99.699615 108.0
99.773163 212.0
100.444252 188.0
100.789627 208.0
100.809608 128.0
100.867569 144.0
100.925545 164.0
101.037552 180.0
101.401985 120.0
101.793175 180.0
101.929771 128.0
102.047539 436.0
102.080528 204.0
102.223351 124.0
102.477058 224.0
102.610077 120.0
102.702835 104.0
102.729057 176.0
102.930885 108.0
103.054512 5796.0
103.1511 88.0
103.175362 128.0
103.695572 152.0
103.945007 76.0
104.011986 212.0
104.059242 692.0
104.278061 224.0
104.459023 80.0
104.546509 148.0
104.74604 148.0
104.782707 192.0
104.833641 76.0
104.986534 176.0
105.034012 2096.0
105.059967 108.0
105.302864 96.0
105.398209 156.0
105.83046 160.0
106.037971 208.0
106.094749 44.0
106.242401 116.0
106.455864 176.0
106.501045 136.0
106.690094 204.0
106.768227 208.0
106.971916 40.0
107.018013 256.0
107.048096 140.0
107.190231 232.0
107.245872 96.0
107.42939 164.0
107.995369 128.0
108.372131 148.0
108.656174 152.0
108.795212 132.0
108.836739 64.0
109.023689 160.0
109.038239 192.0
109.202484 88.0
109.237846 216.0
109.354362 88.0
109.40432 192.0
109.429306 168.0
109.57093 220.0
110.27623 104.0
111.007942 1192.0
111.304832 144.0
111.399338 104.0
111.647354 208.0
111.725182 192.0
112.007256 144.0
112.274933 176.0
112.36985 260.0
112.910606 96.0
113.035416 160.0
113.520508 92.0
113.683853 192.0
113.99601 164.0
114.081024 160.0
114.100159 152.0
114.613098 180.0
114.677025 172.0
115.054176 748.0
115.172028 108.0
115.244667 168.0
115.674522 152.0
115.717339 172.0
115.820129 176.0
115.952965 100.0
116.054016 144.0
116.143784 176.0
116.639793 180.0
117.070671 164.0
117.18856 124.0
117.248894 188.0
117.630661 156.0
117.950356 128.0
118.026016 56.0
118.041153 48.0
118.404716 136.0
118.966293 160.0
119.057487 192.0
119.083549 164.0
119.394333 136.0
119.474815 160.0
119.596672 56.0
119.949532 120.0
120.038925 96.0
120.302917 120.0
120.599991 164.0
120.704926 204.0
120.866791 116.0
121.024384 176.0
121.263161 176.0
121.471466 180.0
121.903984 156.0
121.978706 148.0
122.027069 164.0
122.110634 132.0
122.892647 108.0
123.497932 68.0
123.860931 192.0
124.01825 200.0
124.191193 136.0
124.519669 116.0
124.938919 284.0
125.022461 780.0
125.077744 48.0
125.483185 176.0
126.030006 176.0
126.698967 136.0
126.914124 164.0
127.055237 148.0
127.500008 216.0
127.77433 112.0
128.066025 240.0
128.425339 176.0
128.727753 52.0
128.885864 116.0
128.960449 68.0
128.97966 128.0
129.009079 164.0
129.034744 5216.0
129.071213 292.0
129.16922 96.0
129.203873 80.0
130.037506 780.0
130.074844 132.0
130.240601 84.0
130.288315 80.0
130.456482 148.0
130.870529 144.0
131.046967 380.0
131.44722 168.0
132.306595 172.0
132.677719 168.0
132.737335 68.0
132.909363 148.0
132.959854 36.0
133.138916 208.0
133.550308 72.0
133.764297 224.0
133.877121 148.0
134.022232 184.0
134.174347 208.0
134.257355 132.0
134.795227 108.0
134.816025 148.0
134.929276 128.0
135.011002 324.0
135.830109 156.0
135.922897 228.0
136.057526 160.0
136.129501 208.0
136.247955 184.0
136.861954 112.0
136.941132 100.0
137.036636 172.0
137.127518 204.0
137.708466 116.0
138.10347 216.0
138.243835 228.0
138.377258 64.0
138.419403 124.0
138.475601 48.0
139.055206 1668.0
139.15094 60.0
139.204941 132.0
139.787918 164.0
139.985657 144.0
140.060043 312.0
140.311401 176.0
140.796875 168.0
141.067612 772.0
141.574921 128.0
142.04184 204.0
142.075485 304.0
142.554657 204.0
142.668747 164.0
143.044601 192.0
143.082687 128.0
144.048508 160.0
144.608002 152.0
144.960052 232.0
145.031952 104.0
145.064499 220.0
145.144623 104.0
145.468506 156.0
145.53093 152.0
146.343597 32.0
146.57724 248.0
146.854248 176.0
146.996811 100.0
147.044479 3536.0
147.110245 44.0
147.291351 100.0
147.404892 88.0
147.50882 88.0
147.898254 64.0
147.926941 108.0
148.050797 316.0
148.072586 204.0
148.377899 164.0
148.421539 164.0
148.470032 192.0
149.023468 104.0
149.045349 156.0
149.388138 84.0
149.451401 120.0
150.040787 156.0
150.201736 168.0
151.057648 904.0
151.103165 184.0
151.96312 140.0
152.014648 176.0
152.062225 4176.0
152.102997 160.0
152.159454 128.0
152.446838 104.0
152.510727 96.0
152.697586 176.0
152.759079 128.0
152.793518 96.0
152.859955 380.0
152.884567 192.0
152.915863 184.0
152.948547 136.0
152.98056 216.0
153.019516 22804.0
153.070892 2356.0
153.093353 296.0
153.128296 44.0
153.151749 92.0
153.197266 40.0
153.251465 80.0
153.305664 140.0
153.340164 88.0
153.384537 64.0
153.428909 68.0
153.456024 48.0
153.500412 72.0
153.59166 32.0
153.682938 44.0
153.823608 52.0
154.022934 1176.0
154.072418 356.0
154.186691 56.0
154.208923 40.0
154.285553 128.0
154.349838 168.0
154.641754 72.0
154.735809 88.0
154.760574 108.0
154.856354 124.0
154.886871 96.0
154.916595 164.0
155.023132 164.0
155.047348 192.0
155.059067 72.0
155.068176 228.0
155.076691 112.0
155.083588 184.0
155.117325 96.0
155.214005 80.0
155.246246 140.0
155.266083 160.0
155.288406 120.0
155.306778 108.0
155.338013 156.0
155.680527 156.0
155.909073 80.0
156.013458 164.0
156.055725 168.0
156.224838 208.0
156.732727 104.0
156.805008 152.0
156.986984 164.0
157.068909 316.0
157.161591 36.0
157.189041 180.0
158.11116 180.0
158.253845 40.0
158.434158 172.0
159.02594 184.0
159.083664 172.0
160.580811 120.0
160.671616 184.0
160.870987 104.0
161.052261 152.0
161.588699 136.0
161.793701 64.0
161.862061 76.0
161.970963 140.0
162.191406 104.0
162.475418 84.0
162.988281 120.0
163.055801 512.0
163.186523 68.0
164.059753 96.0
164.810104 124.0
165.01712 208.0
165.070602 428.0
167.052414 288.0
167.895615 192.0
168.742569 108.0
169.063492 488.0
169.216019 164.0
169.557938 148.0
170.022171 180.0
170.06781 324.0
170.635178 188.0
170.720978 132.0
170.848434 176.0
171.042816 780.0
171.078842 168.0
171.145126 192.0
171.543732 116.0
172.033401 168.0
172.045868 140.0
172.603714 164.0
173.229218 128.0
173.955582 104.0
174.717667 108.0
174.851868 164.0
175.044037 168.0
175.17836 72.0
176.225708 176.0
176.453003 64.0
177.414001 168.0
179.058762 52.0
179.186615 36.0
179.949387 188.0
180.066879 172.0
180.155029 224.0
180.251205 92.0
180.411575 152.0
180.834198 184.0
181.032303 52.0
181.064438 1940.0
181.134079 60.0
181.211777 40.0
181.780212 96.0
182.06694 128.0
182.107727 232.0
182.266235 80.0
182.841705 176.0
182.887451 152.0
183.048981 80.0
183.078613 152.0
183.639175 156.0
184.04808 328.0
185.993149 160.0
186.068314 540.0
186.096298 120.0
186.188629 76.0
186.237518 104.0
187.015121 156.0
187.049942 284.0
187.073807 452.0
188.079178 176.0
188.195511 164.0
189.01825 84.0
190.012833 96.0
190.776291 104.0
190.911011 152.0
190.982513 220.0
191.409088 112.0
191.568817 52.0
191.874725 132.0
192.744125 116.0
192.838089 244.0
193.131165 188.0
193.186478 92.0
193.565659 168.0
194.916519 136.0
195.045319 232.0
196.055099 128.0
196.146637 84.0
196.947433 128.0
197.056381 176.0
197.226852 124.0
199.074982 388.0
199.638382 180.0
200.076889 348.0
200.203598 80.0
200.699539 196.0
200.843353 64.0
201.458725 116.0
202.536453 116.0
202.567612 132.0
202.814133 48.0
202.92186 144.0
203.19696 48.0
205.019592 104.0
206.086792 92.0
207.108078 60.0
207.271362 140.0
208.056931 164.0
208.180695 80.0
208.485199 120.0
209.060486 1224.0
209.14093 216.0
210.065857 424.0
211.04216 400.0
211.070404 152.0
212.014618 160.0
212.049393 156.0
213.006897 92.0
213.052307 412.0
213.282928 104.0
213.975281 188.0
214.057617 156.0
214.805817 92.0
215.018814 104.0
215.383774 196.0
215.637955 52.0
216.149734 196.0
216.407303 156.0
217.019653 188.0
217.445007 176.0
217.580032 176.0
218.970871 192.0
219.642868 204.0
219.757919 144.0
219.929077 52.0
220.389771 168.0
220.596649 136.0
221.374771 80.0
221.42215 140.0
221.961487 164.0
222.225464 136.0
222.284805 176.0
224.024094 112.0
224.77243 212.0
225.185577 132.0
225.868866 144.0
226.057755 168.0
226.090256 164.0
226.242905 184.0
226.701172 140.0
227.018936 80.0
227.072769 356.0
230.003464 196.0
230.087982 152.0
230.278214 156.0
230.797989 248.0
230.912903 100.0
231.067169 568.0
231.200302 160.0
231.887787 148.0
231.978714 168.0
232.069656 108.0
233.922836 48.0
234.922348 116.0
236.052399 120.0
236.17778 120.0
236.398056 112.0
236.740921 164.0
237.054855 700.0
237.49791 212.0
237.626755 80.0
237.74028 96.0
238.004272 164.0
238.066818 252.0
238.351364 164.0
238.563431 104.0
239.594345 104.0
239.936432 212.0
241.817596 172.0
242.889648 188.0
242.964096 176.0
243.563202 124.0
243.988937 176.0
244.636002 92.0
244.720047 192.0
245.084473 180.0
245.162369 164.0
245.573898 128.0
245.708023 176.0
246.001373 168.0
246.9888 96.0
247.539612 152.0
247.595978 224.0
249.532028 88.0
249.887421 140.0
251.084396 168.0
252.146744 232.0
252.233673 172.0
252.682724 112.0
253.053009 164.0
253.35704 168.0
253.423569 80.0
253.86734 52.0
253.98468 124.0
254.054474 164.0
254.232147 76.0
254.328461 116.0
254.441467 76.0
254.461441 84.0
254.483398 144.0
254.497772 100.0
254.60675 208.0
254.673447 136.0
254.714737 148.0
254.810043 112.0
254.832291 128.0
254.968185 156.0
255.067398 51684.0
255.132309 124.0
255.164642 312.0
255.22049 104.0
255.283829 108.0
255.350418 88.0
255.393707 72.0
255.428009 48.0
255.458847 84.0
255.484741 88.0
255.520889 68.0
255.544632 220.0
255.595367 76.0
255.677856 164.0
255.736496 128.0
255.813553 72.0
255.869095 72.0
255.910477 120.0
255.952744 44.0
256.01236 260.0
256.069611 5512.0
256.135956 140.0
256.179596 76.0
256.233948 64.0
256.267212 44.0
256.30542 68.0
256.345154 100.0
256.38092 52.0
256.471161 52.0
256.546478 108.0
256.555328 68.0
256.659241 80.0
256.914398 104.0
256.968628 124.0
257.071533 1100.0
257.124969 52.0
257.167633 76.0
257.27179 100.0
257.463898 96.0
257.514465 124.0
257.586517 152.0
257.709351 72.0
257.756317 144.0
257.811584 104.0
257.843536 88.0
257.867828 100.0
257.936249 68.0
257.964996 136.0
258.038544 60.0
258.068634 176.0
258.13446 104.0
258.41272 76.0
258.479919 44.0
259.149109 112.0
259.694061 80.0
263.524811 108.0
265.029327 64.0
265.440979 108.0
265.75885 100.0
266.393768 100.0
267.081024 104.0
267.224182 40.0
267.728699 52.0
267.904572 48.0
267.937164 100.0
268.038177 96.0
268.295654 52.0
270.235596 80.0
270.271576 136.0
271.011536 132.0
271.73941 60.0
273.54361 72.0
274.090302 48.0
275.826233 120.0
287.681976 60.0
288.567108 68.0
328.89093 164.0
340.976013 116.0
344.661072 64.0
358.52066 72.0
365.3703 84.0
370.777069 48.0
371.417358 68.0
380.435425 44.0
383.991821 88.0
387.807709 96.0
393.30246 100.0
394.598145 84.0
397.652222 48.0
402.009979 40.0
402.764557 68.0
413.277252 80.0
416.585419 92.0
418.045044 76.0
420.755524 112.0
432.255859 32.0
432.359314 68.0
434.675781 20.0
438.280823 144.0
439.068695 44.0
442.315063 72.0
452.456085 108.0
455.793976 88.0
470.109314 92.0
472.368896 52.0
489.55246 72.0
548.165466 44.0
616.761108 100.0
626.068542 204.0
636.318909 100.0
658.085022 72.0
746.203308 88.0
752.195679 172.0
755.239136 224.0
757.48877 56.0
766.856995 36.0
769.830566 76.0
813.596375 208.0
874.695862 156.0
888.132324 80.0
920.365295 152.0
922.636963 124.0
953.277222 212.0
979.397644 144.0
980.500366 48.0
984.730286 112.0
1006.590759 196.0
1018.45874 140.0
1019.271851 156.0
1021.477905 184.0
1033.106812 212.0
1043.425293 192.0
1060.66748 40.0
1062.029175 176.0
1091.666382 192.0
1095.207031 148.0
1095.819702 144.0
1132.911011 204.0
1133.400024 192.0
1140.043091 152.0
1142.154175 152.0
1142.786499 56.0
1149.119629 52.0
1150.185791 144.0
1151.407837 100.0
1151.96167 188.0
1152.731812 132.0
1162.224976 132.0
1165.640381 80.0
1169.993164 168.0
1171.654907 156.0
1173.181396 148.0
1174.401855 212.0
1175.793701 168.0
1176.995117 152.0
1178.142456 124.0
1183.476929 96.0
1185.312622 160.0
1191.432495 104.0
1193.239868 164.0
1194.677246 160.0
1196.487061 164.0
1196.927734 164.0
1220.077637 160.0
1228.573608 140.0
1236.217285 184.0
1244.57959 196.0
1245.169434 192.0
1251.575562 40.0
1251.730469 176.0
1255.838989 156.0
1256.466675 112.0
1257.327515 200.0
1257.496948 236.0
1258.089844 120.0
1264.054932 176.0
1267.262451 44.0
1268.821533 160.0
1279.285645 172.0
1279.449341 80.0
1282.718994 232.0
1288.206421 124.0
1288.277832 156.0
1288.463501 172.0
1289.435303 164.0
1302.640259 76.0
1305.349731 36.0
1306.644409 232.0
1310.373657 132.0
1315.400024 144.0
1319.712769 188.0
1320.39978 208.0
1325.532227 156.0
1326.793335 164.0
1338.046509 100.0
1339.488403 248.0
1348.996338 180.0
1351.175537 100.0
1351.431641 84.0
1351.826782 108.0
1359.616455 148.0
1364.067261 152.0
1364.162842 132.0
1364.728882 284.0
1368.370728 52.0
1369.269165 228.0
1370.26355 128.0
1372.216553 188.0
1373.875854 148.0
1375.447632 220.0
1376.961182 132.0
1388.461792 36.0
1389.173828 84.0
1390.205078 172.0
1391.036255 208.0
1394.505005 116.0
1396.415649 212.0
1398.997559 64.0
1401.283813 164.0
1405.362061 184.0
1411.883057 128.0
1413.977783 116.0
1416.613281 140.0
1417.227661 180.0
1419.093872 172.0
1419.288818 140.0
1420.053711 160.0
1433.623291 164.0
1437.944458 144.0
1438.616333 224.0
1441.372925 212.0
1442.899658 240.0
1446.061401 156.0
1447.439209 116.0
1449.598022 180.0
1450.916748 196.0
1453.298218 176.0
1455.757446 72.0
1457.344971 208.0
1462.120239 108.0
1463.924438 60.0
1464.411865 132.0
1468.679932 148.0
1473.657104 220.0
1475.330811 244.0
1482.51001 136.0
1490.075439 148.0
1494.165405 132.0
1495.735229 216.0
1499.910034 132.0
1503.097534 164.0
1503.727783 124.0
1504.028809 188.0
