>compound Pimecrolimus
>formula C43H68ClNO11
>ionization [M+K]+
>parentmass 848.412292
#inchi InChI=1S/C43H68ClNO11/c1-10-30-18-24(2)17-25(3)19-36(53-8)39-37(54-9)21-27(5)43(51,56-39)40(48)41(49)45-16-12-11-13-32(45)42(50)55-38(28(6)33(46)23-34(30)47)26(4)20-29-14-15-31(44)35(22-29)52-7/h18,20,25,27-33,35-39,46,51H,10-17,19,21-23H2,1-9H3/b24-18+,26-20+/t25-,27+,28+,29-,30+,31+,32-,33-,35+,36-,37-,38+,39-,43+/m0/s1
#inchikey KASDHRXLYQOAKZ
#Ion_Source LC-ESI
#Instrument qTof
#Compound_Source Commercial
#PI Dorrestein
#Data_Collector Garg_Neha
#Scan -1
#Precursor_MZ 848.411
#ExactMass 809.448
#Charge 1
#CAS_Number 137071-32-0, 1000802-56-1 (HCl)
#Pubmed_ID N/A
#Smiles [C@H]1(C[C@@H](CC[C@H]1Cl)/C=C(/[C@@H]2[C@@H]([C@@H](O)CC(=O)[C@H](CC)/C=C(/C[C@@H](C[C@@H]([C@H]3[C@H](C[C@H]([C@](C(C(N4[C@](C(O2)=O)(CCCC4)[H])=O)=O)(O3)O)C)OC)OC)C)C)C)C)OC
#INCHI_AUX N/A
#Library_Class 1
#SpectrumID CCMSLIB00000078653
#IonMode Positive
#UpdateWorkflowName UPDATE-SINGLE-ANNOTATED-GOLD
#LibraryQualityString Gold
#TaskID 77f51c88eb8b467eb4a01dd2d0cb90d2
##Scan# 3711
#SpectrumFile Plate10_41_64_GC3_01_15747.mzXML
#LibraryName FDALibrary_2_04302014.mgf
#MQScore -1
#Organism FDALibrary_2_04302014
#TIC_Query 0
#RT_Query -1
#MZErrorPPM -1
#SharedPeaks 0
#MassDiff 0
#LibMZ -1
#SpecMZ 848.411
#SpecCharge 0
#internalFilename spec-00000.mgf

>collision 10
158.964401 140.0
211.921112 172.0
226.950439 156.0
274.677155 160.0
320.874084 164.0
351.438568 140.0
362.928741 164.0
375.241486 152.0
376.209839 148.0
403.243378 256.0
405.243042 144.0
447.210205 100.0
447.279633 256.0
449.205322 184.0
465.279236 164.0
467.282013 156.0
481.20932 112.0
489.249115 112.0
509.213654 424.0
510.227539 124.0
574.252625 152.0
577.380859 144.0
577.42865 144.0
592.286011 240.0
595.415527 156.0
602.285522 116.0
605.328796 164.0
619.380676 120.0
620.279236 1100.0
621.287537 168.0
622.261414 104.0
622.293823 276.0
629.337219 172.0
631.371033 164.0
639.361633 136.0
647.336853 260.0
649.356018 188.0
657.332397 112.0
658.323242 180.0
660.382874 152.0
674.786682 260.0
675.340698 296.0
693.396484 140.0
695.368469 148.0
701.338196 172.0
719.336609 116.0
739.331421 128.0
756.229919 140.0
763.856873 176.0
780.770874 156.0
812.42804 132.0
828.419067 116.0
831.413696 132.0
843.427246 156.0
846.460693 144.0
848.412292 2188.0
849.413086 1280.0
849.532227 208.0
850.411011 1732.0
851.216003 96.0
851.407532 680.0
852.429443 308.0
853.432434 184.0
