>compound MLS001148590-01!
>formula C25H35NO5
>ionization [M+H]+
>parentmass 430.258911
#inchi InChI=1S/C25H35NO5/c1-6-26(19(2)17-20-9-12-22(28-3)13-10-20)15-7-8-16-31-25(27)21-11-14-23(29-4)24(18-21)30-5/h9-14,18-19H,6-8,15-17H2,1-5H3
#inchikey VYVKHNNGDFVQGA
#origInchi InChI=1S/C25H35NO5.ClH/c1-6-26(19(2)17-20-9-12-22(28-3)13-10-20)15-7-8-16-31-25(27)21-11-14-23(29-4)24(18-21)30-5;/h9-14,18-19H,6-8,15-17H2,1-5H3;1H
#Ion_Source LC-ESI
#Instrument qTof
#Compound_Source NIH Pharmacologically Active Library
#PI Dorrestein
#Data_Collector VP/LMS
#Scan -1
#Precursor_MZ 430.267
#ExactMass 429.252
#Charge 1
#CAS_Number N/A
#Pubmed_ID N/A
#Smiles CCN(CCCCOC(=O)c1ccc(OC)c(OC)c1)C(C)Cc2ccc(OC)cc2.Cl
#INCHI_AUX N/A
#Library_Class 1
#SpectrumID CCMSLIB00000085502
#IonMode Positive
#UpdateWorkflowName UPDATE-SINGLE-ANNOTATED-GOLD
#LibraryQualityString Gold
#TaskID d252d724072548979f1f6f1ced849daf
##Scan# 1773
#SpectrumFile p4-B09_GB9_01_18345.mzXML
#LibraryName Pharm_Active_Library.mgf
#MQScore -1
#Organism Pharm_Active_Library
#TIC_Query 0
#RT_Query -1
#MZErrorPPM -1
#SharedPeaks 0
#MassDiff 0
#LibMZ -1
#SpecMZ 430.267
#SpecCharge 0
#internalFilename spec-00000.mgf

>collision 10
44.891094 220.0
44.925121 144.0
44.946156 188.0
44.958035 80.0
44.975643 128.0
45.006222 76.0
45.017406 132.0
45.026253 260.0
45.045666 164.0
45.149681 212.0
45.166904 152.0
45.192005 128.0
45.201374 192.0
45.216434 284.0
45.24688 144.0
45.269077 180.0
45.293751 116.0
45.316776 84.0
45.339527 168.0
45.374729 164.0
45.391186 148.0
45.396099 152.0
45.398628 204.0
45.427052 404.0
45.453285 116.0
45.484154 156.0
45.496834 184.0
45.509659 44.0
45.529804 160.0
45.545887 368.0
45.594288 140.0
45.610416 52.0
45.63327 160.0
45.645084 188.0
45.658817 88.0
45.699173 220.0
45.7201 224.0
45.744118 308.0
45.757412 132.0
45.767696 228.0
45.782627 220.0
45.798618 156.0
45.808548 196.0
45.832928 188.0
45.852684 168.0
45.867008 108.0
45.882336 120.0
45.899063 168.0
45.934929 84.0
45.971867 252.0
46.0186 44.0
46.036373 220.0
46.055099 136.0
46.06992 156.0
46.083569 132.0
46.110455 312.0
46.119915 220.0
46.140007 132.0
46.166229 172.0
46.181545 212.0
46.19455 184.0
46.230816 96.0
46.250675 184.0
46.254566 124.0
46.305275 172.0
46.324238 160.0
46.360695 172.0
46.382507 120.0
46.394264 172.0
46.438095 128.0
46.458443 280.0
46.471462 188.0
46.480358 480.0
46.511566 168.0
46.540768 140.0
46.567032 168.0
46.586048 76.0
46.599636 100.0
46.611557 248.0
46.634968 164.0
46.649918 216.0
46.678471 172.0
46.690708 124.0
46.72271 120.0
46.740555 168.0
46.756161 216.0
46.770981 148.0
46.785954 180.0
46.803654 180.0
46.814548 88.0
46.851322 256.0
46.863583 168.0
46.883698 180.0
46.935425 180.0
46.960369 204.0
46.979641 124.0
46.995838 132.0
47.006756 144.0
47.01767 132.0
47.028591 128.0
47.040874 144.0
47.053844 136.0
47.082821 244.0
47.095493 124.0
47.167595 160.0
47.184315 100.0
47.218498 60.0
47.269115 184.0
47.308807 84.0
47.332237 140.0
47.364037 144.0
47.39098 40.0
47.409607 128.0
47.41333 128.0
47.417339 168.0
47.434834 124.0
47.454025 52.0
47.487598 240.0
47.500904 168.0
47.539845 68.0
47.560905 136.0
47.569572 160.0
47.618694 308.0
47.63792 120.0
47.647537 204.0
47.682777 124.0
47.69701 252.0
47.724468 336.0
47.736511 148.0
47.745213 136.0
47.755951 152.0
47.816669 168.0
47.854553 160.0
47.870186 192.0
47.878269 140.0
47.888092 160.0
47.900658 148.0
47.919315 184.0
47.932346 160.0
47.999889 116.0
48.021889 172.0
48.07576 168.0
48.088364 268.0
48.122688 160.0
48.151154 124.0
48.187172 232.0
48.205719 180.0
48.220951 240.0
48.251678 164.0
48.271915 140.0
48.29266 176.0
48.317055 164.0
48.321392 104.0
48.326138 140.0
48.359074 112.0
48.373566 68.0
48.392593 112.0
48.414452 128.0
48.426041 184.0
48.439556 152.0
48.452984 132.0
48.49332 168.0
48.511436 92.0
48.536392 100.0
48.558582 132.0
48.582436 204.0
48.586819 168.0
48.61578 156.0
48.626564 180.0
48.661392 140.0
48.68626 144.0
48.704315 276.0
48.722374 212.0
48.747894 144.0
48.7724 184.0
48.78352 148.0
48.797382 136.0
48.816887 292.0
48.829559 72.0
48.841625 168.0
48.887333 168.0
48.921238 132.0
48.95203 208.0
48.983902 180.0
49.018135 168.0
49.080063 148.0
49.106316 188.0
49.120541 176.0
49.144222 176.0
49.163879 188.0
49.195862 104.0
49.218563 168.0
49.239262 240.0
49.250061 172.0
49.271046 124.0
49.283848 100.0
49.299217 128.0
49.343945 160.0
49.356529 188.0
49.371868 264.0
49.384499 140.0
49.403633 188.0
49.432064 128.0
49.444099 200.0
49.449604 120.0
49.45496 144.0
49.460281 172.0
49.482452 132.0
49.492252 156.0
49.503456 224.0
49.540104 120.0
49.559483 168.0
49.591503 160.0
49.607132 132.0
49.652 96.0
49.688473 220.0
49.703903 144.0
49.713726 132.0
49.764259 52.0
49.778217 152.0
49.802174 172.0
49.814816 148.0
49.831024 112.0
49.863708 172.0
49.896324 164.0
49.918392 184.0
49.94976 112.0
49.965237 136.0
49.984932 120.0
50.006042 104.0
50.035603 136.0
50.050282 264.0
50.065651 224.0
50.093613 188.0
50.099808 176.0
50.124866 192.0
50.162388 172.0
50.175076 148.0
50.192799 180.0
50.207077 236.0
50.247002 264.0
50.266754 156.0
50.298275 132.0
50.307514 364.0
50.32745 172.0
50.339474 148.0
50.369816 96.0
50.387375 336.0
50.406551 160.0
50.417854 108.0
50.446156 164.0
50.482937 164.0
50.513054 180.0
50.542385 148.0
50.555027 208.0
50.56918 164.0
50.582436 252.0
50.593243 164.0
50.60989 164.0
50.630058 152.0
50.639973 132.0
50.654675 168.0
50.684669 116.0
50.713646 124.0
50.723568 68.0
50.762615 156.0
50.774612 68.0
50.787376 136.0
50.797306 124.0
50.817165 168.0
50.84911 204.0
50.869675 76.0
50.902328 168.0
50.922668 112.0
50.951 300.0
50.967442 124.0
50.969528 144.0
50.979073 168.0
50.985119 100.0
50.993336 232.0
51.006042 140.0
51.01936 116.0
51.034473 172.0
51.04528 272.0
51.078945 192.0
51.114124 212.0
51.127575 240.0
51.141167 172.0
51.189377 148.0
51.205189 124.0
51.239422 68.0
51.257729 160.0
51.286419 204.0
51.290321 128.0
51.312443 168.0
51.329582 140.0
51.380562 180.0
51.426052 200.0
51.455399 164.0
51.475445 152.0
51.513325 112.0
51.538124 256.0
51.554756 200.0
51.582882 248.0
51.614395 172.0
51.619926 204.0
51.674389 192.0
51.692036 68.0
51.708256 120.0
51.746429 168.0
51.775066 144.0
51.793888 172.0
51.816223 180.0
51.856567 108.0
51.886829 228.0
51.906536 188.0
51.954231 64.0
51.973503 176.0
51.991539 140.0
52.006119 176.0
52.01881 164.0
52.038906 144.0
52.070499 92.0
52.099297 84.0
52.143768 144.0
52.165035 136.0
52.188332 168.0
52.199837 168.0
52.224503 184.0
52.241756 324.0
52.25444 112.0
52.267242 204.0
52.291447 196.0
52.310658 144.0
52.322502 208.0
52.340851 124.0
52.366772 212.0
52.390232 112.0
52.411938 284.0
52.437782 140.0
52.455856 92.0
52.486382 116.0
52.503685 300.0
52.51955 140.0
52.545517 156.0
52.573029 180.0
52.620564 184.0
52.645832 136.0
52.660999 208.0
52.708958 208.0
52.72023 76.0
52.740463 148.0
52.765961 176.0
52.785282 220.0
52.798294 128.0
52.81406 160.0
52.870991 160.0
52.887623 216.0
52.889843 160.0
52.901344 168.0
52.919846 132.0
52.948765 264.0
52.982121 200.0
52.995502 168.0
53.009228 152.0
53.032352 132.0
53.060249 136.0
53.112751 172.0
53.124187 136.0
53.142632 336.0
53.179325 32.0
53.19957 152.0
53.218521 168.0
53.23304 96.0
53.252678 284.0
53.263538 108.0
53.27573 180.0
53.289688 120.0
53.310143 160.0
53.330379 196.0
53.369629 108.0
53.384171 208.0
53.400543 324.0
53.41153 308.0
53.421986 196.0
53.437893 124.0
53.448174 148.0
53.472912 136.0
53.496201 92.0
53.561726 124.0
53.57338 176.0
53.614178 188.0
53.640411 324.0
53.662281 216.0
53.679775 176.0
53.730366 140.0
53.73534 168.0
53.748333 108.0
53.766319 160.0
53.789883 196.0
53.808289 156.0
53.822029 172.0
53.832996 160.0
53.872932 384.0
53.891426 136.0
53.916267 196.0
53.933804 364.0
53.952808 168.0
53.971275 228.0
53.985085 160.0
54.012276 156.0
54.029457 184.0
54.044945 204.0
54.074215 76.0
54.093975 216.0
54.115154 124.0
54.118668 196.0
54.143982 236.0
54.170853 172.0
54.185501 188.0
54.202015 140.0
54.216248 152.0
54.240402 180.0
54.270901 164.0
54.288105 196.0
54.303928 152.0
54.321838 188.0
54.333931 136.0
54.35268 172.0
54.374657 112.0
54.420834 140.0
54.426388 184.0
54.439251 200.0
54.450691 156.0
54.470093 196.0
54.480377 160.0
54.496536 140.0
54.515858 268.0
54.535091 220.0
54.550678 200.0
54.572968 148.0
54.595024 176.0
54.631592 176.0
54.659748 228.0
54.670235 188.0
54.700424 320.0
54.718945 164.0
54.733345 36.0
54.752274 216.0
54.790787 200.0
54.801098 216.0
54.819675 276.0
54.835587 168.0
54.862221 152.0
54.89336 128.0
54.903748 172.0
54.923454 140.0
54.937397 168.0
54.961178 180.0
54.978043 228.0
54.990948 156.0
55.026752 136.0
55.048115 180.0
55.071053 148.0
55.083313 160.0
55.094688 124.0
55.116848 168.0
55.139847 128.0
55.175968 184.0
55.186317 108.0
55.199223 180.0
55.249912 144.0
55.286083 108.0
55.303185 88.0
55.315025 140.0
55.326866 152.0
55.363884 108.0
55.384621 112.0
55.400158 188.0
55.427616 180.0
55.445164 148.0
55.483902 128.0
55.503178 144.0
55.525249 208.0
55.547668 200.0
55.563988 88.0
55.577339 140.0
55.594452 128.0
55.621861 32.0
55.637836 132.0
55.669369 144.0
55.710957 96.0
55.773369 176.0
55.833282 160.0
55.856831 152.0
55.879616 196.0
55.920616 136.0
55.933552 208.0
55.957829 148.0
55.977337 196.0
56.005638 384.0
56.020153 80.0
56.057171 144.0
56.077 164.0
56.118736 144.0
56.133648 220.0
56.155167 140.0
56.19331 108.0
56.204784 196.0
56.221661 184.0
56.247032 112.0
56.275398 44.0
56.306755 204.0
56.320198 104.0
56.330654 152.0
56.353897 172.0
56.379597 148.0
56.402378 204.0
56.433773 284.0
56.449223 168.0
56.487316 164.0
56.519028 180.0
56.538559 200.0
56.564995 84.0
56.588669 160.0
56.5966 156.0
56.608101 316.0
56.628105 268.0
56.652241 180.0
56.674892 164.0
56.721455 160.0
56.790375 180.0
56.820179 156.0
56.858532 164.0
56.890713 140.0
56.914768 204.0
56.944168 188.0
56.958649 124.0
56.970516 140.0
56.992165 196.0
57.000862 164.0
57.042431 208.0
57.076477 180.0
57.096916 152.0
57.116955 264.0
57.137173 188.0
57.153469 144.0
57.175865 168.0
57.198826 132.0
57.218441 176.0
57.233494 72.0
57.286205 112.0
57.317104 220.0
57.332916 196.0
57.352509 204.0
57.390194 72.0
57.413361 200.0
57.448704 216.0
57.483257 172.0
57.507862 100.0
57.518425 184.0
57.530502 120.0
57.550129 148.0
57.560699 204.0
57.577587 152.0
57.596905 152.0
57.621777 192.0
57.64365 140.0
57.695168 144.0
57.710285 160.0
57.737259 124.0
57.751114 140.0
57.804066 176.0
57.848415 184.0
57.868439 136.0
57.879749 176.0
57.890171 136.0
57.925182 116.0
57.946674 192.0
57.972149 68.0
58.008179 140.0
58.023685 344.0
58.073727 164.0
58.104065 172.0
58.119968 184.0
58.194187 168.0
58.199383 184.0
58.236126 160.0
58.257393 148.0
58.270351 232.0
58.292336 128.0
58.326519 220.0
58.344013 156.0
58.372452 108.0
58.395714 104.0
58.412445 132.0
58.455044 236.0
58.508606 220.0
58.52121 144.0
58.552265 148.0
58.565365 128.0
58.596958 156.0
58.609772 104.0
58.634033 176.0
58.643311 124.0
58.653431 136.0
58.67437 204.0
58.69701 184.0
58.710964 172.0
58.722649 264.0
58.758617 200.0
58.7715 152.0
58.78458 128.0
58.807777 292.0
58.82196 160.0
58.833031 168.0
58.860512 72.0
58.874256 140.0
58.886471 176.0
58.903614 232.0
58.923805 184.0
58.95438 152.0
58.965919 164.0
58.982098 192.0
59.00959 140.0
59.019844 116.0
59.059181 144.0
59.069889 92.0
59.080597 128.0
59.102455 196.0
59.118847 88.0
59.137215 284.0
59.157269 196.0
59.195389 168.0
59.205803 160.0
59.221424 232.0
59.232143 60.0
59.24593 220.0
59.258186 152.0
59.274132 252.0
59.29343 116.0
59.314037 204.0
59.344017 260.0
59.359348 168.0
59.383884 196.0
59.401356 216.0
59.422234 172.0
59.442059 148.0
59.479462 96.0
59.500259 200.0
59.506245 168.0
59.512238 156.0
59.526608 148.0
59.569611 268.0
59.580364 44.0
59.606483 176.0
59.680264 128.0
59.703327 140.0
59.755627 156.0
59.767899 164.0
59.791019 160.0
59.837196 148.0
59.903416 140.0
59.927696 184.0
59.943184 192.0
59.975452 128.0
59.997417 164.0
60.032879 180.0
60.048302 36.0
60.059097 40.0
60.092583 124.0
60.106239 144.0
60.131256 120.0
60.153881 172.0
60.174252 216.0
60.187641 68.0
60.225796 88.0
60.247421 196.0
60.262005 100.0
60.293774 168.0
60.316959 120.0
60.335274 132.0
60.369999 288.0
60.394787 192.0
60.409737 60.0
60.425209 196.0
60.446095 136.0
60.462986 164.0
60.47937 128.0
60.508781 132.0
60.537163 236.0
60.558823 164.0
60.580017 172.0
60.597061 196.0
60.612553 80.0
60.622509 76.0
60.643547 192.0
60.670177 156.0
60.707626 168.0
60.729637 120.0
60.75209 160.0
60.778225 156.0
60.818813 132.0
60.848637 132.0
60.863834 120.0
60.885147 148.0
60.93528 204.0
60.946156 176.0
60.96109 144.0
60.980824 308.0
61.005215 84.0
61.017498 164.0
61.030087 192.0
61.058079 116.0
61.095409 156.0
61.114079 64.0
61.15765 120.0
61.173218 148.0
61.184113 200.0
61.210583 168.0
61.25423 156.0
61.277557 96.0
61.288464 104.0
61.307163 108.0
61.336777 108.0
61.353275 136.0
61.410057 160.0
61.455772 188.0
61.479607 124.0
61.500553 144.0
61.534893 184.0
61.552071 184.0
61.592674 324.0
61.61298 200.0
61.64423 132.0
61.65517 144.0
61.678612 160.0
61.703625 184.0
61.727077 156.0
61.738026 308.0
61.753662 184.0
61.766178 140.0
61.777126 240.0
61.799122 136.0
61.852882 272.0
61.873779 84.0
61.884186 108.0
61.895424 192.0
61.952702 208.0
61.979088 124.0
62.033943 52.0
62.051186 220.0
62.082546 156.0
62.102936 156.0
62.126461 152.0
62.142151 148.0
62.162121 44.0
62.168262 200.0
62.186665 164.0
62.22282 200.0
62.252026 208.0
62.264194 144.0
62.281864 32.0
62.299145 368.0
62.31665 140.0
62.344479 192.0
62.406197 136.0
62.434315 144.0
62.470345 172.0
62.490532 192.0
62.530281 116.0
62.581398 144.0
62.601887 132.0
62.626324 240.0
62.642075 132.0
62.658623 196.0
62.703526 168.0
62.715401 172.0
62.757118 156.0
62.818626 212.0
62.831245 112.0
62.84824 140.0
62.867535 128.0
62.892487 168.0
62.908493 312.0
62.932255 172.0
62.952293 156.0
62.962502 176.0
63.008064 144.0
63.022026 188.0
63.033901 204.0
63.048058 132.0
63.076012 164.0
63.097122 184.0
63.123867 340.0
63.142418 108.0
63.153492 156.0
63.219936 152.0
63.235764 172.0
63.265839 32.0
63.282536 116.0
63.306084 172.0
63.318089 116.0
63.341846 212.0
63.357689 124.0
63.371948 32.0
63.390961 232.0
63.428997 144.0
63.44664 156.0
63.481918 148.0
63.531349 204.0
63.552696 212.0
63.576496 224.0
63.608242 156.0
63.620941 132.0
63.640686 192.0
63.684456 136.0
63.698406 184.0
63.716812 304.0
63.757538 40.0
63.79427 144.0
63.820919 156.0
63.826496 116.0
63.841793 104.0
63.854515 192.0
63.896481 156.0
63.913376 116.0
63.945248 136.0
63.964821 196.0
63.978626 132.0
63.990803 228.0
64.007286 140.0
64.019676 164.0
64.03421 88.0
64.055191 180.0
64.105034 88.0
64.137085 252.0
64.153862 200.0
64.169807 348.0
64.191292 160.0
64.207436 220.0
64.230026 68.0
64.24157 124.0
64.284645 204.0
64.306992 132.0
64.344635 376.0
64.372444 72.0
64.386818 116.0
64.398567 212.0
64.484375 128.0
64.497055 324.0
64.507355 200.0
64.541672 172.0
64.599937 212.0
64.617599 84.0
64.652191 40.0
64.674599 180.0
64.732239 204.0
64.746681 188.0
64.778679 152.0
64.845177 148.0
64.858803 140.0
64.881241 160.0
64.911705 60.0
64.922928 184.0
64.942177 168.0
64.963181 128.0
64.991905 156.0
65.006348 148.0
65.023109 224.0
65.040634 156.0
65.065735 152.0
65.083595 196.0
65.094986 196.0
65.120331 120.0
65.136581 172.0
65.171738 84.0
65.184029 252.0
65.200661 68.0
65.22316 116.0
65.268372 128.0
65.30838 208.0
65.322853 184.0
65.370743 308.0
65.408134 112.0
65.426147 128.0
65.465294 144.0
65.520859 144.0
65.548714 268.0
65.562195 180.0
65.607887 132.0
65.643356 156.0
65.670769 288.0
65.706261 112.0
65.732079 176.0
65.778069 152.0
65.792702 128.0
65.80677 144.0
65.834785 196.0
65.870918 160.0
65.883316 160.0
65.906464 76.0
65.922623 112.0
65.962334 188.0
65.981735 188.0
66.02932 188.0
66.051826 148.0
66.083817 248.0
66.100494 68.0
66.175003 124.0
66.202835 144.0
66.227287 188.0
66.248878 208.0
66.26889 188.0
66.28833 120.0
66.30616 112.0
66.336723 220.0
66.379402 132.0
66.40992 136.0
66.458588 96.0
66.492661 144.0
66.504021 164.0
66.533241 132.0
66.557594 148.0
66.578705 220.0
66.609566 168.0
66.624184 112.0
66.657982 160.0
66.679626 164.0
66.716698 160.0
66.734703 120.0
66.752174 424.0
66.82444 224.0
66.849281 180.0
66.877853 120.0
66.889244 176.0
66.901886 204.0
66.934128 148.0
66.961319 196.0
66.983948 308.0
67.003242 124.0
67.030937 196.0
67.057014 148.0
67.089615 148.0
67.112434 108.0
67.193985 148.0
67.205406 316.0
67.270683 100.0
67.293541 120.0
67.308235 60.0
67.337883 180.0
67.367027 168.0
67.415024 204.0
67.440559 140.0
67.452003 160.0
67.468727 172.0
67.525932 240.0
67.555817 128.0
67.577202 144.0
67.610649 140.0
67.623695 124.0
67.6483 88.0
67.666306 176.0
67.687813 260.0
67.763969 152.0
67.79734 120.0
67.836647 212.0
67.892426 292.0
67.913002 160.0
67.931786 120.0
67.96624 80.0
68.002495 176.0
68.035484 148.0
68.040359 176.0
68.08429 188.0
68.116341 280.0
68.131836 152.0
68.158356 128.0
68.174324 372.0
68.197792 136.0
68.217514 164.0
68.264984 184.0
68.277458 228.0
68.282013 124.0
68.287445 272.0
68.311249 100.0
68.357193 380.0
68.405045 180.0
68.474937 128.0
68.494537 172.0
68.546684 168.0
68.590302 204.0
68.615906 176.0
68.648888 104.0
68.665802 156.0
68.691666 132.0
68.723465 148.0
68.752663 176.0
68.778076 156.0
68.797379 160.0
68.838654 132.0
68.861771 156.0
68.894806 168.0
68.916672 104.0
68.949669 120.0
68.965866 124.0
68.991554 140.0
69.007187 152.0
69.033646 152.0
69.056801 92.0
69.079956 244.0
69.094398 192.0
69.189178 160.0
69.203964 120.0
69.232124 140.0
69.270317 124.0
69.292427 196.0
69.308426 148.0
69.321678 100.0
69.334938 188.0
69.366432 196.0
69.381203 92.0
69.397926 156.0
69.447678 124.0
69.45929 76.0
69.534309 92.0
69.590385 360.0
69.603676 120.0
69.624237 140.0
69.640068 140.0
69.671768 100.0
69.714325 196.0
69.723625 152.0
69.738235 108.0
69.753899 160.0
69.766495 172.0
69.783119 200.0
69.810921 100.0
69.846313 124.0
69.893753 108.0
69.926987 148.0
69.938507 176.0
69.960068 144.0
69.976112 164.0
70.009148 208.0
70.044388 128.0
70.071571 188.0
70.087624 164.0
70.144371 200.0
70.156288 184.0
70.174377 140.0
70.191917 136.0
70.210167 124.0
70.231071 144.0
70.254456 144.0
70.266853 116.0
70.30127 208.0
70.323441 172.0
70.347565 128.0
70.351212 104.0
70.365822 192.0
70.388779 120.0
70.419678 144.0
70.436378 140.0
70.449661 160.0
70.479355 204.0
70.514908 148.0
70.529037 176.0
70.587891 176.0
70.603516 160.0
70.618568 88.0
70.630272 92.0
70.729385 224.0
70.744057 200.0
70.757126 164.0
70.769173 108.0
70.795959 212.0
70.812714 144.0
70.830231 148.0
70.849319 196.0
70.875977 188.0
70.950981 200.0
70.969933 200.0
70.989685 232.0
71.023895 124.0
71.037315 28.0
71.060799 152.0
71.11013 272.0
71.12989 176.0
71.166534 284.0
71.199005 144.0
71.220276 172.0
71.271561 180.0
71.287476 232.0
71.299652 196.0
71.323151 124.0
71.365791 280.0
71.391701 124.0
71.424423 316.0
71.450569 104.0
71.480385 184.0
71.507973 140.0
71.542595 152.0
71.582649 144.0
71.600693 172.0
71.617699 168.0
71.644173 168.0
71.671127 136.0
71.716629 148.0
71.757233 140.0
71.773949 168.0
71.792496 200.0
71.838036 116.0
71.862122 304.0
71.878525 168.0
71.893715 148.0
71.908905 148.0
71.923317 192.0
71.939285 120.0
71.973053 216.0
71.991913 188.0
72.008514 184.0
72.020332 144.0
72.084534 252.0
72.148758 52.0
72.172432 188.0
72.196404 112.0
72.210571 208.0
72.245308 132.0
72.276352 184.0
72.287811 168.0
72.310783 112.0
72.329048 124.0
72.363617 176.0
72.401917 188.0
72.45507 212.0
72.485458 120.0
72.497429 220.0
72.517769 112.0
72.534721 196.0
72.58049 188.0
72.605927 176.0
72.671509 212.0
72.675186 140.0
72.681541 328.0
72.697533 80.0
72.709412 164.0
72.730568 92.0
72.79599 292.0
72.840149 184.0
72.871857 196.0
72.892097 208.0
72.951118 172.0
72.996529 316.0
73.060417 188.0
73.103226 152.0
73.116997 472.0
73.137383 184.0
73.152374 196.0
73.17395 216.0
73.197502 200.0
73.22496 576.0
73.253502 272.0
73.267128 188.0
73.282463 188.0
73.316544 168.0
73.357391 128.0
73.361481 120.0
73.391541 328.0
73.414307 240.0
73.438675 112.0
73.462364 288.0
73.478294 204.0
73.496346 180.0
73.550598 136.0
73.572388 96.0
73.584343 60.0
73.609947 180.0
73.63665 132.0
73.65419 208.0
73.698433 180.0
73.717033 308.0
73.731354 236.0
73.760162 156.0
73.785538 188.0
73.81842 64.0
73.842361 92.0
73.862892 40.0
73.875977 244.0
73.931328 200.0
73.953629 184.0
73.969505 220.0
73.986099 96.0
73.998085 128.0
74.040375 200.0
74.073723 128.0
74.086357 132.0
74.116508 220.0
74.12883 204.0
74.161674 152.0
74.170876 120.0
74.200241 164.0
74.241394 120.0
74.273979 116.0
74.287521 152.0
74.314056 188.0
74.321815 68.0
74.324799 180.0
74.349205 156.0
74.370064 192.0
74.39238 244.0
74.413269 144.0
74.447327 148.0
74.466217 116.0
74.485107 192.0
74.517349 144.0
74.534927 188.0
74.55835 108.0
74.564499 136.0
74.583046 44.0
74.603676 216.0
74.624817 148.0
74.640755 184.0
74.663467 196.0
74.681053 200.0
74.716652 172.0
74.723267 252.0
74.745506 180.0
74.770515 152.0
74.790253 180.0
74.828613 132.0
74.853149 148.0
74.896477 128.0
74.9132 152.0
74.937546 144.0
75.00222 204.0
75.061646 152.0
75.083717 196.0
75.08989 192.0
75.128685 184.0
75.134392 160.0
75.138435 100.0
75.175499 124.0
75.187576 148.0
75.212128 124.0
75.235291 212.0
75.257057 176.0
75.27562 112.0
75.301521 312.0
75.358093 160.0
75.393532 124.0
75.421539 124.0
75.454185 240.0
75.498535 256.0
75.517563 100.0
75.593681 160.0
75.607529 152.0
75.620155 160.0
75.634872 40.0
75.657722 128.0
75.680229 68.0
75.694084 112.0
75.706749 156.0
75.747772 196.0
75.782417 164.0
75.798409 192.0
75.823219 176.0
75.837868 180.0
75.874275 112.0
75.928024 128.0
75.952576 52.0
75.990471 204.0
76.034523 300.0
76.070404 136.0
76.089394 132.0
76.113701 124.0
76.138016 116.0
76.160118 160.0
76.184105 216.0
76.209625 176.0
76.228348 128.0
76.249908 88.0
76.255188 144.0
76.306564 240.0
76.321487 96.0
76.348297 160.0
76.368317 172.0
76.412651 204.0
76.438751 208.0
76.452675 176.0
76.468338 120.0
76.497925 84.0
76.511856 164.0
76.53038 156.0
76.560608 136.0
76.576279 96.0
76.602409 144.0
76.623123 112.0
76.682556 136.0
76.700157 120.0
76.719162 164.0
76.762054 160.0
76.786568 240.0
76.81115 120.0
76.839493 164.0
76.853699 200.0
76.87439 140.0
76.900566 200.0
76.91851 100.0
76.933731 128.0
76.993095 136.0
77.010559 80.0
77.027443 160.0
77.059471 160.0
77.06884 212.0
77.083939 228.0
77.10141 56.0
77.146286 148.0
77.153709 248.0
77.166763 252.0
77.181824 200.0
77.209801 156.0
77.239563 268.0
77.253525 148.0
77.300049 204.0
77.33577 120.0
77.349815 160.0
77.360909 176.0
77.374275 180.0
77.395348 124.0
77.415909 180.0
77.440308 312.0
77.50222 164.0
77.52491 168.0
77.571762 148.0
77.602524 144.0
77.619568 224.0
77.64061 136.0
77.668724 132.0
77.736725 208.0
77.76342 64.0
77.795013 116.0
77.826614 156.0
77.864922 108.0
77.882446 180.0
77.896866 140.0
77.930244 192.0
78.009331 160.0
78.033936 212.0
78.066231 236.0
78.086693 140.0
78.122032 128.0
78.1465 128.0
78.185875 160.0
78.20105 152.0
78.222176 188.0
78.235298 168.0
78.264076 140.0
78.295212 132.0
78.314949 180.0
78.322609 108.0
78.327255 112.0
78.339897 184.0
78.3536 152.0
78.376686 164.0
78.391251 140.0
78.414162 108.0
78.481476 192.0
78.49897 184.0
78.519325 208.0
78.550545 240.0
78.564034 168.0
78.578148 44.0
78.602905 144.0
78.618736 96.0
78.644386 164.0
78.69001 316.0
78.708763 116.0
78.722885 208.0
78.784706 168.0
78.821808 148.0
78.850899 252.0
78.925194 396.0
78.9533 176.0
78.972076 168.0
78.996834 180.0
79.029716 176.0
79.034317 172.0
79.042702 160.0
79.085014 168.0
79.129814 208.0
79.15258 136.0
79.172058 52.0
79.184456 100.0
79.219879 92.0
79.244682 188.0
79.267715 80.0
79.320885 104.0
79.355568 128.0
79.381165 304.0
79.429054 116.0
79.457436 220.0
79.503571 120.0
79.53019 48.0
79.549713 148.0
79.580376 160.0
79.620514 192.0
79.670471 132.0
79.697121 144.0
79.711258 180.0
79.732346 160.0
79.772614 160.0
79.830429 144.0
79.850159 132.0
79.864845 172.0
79.903984 320.0
79.978096 184.0
80.009949 148.0
80.014214 180.0
80.022278 200.0
80.026909 344.0
80.042183 172.0
80.086708 124.0
80.101501 184.0
80.123947 168.0
80.206711 212.0
80.277397 164.0
80.311218 220.0
80.334473 172.0
80.360306 268.0
80.379074 176.0
80.395134 164.0
80.416397 188.0
80.45433 244.0
80.462173 108.0
80.468369 188.0
80.501877 156.0
80.526726 384.0
80.571907 48.0
80.600098 164.0
80.623184 160.0
80.700584 156.0
80.748863 168.0
80.794235 176.0
80.829971 188.0
80.835823 184.0
80.904381 140.0
80.940941 360.0
80.968521 136.0
81.017357 148.0
81.046021 168.0
81.06295 124.0
81.093819 184.0
81.108742 180.0
81.123009 164.0
81.155357 48.0
81.176872 140.0
81.193558 132.0
81.239182 92.0
81.261284 128.0
81.280914 184.0
81.293472 196.0
81.320099 120.0
81.369522 152.0
81.383659 212.0
81.432617 132.0
81.445312 244.0
81.496376 200.0
81.516541 108.0
81.544357 200.0
81.574608 180.0
81.595222 160.0
81.643898 132.0
81.656784 148.0
81.69593 176.0
81.714348 136.0
81.721809 168.0
81.727058 116.0
81.73333 112.0
81.751556 144.0
81.784103 96.0
81.807503 148.0
81.830818 220.0
81.880791 188.0
81.903725 196.0
81.928337 124.0
81.960587 44.0
81.984016 128.0
82.03347 136.0
82.059723 52.0
82.093307 208.0
82.1222 88.0
82.13842 164.0
82.175316 168.0
82.191925 148.0
82.222061 160.0
82.238304 204.0
82.272987 208.0
82.297874 124.0
82.312325 84.0
82.326767 72.0
82.370117 112.0
82.391441 204.0
82.404922 388.0
82.458649 84.0
82.483955 224.0
82.507454 160.0
82.567123 80.0
82.589661 168.0
82.605103 80.0
82.646713 140.0
82.670235 80.0
82.762558 164.0
82.777969 144.0
82.791527 152.0
82.824287 148.0
82.850708 160.0
82.854347 76.0
82.890518 204.0
82.942543 124.0
82.963654 116.0
82.988434 360.0
83.082474 332.0
83.106934 148.0
83.121445 112.0
83.138115 128.0
83.148972 168.0
83.175888 64.0
83.20517 160.0
83.226784 248.0
83.252144 168.0
83.265762 108.0
83.29937 204.0
83.368073 184.0
83.41021 220.0
83.424751 140.0
83.446571 212.0
83.464752 160.0
83.495667 120.0
83.515671 108.0
83.532043 172.0
83.563736 148.0
83.619377 168.0
83.654991 240.0
83.708481 224.0
83.71093 124.0
83.737717 140.0
83.766861 184.0
83.801926 100.0
83.839737 72.0
83.865112 156.0
83.917229 160.0
83.936752 164.0
83.993858 128.0
84.019928 160.0
84.029724 164.0
84.04258 168.0
84.062378 176.0
84.093895 248.0
84.116966 128.0
84.142525 76.0
84.157127 112.0
84.204605 176.0
84.221046 132.0
84.253815 204.0
84.279503 216.0
84.303261 180.0
84.317879 92.0
84.332329 168.0
84.34301 80.0
84.347839 132.0
84.371651 192.0
84.377098 80.0
84.382668 144.0
84.403084 144.0
84.414764 172.0
84.427567 272.0
84.453171 128.0
84.480606 180.0
84.495247 392.0
84.546478 160.0
84.56295 164.0
84.585312 164.0
84.608063 192.0
84.632401 64.0
84.644524 136.0
84.674629 168.0
84.692947 148.0
84.731644 220.0
84.761505 108.0
84.775391 84.0
84.78968 160.0
84.817505 192.0
84.834167 172.0
84.864426 348.0
84.910149 408.0
84.948486 184.0
84.967911 96.0
84.99604 84.0
85.017448 160.0
85.035805 56.0
85.052322 336.0
85.079857 164.0
85.132317 224.0
85.171669 108.0
85.213921 164.0
85.240105 160.0
85.269051 112.0
85.289268 304.0
85.326035 128.0
85.347778 164.0
85.363739 136.0
85.383034 100.0
85.404083 168.0
85.417702 80.0
85.463539 152.0
85.478378 212.0
85.515495 200.0
85.546501 152.0
85.57708 168.0
85.594597 164.0
85.623329 168.0
85.649902 156.0
85.684799 200.0
85.739601 164.0
85.764633 120.0
85.770164 164.0
85.786263 128.0
85.811768 140.0
85.829727 160.0
85.834625 208.0
85.877998 32.0
85.904007 136.0
85.911659 76.0
85.984207 188.0
86.003922 172.0
86.029083 108.0
86.050499 172.0
86.068535 192.0
86.090614 180.0
86.102013 284.0
86.138718 208.0
86.154442 140.0
86.184898 156.0
86.199684 108.0
86.220009 228.0
86.234795 132.0
86.24958 128.0
86.295837 188.0
86.31395 132.0
86.338326 100.0
86.351273 132.0
86.37162 188.0
86.384567 160.0
86.438217 124.0
86.465981 128.0
86.487488 180.0
86.502998 140.0
86.521507 60.0
86.582611 140.0
86.610764 140.0
86.707176 184.0
86.724991 168.0
86.754929 184.0
86.76976 60.0
86.786446 168.0
86.832359 132.0
86.871567 156.0
86.893524 164.0
86.92556 216.0
86.978127 328.0
87.029503 204.0
87.088928 128.0
87.142799 136.0
87.179962 76.0
87.200325 184.0
87.216362 200.0
87.245018 136.0
87.291496 128.0
87.311256 196.0
87.346497 188.0
87.367752 116.0
87.384499 128.0
87.399384 176.0
87.421509 184.0
87.455315 140.0
87.495033 204.0
87.517097 160.0
87.544937 204.0
87.57251 172.0
87.594856 164.0
87.611626 132.0
87.628395 132.0
87.652611 152.0
87.678299 204.0
87.692009 344.0
87.704926 164.0
87.734619 288.0
87.75827 216.0
87.783096 132.0
87.803612 224.0
87.824127 160.0
87.852104 136.0
87.892395 168.0
87.908081 148.0
87.923004 160.0
87.947266 120.0
87.975266 128.0
87.997673 84.0
88.011711 100.0
88.025215 208.0
88.047592 180.0
88.097504 176.0
88.113464 68.0
88.149757 120.0
88.163918 192.0
88.178864 152.0
88.199425 128.0
88.223724 120.0
88.244621 68.0
88.268364 160.0
88.274155 140.0
88.297356 148.0
88.317917 256.0
88.337799 132.0
88.369057 180.0
88.397667 136.0
88.451942 164.0
88.470848 160.0
88.503845 168.0
88.539421 304.0
88.5774 136.0
88.623451 180.0
88.659576 144.0
88.676704 128.0
88.706688 68.0
88.740746 196.0
88.819679 140.0
88.852966 132.0
88.873604 192.0
88.905502 144.0
88.923752 116.0
88.972839 128.0
88.991844 124.0
89.0429 148.0
89.070724 112.0
89.106415 132.0
89.157143 148.0
89.183456 180.0
89.206017 92.0
89.234215 200.0
89.273697 104.0
89.286865 128.0
89.334274 96.0
89.352699 168.0
89.392212 160.0
89.421425 176.0
89.448669 60.0
89.465614 128.0
89.484436 216.0
89.503265 164.0
89.536308 132.0
89.569138 172.0
89.61142 132.0
89.631355 140.0
89.646423 212.0
89.665428 144.0
89.683922 188.0
89.704826 148.0
89.745178 184.0
89.770844 148.0
89.786858 176.0
89.808563 332.0
89.838737 204.0
89.86515 108.0
89.903633 112.0
90.008598 172.0
90.029373 124.0
90.049362 192.0
90.054192 224.0
90.072762 144.0
90.084221 160.0
90.110458 276.0
90.140823 132.0
90.174522 192.0
90.202278 124.0
90.220711 120.0
90.246674 140.0
90.261803 128.0
90.2826 128.0
90.315331 196.0
90.345016 112.0
90.358261 176.0
90.382858 96.0
90.401108 124.0
90.409157 80.0
90.41803 196.0
90.423981 148.0
90.429245 304.0
90.479385 160.0
90.505295 280.0
90.52861 176.0
90.549843 172.0
90.574089 336.0
90.596794 180.0
90.665009 180.0
90.692245 288.0
90.774956 120.0
90.79702 176.0
90.824554 180.0
90.859764 228.0
90.873589 148.0
90.917229 148.0
90.941078 136.0
90.960838 168.0
90.982727 244.0
91.023537 244.0
91.055305 16288.0
91.1147 168.0
91.126869 148.0
91.132812 60.0
91.140411 92.0
91.189301 200.0
91.203392 160.0
91.228058 192.0
91.245514 236.0
91.299072 100.0
91.376694 84.0
91.401184 228.0
91.42041 92.0
91.432503 144.0
91.44735 196.0
91.498924 128.0
91.535042 112.0
91.56826 108.0
91.586456 148.0
91.606094 220.0
91.624557 128.0
91.638542 188.0
91.657005 184.0
91.708397 216.0
91.748428 212.0
91.76358 156.0
91.842972 152.0
91.879166 108.0
91.90844 116.0
91.923256 308.0
91.943939 152.0
92.009789 112.0
92.05912 1500.0
92.120552 32.0
92.147293 204.0
92.168312 172.0
92.191246 132.0
92.237549 176.0
92.252884 144.0
92.315498 96.0
92.336853 124.0
92.370964 56.0
92.401077 108.0
92.435875 164.0
92.497253 140.0
92.512566 72.0
92.537453 148.0
92.560432 204.0
92.586868 144.0
92.594833 116.0
92.599884 140.0
92.619041 152.0
92.654282 144.0
92.680504 216.0
92.726196 256.0
92.745827 160.0
92.761261 228.0
92.772339 152.0
92.803772 132.0
92.837364 188.0
92.861252 164.0
92.891151 228.0
92.936394 180.0
92.977448 168.0
92.999779 132.0
93.033798 120.0
93.069984 3140.0
93.114693 144.0
93.13192 28.0
93.158287 96.0
93.191475 124.0
93.229424 196.0
93.263435 152.0
93.269592 184.0
93.275269 272.0
93.300438 184.0
93.327934 272.0
93.360626 84.0
93.37986 180.0
93.41404 248.0
93.437569 48.0
93.451035 204.0
93.476044 152.0
93.489517 180.0
93.547256 104.0
93.56073 148.0
93.60833 172.0
93.616013 124.0
93.668571 56.0
93.694588 132.0
93.764656 92.0
93.794983 244.0
93.817673 288.0
93.84774 320.0
93.882507 152.0
93.95237 204.0
94.01561 192.0
94.041817 1364.0
94.074394 188.0
94.109421 360.0
94.157867 372.0
94.183578 132.0
94.201515 140.0
94.223488 240.0
94.250496 132.0
94.269196 152.0
94.284317 200.0
94.30262 144.0
94.332748 160.0
94.367165 196.0
94.398102 176.0
94.417442 72.0
94.438713 120.0
94.453491 144.0
94.468422 144.0
94.537376 160.0
94.553947 148.0
94.589638 140.0
94.618675 32.0
94.652214 284.0
94.696129 144.0
94.708885 200.0
94.732933 116.0
94.74649 176.0
94.766495 160.0
94.788216 152.0
94.835625 128.0
94.867828 176.0
94.907555 388.0
94.924805 108.0
94.944199 120.0
94.97979 204.0
95.025665 148.0
95.044243 292.0
95.069855 356.0
95.153152 116.0
95.178993 100.0
95.192589 128.0
95.256683 156.0
95.281067 208.0
95.309135 124.0
95.329147 160.0
95.363548 320.0
95.414085 136.0
95.46563 220.0
95.499649 108.0
95.533844 376.0
95.567734 168.0
95.594063 128.0
95.627388 240.0
95.647102 168.0
95.687737 140.0
95.728386 224.0
95.760124 328.0
95.80098 188.0
95.899605 228.0
95.96701 192.0
95.998917 252.0
96.059517 320.0
96.082077 128.0
96.102814 184.0
96.109528 116.0
96.11602 192.0
96.154274 164.0
96.197212 200.0
96.262817 164.0
96.287033 140.0
96.300705 144.0
96.337234 244.0
96.344398 172.0
96.374985 160.0
96.39447 108.0
96.453102 144.0
96.478516 184.0
96.496651 156.0
96.521423 144.0
96.525871 164.0
96.619324 76.0
96.644753 152.0
96.678017 60.0
96.697594 148.0
96.732819 136.0
96.756073 196.0
96.781761 32.0
96.815567 392.0
96.838554 112.0
96.8601 208.0
96.873032 200.0
96.897324 260.0
96.924751 188.0
96.942383 124.0
96.980362 148.0
97.003143 212.0
97.031761 248.0
97.085487 112.0
97.12014 144.0
97.140404 96.0
97.163948 332.0
97.187492 104.0
97.204308 204.0
97.247345 168.0
97.266747 364.0
97.278267 188.0
97.293472 164.0
97.307213 116.0
97.328812 116.0
97.401474 188.0
97.425049 268.0
97.448624 212.0
97.470238 116.0
97.490631 168.0
97.509537 144.0
97.523293 356.0
97.545776 128.0
97.567268 108.0
97.598 184.0
97.639175 68.0
97.678627 124.0
97.692398 260.0
97.716736 108.0
97.748756 324.0
97.778976 48.0
97.811371 104.0
97.832115 140.0
97.88134 172.0
97.930679 128.0
97.938995 188.0
97.975876 100.0
97.98967 284.0
98.013313 336.0
98.03746 188.0
98.053154 128.0
98.07637 192.0
98.105385 228.0
98.110748 164.0
98.135429 92.0
98.152802 156.0
98.168785 320.0
98.182838 160.0
98.208481 60.0
98.261742 196.0
98.279495 224.0
98.293304 168.0
98.32093 160.0
98.34314 176.0
98.374222 148.0
98.388046 156.0
98.413712 48.0
98.447952 164.0
98.468216 128.0
98.481552 248.0
98.520355 176.0
98.537048 152.0
98.551971 156.0
98.568398 200.0
98.621132 124.0
98.691895 196.0
98.717247 188.0
98.745689 180.0
98.788864 184.0
98.81295 220.0
98.826385 172.0
98.841759 192.0
98.874146 112.0
98.900215 196.0
98.935646 116.0
98.949501 152.0
98.985146 152.0
99.017227 160.0
99.051933 216.0
99.055069 156.0
99.071671 344.0
99.090118 140.0
99.112175 180.0
99.147583 176.0
99.165421 220.0
99.193169 220.0
99.260948 128.0
99.31842 120.0
99.345856 160.0
99.367653 200.0
99.401413 208.0
99.423126 288.0
99.475533 172.0
99.522491 156.0
99.558235 112.0
99.58075 284.0
99.623779 144.0
99.651367 144.0
99.69133 284.0
99.715179 52.0
99.782761 156.0
99.797981 208.0
99.829315 164.0
99.864288 96.0
99.891174 180.0
99.905334 164.0
99.951492 144.0
99.979683 304.0
99.99408 136.0
100.015503 152.0
100.035408 144.0
100.056221 44.0
100.112709 5696.0
100.164841 220.0
100.192657 108.0
100.220627 176.0
100.239037 132.0
100.265419 192.0
100.290375 148.0
100.310699 340.0
100.343292 124.0
100.398834 312.0
100.424103 164.0
100.436234 180.0
100.45388 196.0
100.490959 292.0
100.499481 140.0
100.502876 156.0
100.53199 160.0
100.553642 232.0
100.571602 52.0
100.595558 180.0
100.642456 308.0
100.667435 116.0
100.713364 196.0
100.731346 152.0
100.768356 364.0
100.811867 184.0
100.82666 204.0
100.912682 92.0
100.993668 200.0
101.019196 48.0
101.056053 188.0
101.113914 320.0
101.149261 100.0
101.165253 252.0
101.191124 136.0
101.23735 120.0
101.264885 208.0
101.286026 316.0
101.301445 144.0
101.351532 144.0
101.378159 176.0
101.415268 208.0
101.432045 68.0
101.461761 180.0
101.5252 200.0
101.532692 128.0
101.596123 172.0
101.614182 144.0
101.656319 112.0
101.672371 136.0
101.688736 196.0
101.718529 116.0
101.732582 188.0
101.766464 192.0
101.781799 132.0
101.85891 164.0
101.87516 116.0
101.919357 148.0
101.937447 160.0
101.986916 296.0
102.001968 188.0
102.048409 232.0
102.104301 176.0
102.130447 72.0
102.148544 72.0
102.192802 60.0
102.23909 108.0
102.276581 196.0
102.323433 220.0
102.345772 168.0
102.376038 204.0
102.404358 212.0
102.465645 108.0
102.510498 196.0
102.541176 112.0
102.575439 132.0
102.628632 208.0
102.662132 124.0
102.680283 344.0
102.702469 176.0
102.728691 60.0
102.765007 112.0
102.793564 104.0
102.807381 184.0
102.823524 252.0
102.84169 96.0
102.903938 124.0
102.939308 196.0
102.96096 156.0
102.981659 184.0
102.998901 176.0
103.05368 740.0
103.076599 192.0
103.09108 328.0
103.116364 184.0
103.161224 164.0
103.209351 120.0
103.223511 164.0
103.239685 160.0
103.278114 152.0
103.292267 92.0
103.343422 140.0
103.367432 132.0
103.403549 52.0
103.450104 60.0
103.478447 104.0
103.506798 124.0
103.520966 124.0
103.53714 160.0
103.650612 212.0
103.664795 80.0
103.68943 152.0
103.74102 188.0
103.758965 512.0
103.781921 204.0
103.811577 196.0
103.842049 184.0
103.869919 360.0
103.959061 140.0
104.003479 168.0
104.029221 136.0
104.078506 180.0
104.122307 192.0
104.141548 136.0
104.188271 124.0
104.236496 148.0
104.243851 156.0
104.290596 64.0
104.32608 160.0
104.348816 188.0
104.384399 112.0
104.41185 140.0
104.455605 164.0
104.516426 216.0
104.566475 196.0
104.604202 232.0
104.65197 120.0
104.668953 152.0
104.691238 180.0
104.711021 148.0
104.73526 160.0
104.763649 124.0
104.786453 120.0
104.82695 144.0
104.859215 200.0
104.86586 148.0
104.872635 160.0
104.901176 256.0
104.916817 140.0
104.938469 220.0
104.97113 188.0
105.00042 116.0
105.019646 168.0
105.035347 336.0
105.071831 560.0
105.117645 380.0
105.167717 136.0
105.185745 196.0
105.208542 168.0
105.223312 176.0
105.269798 136.0
105.30043 136.0
105.349449 136.0
105.365791 56.0
105.399467 124.0
105.437309 160.0
105.475471 232.0
105.480698 156.0
105.495193 188.0
105.526955 56.0
105.572235 176.0
105.613136 140.0
105.648239 148.0
105.686783 148.0
105.707245 172.0
105.764175 88.0
105.844727 144.0
105.920166 220.0
105.936554 68.0
105.968864 228.0
106.006195 396.0
106.042282 1628.0
106.073891 164.0
106.09639 212.0
106.139236 236.0
106.173645 144.0
106.222961 172.0
106.253006 152.0
106.278923 44.0
106.313026 104.0
106.340485 60.0
106.388786 188.0
106.407265 136.0
106.510902 112.0
106.527336 160.0
106.568428 72.0
106.586914 132.0
106.612244 208.0
106.651161 200.0
106.677345 156.0
106.716476 116.0
106.771294 396.0
106.796074 200.0
106.810051 320.0
106.826332 152.0
106.843346 172.0
106.872643 108.0
106.880638 104.0
106.888092 196.0
106.911713 160.0
106.932396 204.0
106.980927 132.0
106.993896 164.0
107.0 176.0
107.048203 1280.0
107.065468 340.0
107.081161 416.0
107.114716 184.0
107.136246 188.0
107.177498 168.0
107.202179 144.0
107.276375 188.0
107.344414 148.0
107.360909 196.0
107.379471 108.0
107.406288 96.0
107.439545 164.0
107.457855 160.0
107.51976 168.0
107.540398 60.0
107.577553 164.0
107.637428 92.0
107.657745 124.0
107.687988 124.0
107.718231 320.0
107.751884 204.0
107.80658 532.0
107.825409 112.0
107.862617 52.0
107.885353 216.0
107.910164 120.0
107.932907 316.0
107.957718 36.0
108.009705 320.0
108.057838 4032.0
108.082787 260.0
108.106659 224.0
108.137703 100.0
108.158401 148.0
108.199265 124.0
108.22332 124.0
108.236099 188.0
108.297218 180.0
108.315765 148.0
108.383415 104.0
108.411926 184.0
108.431961 152.0
108.464958 104.0
108.5028 252.0
108.521339 184.0
108.538689 212.0
108.589363 160.0
108.629875 180.0
108.666115 188.0
108.70945 176.0
108.750778 120.0
108.780251 168.0
108.832153 340.0
108.85675 348.0
108.874725 168.0
108.888924 180.0
108.913147 52.0
108.956764 56.0
108.979622 124.0
108.996246 76.0
109.012093 176.0
109.040672 304.0
109.065483 8500.0
109.115242 236.0
109.139481 140.0
109.180069 176.0
109.221939 176.0
109.247711 88.0
109.274857 100.0
109.335197 32.0
109.373268 192.0
109.388885 216.0
109.40995 228.0
109.477516 132.0
109.495499 136.0
109.508553 132.0
109.537155 196.0
109.564972 148.0
109.579964 160.0
109.594627 248.0
109.61216 32.0
109.635925 188.0
109.680931 108.0
109.709465 128.0
109.733047 324.0
109.793518 144.0
109.822716 144.0
109.859467 136.0
109.900909 160.0
109.921089 164.0
109.943718 76.0
109.987549 224.0
110.010025 120.0
110.03009 148.0
110.037056 156.0
110.067047 1044.0
110.088333 168.0
110.126137 188.0
110.145454 128.0
110.198463 172.0
110.226379 140.0
110.257431 92.0
110.289894 160.0
110.32177 232.0
110.355217 144.0
110.390762 136.0
110.431526 260.0
110.455696 164.0
110.498589 248.0
110.526726 196.0
110.578842 164.0
110.592323 128.0
110.615791 176.0
110.632095 104.0
110.662781 128.0
110.684486 76.0
110.708839 220.0
110.731911 160.0
110.756287 220.0
110.799667 212.0
110.844002 132.0
110.859673 184.0
110.875786 168.0
110.895302 108.0
110.922668 136.0
110.947701 168.0
111.013252 368.0
111.033203 144.0
111.067917 192.0
111.104988 156.0
111.12709 276.0
111.145233 240.0
111.209908 196.0
111.229721 208.0
111.243492 248.0
111.321175 168.0
111.335869 296.0
111.366272 168.0
111.396782 76.0
111.413589 128.0
111.432495 140.0
111.468216 128.0
111.498177 240.0
111.525093 124.0
111.544998 112.0
111.554245 108.0
111.592224 208.0
111.614815 172.0
111.634277 80.0
111.659515 120.0
111.686852 120.0
111.705788 124.0
111.745537 152.0
111.76757 76.0
111.782791 120.0
111.794739 100.0
111.822441 212.0
111.868828 224.0
111.899391 152.0
111.916122 212.0
111.937294 212.0
111.952034 224.0
111.992599 200.0
112.015381 156.0
112.056892 164.0
112.065712 128.0
112.074417 160.0
112.107925 108.0
112.179581 168.0
112.207977 196.0
112.242828 176.0
112.28096 228.0
112.30603 132.0
112.338768 176.0
112.353485 180.0
112.37149 112.0
112.394699 168.0
112.413689 276.0
112.434792 200.0
112.453789 136.0
112.481224 144.0
112.524719 192.0
112.557228 116.0
112.58046 156.0
112.624527 212.0
112.718155 300.0
112.749458 172.0
112.780884 152.0
112.826561 176.0
112.886871 120.0
112.901672 140.0
112.992447 140.0
112.999168 128.0
113.039177 64.0
113.098656 192.0
113.115364 116.0
113.151352 176.0
113.185226 128.0
113.20005 116.0
113.236053 248.0
113.255112 184.0
113.275223 152.0
113.313828 156.0
113.36528 100.0
113.390709 364.0
113.456421 228.0
113.473381 120.0
113.503059 164.0
113.528061 248.0
113.553856 192.0
113.577286 332.0
113.619713 144.0
113.644585 188.0
113.689735 144.0
113.721565 40.0
113.791618 116.0
113.823463 136.0
113.840454 136.0
113.866615 188.0
113.908417 48.0
113.925476 132.0
113.975853 232.0
113.997101 200.0
114.004829 148.0
114.102547 148.0
114.118805 140.0
114.16346 168.0
114.178345 188.0
114.211357 208.0
114.251602 204.0
114.280449 184.0
114.323898 220.0
114.359184 152.0
114.405075 372.0
114.474144 232.0
114.495445 188.0
114.52739 144.0
114.574249 216.0
114.610725 136.0
114.64666 212.0
114.70018 352.0
114.763519 124.0
114.807205 256.0
114.872696 216.0
114.921768 320.0
114.962311 196.0
114.987915 116.0
115.011398 180.0
115.054977 3424.0
115.126686 128.0
115.143768 120.0
115.158714 152.0
115.191292 160.0
115.244164 148.0
115.278351 112.0
115.318504 188.0
115.356125 164.0
115.408737 160.0
115.462196 48.0
115.486282 172.0
115.516609 204.0
115.537064 188.0
115.554001 144.0
115.578522 144.0
115.612793 152.0
115.654755 128.0
115.693283 180.0
115.761253 196.0
115.798447 176.0
115.842621 124.0
115.86216 196.0
115.9021 148.0
115.925385 316.0
115.973892 76.0
116.019325 144.0
116.063263 740.0
116.097511 188.0
116.126701 148.0
116.149712 160.0
116.16687 264.0
116.189453 160.0
116.228294 196.0
116.24411 208.0
116.276917 192.0
116.296562 328.0
116.383629 120.0
116.402954 168.0
116.467384 200.0
116.516792 188.0
116.538277 168.0
116.57077 260.0
116.622086 200.0
116.64698 124.0
116.675827 116.0
116.762291 168.0
116.79409 184.0
116.813454 128.0
116.83889 136.0
116.871536 204.0
116.907402 204.0
116.916092 136.0
116.923553 164.0
117.02417 92.0
117.070541 5108.0
117.107407 152.0
117.172958 240.0
117.205276 280.0
117.23381 240.0
117.278549 52.0
117.313034 120.0
117.343216 200.0
117.401436 116.0
117.495949 144.0
117.51738 176.0
117.53138 216.0
117.558914 192.0
117.586967 132.0
117.617188 104.0
117.664894 156.0
117.689667 200.0
117.718658 152.0
117.746727 136.0
117.762955 156.0
117.802887 120.0
117.833618 160.0
117.874184 48.0
117.917404 156.0
117.932533 148.0
117.967117 88.0
117.988739 184.0
118.004929 208.0
118.040489 436.0
118.076027 1028.0
118.091156 328.0
118.134918 208.0
118.150932 40.0
118.194206 328.0
118.241043 192.0
118.257217 168.0
118.294373 124.0
118.339317 428.0
118.362381 92.0
118.400635 88.0
118.434807 172.0
118.456993 276.0
118.490822 172.0
118.519196 168.0
118.549324 132.0
118.588333 92.0
118.706558 60.0
118.733597 64.0
118.764786 136.0
118.805443 128.0
118.82991 184.0
118.852898 144.0
118.867844 140.0
118.899155 216.0
118.932327 200.0
118.956406 168.0
118.974442 220.0
119.001274 288.0
119.049843 2296.0
119.084717 524.0
119.107803 376.0
119.132965 52.0
119.172073 200.0
119.201447 176.0
119.245667 152.0
119.290466 168.0
119.324211 168.0
119.368973 188.0
119.383408 352.0
119.403702 172.0
119.441643 344.0
119.463394 156.0
119.480797 196.0
119.509079 164.0
119.552597 248.0
119.592613 248.0
119.614128 256.0
119.66143 40.0
119.684196 172.0
119.715866 128.0
119.739822 104.0
119.762367 176.0
119.811699 156.0
119.910873 148.0
119.940269 180.0
119.968658 172.0
119.992584 164.0
120.018745 276.0
120.053398 536.0
120.086395 412.0
120.127617 148.0
120.160126 180.0
120.174698 80.0
120.201973 324.0
120.260895 160.0
120.287086 260.0
120.306984 140.0
120.340622 104.0
120.357338 156.0
120.384018 252.0
120.399338 252.0
120.429909 156.0
120.454353 300.0
120.471535 180.0
120.493217 184.0
120.520561 284.0
120.536224 372.0
120.574883 144.0
120.595062 112.0
120.627365 296.0
120.68586 344.0
120.704826 260.0
120.723976 360.0
120.740028 476.0
120.758011 340.0
120.779732 204.0
120.798485 236.0
120.815636 164.0
120.849518 368.0
120.866119 452.0
120.883224 472.0
120.922821 112.0
120.930473 228.0
120.935631 432.0
120.952744 688.0
120.988205 496.0
121.012161 460.0
121.027153 760.0
121.067078 229212.0
121.111221 96.0
121.150009 444.0
121.182068 64.0
121.206718 144.0
121.228142 184.0
121.252777 312.0
121.271561 960.0
121.305321 224.0
121.337936 492.0
121.360832 164.0
121.368217 124.0
121.401459 1260.0
121.429611 4492.0
121.479912 184.0
121.495926 76.0
121.509598 116.0
121.535919 124.0
121.588043 120.0
121.607178 184.0
121.641098 404.0
121.660133 72.0
121.675896 68.0
121.680092 244.0
121.710609 212.0
121.738136 144.0
121.769386 440.0
121.798401 276.0
121.81443 96.0
121.849579 64.0
121.868126 104.0
121.876114 64.0
121.882812 128.0
121.904953 200.0
121.919823 128.0
121.946297 216.0
121.9711 332.0
121.989777 144.0
122.037094 704.0
122.069405 51260.0
122.105072 60.0
122.135208 108.0
122.160896 216.0
122.186707 64.0
122.214493 152.0
122.231422 96.0
122.269089 140.0
122.282921 112.0
122.305626 224.0
122.332245 96.0
122.36673 56.0
122.388947 100.0
122.420357 96.0
122.440147 192.0
122.478745 160.0
122.51152 196.0
122.542725 232.0
122.563538 56.0
122.588478 248.0
122.614586 72.0
122.638115 100.0
122.682144 176.0
122.699577 200.0
122.73317 176.0
122.761101 132.0
122.777359 228.0
122.798584 352.0
122.819176 248.0
122.837624 304.0
122.853134 180.0
122.87809 400.0
122.924965 300.0
122.930901 160.0
122.940201 312.0
122.977989 224.0
123.00248 420.0
123.04084 568.0
123.071892 2580.0
123.101753 232.0
123.143295 272.0
123.180511 108.0
123.205566 64.0
123.221512 88.0
123.267746 140.0
123.294785 180.0
123.34478 56.0
123.364677 108.0
123.419518 292.0
123.427391 152.0
123.47744 100.0
123.495087 124.0
123.538307 60.0
123.56813 36.0
123.597191 60.0
123.663284 72.0
123.67878 36.0
123.700912 52.0
123.727478 68.0
123.765541 144.0
123.785042 56.0
123.801872 60.0
123.821213 72.0
123.857018 72.0
123.884705 104.0
123.93721 284.0
123.963997 272.0
124.004883 168.0
124.054428 168.0
124.070427 196.0
124.105179 272.0
124.135155 100.0
124.199471 176.0
124.283768 92.0
124.328148 56.0
124.412498 76.0
124.440498 52.0
124.463562 112.0
124.487984 96.0
124.57238 144.0
124.624527 144.0
124.670143 32.0
124.694588 112.0
124.714592 52.0
124.741264 140.0
124.781067 84.0
124.802437 116.0
124.837677 216.0
124.870224 72.0
124.965874 132.0
124.993423 84.0
125.023727 68.0
125.087029 176.0
125.319885 140.0
125.424622 128.0
125.458061 44.0
125.539749 188.0
125.558395 164.0
125.629768 140.0
125.654312 156.0
125.743568 180.0
125.834877 172.0
125.839859 116.0
125.99678 220.0
126.030991 280.0
126.129959 188.0
126.156784 108.0
126.277725 468.0
126.349106 156.0
126.405045 92.0
126.424774 220.0
126.454277 152.0
126.575165 132.0
126.658028 132.0
126.685745 64.0
126.844002 204.0
126.86866 232.0
126.960594 40.0
127.038834 312.0
127.072746 188.0
127.101913 100.0
127.144547 128.0
127.244514 164.0
127.361229 164.0
127.560066 136.0
127.589287 68.0
127.621277 204.0
127.671257 48.0
127.699471 92.0
127.789444 100.0
127.847954 104.0
127.961327 152.0
128.048309 128.0
128.088852 100.0
128.133911 148.0
128.169952 60.0
128.194748 56.0
128.219528 36.0
128.235306 124.0
128.259369 172.0
128.275116 100.0
128.413422 144.0
128.461792 140.0
128.485611 148.0
128.519852 112.0
128.569092 172.0
128.611969 56.0
128.654816 208.0
128.73558 160.0
128.758316 144.0
128.815186 60.0
128.835724 216.0
128.87619 96.0
128.899796 204.0
128.939453 92.0
128.959793 72.0
128.989182 140.0
129.074631 224.0
129.082672 124.0
129.094131 172.0
129.120316 124.0
129.161026 52.0
129.183655 52.0
129.299042 92.0
129.373734 48.0
129.42807 52.0
129.475632 28.0
129.514633 216.0
129.548111 48.0
129.597946 176.0
129.613815 60.0
129.684067 152.0
129.736374 184.0
129.770203 188.0
129.795151 200.0
129.820084 184.0
129.837891 108.0
129.87645 136.0
129.904007 116.0
129.938034 228.0
129.95845 116.0
130.005875 88.0
130.012787 76.0
130.049225 152.0
130.065567 164.0
130.10144 48.0
130.132965 72.0
130.164062 96.0
130.206726 140.0
130.249039 72.0
130.276291 96.0
130.299011 96.0
130.319031 108.0
130.362106 140.0
130.419952 108.0
130.458084 48.0
130.486374 244.0
130.598282 116.0
130.644562 188.0
130.660492 88.0
130.83345 48.0
130.876694 92.0
130.897202 160.0
130.913132 76.0
130.961792 152.0
130.984909 188.0
131.058914 40.0
131.089157 344.0
131.134109 136.0
131.170578 228.0
131.204147 144.0
131.332474 140.0
131.352997 124.0
131.398636 56.0
131.416885 48.0
131.471024 88.0
131.480057 64.0
131.542496 96.0
131.58577 128.0
131.637726 148.0
131.681671 48.0
131.714005 128.0
131.734207 156.0
131.823318 188.0
131.8685 148.0
131.896454 116.0
132.006195 160.0
132.052948 108.0
132.081665 96.0
132.118256 72.0
132.134277 68.0
132.170883 136.0
132.196045 148.0
132.263367 164.0
132.3311 44.0
132.376892 76.0
132.392929 92.0
132.443039 68.0
132.499298 172.0
132.56015 172.0
132.576187 72.0
132.608276 128.0
132.635773 172.0
132.694 120.0
132.74353 124.0
132.776154 88.0
132.828384 340.0
132.844452 160.0
132.869675 68.0
132.890335 104.0
132.939606 148.0
132.965775 168.0
132.988998 128.0
133.065094 1076.0
133.147415 56.0
133.163498 128.0
133.191055 172.0
133.287888 132.0
133.318161 112.0
133.354187 236.0
133.387268 132.0
133.473816 108.0
133.486465 112.0
133.492889 168.0
133.533524 136.0
133.60022 68.0
133.687653 180.0
133.70607 124.0
133.727539 144.0
133.759003 128.0
133.791229 140.0
133.890244 112.0
133.922791 188.0
133.947159 152.0
133.970215 172.0
134.003357 112.0
134.05072 124.0
134.072617 10396.0
134.125244 324.0
134.178268 56.0
134.252045 72.0
134.272797 172.0
134.301971 148.0
134.305542 184.0
134.341995 108.0
134.388138 92.0
134.491989 140.0
134.538147 132.0
134.593567 128.0
134.644363 44.0
134.691727 212.0
134.718277 36.0
134.794525 40.0
134.819305 188.0
134.856918 60.0
134.970184 200.0
134.993317 180.0
135.01181 136.0
135.044189 124.0
135.076355 1276.0
135.217941 156.0
135.307983 56.0
135.324188 144.0
135.365112 172.0
135.421387 140.0
135.438828 232.0
135.509476 132.0
135.528015 112.0
135.565094 252.0
135.583618 156.0
135.713364 240.0
135.774994 232.0
135.808517 48.0
135.933792 184.0
135.973236 136.0
136.129105 348.0
136.151169 148.0
136.196121 96.0
136.247238 196.0
136.335526 76.0
136.370392 152.0
136.39595 80.0
136.414551 212.0
136.574997 160.0
136.607559 188.0
136.62384 192.0
136.64711 164.0
136.68898 212.0
136.705276 160.0
136.837952 136.0
136.889175 108.0
136.96965 120.0
136.98642 164.0
137.012619 196.0
137.060699 1292.0
137.157089 52.0
137.310974 112.0
137.366119 200.0
137.548965 344.0
137.607315 80.0
137.658691 188.0
137.770798 44.0
137.838562 40.0
137.864258 160.0
138.034897 200.0
138.062088 168.0
138.102722 96.0
138.158859 156.0
138.18869 80.0
138.294586 212.0
138.381195 164.0
138.413971 156.0
138.479538 148.0
138.578751 220.0
138.639664 252.0
138.662949 128.0
138.692749 140.0
138.795914 40.0
138.828735 188.0
138.849838 216.0
138.972092 172.0
138.999969 176.0
139.075974 820.0
139.112625 180.0
139.18306 172.0
139.373322 196.0
139.389771 176.0
139.413269 156.0
139.460266 136.0
139.547241 160.0
139.606033 92.0
139.79657 140.0
139.829514 160.0
139.962402 212.0
140.032227 200.0
140.079788 124.0
140.147415 56.0
140.201614 56.0
140.319473 212.0
140.399643 172.0
140.430298 68.0
140.538818 136.0
140.562408 204.0
140.594025 140.0
140.656815 132.0
140.70874 172.0
140.753601 80.0
140.866974 112.0
140.942566 72.0
140.959106 236.0
140.985107 188.0
141.018188 144.0
141.044876 204.0
141.069443 216.0
141.145844 68.0
141.320877 68.0
141.342163 156.0
141.385849 348.0
141.443115 128.0
141.481812 248.0
141.679733 236.0
141.753067 128.0
141.794464 156.0
141.816574 140.0
141.879807 80.0
141.915359 36.0
142.280731 164.0
142.320328 176.0
142.385208 136.0
142.614639 112.0
142.765442 92.0
142.851059 116.0
142.903397 124.0
142.97493 132.0
142.996201 124.0
143.030151 196.0
143.070892 200.0
143.099213 192.0
143.143799 44.0
143.186661 168.0
143.293854 112.0
143.337433 180.0
143.352386 120.0
143.396317 140.0
143.422531 72.0
143.570358 196.0
143.629974 92.0
143.789841 92.0
143.861786 168.0
143.887695 164.0
143.904419 40.0
144.09787 176.0
144.208099 124.0
144.391876 152.0
144.458847 152.0
144.521057 72.0
144.572647 156.0
144.667038 152.0
144.724503 240.0
144.817886 204.0
145.025345 220.0
145.043121 176.0
145.065231 144.0
145.082672 176.0
145.139008 128.0
145.232544 160.0
145.298111 180.0
145.338089 104.0
145.407684 168.0
145.561249 144.0
145.66774 156.0
145.717438 196.0
145.758286 152.0
145.996277 76.0
146.080444 104.0
146.155029 136.0
146.212784 176.0
146.248886 140.0
146.294617 112.0
146.316284 140.0
146.40538 100.0
146.480042 140.0
146.518585 152.0
146.54509 148.0
146.561951 140.0
146.593277 56.0
146.713791 104.0
146.757187 64.0
146.776474 128.0
146.835098 168.0
146.858459 60.0
146.902817 144.0
146.945297 260.0
146.962189 200.0
147.080704 620.0
147.124817 140.0
147.140793 228.0
147.210815 120.0
147.276016 156.0
147.314667 196.0
147.353317 84.0
147.391983 160.0
147.430634 128.0
147.527313 52.0
147.563583 124.0
147.595016 212.0
147.624039 136.0
147.659744 248.0
147.689331 96.0
147.735291 188.0
147.769165 136.0
147.788513 80.0
147.856262 48.0
147.968689 256.0
147.992386 120.0
148.049942 72.0
148.074158 120.0
148.10379 188.0
148.14949 192.0
148.194504 196.0
148.230301 180.0
148.253433 340.0
148.282043 104.0
148.327011 200.0
148.352966 116.0
148.381638 232.0
148.403717 124.0
148.422867 80.0
148.44516 132.0
148.469177 172.0
148.48616 132.0
148.507812 108.0
148.555283 80.0
148.580765 172.0
148.600555 148.0
148.622925 220.0
148.650467 208.0
148.674316 144.0
148.682831 172.0
148.722504 156.0
148.752762 192.0
148.798019 184.0
148.825134 176.0
148.866577 496.0
148.909683 388.0
148.926559 108.0
148.943069 136.0
148.964294 380.0
149.005081 152.0
149.058426 408.0
149.09761 242996.0
149.197845 76.0
149.244934 152.0
149.265549 116.0
149.321915 296.0
149.352585 320.0
149.372543 192.0
149.40451 248.0
149.447937 164.0
149.467667 124.0
149.497452 3096.0
149.532318 160.0
149.568268 116.0
149.592056 160.0
149.603394 64.0
149.608734 84.0
149.635941 60.0
149.667084 196.0
149.69397 260.0
149.718201 92.0
149.769714 92.0
149.81311 80.0
149.818665 136.0
149.845688 120.0
149.889893 144.0
149.931885 184.0
149.95314 68.0
149.997971 132.0
150.007156 60.0
150.01355 88.0
150.047241 120.0
150.100372 41988.0
150.180954 96.0
150.222824 68.0
150.258484 88.0
150.280426 132.0
150.310181 244.0
150.350601 120.0
150.375931 80.0
150.445786 100.0
150.471863 84.0
150.501038 44.0
150.545609 80.0
150.564285 116.0
150.593399 44.0
150.62291 40.0
150.654907 44.0
150.719498 152.0
150.7453 84.0
150.777069 140.0
150.808212 152.0
150.838959 88.0
150.858276 108.0
150.895248 92.0
150.951675 80.0
150.992218 80.0
151.013962 80.0
151.041077 176.0
151.102234 1780.0
151.16069 216.0
151.191833 420.0
151.200439 200.0
151.229401 304.0
151.232864 256.0
151.255569 420.0
151.283005 188.0
151.290588 136.0
151.299255 248.0
151.316864 136.0
151.346405 172.0
151.380585 140.0
151.424911 140.0
151.463318 120.0
151.521454 104.0
151.564301 80.0
151.704437 68.0
151.743942 88.0
151.815063 64.0
151.928986 64.0
151.972046 72.0
152.057922 76.0
152.078018 64.0
152.099335 188.0
152.138931 32.0
152.156113 36.0
152.183533 188.0
152.206345 104.0
152.278137 104.0
152.303452 152.0
152.323105 100.0
152.341263 116.0
152.359955 128.0
152.447586 72.0
152.492996 140.0
152.743423 56.0
152.876282 36.0
153.051056 120.0
153.093948 76.0
153.12001 84.0
153.395966 104.0
153.454163 204.0
153.492111 48.0
153.53157 68.0
153.615417 84.0
153.657364 68.0
153.815292 56.0
153.889359 60.0
154.02533 184.0
154.072113 108.0
154.24263 32.0
155.068268 416.0
155.190781 56.0
155.240372 60.0
155.416473 32.0
155.60759 108.0
155.960327 148.0
156.293579 84.0
156.333389 32.0
156.470276 32.0
156.572372 120.0
156.599762 40.0
156.75174 60.0
156.868866 48.0
156.961121 60.0
157.038422 56.0
157.05838 80.0
157.16066 84.0
157.382797 52.0
157.435242 60.0
157.485184 84.0
157.568771 60.0
157.655075 176.0
157.742554 128.0
157.780045 36.0
158.262909 40.0
158.368088 184.0
158.470795 80.0
158.56601 64.0
158.643723 108.0
158.88446 40.0
158.907043 96.0
159.035019 80.0
159.055099 52.0
159.14296 88.0
159.389114 84.0
159.492157 124.0
159.575104 120.0
159.620361 48.0
159.695816 60.0
160.085892 124.0
160.204269 84.0
160.221909 132.0
160.296051 96.0
160.453751 104.0
160.557144 64.0
160.647934 112.0
160.801849 124.0
160.853348 120.0
160.895248 64.0
160.970993 60.0
161.107376 68.0
161.145279 132.0
161.195801 160.0
161.226135 164.0
161.339874 84.0
161.360092 28.0
161.418259 84.0
161.499176 132.0
161.60289 80.0
161.653503 60.0
161.704117 116.0
161.726898 76.0
161.774994 160.0
161.792709 136.0
161.815491 96.0
161.858536 180.0
162.045959 152.0
162.071304 56.0
162.121979 40.0
162.334915 96.0
162.504868 100.0
162.852631 80.0
162.883118 60.0
163.315216 72.0
163.394073 32.0
163.597656 152.0
163.625671 44.0
163.819214 188.0
163.972092 108.0
164.076599 60.0
164.112289 68.0
164.234695 124.0
164.346939 176.0
164.56134 140.0
164.678802 152.0
164.752869 72.0
164.770752 64.0
164.80397 96.0
164.826523 116.0
164.867859 136.0
164.885742 148.0
164.921524 88.0
164.993103 176.0
165.01532 100.0
165.055618 24340.0
165.099731 140.0
165.149078 28.0
165.213028 40.0
165.238617 52.0
165.264191 60.0
165.332703 160.0
165.381912 76.0
165.468948 212.0
165.586731 108.0
165.609787 84.0
165.650772 220.0
165.822433 72.0
165.855759 116.0
166.0224 60.0
166.058746 2344.0
166.090073 136.0
166.11731 104.0
166.169739 64.0
166.379059 76.0
166.481766 136.0
166.630737 56.0
166.664139 100.0
166.751511 40.0
166.877472 116.0
166.9366 124.0
167.022766 136.0
167.059982 324.0
167.119827 132.0
167.144958 60.0
167.240173 112.0
167.307098 100.0
167.425552 124.0
167.580093 140.0
167.850739 88.0
168.041595 444.0
168.062241 96.0
168.080307 84.0
168.180954 92.0
169.08812 76.0
169.714996 96.0
170.488541 48.0
170.722504 104.0
170.860352 40.0
171.068542 40.0
171.151855 68.0
171.907776 116.0
173.010757 112.0
173.414139 32.0
173.736664 116.0
174.180298 60.0
175.298431 112.0
176.232498 96.0
176.258926 36.0
176.306488 76.0
176.946594 96.0
177.010147 48.0
177.049866 112.0
177.56134 40.0
177.762955 88.0
177.78154 56.0
177.954071 64.0
178.100128 132.0
178.466858 80.0
178.714203 72.0
180.048065 168.0
181.170395 56.0
181.655609 68.0
182.200562 136.0
183.06694 420.0
183.112411 88.0
183.894272 56.0
183.913162 56.0
184.070602 112.0
185.416931 52.0
185.500946 96.0
186.483521 120.0
186.546036 36.0
187.196289 108.0
187.425095 140.0
187.493225 92.0
188.221558 180.0
188.278915 84.0
188.352646 104.0
188.833694 48.0
189.12645 160.0
190.82724 80.0
191.105026 136.0
192.110596 124.0
193.395477 44.0
195.067261 392.0
195.137558 60.0
195.682861 148.0
196.028244 36.0
196.074371 116.0
197.575043 40.0
197.846497 104.0
198.272247 92.0
198.443237 96.0
198.807877 48.0
201.011246 48.0
201.824738 60.0
203.041809 176.0
204.571014 68.0
206.139664 272.0
206.159668 112.0
206.682953 32.0
206.934814 116.0
207.017853 112.0
208.274017 64.0
209.505173 68.0
210.104797 172.0
212.369736 148.0
212.630859 44.0
213.450058 48.0
213.988327 180.0
214.291229 96.0
214.862656 48.0
216.124802 144.0
217.772293 76.0
218.492462 48.0
221.79686 40.0
222.081497 68.0
222.731522 56.0
222.963272 116.0
224.082092 68.0
224.860352 40.0
225.565247 52.0
226.274231 104.0
226.930359 108.0
227.377304 116.0
229.009827 148.0
229.697052 144.0
230.333954 72.0
230.84169 104.0
230.862854 76.0
231.071564 120.0
231.168396 60.0
233.030106 52.0
233.089706 124.0
234.243927 100.0
235.998718 80.0
236.200546 72.0
236.972 104.0
237.108994 1144.0
237.140533 176.0
237.440994 92.0
237.726288 84.0
238.118866 360.0
241.144714 148.0
242.444534 116.0
242.766922 100.0
243.679489 152.0
246.727463 68.0
248.202896 436.0
248.246002 76.0
248.424774 116.0
249.201721 152.0
250.153091 112.0
250.297913 52.0
251.925308 72.0
253.01001 84.0
254.65889 132.0
256.944397 32.0
257.126282 88.0
258.814117 52.0
258.849335 40.0
259.862183 76.0
260.202393 44.0
260.282654 72.0
260.877014 72.0
261.388397 116.0
262.035553 64.0
262.183777 96.0
264.101532 128.0
264.208282 172.0
265.860748 100.0
267.892853 108.0
268.029694 156.0
273.518555 60.0
274.088287 80.0
274.807068 92.0
275.549927 36.0
275.933289 132.0
277.789551 124.0
278.989899 60.0
280.171295 136.0
280.537872 40.0
281.405243 68.0
281.518768 108.0
281.578888 64.0
281.802704 92.0
281.876221 108.0
282.166779 576.0
282.608459 80.0
282.822632 64.0
282.889587 156.0
283.166779 168.0
284.4953 80.0
284.562439 52.0
284.690033 40.0
284.810944 152.0
285.516754 76.0
286.812958 124.0
287.882446 84.0
288.639374 124.0
289.674988 48.0
290.037537 76.0
290.38678 68.0
290.695496 76.0
291.184326 112.0
294.590454 64.0
295.031281 44.0
295.144104 52.0
295.89682 164.0
295.982422 32.0
296.136505 172.0
296.184998 72.0
301.061371 60.0
302.45813 76.0
302.679718 136.0
304.479462 56.0
307.086212 72.0
308.18808 420.0
308.843018 56.0
308.964111 72.0
309.185913 168.0
309.83017 56.0
309.963287 72.0
310.450562 72.0
312.132568 104.0
313.146057 100.0
315.047272 60.0
316.869202 92.0
316.996765 48.0
319.268677 76.0
319.51767 72.0
320.166748 80.0
321.477356 76.0
322.02713 52.0
322.198608 136.0
322.295074 112.0
322.706085 52.0
323.180847 216.0
324.076904 88.0
326.169098 104.0
331.242462 68.0
331.365631 68.0
332.177673 96.0
334.230316 40.0
336.230896 72.0
340.852295 56.0
343.266998 64.0
344.281799 60.0
349.422913 48.0
351.822937 72.0
353.916595 100.0
354.351044 64.0
354.950745 44.0
357.47876 92.0
359.498596 68.0
363.399719 64.0
365.078644 104.0
368.314362 48.0
368.490082 60.0
368.925751 48.0
373.831299 116.0
374.200806 44.0
375.241028 64.0
376.298126 84.0
376.421692 120.0
378.014282 116.0
378.591064 44.0
379.102417 80.0
379.203186 44.0
379.943787 64.0
381.228973 96.0
381.36499 76.0
387.48761 180.0
387.836365 36.0
390.659637 100.0
390.982269 88.0
396.483521 92.0
399.409637 80.0
399.453369 112.0
400.181641 124.0
400.428528 56.0
401.524506 84.0
403.86496 40.0
404.793427 192.0
405.662811 48.0
411.512268 100.0
412.202942 40.0
413.476776 168.0
413.994965 148.0
415.210724 108.0
420.201752 52.0
421.92926 80.0
424.106995 64.0
424.455444 108.0
424.537476 108.0
424.631775 92.0
427.009735 76.0
427.235962 72.0
427.495178 28.0
427.544556 64.0
427.65979 76.0
427.696838 108.0
428.895447 104.0
429.287109 108.0
429.472687 76.0
429.876984 60.0
429.976044 156.0
430.081451 96.0
430.167664 160.0
430.258911 4564.0
430.376434 120.0
430.442505 80.0
430.574646 88.0
430.706818 264.0
430.83902 44.0
430.938171 88.0
431.194366 32.0
431.259735 1308.0
431.472778 72.0
431.661499 64.0
431.723511 36.0
431.888947 128.0
432.271973 224.0
432.927765 76.0
432.956726 80.0
433.118256 52.0
433.19281 60.0
433.321259 72.0
433.988525 56.0
434.506958 52.0
434.701965 76.0
439.858521 136.0
442.990509 116.0
447.008453 36.0
452.008759 60.0
452.48703 76.0
453.401947 48.0
461.058014 100.0
461.152039 104.0
461.293091 56.0
462.687042 116.0
463.334351 84.0
463.660004 104.0
473.439301 80.0
476.501617 100.0
480.834229 96.0
483.670807 124.0
484.279419 96.0
485.550385 100.0
487.96106 72.0
491.864105 96.0
494.427582 112.0
496.022034 32.0
496.217102 88.0
503.39856 148.0
504.381439 80.0
507.362732 104.0
511.234467 148.0
515.672119 76.0
517.635498 240.0
519.616211 152.0
520.392273 108.0
523.998901 88.0
524.764587 40.0
528.880493 44.0
538.037354 124.0
538.425232 72.0
543.712158 80.0
550.527527 72.0
550.611572 76.0
552.907043 108.0
553.16449 48.0
555.605957 56.0
556.76532 116.0
559.85498 36.0
561.641235 96.0
563.817749 72.0
568.544006 88.0
570.847961 44.0
574.181458 96.0
574.214844 44.0
590.902649 40.0
610.555847 236.0
613.53479 88.0
616.481445 72.0
622.693787 48.0
627.650269 156.0
631.860657 64.0
647.789001 40.0
648.680847 76.0
649.766052 60.0
658.567383 188.0
661.911926 32.0
663.438721 88.0
664.06427 116.0
666.487305 168.0
667.782715 64.0
669.599487 88.0
670.454712 64.0
671.305298 72.0
679.788879 88.0
686.082275 180.0
686.848816 244.0
689.323486 152.0
698.514099 84.0
705.110046 196.0
705.51709 48.0
706.405457 88.0
708.581238 72.0
718.368286 72.0
719.376831 40.0
723.546631 136.0
727.052124 216.0
728.748901 96.0
728.818787 136.0
739.707336 164.0
741.825378 176.0
744.244995 244.0
747.054749 96.0
748.872742 44.0
749.957031 32.0
751.003845 148.0
752.832153 52.0
755.056335 72.0
757.08667 112.0
761.578369 44.0
764.294067 100.0
767.130371 224.0
771.452698 184.0
772.96814 76.0
773.626709 116.0
774.861694 180.0
777.068237 56.0
779.327942 124.0
780.439575 156.0
784.035522 136.0
785.976074 208.0
791.532166 52.0
792.008179 44.0
792.114624 228.0
795.406128 160.0
796.164062 80.0
798.389465 100.0
798.552551 176.0
799.492065 120.0
799.649658 56.0
800.257629 44.0
802.562073 116.0
803.255737 68.0
807.678528 72.0
809.398926 160.0
810.764099 116.0
811.506653 108.0
811.801514 148.0
812.340332 64.0
812.692078 168.0
812.998474 204.0
813.458191 132.0
813.696655 108.0
813.906738 80.0
814.525757 188.0
817.146423 148.0
818.540894 100.0
820.204468 184.0
822.400391 64.0
823.273926 124.0
823.919312 148.0
825.422485 136.0
826.091675 156.0
826.938477 128.0
827.665527 136.0
827.825867 176.0
829.332581 36.0
829.917297 160.0
830.112244 56.0
832.172119 164.0
834.125366 204.0
834.378296 40.0
835.787415 192.0
836.650696 72.0
837.917664 268.0
838.303711 48.0
840.841125 104.0
842.226807 48.0
843.497986 200.0
845.626526 184.0
846.28064 60.0
846.361694 180.0
847.230469 128.0
847.427429 160.0
847.641846 136.0
847.954773 136.0
848.09967 200.0
848.290955 132.0
849.265076 92.0
850.425476 196.0
850.657654 80.0
851.348572 64.0
851.714478 204.0
851.958435 92.0
853.992859 108.0
854.807312 36.0
855.476624 176.0
855.965698 152.0
856.594727 32.0
856.740356 116.0
858.33728 140.0
858.955444 148.0
859.066284 96.0
859.433838 148.0
862.686829 176.0
866.303284 192.0
867.539734 156.0
867.668701 128.0
868.7771 88.0
869.041138 84.0
869.481201 152.0
871.518433 60.0
873.841248 188.0
874.847595 204.0
875.277344 168.0
877.058594 180.0
877.215698 64.0
877.934998 136.0
878.253479 180.0
878.630981 172.0
879.787292 128.0
879.824341 152.0
881.411865 184.0
882.002808 156.0
882.741821 156.0
883.143982 180.0
886.062317 92.0
887.627014 120.0
888.285339 192.0
888.902344 164.0
889.104126 92.0
889.442444 40.0
889.745178 124.0
890.487427 52.0
891.016052 80.0
891.182434 216.0
891.31311 52.0
891.853943 88.0
892.020386 124.0
892.930054 44.0
892.983582 56.0
893.685547 148.0
894.304443 188.0
895.411804 84.0
896.573547 172.0
898.672485 152.0
898.720215 156.0
898.785828 136.0
899.227417 156.0
899.561707 56.0
899.734802 76.0
901.873291 168.0
902.12439 124.0
902.817932 104.0
904.840332 100.0
906.133972 140.0
906.481506 120.0
907.22467 212.0
909.072021 76.0
909.990356 172.0
911.515991 184.0
912.784302 188.0
913.223328 96.0
913.59021 184.0
913.981262 156.0
914.348389 196.0
914.685425 232.0
915.142944 220.0
915.492188 84.0
916.08844 176.0
916.648743 148.0
917.323792 116.0
918.674561 136.0
920.159119 112.0
920.335876 176.0
922.775146 236.0
923.041199 152.0
923.289124 88.0
924.620056 184.0
926.697021 144.0
927.063049 172.0
927.751526 128.0
928.103149 156.0
928.418518 164.0
929.025024 120.0
929.073547 192.0
929.116028 136.0
929.929138 172.0
930.299377 80.0
930.87616 48.0
931.113037 40.0
931.266846 240.0
932.261169 208.0
932.65625 48.0
934.048645 204.0
935.119507 84.0
935.247314 236.0
935.52124 264.0
935.795227 184.0
936.294495 104.0
938.256531 152.0
939.043152 128.0
939.860535 168.0
940.330444 124.0
940.519653 96.0
940.580688 180.0
940.82489 128.0
941.429321 184.0
942.12561 160.0
942.168396 148.0
942.315002 108.0
942.93219 176.0
943.164429 128.0
944.491272 116.0
944.791016 136.0
944.919495 152.0
945.155518 144.0
946.161865 164.0
946.480225 104.0
946.85376 172.0
947.607178 136.0
948.685791 160.0
949.255981 152.0
949.458374 92.0
949.562622 160.0
950.832581 72.0
950.912354 140.0
951.501648 204.0
952.091064 168.0
953.006348 192.0
953.178406 84.0
953.977356 128.0
954.081848 96.0
955.767029 212.0
955.988586 76.0
956.154724 164.0
956.610168 160.0
956.813354 164.0
957.133484 144.0
957.361328 184.0
958.168213 232.0
958.242188 64.0
958.618042 172.0
959.961853 148.0
960.418213 116.0
960.917908 216.0
960.998108 196.0
961.059814 220.0
961.257263 72.0
961.862061 188.0
961.936157 104.0
964.7901 204.0
964.868835 168.0
965.847534 136.0
966.800293 36.0
967.926941 244.0
968.174622 176.0
968.583374 180.0
968.796509 172.0
968.961243 156.0
969.766846 192.0
970.194519 176.0
970.430115 148.0
971.32312 168.0
971.521606 56.0
971.645691 140.0
971.86908 76.0
972.135864 156.0
972.334473 112.0
972.62616 164.0
973.290466 140.0
973.402222 124.0
973.961121 144.0
974.035706 176.0
974.824707 108.0
975.887573 52.0
976.142517 112.0
976.235779 140.0
976.658691 112.0
976.932434 140.0
977.010376 204.0
977.137695 92.0
977.411621 192.0
977.647949 44.0
977.822205 140.0
978.463318 172.0
978.506897 172.0
978.668762 160.0
979.196777 156.0
979.615417 84.0
980.138733 204.0
981.3078 176.0
981.690857 200.0
981.794189 196.0
982.302063 228.0
983.294128 92.0
983.768494 104.0
983.962036 216.0
984.105652 120.0
984.74884 140.0
985.704651 140.0
985.752747 236.0
985.848389 152.0
986.073364 128.0
986.198364 212.0
986.404602 168.0
986.448364 140.0
986.810974 112.0
986.917236 196.0
987.254883 144.0
987.536316 160.0
987.598511 188.0
988.44342 152.0
989.135315 108.0
989.501221 112.0
989.76416 112.0
989.920715 188.0
990.584595 156.0
992.439636 128.0
992.514038 148.0
993.154541 128.0
993.687744 136.0
994.070496 108.0
994.283875 132.0
994.796021 168.0
997.040833 152.0
997.19165 204.0
997.254517 112.0
997.537354 152.0
997.688232 128.0
997.964844 180.0
998.203796 152.0
998.851562 200.0
998.983704 148.0
1000.017273 180.0
1000.238281 168.0
1000.44989 160.0
1000.500305 144.0
1000.601013 188.0
1001.747131 160.0
1001.997009 264.0
1002.301575 172.0
1002.641846 224.0
1002.919189 160.0
1003.240662 64.0
1003.492798 156.0
1003.953125 76.0
1005.101196 128.0
1005.183228 80.0
1005.385132 132.0
1006.230957 108.0
1006.420349 184.0
1006.837097 100.0
1006.969727 176.0
1007.607727 164.0
1007.77832 140.0
1008.129639 220.0
1008.182739 180.0
1008.67572 272.0
1008.776855 144.0
1008.865356 156.0
1008.909607 212.0
1009.832764 136.0
1009.889709 120.0
1010.035156 160.0
1010.205994 176.0
1011.22467 136.0
1011.528503 260.0
1011.756409 240.0
1011.853088 144.0
1012.161621 84.0
1012.300903 144.0
1012.452881 228.0
1012.617554 76.0
1012.801208 160.0
1012.959595 120.0
1013.327026 124.0
1013.498047 108.0
1013.764221 52.0
1014.087402 136.0
1014.32196 96.0
1014.467712 76.0
1014.791504 108.0
1014.930542 196.0
1015.139771 188.0
1015.234924 224.0
1015.755005 88.0
1015.869141 204.0
1016.395752 160.0
1016.725708 188.0
1016.890747 160.0
1017.189026 100.0
1017.265198 132.0
1017.544983 168.0
1017.677856 32.0
1017.773132 120.0
1018.427246 156.0
1018.706726 160.0
1019.024353 120.0
1019.386536 120.0
1019.526306 156.0
1019.926758 140.0
1019.9776 200.0
1020.231873 108.0
1020.289062 100.0
1020.346252 176.0
1020.568787 168.0
1020.804077 48.0
1021.490967 152.0
1021.675415 144.0
1021.898071 184.0
1021.999878 128.0
1022.489868 216.0
1023.170959 120.0
1023.272827 156.0
1023.775818 132.0
1024.113403 36.0
1024.540161 120.0
1025.655273 204.0
1025.77002 64.0
1025.891113 136.0
1026.375732 148.0
1027.313232 204.0
1027.785278 124.0
1028.372437 188.0
1028.915039 124.0
1028.972534 100.0
1029.419434 96.0
1030.090088 132.0
1030.141113 164.0
1030.435059 112.0
1030.543579 148.0
1030.716187 100.0
1031.527832 220.0
1032.269409 240.0
1032.928101 164.0
1033.164795 160.0
1033.79187 184.0
1033.983887 52.0
1034.195068 132.0
1034.415649 144.0
1034.623901 180.0
1034.841675 148.0
1034.963257 112.0
1035.33728 108.0
1035.677856 184.0
1035.702148 108.0
1035.72229 224.0
1035.891846 64.0
1036.622314 164.0
1037.474731 160.0
1037.58374 128.0
1038.026123 136.0
1039.071533 140.0
1039.365479 108.0
1039.687622 180.0
1040.669678 212.0
1040.898438 204.0
1041.279663 140.0
1041.517334 64.0
1041.787109 124.0
1042.044067 128.0
1042.124023 164.0
1042.397461 140.0
1042.474609 164.0
1042.680298 180.0
1043.168701 120.0
1043.554443 164.0
1043.72168 128.0
1043.856689 156.0
1043.978882 112.0
1044.152466 92.0
1044.641357 200.0
1044.693359 136.0
1045.464844 208.0
1045.683716 164.0
1045.765137 200.0
1046.02478 132.0
1046.134277 40.0
1047.100098 164.0
1047.357666 200.0
1047.957764 156.0
1048.523804 96.0
1048.594727 224.0
1048.740967 168.0
1048.968628 172.0
1049.321533 192.0
1049.439209 124.0
1049.793823 104.0
1050.058228 84.0
1050.213013 124.0
1051.264648 152.0
1051.871338 152.0
1052.329712 216.0
1052.61377 156.0
1053.834473 144.0
1054.073608 176.0
1054.209351 68.0
1054.66626 172.0
1055.010742 60.0
1055.321045 164.0
1055.463379 164.0
1056.381714 176.0
1056.459351 196.0
1056.582642 136.0
1057.125732 40.0
1057.284424 144.0
1057.397583 124.0
1057.488159 100.0
1057.721191 236.0
1057.869995 208.0
1057.960693 152.0
1058.05127 72.0
1058.457764 132.0
1058.990234 148.0
1059.14563 144.0
1059.780518 184.0
1059.851807 140.0
1059.897217 132.0
1060.156372 140.0
1060.29248 136.0
1060.590576 108.0
1060.901733 92.0
1061.297241 132.0
1061.58252 100.0
1061.802979 116.0
1061.861328 164.0
1062.11438 140.0
1062.380249 140.0
1062.847412 108.0
1062.912231 220.0
1063.220459 188.0
1063.385986 180.0
1063.515869 224.0
1063.606689 80.0
1063.665161 96.0
1063.768921 140.0
1064.128906 176.0
1064.431152 92.0
1064.820801 124.0
1065.359985 72.0
1066.100708 224.0
1066.362427 196.0
1066.510132 164.0
1066.601074 196.0
1067.212158 184.0
1067.283691 112.0
1067.921021 220.0
1068.051025 68.0
1068.194824 152.0
1068.285278 120.0
1068.382812 164.0
1068.597534 108.0
1068.825195 120.0
1069.07251 48.0
1069.124634 236.0
1069.213257 196.0
1069.26123 132.0
1069.369873 132.0
1069.723389 212.0
1069.866577 92.0
1070.153076 104.0
1070.530762 160.0
1070.634888 144.0
1070.706665 168.0
1070.765137 144.0
1070.836792 88.0
1070.913208 136.0
1071.071289 216.0
1071.195068 136.0
1071.36438 152.0
1071.779663 172.0
1072.048584 184.0
1072.302734 172.0
1072.361328 216.0
1072.522949 136.0
1072.578491 160.0
1072.794189 252.0
1072.874878 132.0
1072.921875 220.0
1073.058838 188.0
1073.7771 104.0
1073.908325 148.0
1074.017456 52.0
1074.245728 72.0
1074.369629 32.0
1074.487061 164.0
1074.741577 212.0
1074.852539 136.0
1074.963379 176.0
1075.067871 156.0
1075.276611 180.0
1075.864136 116.0
1075.968506 192.0
1076.08606 172.0
1076.595337 164.0
1076.843506 160.0
1077.281128 108.0
1077.452637 180.0
1077.581665 208.0
1077.688843 148.0
1078.084839 160.0
1078.48999 156.0
1078.895264 180.0
1078.954102 300.0
1079.130615 160.0
1079.516479 204.0
1079.989746 160.0
1080.255493 92.0
1080.386353 160.0
1080.51062 64.0
1080.56958 136.0
1081.119141 220.0
1081.31543 132.0
1082.389038 168.0
1082.467651 192.0
1082.605225 60.0
1082.670654 116.0
1082.755737 80.0
1083.417358 148.0
1083.613892 220.0
1083.705566 112.0
1084.223267 104.0
1084.282227 124.0
1084.36084 180.0
1084.444214 156.0
1084.466431 112.0
1084.487671 168.0
1084.596802 136.0
1085.144043 172.0
1085.481934 140.0
1085.613037 100.0
1085.770874 172.0
1086.032837 184.0
1086.152588 172.0
1086.642822 160.0
1086.931519 200.0
1087.075928 124.0
1087.207153 128.0
1087.351562 140.0
1087.443359 200.0
1087.725708 108.0
1088.303345 164.0
1088.703857 184.0
1088.966553 120.0
1089.301636 336.0
1089.413208 108.0
1089.64978 156.0
1090.766968 212.0
1090.900146 88.0
1091.818848 96.0
1091.943848 176.0
1092.312134 132.0
1092.410889 144.0
1092.470093 140.0
1092.522705 28.0
1092.805542 144.0
1092.91748 128.0
1093.345093 132.0
1093.417603 80.0
1094.102051 68.0
1094.223511 184.0
1094.312622 156.0
1094.595947 196.0
1094.760742 148.0
1095.122681 48.0
1095.300537 108.0
1095.359863 172.0
1095.577271 156.0
1095.72876 160.0
1096.196533 196.0
1096.242676 152.0
1096.486572 156.0
1096.848999 128.0
1097.574219 164.0
1097.659912 104.0
1097.719238 52.0
1097.844604 172.0
1098.180908 104.0
1098.246826 148.0
1098.359009 120.0
1098.497559 212.0
1098.675659 132.0
1099.869995 132.0
1099.988892 240.0
1100.312256 120.0
1100.484009 104.0
1100.662231 244.0
1100.98584 168.0
1101.058472 192.0
1101.164185 164.0
1101.25 172.0
1101.500977 180.0
1101.619873 44.0
1101.827759 196.0
1102.019531 196.0
1102.247559 188.0
1102.683716 160.0
1102.743164 184.0
1102.864502 176.0
1103.033936 160.0
1103.186035 188.0
1103.51001 200.0
1103.57605 188.0
1103.880249 152.0
1104.753296 92.0
1104.852539 96.0
1105.077393 40.0
1106.018188 188.0
1106.124634 196.0
1106.824829 176.0
1107.096313 128.0
1107.606323 152.0
1107.705688 144.0
1108.069946 120.0
1108.149536 164.0
1108.341675 52.0
1108.659668 172.0
1108.732666 164.0
1108.779053 116.0
1108.944702 152.0
1109.196533 292.0
1109.370728 164.0
1109.582642 188.0
1110.078369 128.0
1110.244141 120.0
1110.336914 220.0
1110.496094 64.0
1110.588989 176.0
1110.734863 92.0
1110.860962 100.0
1110.948242 48.0
1111.006836 156.0
1111.117676 120.0
1111.371826 144.0
1111.623901 140.0
1111.849487 216.0
1111.895996 104.0
1112.818726 96.0
1112.878418 152.0
1113.084229 204.0
1113.276855 120.0
1113.702759 156.0
1113.861328 124.0
1113.914429 120.0
1114.00708 160.0
1114.107056 136.0
1114.190063 220.0
1114.273193 124.0
1114.335938 176.0
1114.505737 176.0
1114.651855 72.0
1114.731323 164.0
1114.811401 124.0
1114.967285 312.0
1115.136963 148.0
1115.46936 124.0
1115.675415 196.0
1115.974609 124.0
1116.034424 116.0
1116.296753 180.0
1116.400146 140.0
1116.606323 132.0
1116.819092 120.0
1116.898926 188.0
1116.97876 164.0
1117.110229 148.0
1117.218262 120.0
1117.324707 156.0
1117.557495 176.0
1117.617432 184.0
1117.757202 144.0
1117.945068 196.0
1118.203003 152.0
1118.302856 100.0
1118.538696 128.0
1118.648926 132.0
1119.749878 168.0
1119.874146 112.0
1119.974121 80.0
1120.113892 220.0
1120.195679 156.0
1120.327148 180.0
1120.400391 136.0
1120.546997 200.0
1120.66687 228.0
1121.002197 236.0
1121.266602 52.0
1121.399902 124.0
1121.492188 180.0
1121.626465 200.0
1121.846436 132.0
1122.07312 152.0
1122.206543 116.0
1122.259888 100.0
1122.355225 204.0
1122.406494 76.0
1122.566528 176.0
1122.84668 172.0
1123.044434 176.0
1123.097168 180.0
1123.193481 172.0
1123.260132 236.0
1123.633789 124.0
1123.720459 208.0
1123.773804 92.0
1124.174194 236.0
1124.247559 156.0
1124.461182 112.0
1125.055176 176.0
1125.161987 116.0
1125.242188 252.0
1125.342285 52.0
1125.57605 156.0
1126.156006 136.0
1126.250488 176.0
1126.45752 132.0
1126.539429 204.0
1126.731445 192.0
1126.844971 148.0
1127.065552 140.0
1127.218262 148.0
1127.284668 200.0
1127.419678 188.0
1127.479858 112.0
1127.526611 128.0
1127.666138 176.0
1127.685059 156.0
1127.706787 132.0
1128.355469 200.0
1128.596191 68.0
1128.917114 144.0
1129.023071 152.0
1129.404053 184.0
1129.428833 116.0
1129.609741 364.0
1129.846802 168.0
1130.161255 228.0
1130.341919 96.0
1130.55603 176.0
1130.622925 132.0
1130.991089 228.0
1131.165161 144.0
1131.29834 212.0
1131.627075 196.0
1131.720825 160.0
1131.88147 104.0
1132.080811 200.0
1132.698486 116.0
1133.073608 192.0
1133.140625 156.0
1133.433838 184.0
1133.489014 116.0
1133.636475 96.0
1133.750366 120.0
1134.096069 160.0
1134.266479 104.0
1134.90332 192.0
1134.977173 188.0
1135.211792 120.0
1135.359375 148.0
1135.848999 132.0
1135.942871 212.0
1136.197754 44.0
1136.357056 160.0
1136.446045 108.0
1136.499634 124.0
1136.5802 100.0
1136.761353 224.0
1137.036865 148.0
1137.40564 184.0
1137.478882 168.0
1137.546631 132.0
1137.672363 180.0
1138.580566 40.0
1139.084351 104.0
1139.252319 124.0
1139.668823 124.0
1139.910767 140.0
1140.05188 112.0
1140.360962 120.0
1140.461914 168.0
1140.57605 140.0
1140.629883 136.0
1140.730713 220.0
1140.87854 120.0
1140.972656 228.0
1141.033203 140.0
1141.0802 52.0
1141.39624 200.0
1141.765015 120.0
1142.014893 120.0
1142.223511 196.0
1142.499268 136.0
1143.158569 140.0
1143.306641 124.0
1143.441284 120.0
1143.542236 152.0
1143.609497 168.0
1143.656616 140.0
1143.764282 212.0
1143.898926 44.0
1144.020142 116.0
1144.188477 144.0
1144.230591 108.0
1144.451416 144.0
1144.713013 192.0
1145.703735 124.0
1145.838379 152.0
1145.912598 216.0
1146.316772 108.0
1146.471802 196.0
1146.657837 156.0
1146.93689 140.0
1147.270264 176.0
1147.7323 164.0
1147.84021 160.0
1147.921143 160.0
1148.049316 144.0
1148.251587 116.0
1148.720093 172.0
1148.966553 192.0
1149.052124 216.0
1149.401855 92.0
1149.696045 188.0
1150.112915 168.0
1150.230347 128.0
1150.464722 144.0
1150.56604 152.0
1150.646973 132.0
1150.809082 192.0
1150.863037 148.0
1151.261475 188.0
1151.333008 148.0
1151.437012 104.0
1151.572144 92.0
1151.700439 184.0
1151.828857 228.0
1152.132812 80.0
1152.399902 148.0
1152.454834 248.0
1152.821899 100.0
1152.916504 156.0
1153.130005 340.0
1153.177979 76.0
1153.204224 176.0
1153.707397 180.0
1153.795288 108.0
1153.869629 92.0
1153.923706 188.0
1154.126587 76.0
1154.572876 148.0
1154.640503 148.0
1154.816284 132.0
1155.032715 148.0
1155.296509 180.0
1155.756226 184.0
1155.922852 220.0
1156.075439 132.0
1156.257324 76.0
1156.616089 164.0
1156.717651 184.0
1156.957764 168.0
1157.375488 160.0
1157.504761 168.0
1157.727417 208.0
1157.810791 208.0
1157.936401 96.0
1158.105713 128.0
1158.281616 236.0
1158.369873 80.0
1158.464722 68.0
1158.932129 116.0
1159.026978 108.0
1159.333496 84.0
1159.379395 144.0
1159.447144 204.0
1159.605347 160.0
1159.731812 124.0
1159.860596 180.0
1160.184692 164.0
1160.341919 168.0
1160.470703 236.0
1160.538452 196.0
1161.006348 136.0
1161.209839 112.0
1161.297974 140.0
1161.501465 112.0
1161.637207 156.0
1161.724487 64.0
1161.786377 120.0
1162.084961 140.0
1162.176025 204.0
1162.451294 152.0
1162.505615 152.0
1162.630249 152.0
1162.770264 196.0
1163.136719 100.0
1163.252197 88.0
1163.476196 176.0
1164.005737 132.0
1164.128052 72.0
1164.481079 192.0
1164.892578 196.0
1165.235107 112.0
1165.337036 160.0
1165.527344 136.0
1165.615601 156.0
1165.744751 68.0
1165.812744 132.0
1166.10498 116.0
1166.152466 96.0
1166.342773 108.0
1166.403931 156.0
1166.49231 44.0
1166.692261 128.0
1166.866211 156.0
1167.342163 132.0
1167.525757 300.0
1167.689087 152.0
1167.933838 124.0
1168.192383 136.0
1168.260376 112.0
1168.355591 132.0
1168.403198 200.0
1168.552979 184.0
1168.6875 164.0
1168.910278 164.0
1169.076904 208.0
1169.439209 160.0
1169.900391 204.0
1170.017822 128.0
1170.172729 148.0
1170.349731 132.0
1170.513184 148.0
1170.942139 116.0
1171.357666 176.0
1171.623291 164.0
1171.977661 160.0
1172.236572 164.0
1172.566162 164.0
1172.62085 204.0
1172.713623 92.0
1173.054443 172.0
1173.178711 176.0
1173.292969 120.0
1173.545288 28.0
1173.749756 48.0
1174.329468 144.0
1174.421387 180.0
1174.472656 172.0
1174.643188 132.0
1174.813721 176.0
1175.202637 188.0
1175.500977 144.0
1175.761475 204.0
1175.940552 140.0
1176.041992 204.0
1176.103394 156.0
1176.177002 164.0
1176.308228 212.0
1176.683716 172.0
1176.777832 280.0
1176.833862 168.0
1177.694336 112.0
1177.89917 204.0
1177.953857 84.0
1178.035889 128.0
1178.391113 152.0
1178.486694 112.0
1178.780518 176.0
1178.884888 188.0
1179.026611 136.0
1179.127075 212.0
1179.36438 128.0
1179.390991 112.0
1179.411499 164.0
1179.58606 148.0
1179.675903 204.0
1179.726807 132.0
1179.79895 52.0
1180.03894 160.0
1180.161255 140.0
1180.311646 228.0
1180.47583 148.0
1180.838257 124.0
1180.975098 196.0
1181.054443 144.0
1181.255493 116.0
1181.323853 168.0
1181.426514 172.0
1181.611206 248.0
1181.785034 100.0
1182.207397 120.0
1182.266968 192.0
1182.359863 176.0
1182.427246 144.0
1182.630859 200.0
1182.870361 180.0
1182.986816 224.0
1183.116821 220.0
1183.363281 180.0
1183.424927 188.0
1183.500244 140.0
1183.78833 172.0
1183.849487 52.0
1183.972656 180.0
1184.089111 176.0
1184.178223 144.0
1184.301392 160.0
1184.513794 104.0
1184.561768 124.0
1184.643921 84.0
1184.979614 176.0
1185.06189 144.0
1185.171509 180.0
1185.315308 44.0
1185.390747 180.0
1185.575806 164.0
1185.726562 164.0
1185.774536 192.0
1185.872559 184.0
1186.405151 44.0
1186.494263 172.0
1186.56958 48.0
1186.713623 160.0
1187.077026 128.0
1187.125 220.0
1187.335815 136.0
1187.543335 60.0
1187.678955 120.0
1187.872559 184.0
1188.02356 160.0
1188.119507 104.0
1188.524292 164.0
1188.606689 148.0
1188.867432 176.0
1188.929199 128.0
1189.108765 172.0
1189.588135 108.0
1189.958862 48.0
1190.061768 180.0
1190.384521 208.0
1190.432617 44.0
1190.508179 132.0
1190.693604 152.0
1190.807129 172.0
1191.071289 208.0
1191.229248 132.0
1191.428467 144.0
1191.794189 176.0
1192.033081 140.0
1192.146362 200.0
1192.445435 140.0
1192.497192 188.0
1192.823486 132.0
1192.981567 72.0
1193.050293 112.0
1193.146606 184.0
1193.314575 204.0
1193.442261 160.0
1193.854614 136.0
1193.99231 232.0
1194.091919 124.0
1194.391235 196.0
1194.680176 272.0
1194.989746 176.0
1195.0448 100.0
1195.258057 44.0
1195.512695 96.0
1195.603516 184.0
1195.870605 116.0
1196.13208 168.0
1196.496948 196.0
1196.565796 120.0
1196.751709 144.0
1196.841187 104.0
1196.98584 120.0
1197.123535 64.0
1197.240601 164.0
1197.364502 212.0
1197.544434 136.0
1197.777832 88.0
1197.991333 48.0
1198.053345 124.0
1198.175171 140.0
1198.400757 152.0
1198.54248 152.0
1198.659668 128.0
1198.990479 152.0
1199.417725 144.0
1199.845093 212.0
1199.900269 84.0
1199.984985 144.0
1200.086426 28.0
1200.162231 168.0
1200.444946 108.0
1200.520874 104.0
1200.651855 140.0
1200.851929 156.0
1201.06958 136.0
1201.507202 168.0
1201.645142 116.0
1201.845215 164.0
1202.052246 132.0
1202.169556 164.0
1202.224731 160.0
1202.284546 256.0
1202.50769 172.0
1202.67334 100.0
1203.07373 164.0
1203.244263 80.0
1203.301514 60.0
1203.510742 256.0
1203.563965 224.0
1203.677124 188.0
1203.757202 100.0
1204.047241 144.0
1204.113892 184.0
1204.516968 108.0
1204.673584 192.0
1204.834717 176.0
1204.952148 56.0
1205.20874 144.0
1205.28125 204.0
1205.442749 116.0
1205.525635 136.0
1205.573975 64.0
1205.739868 92.0
1205.824341 176.0
1205.878052 300.0
1205.940308 212.0
1206.076294 180.0
1206.700684 196.0
1206.769897 292.0
1206.825195 116.0
1206.894287 172.0
1207.067139 156.0
1207.212402 184.0
1207.276978 148.0
1207.502808 192.0
1208.000854 96.0
1208.284424 144.0
1208.415894 188.0
1208.519653 152.0
1208.748047 160.0
1208.831055 232.0
1208.900269 136.0
1209.121704 164.0
1209.447144 144.0
1209.626953 108.0
1209.869385 160.0
1210.056152 192.0
1210.501831 184.0
1210.574707 184.0
1210.651611 148.0
1210.839111 172.0
1211.018677 152.0
1211.337402 196.0
1211.627441 180.0
1211.725342 132.0
1211.953979 112.0
1212.404297 132.0
1212.487549 96.0
1212.57666 152.0
1212.709229 168.0
1212.806274 216.0
1212.87561 196.0
1213.028076 212.0
1213.180664 136.0
1213.243042 40.0
1213.485718 132.0
1213.728394 140.0
1213.783813 120.0
1213.873413 152.0
1213.93042 200.0
1214.120117 104.0
1214.172119 160.0
1214.276123 120.0
1214.421875 200.0
1214.739258 100.0
1215.160645 124.0
1215.608154 72.0
1215.733765 120.0
1215.816284 116.0
1215.864868 212.0
1216.01062 80.0
1216.128662 152.0
1216.262939 204.0
1216.364624 268.0
1216.565186 80.0
1216.625977 180.0
1216.672241 168.0
1216.815796 152.0
1216.940796 80.0
1216.98938 48.0
1217.185059 176.0
1217.445679 180.0
1217.544922 128.0
1217.600464 60.0
1217.669922 116.0
1217.72229 128.0
1217.906128 28.0
1218.093628 148.0
1218.229492 92.0
1218.336792 44.0
1218.447876 120.0
1218.53125 64.0
1218.579956 132.0
1218.66333 184.0
1218.758789 204.0
1218.857788 180.0
1218.975952 188.0
1219.132446 256.0
1219.191406 76.0
1219.288696 44.0
1219.455444 120.0
1219.50415 148.0
1219.789062 184.0
1219.997681 144.0
1220.223511 108.0
1220.282715 168.0
1220.366089 176.0
1220.519043 96.0
1220.61731 180.0
1220.713745 84.0
1220.936279 112.0
1221.012817 168.0
1221.141113 180.0
1221.256226 116.0
1221.304932 60.0
1221.492676 136.0
1221.937988 144.0
1222.018066 148.0
1222.10498 208.0
1222.379395 112.0
1222.508545 64.0
1222.900146 180.0
1223.051392 212.0
1223.12793 180.0
1223.441162 108.0
1223.574829 188.0
1223.670898 272.0
1223.789307 148.0
1224.474854 80.0
1224.624878 64.0
1224.72937 132.0
1224.784546 232.0
1224.849121 196.0
1225.377197 152.0
1225.467773 120.0
1225.551392 96.0
1225.641968 208.0
1225.78833 72.0
1225.962524 172.0
1226.046143 204.0
1226.129761 36.0
1226.554932 132.0
1226.64563 144.0
1226.694336 224.0
1226.785034 172.0
1226.876465 164.0
1227.14502 248.0
1227.468262 40.0
1227.622681 196.0
1227.892944 148.0
1228.074951 228.0
1228.262085 156.0
1228.539673 204.0
1228.674805 172.0
1228.730713 176.0
1228.842285 132.0
1228.953979 192.0
1229.03064 180.0
1229.233032 160.0
1229.32373 132.0
1229.460449 296.0
1229.707642 152.0
1229.986816 144.0
1230.127441 204.0
1230.475464 184.0
1230.698853 132.0
1230.903809 148.0
1231.066406 192.0
1231.131836 176.0
1231.186279 176.0
1231.297119 148.0
1231.32373 100.0
1231.453003 180.0
1231.641602 168.0
1231.935059 172.0
1232.032837 144.0
1232.277344 112.0
1232.371704 116.0
1232.47998 156.0
1232.563843 132.0
1232.717407 168.0
1232.735107 164.0
1232.754883 252.0
1232.822388 168.0
1232.913208 44.0
1233.026123 168.0
1233.353516 188.0
1233.511475 140.0
1233.626099 176.0
1234.094482 164.0
1234.185425 120.0
1234.290283 176.0
1234.354004 168.0
1234.487305 136.0
1234.88916 144.0
1235.091187 168.0
1235.150513 136.0
1235.206421 64.0
1235.318359 132.0
1235.401489 164.0
1235.467773 124.0
1235.533813 212.0
1235.586792 60.0
1236.046021 148.0
1236.220947 120.0
1236.402832 340.0
1236.446777 188.0
1236.542847 132.0
1236.626831 124.0
1236.808838 104.0
1237.004761 148.0
1237.494873 132.0
1237.564819 152.0
1237.669922 168.0
1237.865967 160.0
1238.18811 212.0
1238.322632 132.0
1238.447632 140.0
1238.83252 436.0
1239.014648 312.0
1239.126709 152.0
1239.378906 116.0
1239.582153 136.0
1239.734741 56.0
1239.890503 240.0
1240.107788 264.0
1240.237061 228.0
1240.315063 160.0
1240.341431 92.0
1240.584351 268.0
1240.822754 96.0
1240.961792 220.0
1241.194336 136.0
1241.453735 168.0
1241.537964 144.0
1241.650146 152.0
1241.748291 64.0
1241.916626 172.0
1242.120117 184.0
1242.169189 192.0
1242.218262 148.0
1242.288452 168.0
1242.372559 172.0
1242.477783 120.0
1242.587402 180.0
1242.64624 180.0
1243.067261 204.0
1243.418091 40.0
1243.516357 196.0
1243.656738 140.0
1243.707886 292.0
1243.790039 108.0
1243.839233 172.0
1243.923462 148.0
1244.040283 176.0
1244.162109 124.0
1244.208862 192.0
1244.281494 148.0
1244.499146 104.0
1244.562256 168.0
1244.717896 128.0
1244.84314 116.0
1244.987793 184.0
1245.174438 112.0
1245.22937 180.0
1245.327759 128.0
1245.426025 156.0
1245.55957 184.0
1245.629761 132.0
1245.691772 204.0
1245.770264 124.0
1245.981079 156.0
1246.290161 160.0
1246.395508 160.0
1246.4729 196.0
1246.578247 180.0
1246.708008 168.0
1246.887451 124.0
1247.077271 128.0
1247.182617 136.0
1247.272095 144.0
1247.367065 156.0
1247.435669 84.0
1247.639526 288.0
1247.984009 220.0
1248.054321 92.0
1248.15979 240.0
1248.228638 144.0
1248.248657 140.0
1248.36377 148.0
1248.410278 184.0
1248.518433 256.0
1248.848999 140.0
1249.045898 168.0
1249.209473 136.0
1249.376587 84.0
1249.869019 136.0
1250.178711 172.0
1250.277222 196.0
1250.551636 160.0
1250.61499 128.0
1250.699463 64.0
1250.889526 180.0
1251.023315 28.0
1251.093628 104.0
1251.290771 140.0
1251.368286 100.0
1251.61853 196.0
1251.828613 196.0
1251.884277 164.0
1252.044189 236.0
1252.093506 92.0
1252.403442 140.0
1252.783813 60.0
1252.847168 100.0
1253.051514 192.0
1253.248779 156.0
1253.354492 84.0
1253.53772 204.0
1253.706787 136.0
1253.840698 140.0
1253.918213 204.0
1253.981689 172.0
1254.221313 112.0
1254.397461 108.0
1254.453857 156.0
1254.56665 128.0
1254.623047 56.0
1254.764038 164.0
1254.905029 140.0
1255.469238 184.0
1255.574951 144.0
1255.723022 156.0
1255.812744 152.0
1255.836182 108.0
1255.852173 156.0
1256.06311 152.0
1256.15332 300.0
1256.379028 172.0
1256.442505 164.0
1256.57666 156.0
1256.657837 132.0
1256.677734 200.0
1256.76709 140.0
1256.90686 224.0
1257.077515 212.0
1257.225708 212.0
1257.310425 100.0
1257.479858 148.0
1257.571533 212.0
1257.846802 128.0
1258.009155 116.0
1258.130493 240.0
1258.235107 120.0
1258.651733 92.0
1258.842285 132.0
1259.047119 176.0
1259.131836 56.0
1259.237305 124.0
1259.293945 356.0
1259.507202 136.0
1259.610352 168.0
1259.772705 164.0
1260.040527 164.0
1260.127808 196.0
1260.240845 92.0
1260.362427 216.0
1260.503784 180.0
1260.695801 192.0
1260.748779 132.0
1260.806152 236.0
1260.98999 96.0
1261.067749 92.0
1261.131348 124.0
1261.193237 180.0
1261.378662 244.0
1261.497192 148.0
1261.557373 220.0
1261.633179 160.0
1261.753418 220.0
1262.120972 180.0
1262.297729 140.0
1262.495728 184.0
1262.706055 164.0
1262.764526 248.0
1262.821167 196.0
1263.304443 208.0
1263.470459 228.0
1263.549683 120.0
1263.726562 228.0
1263.888184 208.0
1264.027344 176.0
1264.278442 144.0
1264.4375 240.0
1264.526245 140.0
1265.191528 184.0
1265.262329 228.0
1265.488892 132.0
1265.651733 160.0
1265.857056 44.0
1266.04126 260.0
1266.120605 92.0
1266.142822 128.0
1266.218262 168.0
1266.402466 140.0
1266.465454 116.0
1266.629028 92.0
1267.068237 208.0
1267.125 144.0
1267.396606 224.0
1267.472168 128.0
1267.571289 160.0
1267.687012 132.0
1268.07312 188.0
1268.32251 140.0
1268.662842 352.0
1269.285522 336.0
1269.49939 164.0
1269.634155 128.0
1269.748779 148.0
1269.818604 168.0
1269.98877 124.0
1270.279663 192.0
1270.385986 196.0
1270.442749 112.0
1270.719482 204.0
1270.804565 348.0
1270.896851 148.0
1270.970581 140.0
1271.152222 188.0
1271.688599 132.0
1271.791016 184.0
1271.968384 136.0
1272.196167 132.0
1272.401489 220.0
1272.813232 196.0
1272.973022 184.0
1273.033325 120.0
1273.281982 116.0
1273.374268 124.0
1273.516357 160.0
1273.800415 168.0
1273.971191 128.0
1274.205322 60.0
1274.577515 200.0
1274.766724 120.0
1274.823486 196.0
1274.979858 196.0
1275.267334 204.0
1275.371338 152.0
1275.477417 144.0
1275.598267 48.0
1275.662231 148.0
1275.858276 172.0
1276.010498 168.0
1276.060303 96.0
1276.238037 144.0
1276.349731 164.0
1276.550903 176.0
1276.635742 128.0
1276.700195 164.0
1276.785645 144.0
1276.848145 156.0
1276.998901 184.0
1277.105591 52.0
1277.236084 360.0
1277.356934 144.0
1277.610718 120.0
1277.769287 188.0
1277.923706 52.0
1278.308472 144.0
1278.453003 240.0
1278.552246 120.0
1278.628174 144.0
1278.685059 136.0
1278.734985 132.0
1278.922974 180.0
1279.08374 92.0
1279.218994 88.0
1279.328979 184.0
1279.402588 100.0
1279.432129 80.0
1279.457764 176.0
1279.589111 172.0
1279.646118 88.0
1279.716431 104.0
1280.123169 156.0
1280.31543 160.0
1280.393799 104.0
1280.749878 44.0
1280.813965 112.0
1281.213745 172.0
1281.557007 144.0
1281.704468 208.0
1281.775757 208.0
1281.927246 148.0
1282.253174 116.0
1282.438599 136.0
1282.551636 200.0
1282.730713 144.0
1282.794922 60.0
1282.859009 128.0
1283.030151 76.0
1283.122803 156.0
1283.17981 160.0
1283.276123 284.0
1283.436523 108.0
1283.693237 108.0
1283.764526 112.0
1283.942871 68.0
1284.007446 140.0
1284.064087 144.0
1284.142456 188.0
1284.235229 288.0
1284.309814 416.0
1284.363647 120.0
1284.882568 184.0
1285.005615 168.0
1285.104004 96.0
1285.193848 156.0
1285.269653 184.0
1285.38269 152.0
1285.536499 196.0
1285.653931 144.0
1285.829468 148.0
1286.300293 148.0
1286.404419 144.0
1286.457397 204.0
1286.861328 140.0
1286.939819 228.0
1286.989746 204.0
1287.075439 120.0
1287.375366 192.0
1287.468262 100.0
1287.5896 176.0
1287.668213 272.0
1287.739624 148.0
1287.88501 208.0
1288.002686 140.0
1288.068115 188.0
1288.125366 192.0
1288.212158 152.0
1288.241577 144.0
1288.525391 120.0
1288.661133 208.0
1288.739868 292.0
1288.818237 76.0
1289.239868 140.0
1289.332764 144.0
1289.390015 132.0
1289.675903 152.0
1289.830688 260.0
1289.936157 212.0
1290.018921 120.0
1290.194946 136.0
1290.290649 160.0
1290.412109 120.0
1290.562988 196.0
1290.633179 144.0
1290.769653 156.0
1290.912964 412.0
1291.012817 144.0
1291.069946 204.0
1291.177246 168.0
1291.241577 132.0
1291.448975 168.0
1291.785278 120.0
1291.878174 136.0
1291.928345 144.0
1292.154419 104.0
1292.464844 216.0
1292.715332 132.0
1293.051636 136.0
1293.216309 324.0
1293.287842 156.0
1293.352295 92.0
1293.459595 176.0
1293.516846 128.0
1293.709229 192.0
1293.767456 236.0
1293.853394 212.0
1293.946411 188.0
1294.032349 136.0
1294.132568 128.0
1294.261475 112.0
1294.347412 180.0
1294.430786 196.0
1294.504883 140.0
1294.576538 204.0
1294.662476 160.0
1294.719727 148.0
1294.827148 140.0
1294.999023 128.0
1295.067627 208.0
1295.161865 136.0
1295.271851 148.0
1295.393066 136.0
1295.499634 180.0
1295.652832 176.0
1295.73584 168.0
1295.865845 144.0
1295.980835 204.0
1296.209717 144.0
1296.439087 140.0
1296.510742 172.0
1296.578247 196.0
1296.632568 148.0
1296.718506 164.0
1296.768677 196.0
1296.900391 184.0
1296.94397 124.0
1297.146118 68.0
1297.234619 160.0
1297.28479 36.0
1297.593018 148.0
1297.676758 192.0
1297.750854 348.0
1298.152344 160.0
1298.223999 144.0
1298.410522 316.0
1298.718872 144.0
1298.783447 156.0
1299.106201 172.0
1299.235352 164.0
1299.292725 160.0
1299.3573 164.0
1299.457764 212.0
1299.72229 172.0
1300.053345 132.0
1300.150269 224.0
1300.261475 192.0
1300.526978 184.0
1300.709839 228.0
1301.015137 112.0
1301.122803 140.0
1301.620117 184.0
1301.783325 92.0
1301.9198 192.0
1301.977295 60.0
1302.077759 140.0
1302.345459 92.0
1302.616455 192.0
1302.682861 160.0
1302.839233 128.0
1302.954102 108.0
1303.060303 164.0
1303.284668 184.0
1303.334961 72.0
1303.428345 44.0
1303.478638 160.0
1303.790771 176.0
1303.840576 164.0
1304.007812 440.0
1304.075073 148.0
1304.169922 188.0
1304.466919 208.0
1304.563843 136.0
1305.337402 124.0
1305.397949 184.0
1305.552734 128.0
1305.628052 124.0
1305.707153 136.0
1306.033081 228.0
1306.330933 212.0
1306.541504 160.0
1306.822144 132.0
1306.94519 192.0
1307.312378 144.0
1307.440918 68.0
1307.491333 148.0
1307.707153 208.0
1307.771973 156.0
1307.879883 184.0
1308.081543 76.0
1308.153442 128.0
1308.268677 220.0
1308.319092 108.0
1308.463013 76.0
1308.64856 124.0
1308.818848 60.0
1309.075073 164.0
1309.399048 184.0
1309.579102 140.0
1309.66626 188.0
1309.780884 172.0
1309.910522 168.0
1309.960938 128.0
1310.119385 184.0
1310.191406 96.0
1310.313965 204.0
1310.470825 148.0
1310.580444 172.0
1310.655762 264.0
1310.818237 96.0
1310.969604 140.0
1311.430786 128.0
1311.519165 204.0
1311.755249 156.0
1311.827271 140.0
1311.879883 228.0
1311.99353 128.0
1312.127808 144.0
1312.181396 212.0
1312.281494 164.0
1312.383911 408.0
1312.533813 156.0
1312.661743 92.0
1312.829468 208.0
1313.016968 132.0
1313.067505 136.0
1313.21167 128.0
1313.312012 204.0
1313.672974 164.0
1314.286499 132.0
1314.380371 192.0
1314.771118 212.0
1314.936035 176.0
1315.015381 124.0
1315.065918 156.0
1315.152588 180.0
1315.383545 204.0
1315.535156 152.0
1315.608032 184.0
1315.780518 96.0
1315.852783 184.0
1315.917725 196.0
1316.163086 192.0
1316.333862 124.0
1316.432129 180.0
1316.530762 160.0
1316.596436 76.0
1316.654297 124.0
1316.704834 160.0
1316.755371 132.0
1316.892578 192.0
1317.022583 272.0
1317.071899 140.0
1317.275391 60.0
1317.347656 124.0
1317.444824 260.0
1317.49939 184.0
1317.589722 240.0
1317.74939 172.0
1317.961792 140.0
1318.091797 132.0
1318.334106 204.0
1318.37085 136.0
1318.575928 116.0
1318.756714 216.0
1318.879517 160.0
1319.031372 144.0
1319.094849 164.0
1319.494019 140.0
1319.573486 116.0
1319.66748 124.0
1320.021851 48.0
1320.18811 200.0
1320.274902 176.0
1320.426758 148.0
1320.492065 160.0
1320.552612 116.0
1320.925781 104.0
1321.005615 180.0
1321.265015 180.0
1321.446045 144.0
1321.469482 132.0
1321.491577 164.0
1321.627563 48.0
1321.692749 144.0
1322.011108 32.0
1322.141357 176.0
1322.328003 208.0
1322.452515 72.0
1322.553833 204.0
1322.908569 104.0
1323.422607 180.0
1323.683228 144.0
1324.033081 76.0
1324.130371 172.0
1324.291748 152.0
1324.450928 120.0
1324.617554 112.0
1324.762451 120.0
1325.124634 136.0
1325.175293 200.0
1325.385498 128.0
1325.609253 164.0
1325.634399 144.0
1325.648682 216.0
1325.776733 116.0
1325.834717 92.0
1326.055664 164.0
1326.115112 52.0
1326.175415 140.0
1326.291382 168.0
1326.479736 124.0
1326.718994 192.0
1326.813232 188.0
1327.043457 156.0
1327.121704 152.0
1327.231445 152.0
1327.367676 188.0
1327.487549 196.0
1327.741333 188.0
1327.864624 168.0
1328.067749 104.0
1328.394165 168.0
1328.517456 192.0
1328.611816 196.0
1328.708374 104.0
1328.810913 208.0
1328.880249 212.0
1328.938232 44.0
1329.134155 148.0
1329.290161 124.0
1329.395386 136.0
1329.656616 140.0
1329.780029 88.0
1329.937744 176.0
1330.073608 168.0
1330.310913 232.0
1330.375244 136.0
1330.543945 148.0
1330.694702 128.0
1330.919678 152.0
1330.985107 196.0
1331.043213 124.0
1331.199707 176.0
1331.260986 112.0
1331.360107 148.0
1331.379272 208.0
1331.522461 220.0
1331.653198 196.0
1331.764648 148.0
1331.987305 196.0
1332.112915 472.0
1332.335938 40.0
1332.447876 276.0
1332.710571 244.0
1332.917236 100.0
1333.135254 164.0
1333.186035 104.0
1333.295044 104.0
1333.345947 96.0
1333.498535 164.0
1333.593018 176.0
1333.651245 44.0
1333.776733 148.0
1334.119629 180.0
1334.196411 100.0
1334.276367 176.0
1334.334473 140.0
1334.501709 240.0
1334.668945 152.0
1334.76355 44.0
1334.887085 140.0
1335.054321 176.0
1335.141602 164.0
1335.371826 136.0
1335.733032 176.0
1335.832642 152.0
1336.082886 168.0
1336.15686 172.0
1336.312744 188.0
1336.421875 148.0
1336.596558 136.0
1336.661987 172.0
1336.734741 140.0
1336.792969 120.0
1336.996704 32.0
1337.069458 140.0
1337.185913 316.0
1337.287842 176.0
1337.401245 144.0
1337.506226 116.0
1337.739136 160.0
1337.797363 160.0
1337.884766 88.0
1338.117676 140.0
1338.300781 156.0
1338.605591 156.0
1338.853149 160.0
1339.035156 132.0
1339.159058 116.0
1339.268311 152.0
1339.501343 164.0
1339.575317 672.0
1339.915039 128.0
1339.92688 220.0
1340.098755 160.0
1340.278687 124.0
1340.339111 120.0
1340.390137 212.0
1340.514038 180.0
1340.572388 144.0
1340.623413 188.0
1340.681641 108.0
1340.795776 184.0
1340.900269 180.0
1341.279297 228.0
1341.573853 208.0
1341.617065 128.0
1341.838135 248.0
1341.935425 48.0
1342.095825 120.0
1342.190552 172.0
1342.26355 140.0
1342.42395 136.0
1342.496826 512.0
1342.639038 388.0
1342.693726 164.0
1342.810425 164.0
1342.883423 72.0
1342.983887 320.0
1343.042847 144.0
1343.138672 144.0
1343.218872 240.0
1343.357666 196.0
1343.463379 168.0
1343.612793 140.0
1343.661743 188.0
1343.729492 140.0
1343.829346 208.0
1343.933838 144.0
1344.146362 160.0
1344.313232 164.0
1344.422729 188.0
1344.473755 148.0
1344.521729 128.0
1344.732056 184.0
1344.846069 140.0
1344.940918 200.0
1345.022217 148.0
1345.145264 104.0
1345.641724 160.0
1345.729248 68.0
1346.006714 144.0
1346.138184 164.0
1346.604736 68.0
1346.751709 44.0
1346.919678 136.0
1347.072998 212.0
1347.20459 176.0
1347.255737 112.0
1347.351196 176.0
1347.781738 160.0
1347.993652 144.0
1348.337036 104.0
1348.408569 152.0
1348.702515 176.0
1348.762695 192.0
1348.819458 256.0
1348.870605 88.0
1348.965454 160.0
1349.075317 140.0
1349.19873 160.0
1349.487793 152.0
1349.623657 112.0
1349.793457 184.0
1349.879517 132.0
1350.116333 128.0
1350.406128 96.0
1350.529297 76.0
1350.904053 160.0
1351.013184 192.0
1351.130249 196.0
1351.204102 140.0
1351.408325 164.0
1351.503418 164.0
1351.620483 168.0
1351.709351 172.0
1351.839966 164.0
1352.18396 140.0
1352.25708 172.0
1352.447388 56.0
1352.696289 152.0
1352.806152 136.0
1352.981812 112.0
1353.26001 148.0
1353.413818 180.0
1353.676636 172.0
1353.882446 164.0
1353.958618 136.0
1353.999634 156.0
1354.226562 120.0
1354.541626 136.0
1354.66687 200.0
1354.819946 160.0
1354.924316 176.0
1354.988403 128.0
1355.076294 132.0
1355.252197 68.0
1355.316284 184.0
1355.457397 108.0
1355.611206 264.0
1355.779053 204.0
1356.109619 96.0
1356.168213 136.0
1356.292847 224.0
1356.512695 156.0
1356.596191 216.0
1356.775757 144.0
1356.872192 136.0
1356.989258 136.0
1357.165161 144.0
1357.355835 148.0
1357.429199 208.0
1357.766479 168.0
1358.05249 168.0
1358.17749 128.0
1358.223511 188.0
1358.404663 208.0
1358.646729 172.0
1358.830078 132.0
1358.94751 96.0
1359.01355 168.0
1359.064941 68.0
1359.160278 136.0
1359.356323 296.0
1359.512451 144.0
1359.967529 108.0
1360.261108 108.0
1360.376099 128.0
1360.569458 144.0
1360.677734 212.0
1360.817017 128.0
1360.941284 172.0
1361.053955 168.0
1361.258911 156.0
1361.325684 304.0
1361.39917 168.0
1361.575317 192.0
1361.817749 136.0
1361.942627 176.0
1362.082153 156.0
1362.314941 180.0
1362.434814 144.0
1362.486206 132.0
1362.567017 116.0
1362.618408 128.0
1362.73877 192.0
1362.906494 204.0
1363.026245 132.0
1363.132812 160.0
1363.220947 188.0
1363.463501 184.0
1363.610718 168.0
1363.698608 136.0
1363.766846 156.0
1363.867676 172.0
1364.0 152.0
1364.213135 252.0
1364.463135 148.0
1364.573364 148.0
1364.646851 204.0
1364.771851 68.0
1364.830688 104.0
1364.911621 92.0
1364.977783 156.0
1365.043945 116.0
1365.198364 160.0
1365.345459 192.0
1365.470459 136.0
1365.646973 60.0
1365.772095 64.0
1365.970581 200.0
1366.232056 168.0
1366.389893 156.0
1366.50769 132.0
1366.69165 196.0
1366.802002 112.0
1367.081543 48.0
1367.368652 180.0
1367.420166 108.0
1367.47168 108.0
1367.648315 228.0
1367.71167 196.0
1368.008911 60.0
1368.244507 160.0
1368.296021 156.0
1368.377075 144.0
1368.520996 96.0
1368.64209 152.0
1368.804077 172.0
1368.885132 388.0
1368.95874 156.0
1369.0177 136.0
1369.150269 128.0
1369.238647 144.0
1369.349121 132.0
1369.407959 76.0
1369.474243 120.0
1369.581055 132.0
1369.783569 128.0
1369.835205 160.0
1369.894165 172.0
1369.967773 156.0
1370.236206 192.0
1370.380371 240.0
1370.682495 48.0
1370.805542 108.0
1370.824097 140.0
1370.998535 160.0
1371.109863 152.0
1371.183594 168.0
1371.391846 140.0
1371.612061 208.0
1371.699463 100.0
1371.783203 148.0
1372.134399 164.0
1372.458862 136.0
1372.517822 112.0
1372.672607 164.0
1372.739014 200.0
1372.930786 132.0
1373.041626 168.0
1373.120361 228.0
1373.255249 108.0
1373.339844 164.0
1373.756836 96.0
1373.909058 184.0
1374.000244 216.0
1374.125732 56.0
1374.199463 72.0
1374.317505 184.0
1374.470581 192.0
1374.531494 96.0
1374.605347 120.0
1374.664795 116.0
1374.738159 64.0
1374.789795 132.0
1374.915283 108.0
1375.07019 152.0
1375.136597 152.0
1375.417114 124.0
1375.490967 144.0
1375.821289 148.0
1375.848022 188.0
1375.990845 228.0
1376.067017 136.0
1376.133179 196.0
1376.184937 52.0
1376.428589 128.0
1376.509766 180.0
1376.612549 92.0
1376.709106 140.0
1377.030396 160.0
1377.059937 80.0
1377.088257 120.0
1377.189209 76.0
1377.292603 48.0
1377.506836 176.0
1377.588013 136.0
1377.683228 168.0
1377.705078 148.0
1378.105225 156.0
1378.201294 160.0
1378.266479 144.0
1378.364624 156.0
1378.474609 92.0
1378.573242 144.0
1378.629883 156.0
1378.755493 244.0
1378.88855 96.0
1379.05896 176.0
1379.132446 176.0
1379.605469 64.0
1379.834595 40.0
1379.927612 148.0
1380.034302 148.0
1380.241333 128.0
1380.312622 236.0
1380.396606 144.0
1380.627563 104.0
1380.773682 100.0
1380.884644 120.0
1381.040039 68.0
1381.106567 152.0
1381.210083 128.0
1381.372803 208.0
1381.482056 120.0
1381.494141 200.0
1381.608276 48.0
1381.668701 140.0
1381.777954 104.0
1381.879761 200.0
1381.935059 220.0
1382.016479 140.0
1382.068237 164.0
1382.578857 116.0
1382.749023 156.0
1382.845337 116.0
1382.966064 224.0
1383.067383 80.0
1383.141357 164.0
1383.244995 144.0
1383.38562 120.0
1383.511475 168.0
1383.622559 96.0
1383.723145 148.0
1383.970459 196.0
1384.037109 232.0
1384.278687 172.0
1384.333252 108.0
1384.437012 124.0
1384.570068 164.0
1384.72583 148.0
1384.814697 180.0
1384.933228 76.0
1385.140625 96.0
1385.377686 180.0
1385.448853 116.0
1385.519775 164.0
1385.589478 148.0
1385.671021 132.0
1385.876709 196.0
1386.162964 232.0
1386.259277 216.0
1386.355591 48.0
1386.480591 108.0
1386.540039 104.0
1386.644653 124.0
1386.711426 116.0
1386.795898 168.0
1386.970825 336.0
1387.062744 360.0
1387.136597 104.0
1387.205566 180.0
1387.26123 176.0
1387.416504 168.0
1387.528442 164.0
1387.729614 168.0
1387.901733 168.0
1387.979004 116.0
1388.082886 160.0
1388.247314 152.0
1388.394287 100.0
1388.468506 200.0
1388.683594 76.0
1388.74292 152.0
1388.798828 168.0
1388.874878 192.0
1389.291748 140.0
1389.403076 188.0
1389.514038 196.0
1389.684937 48.0
1389.759155 184.0
1389.907837 92.0
1390.085693 316.0
1390.362671 236.0
1390.516113 72.0
1390.612549 140.0
1390.720825 192.0
1390.775879 120.0
1390.849365 236.0
1390.976318 116.0
1391.072754 208.0
1391.146973 220.0
1391.228638 148.0
1391.362305 44.0
1391.525635 48.0
1391.670166 168.0
1391.778076 184.0
1391.846558 172.0
1391.963623 160.0
1392.068359 120.0
1392.327515 212.0
1392.461182 164.0
1392.691528 116.0
1392.862305 272.0
1392.94397 60.0
1393.120728 152.0
1393.498169 264.0
1393.567993 144.0
1393.776123 188.0
1393.843384 164.0
1394.051025 76.0
1394.108887 168.0
1394.318604 144.0
1394.483765 140.0
1394.630737 176.0
1395.054443 64.0
1395.165894 36.0
1395.296631 168.0
1395.457031 180.0
1395.604614 140.0
1395.705566 188.0
1395.864746 104.0
1395.931763 164.0
1396.006104 144.0
1396.065552 116.0
1396.15564 140.0
1396.626221 148.0
1396.750122 208.0
1397.017578 188.0
1397.106934 208.0
1397.330566 132.0
1397.553101 160.0
1397.577393 212.0
1397.638916 172.0
1397.764526 104.0
1397.895508 84.0
1398.096436 144.0
1398.319702 156.0
1398.394165 184.0
1398.453735 184.0
1398.647217 120.0
1398.699341 176.0
1398.811035 176.0
1398.990845 124.0
1399.071533 128.0
1399.175781 180.0
1399.23999 140.0
1399.361816 68.0
1399.443726 188.0
1399.599243 144.0
1399.801147 68.0
1399.920288 132.0
1399.99707 160.0
1400.129883 88.0
1400.203247 152.0
1400.292725 140.0
1400.367188 188.0
1400.501221 188.0
1400.580811 212.0
1400.672485 88.0
1400.828247 128.0
1401.149292 212.0
1401.320679 172.0
1401.550659 180.0
1401.682617 300.0
1401.782593 128.0
1401.87207 136.0
1401.961426 172.0
1402.244629 132.0
1402.348999 140.0
1402.438477 100.0
1402.840942 176.0
1402.936401 128.0
1403.027344 132.0
1403.086914 148.0
1403.310669 108.0
1403.377686 104.0
1403.550293 132.0
1403.63501 136.0
1403.720703 132.0
1403.780396 184.0
1403.840088 172.0
1403.920654 148.0
1403.951172 120.0
1403.979736 136.0
1403.999512 220.0
1404.160645 216.0
1404.235229 164.0
1404.365601 120.0
1404.481445 76.0
1404.567749 224.0
1404.63623 200.0
1404.779785 128.0
1404.846924 164.0
1404.89917 180.0
1405.018555 128.0
1405.070679 172.0
1405.188599 140.0
1405.361694 140.0
1405.421387 128.0
1405.525879 152.0
1405.667603 164.0
1405.814209 100.0
1406.061157 236.0
1406.164673 152.0
1406.333862 156.0
1406.645264 232.0
1406.884155 160.0
1407.093262 152.0
1407.369507 136.0
1407.429199 104.0
1407.556152 132.0
1407.832397 156.0
1407.986694 200.0
1408.146118 136.0
1408.429932 188.0
1408.518921 424.0
1408.571777 156.0
1409.085938 196.0
1409.303955 172.0
1409.386108 120.0
1409.543091 116.0
1409.662598 96.0
1409.979614 124.0
1410.123779 160.0
1410.253052 120.0
1410.522095 164.0
1410.574463 128.0
1410.653931 256.0
1411.072754 144.0
1411.247192 116.0
1411.329468 208.0
1411.430786 176.0
1411.523926 64.0
1411.658447 172.0
1411.890259 200.0
1412.107178 164.0
1412.216675 108.0
1412.36145 32.0
1412.413818 224.0
1412.518555 136.0
1412.618896 204.0
1412.690674 144.0
1412.910889 100.0
1412.967407 100.0
1413.087158 152.0
1413.281616 120.0
1413.37146 124.0
1413.453735 124.0
1413.543579 316.0
1413.725342 160.0
1413.842896 48.0
1413.912109 128.0
1413.992554 96.0
1414.199707 304.0
1414.32312 188.0
1414.449097 116.0
1414.65564 236.0
1414.67749 140.0
1414.697388 168.0
1414.883301 172.0
1415.010742 164.0
1415.137695 192.0
1415.33252 156.0
1415.483765 124.0
1415.596313 84.0
1416.289673 168.0
1416.524292 252.0
1416.63562 152.0
1416.703125 44.0
1416.905396 156.0
1416.96814 344.0
1417.077637 88.0
1417.24585 116.0
1417.361084 144.0
1417.485229 108.0
1417.616455 132.0
1417.700439 212.0
1417.804443 128.0
1417.885498 216.0
1417.932983 192.0
1418.209229 148.0
1418.347534 216.0
1418.506836 244.0
1418.559937 56.0
1418.706909 192.0
1419.136719 200.0
1419.503296 156.0
1419.822144 184.0
1420.104492 208.0
1420.346191 112.0
1420.531616 116.0
1420.721191 44.0
1420.88623 84.0
1421.103882 120.0
1421.268188 140.0
1421.315308 156.0
1421.442871 128.0
1421.501953 180.0
1421.584106 72.0
1421.685425 128.0
1421.771606 64.0
1422.019287 164.0
1422.140747 112.0
1422.37207 164.0
1422.480225 184.0
1422.619751 196.0
1422.694824 188.0
1422.838379 136.0
1423.032471 208.0
1423.092773 176.0
1423.235474 140.0
1423.412354 128.0
1423.548584 164.0
1423.572266 116.0
1423.589966 148.0
1423.746094 188.0
1424.046509 160.0
1424.144043 140.0
1424.208374 196.0
1424.338623 152.0
1424.366943 136.0
1424.384155 112.0
1424.542236 256.0
1424.766113 212.0
1424.85376 132.0
1424.932861 112.0
1424.985474 104.0
1425.217285 160.0
1425.291748 184.0
1425.451294 164.0
1425.503906 204.0
1425.586548 96.0
1425.714722 216.0
1425.933472 164.0
1426.1427 192.0
1426.285522 160.0
1426.360718 144.0
1426.458374 152.0
1426.607666 144.0
1426.819214 112.0
1426.883057 152.0
1427.330444 404.0
1427.443481 176.0
1427.571167 156.0
1427.638794 172.0
1427.871948 124.0
1427.984741 136.0
1428.037354 168.0
1428.127686 56.0
1428.308105 164.0
1428.375854 132.0
1428.533813 220.0
1428.721924 132.0
1428.909912 140.0
1429.000244 132.0
1429.286133 140.0
1429.448853 168.0
1429.662354 176.0
1429.772217 188.0
1429.832153 176.0
1429.900635 200.0
1429.99353 76.0
1430.144043 160.0
1430.255615 156.0
1430.318848 192.0
1430.384888 124.0
1430.536255 156.0
1430.640869 164.0
1430.731201 220.0
1430.841064 364.0
1430.942017 172.0
1431.032349 152.0
1431.235596 76.0
1431.303467 172.0
1431.494873 188.0
1431.638428 224.0
1431.747681 188.0
1431.811768 172.0
1432.063965 148.0
1432.192017 124.0
1432.289917 156.0
1432.425537 148.0
1432.568726 100.0
1432.952881 104.0
1433.013184 364.0
1433.18689 208.0
1433.520874 196.0
1433.672485 168.0
1433.759155 140.0
1433.909912 176.0
1433.996338 152.0
1434.075684 172.0
1434.338135 172.0
1434.359253 140.0
1434.471069 168.0
1434.565674 100.0
1434.633057 152.0
1434.681885 164.0
1434.814453 144.0
1434.952148 188.0
1435.074341 100.0
1435.154663 192.0
1435.337524 144.0
1435.456299 144.0
1435.575439 160.0
1435.601074 148.0
1435.734253 224.0
1435.870117 168.0
1435.975586 132.0
1436.103882 60.0
1436.179321 180.0
1436.277344 160.0
1436.371216 124.0
1436.541382 132.0
1436.661987 100.0
1436.722412 160.0
1436.84314 132.0
1436.942383 156.0
1437.050049 340.0
1437.170288 252.0
1437.235474 104.0
1437.353516 180.0
1437.404297 180.0
1437.611328 200.0
1437.763672 128.0
1437.944824 88.0
1438.027832 188.0
1438.156128 136.0
1438.510864 156.0
1438.653931 144.0
1438.850586 232.0
1439.197876 152.0
1439.258301 180.0
1439.462158 168.0
1439.628296 200.0
1439.76416 152.0
1439.915283 100.0
1440.020996 112.0
1440.081421 140.0
1440.168213 156.0
1440.353271 76.0
1440.44397 164.0
1440.617676 208.0
1440.768799 96.0
1440.942505 124.0
1441.191895 132.0
1441.244751 244.0
1441.320312 168.0
1441.463623 208.0
1441.720825 120.0
1441.917358 212.0
1441.985352 156.0
1442.172485 100.0
1442.348145 156.0
1442.491699 72.0
1442.752319 188.0
1442.831909 144.0
1442.892456 144.0
1442.952881 92.0
1443.036011 184.0
1443.092407 124.0
1443.141968 204.0
1443.324829 144.0
1443.406494 108.0
1443.570679 148.0
1443.716553 152.0
1443.839355 172.0
1443.899902 236.0
1444.07959 288.0
1444.132568 116.0
1444.35022 148.0
1444.365967 116.0
1444.401367 132.0
1444.423096 136.0
1444.541016 184.0
1444.631714 148.0
1444.684692 56.0
1444.798218 144.0
1445.093262 236.0
1445.175049 176.0
1445.373169 176.0
1445.558594 224.0
1445.706177 172.0
1445.849976 140.0
1445.933838 148.0
1446.078247 148.0
1446.194458 148.0
1446.261841 96.0
1446.364624 272.0
1446.449585 88.0
1446.553833 96.0
1446.644043 180.0
1446.719727 220.0
1446.884033 228.0
1446.99292 168.0
1447.078491 120.0
1447.333618 240.0
1447.409302 132.0
1447.539185 308.0
1447.636475 180.0
1447.848511 140.0
1448.04541 112.0
1448.233887 204.0
1448.378784 144.0
1448.515015 172.0
1448.634277 212.0
1448.911743 160.0
1449.003296 132.0
1449.155151 188.0
1449.229248 60.0
1449.355957 156.0
1449.530273 248.0
1449.583374 108.0
1449.684448 188.0
1449.869385 176.0
1450.053223 144.0
1450.106201 132.0
1450.182007 172.0
1450.303955 140.0
1450.360229 252.0
1450.424561 208.0
1450.497437 148.0
1450.635376 144.0
1450.864258 176.0
1451.061279 112.0
1451.190186 224.0
1451.392578 184.0
1451.505859 160.0
1451.575684 152.0
1451.81958 168.0
1451.925781 140.0
1451.994019 164.0
1452.053589 312.0
1452.365601 160.0
1452.502319 160.0
1452.562866 44.0
1452.737305 196.0
1452.812012 172.0
1452.94751 204.0
1453.055908 88.0
1453.123779 60.0
1453.248291 92.0
1453.321533 148.0
1453.389771 100.0
1453.483398 132.0
1453.640137 156.0
1453.750122 172.0
1453.845093 56.0
1453.905762 132.0
1454.115234 188.0
1454.213745 136.0
1454.27771 36.0
1454.349121 312.0
1454.433838 204.0
1454.486938 224.0
1454.560791 196.0
1454.852417 200.0
1454.945679 44.0
1455.135498 100.0
1455.241699 140.0
1455.363281 100.0
1455.62146 108.0
1455.693726 128.0
1455.796021 148.0
1456.004517 324.0
1456.187866 140.0
1456.238281 240.0
1456.297241 152.0
1456.365479 228.0
1456.472046 144.0
1456.585938 256.0
1456.669434 148.0
1456.758057 240.0
1456.912598 36.0
1456.996094 144.0
1457.315186 152.0
1457.406372 64.0
1457.604004 172.0
1457.809082 124.0
1457.953491 116.0
1458.052246 208.0
1458.189087 128.0
1458.280273 200.0
1458.37915 176.0
1458.485474 76.0
1458.664185 216.0
1458.766724 188.0
1458.87854 360.0
1459.055664 124.0
1459.266235 164.0
1459.449463 200.0
1459.549805 124.0
1459.686157 128.0
1459.762695 156.0
1459.880615 80.0
1459.952881 116.0
1460.066895 172.0
1460.195435 336.0
1460.42395 224.0
1460.553711 132.0
1460.637329 152.0
1460.696533 180.0
1460.79834 188.0
1460.873169 136.0
1461.139404 136.0
1461.268799 260.0
1461.451416 228.0
1461.504639 132.0
1461.634033 132.0
1461.93335 228.0
1462.049316 208.0
1462.138306 160.0
1462.227539 148.0
1462.356934 52.0
1462.486328 204.0
1462.584961 164.0
1462.699463 144.0
1462.783203 120.0
1462.88208 84.0
1463.087646 252.0
1463.293213 116.0
1463.751831 168.0
1463.870239 128.0
1464.168213 124.0
1464.373901 132.0
1464.438354 192.0
1464.542603 124.0
1464.694458 128.0
1464.785889 128.0
1464.839111 188.0
1464.949097 204.0
1465.11731 220.0
1465.204834 124.0
1465.273438 204.0
1465.372437 132.0
1465.425781 176.0
1465.753418 124.0
1465.822021 148.0
1465.90979 272.0
1466.099121 232.0
1466.157227 124.0
1466.297974 172.0
1466.477417 112.0
1466.629761 164.0
1466.896606 124.0
1467.328857 224.0
1467.430786 152.0
1467.682495 200.0
1467.784668 168.0
1467.946777 156.0
1468.017334 204.0
1468.246094 96.0
1468.421509 144.0
1468.474976 188.0
1468.689209 176.0
1468.764771 316.0
1468.841064 124.0
1468.924927 204.0
1469.018921 156.0
1469.13855 136.0
1469.195679 148.0
1469.344482 144.0
1469.414185 188.0
1469.489502 200.0
1469.57312 200.0
1469.725952 184.0
1469.884644 156.0
1469.916016 124.0
1470.061768 148.0
1470.242676 196.0
1470.534912 204.0
1470.710938 132.0
1470.855469 76.0
1471.047241 172.0
1471.145508 168.0
1471.206665 224.0
1471.417725 184.0
1471.863159 120.0
1471.992798 152.0
1472.092285 104.0
1472.17627 156.0
1472.237427 116.0
1472.313721 136.0
1472.468872 156.0
1472.56665 164.0
1472.710938 220.0
1472.947632 160.0
1473.024048 160.0
1473.184448 244.0
1473.436523 436.0
1473.52063 132.0
1473.590088 168.0
1473.650513 152.0
1473.824707 156.0
1473.917969 92.0
1473.986694 120.0
1474.139526 124.0
1474.223511 180.0
1474.302734 216.0
1474.361084 172.0
1474.498413 132.0
1474.712646 124.0
1474.781494 176.0
1475.102539 128.0
1475.156006 284.0
1475.30127 260.0
1475.420898 168.0
1475.492432 124.0
1475.623779 132.0
1475.72168 156.0
1475.920532 144.0
1476.073486 164.0
1476.310547 156.0
1476.394653 116.0
1476.482422 128.0
1476.538208 164.0
1476.593018 148.0
1476.617676 120.0
1476.963623 128.0
1477.190796 164.0
1477.27417 160.0
1477.671997 184.0
1477.855591 56.0
1478.128174 224.0
1478.276489 152.0
1478.404785 136.0
1478.622803 172.0
1479.03418 176.0
1479.222778 176.0
1479.266602 176.0
1479.370972 184.0
1479.566772 256.0
1479.654175 148.0
1479.715454 132.0
1479.791992 88.0
1480.036987 212.0
1480.098267 148.0
1480.208984 144.0
1480.389282 104.0
1480.450562 144.0
1480.522583 136.0
1480.603638 212.0
1480.741577 140.0
1480.864136 152.0
1480.940674 124.0
1481.040283 108.0
1481.119751 252.0
1481.30835 140.0
1481.481445 260.0
1481.561157 160.0
1481.614746 172.0
1481.767944 116.0
1481.836914 208.0
1481.905884 200.0
1482.097412 104.0
1482.281372 168.0
1482.480591 128.0
1482.941284 144.0
1483.024658 164.0
1483.27002 160.0
1483.354248 160.0
1483.439453 244.0
1483.584229 204.0
1483.730835 132.0
1483.87561 136.0
1483.952271 124.0
1484.074951 96.0
1484.151611 100.0
1484.312622 180.0
1484.450684 180.0
1484.571899 176.0
1484.772583 164.0
1484.793823 160.0
1484.869873 196.0
1485.209961 192.0
1485.394043 176.0
1485.447754 52.0
1485.524414 120.0
1485.846558 144.0
1486.036255 188.0
1486.276245 112.0
1486.46814 120.0
1486.546509 188.0
1486.632935 252.0
1486.756104 172.0
1486.920898 128.0
1487.012939 168.0
1487.089722 128.0
1487.588623 192.0
1487.812256 128.0
1487.907471 136.0
1488.049194 348.0
1488.133667 280.0
1488.302612 164.0
1488.387085 164.0
1488.456177 212.0
1488.571411 68.0
1488.663452 180.0
1488.755615 100.0
1488.893921 156.0
1488.951538 156.0
1489.297119 132.0
1489.368896 156.0
1489.42981 148.0
1489.515991 168.0
1489.857788 188.0
1490.0 164.0
1490.171631 76.0
1490.255005 180.0
1490.338013 132.0
1490.40918 164.0
1490.466309 156.0
1490.532471 156.0
1490.660767 144.0
1490.737549 148.0
1490.799072 136.0
1490.911621 196.0
1490.998901 124.0
1491.060303 176.0
1491.285522 176.0
1491.337646 200.0
1491.421631 92.0
1491.485718 148.0
1491.575317 148.0
1491.675293 136.0
1491.752075 184.0
1491.913574 192.0
1491.994507 164.0
1492.113403 172.0
1492.182617 68.0
1492.41333 164.0
1492.504883 192.0
1492.601929 148.0
1492.920776 140.0
1493.020752 168.0
1493.101074 252.0
1493.283325 144.0
1493.406616 156.0
1493.497559 112.0
1493.582764 148.0
1493.645874 192.0
1493.874512 152.0
1494.119141 148.0
1494.220215 192.0
1494.305298 104.0
1494.49939 180.0
1494.613037 168.0
1494.849854 216.0
1495.028564 180.0
1495.09021 148.0
1495.160034 264.0
1495.328735 220.0
1495.402832 292.0
1495.491333 168.0
1495.552002 148.0
1495.605835 76.0
1495.729004 84.0
1495.789307 144.0
1495.820312 120.0
1495.913696 216.0
1496.106201 136.0
1496.173706 216.0
1496.196289 168.0
1496.298584 148.0
1496.390991 92.0
1496.490234 216.0
1496.629639 208.0
1496.919556 148.0
1496.999268 136.0
1497.401611 164.0
1497.571411 380.0
1497.653931 164.0
1497.731567 348.0
1497.823364 192.0
1497.8927 308.0
1498.370361 196.0
1498.452271 224.0
1498.640015 188.0
1498.786377 140.0
1498.901978 220.0
1499.117676 216.0
1499.467773 232.0
1499.50061 76.0
1499.519409 152.0
1499.608643 108.0
1499.703369 192.0
1499.780518 56.0
1500.042603 108.0
1500.135132 176.0
1500.227539 28.0
1500.373901 144.0
1500.398071 140.0
1500.421875 160.0
1500.456909 172.0
1500.543701 168.0
1500.84436 128.0
1500.906006 128.0
1501.037109 188.0
1501.129639 356.0
1501.522949 92.0
1501.763672 168.0
1501.908569 156.0
1502.008911 188.0
1502.124512 244.0
1502.403198 132.0
1502.818848 88.0
1502.984131 304.0
1503.10437 212.0
1503.289551 172.0
1503.389893 140.0
1503.482544 164.0
1503.580933 208.0
1503.62915 240.0
1503.690918 156.0
1503.744873 112.0
1503.806641 168.0
1503.899292 164.0
1504.177368 136.0
1504.250244 92.0
1504.33728 112.0
1504.539917 64.0
1504.593994 148.0
1504.667725 248.0
1504.794678 172.0
1504.949097 148.0
1505.041748 172.0
1505.173096 108.0
1505.242554 140.0
