>compound MLS001142750-01!7-[1-[(4aS,8aS)-4a-hydroxy-1,3,4,5,6,7,8,8a-octahydroisoquinolin-2-yl]-1-oxopropan-2-yl]oxy-4,8-dimethylchromen-2-one
>formula C23H29NO5
>ionization [M+H]+
>parentmass 400.212
#inchi InChI=1S/C23H29NO5/c1-14-12-20(25)29-21-15(2)19(8-7-18(14)21)28-16(3)22(26)24-11-10-23(27)9-5-4-6-17(23)13-24/h7-8,12,16-17,27H,4-6,9-11,13H2,1-3H3/t16?,17-,23-/m0/s1
#inchikey QLSQIRLUTZBLDK
#Ion_Source LC-ESI
#Instrument qTof
#Compound_Source NIH Natural Product Library
#PI Dorrestein
#Data_Collector VVP/LMS
#Scan -1
#Precursor_MZ 400.212
#ExactMass 399.205
#Charge 1
#CAS_Number N/A
#Pubmed_ID N/A
#Smiles CC(Oc1ccc2c(C)cc(=O)oc2c1C)C(=O)N3CC[C@@]4(O)CCCC[C@H]4C3
#INCHI_AUX N/A
#Library_Class 1
#SpectrumID CCMSLIB00000079598
#IonMode Positive
#UpdateWorkflowName UPDATE-SINGLE-ANNOTATED-GOLD
#LibraryQualityString Gold
#TaskID b1d8e8f6646f4e71acdff9ca3d919d08
##Scan# 1949
#SpectrumFile p1-F08_GF8_01_17940.mzXML
#LibraryName NIH_Natural_Products_Library.mgf
#MQScore -1
#Organism NIH_Natural_Products_Library
#TIC_Query 0
#RT_Query -1
#MZErrorPPM -1
#SharedPeaks 0
#MassDiff 0
#LibMZ -1
#SpecMZ 400.212
#SpecCharge 0
#internalFilename spec-00000.mgf

>collision 10
95.073097 676.0
95.122025 204.0
95.281265 100.0
95.425079 100.0
95.574844 188.0
95.822121 128.0
95.85524 164.0
95.927353 192.0
96.04435 180.0
96.08503 196.0
96.169228 108.0
96.18679 136.0
96.319572 180.0
96.413353 140.0
96.565849 80.0
96.78894 128.0
96.8144 120.0
96.920181 188.0
96.935852 140.0
97.177032 148.0
97.230011 188.0
97.365471 68.0
97.379219 40.0
97.426369 208.0
97.495132 100.0
97.762589 160.0
97.947655 160.0
98.059624 528.0
98.21376 176.0
98.328194 136.0
98.464417 148.0
98.561211 176.0
98.582947 224.0
98.74308 160.0
99.063736 216.0
99.079582 176.0
99.095436 260.0
99.291679 152.0
99.325394 168.0
99.517899 152.0
99.65097 196.0
99.827873 136.0
100.070625 164.0
100.239937 212.0
100.650848 168.0
101.08474 192.0
101.110626 172.0
101.262787 92.0
101.326881 176.0
101.394714 160.0
101.477203 188.0
101.828369 104.0
101.868538 112.0
101.956947 180.0
102.091637 156.0
102.147957 96.0
102.224411 68.0
102.264656 84.0
102.302902 124.0
102.659531 104.0
102.703903 236.0
102.822937 116.0
102.962242 176.0
103.054268 156.0
103.075371 200.0
103.384758 176.0
103.520393 244.0
103.552795 164.0
103.664223 48.0
103.982613 164.0
104.114578 164.0
104.462135 172.0
104.622902 164.0
105.016174 256.0
105.036949 152.0
105.07032 1208.0
105.187576 204.0
105.322342 192.0
105.389755 136.0
105.428581 64.0
105.712837 208.0
105.74353 152.0
105.761955 132.0
105.917572 192.0
106.005669 164.0
106.06971 48.0
106.276329 192.0
106.300957 156.0
106.428223 204.0
106.611038 216.0
106.769333 208.0
106.851616 172.0
106.919518 156.0
107.015015 132.0
107.046989 176.0
107.082588 192.0
107.370697 160.0
107.432571 188.0
107.659615 232.0
108.08152 4176.0
108.176514 80.0
108.332275 92.0
108.452011 148.0
108.505905 228.0
108.633972 244.0
109.026909 128.0
109.099014 2572.0
109.124603 212.0
109.13916 100.0
109.15995 108.0
109.198105 220.0
109.218185 164.0
109.276428 172.0
109.299316 48.0
109.370079 96.0
109.445023 268.0
109.532494 56.0
109.601242 240.0
109.815964 40.0
109.849335 156.0
109.95575 132.0
110.024628 52.0
110.048859 80.0
110.095055 148.0
110.098473 132.0
110.156197 104.0
110.187531 52.0
110.260666 136.0
110.325462 72.0
110.448837 104.0
110.534615 200.0
111.07933 168.0
111.095688 156.0
111.117096 200.0
111.222023 104.0
111.537094 160.0
111.560219 116.0
111.625748 120.0
111.692696 168.0
111.770531 160.0
111.812622 168.0
111.846298 96.0
111.875771 180.0
111.903137 156.0
111.989723 136.0
112.075005 160.0
112.115883 76.0
112.187546 144.0
112.242363 160.0
112.311958 136.0
112.615898 184.0
112.753227 40.0
112.795502 148.0
112.926598 200.0
113.059418 72.0
113.08239 180.0
113.289917 124.0
113.610779 184.0
113.680801 112.0
113.721123 124.0
113.837891 180.0
113.876114 84.0
114.003586 128.0
114.03334 160.0
114.092857 152.0
114.150261 172.0
114.190666 124.0
114.228958 168.0
114.420479 88.0
114.558907 156.0
114.688889 184.0
114.763504 160.0
114.823212 176.0
114.863876 120.0
114.929871 200.0
115.053154 1656.0
115.102768 164.0
115.145477 196.0
115.38694 184.0
115.525948 148.0
115.602974 192.0
115.628654 136.0
115.684303 180.0
115.701431 160.0
115.872765 64.0
115.949905 176.0
116.060524 504.0
116.082817 168.0
116.106407 196.0
116.187912 64.0
116.230827 120.0
116.314522 132.0
116.561501 192.0
116.658218 84.0
116.772179 68.0
117.070511 1744.0
117.401039 188.0
117.418297 128.0
117.480843 224.0
117.54126 140.0
117.64917 40.0
117.748497 64.0
117.875954 100.0
117.937775 212.0
118.071877 360.0
118.299866 64.0
118.481781 116.0
118.661659 136.0
118.720207 104.0
118.752739 156.0
118.832848 172.0
118.90461 136.0
119.013145 184.0
119.084541 708.0
119.104355 128.0
119.14563 200.0
119.217331 180.0
119.328186 92.0
120.090347 1076.0
120.2911 128.0
120.334763 144.0
120.350044 180.0
120.419922 200.0
120.531334 64.0
120.658104 164.0
120.944672 152.0
120.98114 272.0
121.06572 444.0
121.101135 1192.0
121.170227 188.0
121.257874 144.0
121.312675 244.0
121.782249 44.0
121.852539 128.0
121.894287 44.0
121.925644 132.0
121.96022 48.0
122.023972 104.0
122.061348 156.0
122.096581 4424.0
122.164116 116.0
122.177917 192.0
122.395813 104.0
122.472893 64.0
122.530167 140.0
122.580841 164.0
122.719711 48.0
122.786324 192.0
122.993256 80.0
123.055069 48.0
123.074944 120.0
123.100006 520.0
123.214088 176.0
123.428474 164.0
123.758163 60.0
123.893265 156.0
123.930931 132.0
123.952621 172.0
124.114899 172.0
124.252411 124.0
124.769875 96.0
124.907745 160.0
125.04792 116.0
125.09288 160.0
125.116928 140.0
125.132507 172.0
125.163681 148.0
125.349098 268.0
125.533585 200.0
125.591568 196.0
125.962105 176.0
126.088799 136.0
126.13195 184.0
126.196754 192.0
126.279495 200.0
126.373398 172.0
126.541313 200.0
126.657761 168.0
127.041077 56.0
127.092682 192.0
127.244431 72.0
127.330627 112.0
127.400261 112.0
127.43396 132.0
127.458679 168.0
127.861206 152.0
127.881462 124.0
127.903969 68.0
127.969254 148.0
128.064041 272.0
128.103348 160.0
128.343277 200.0
128.626389 176.0
129.061295 128.0
129.107574 188.0
129.249039 172.0
129.545624 128.0
129.620392 92.0
129.663437 96.0
129.813065 172.0
129.853882 156.0
130.012695 152.0
130.079437 168.0
130.121658 148.0
130.212479 164.0
130.29425 84.0
130.512451 36.0
130.573837 168.0
130.642075 232.0
130.940262 80.0
131.047318 340.0
131.084946 484.0
131.261581 80.0
131.471451 220.0
131.487427 72.0
131.812424 188.0
132.057571 176.0
132.075607 120.0
132.186722 144.0
132.933746 236.0
133.065796 724.0
133.101578 880.0
133.147247 192.0
133.420685 188.0
133.464859 188.0
133.945358 172.0
134.10347 116.0
134.302628 168.0
134.321091 188.0
134.365723 172.0
134.5103 140.0
134.662689 148.0
134.773575 84.0
134.829041 168.0
134.979294 156.0
135.046371 176.0
135.076431 292.0
135.09819 348.0
135.185181 188.0
135.428268 188.0
135.472275 148.0
135.548737 212.0
135.66925 184.0
135.752731 108.0
136.033463 164.0
136.056671 44.0
136.077606 336.0
136.111328 12524.0
136.165817 40.0
136.242462 36.0
136.265701 220.0
136.317566 136.0
136.393509 32.0
136.428375 76.0
136.480377 164.0
136.586014 208.0
136.649323 172.0
136.665604 148.0
136.728424 60.0
136.770248 128.0
136.775406 156.0
136.806519 168.0
136.842941 160.0
136.88208 176.0
136.930984 48.0
136.993866 112.0
137.024155 200.0
137.047455 76.0
137.082596 184.0
137.118958 21252.0
137.156418 224.0
137.189621 44.0
137.219498 44.0
137.227432 36.0
137.243393 60.0
137.313202 64.0
137.355179 92.0
137.37851 60.0
137.415833 68.0
137.464645 48.0
137.620544 108.0
137.65625 212.0
137.732712 180.0
137.761353 168.0
137.819763 124.0
137.836121 48.0
137.866501 152.0
137.934341 140.0
137.997391 80.0
138.066757 340.0
138.092758 216.0
138.127335 22824.0
138.219604 56.0
138.247116 160.0
138.28746 180.0
138.341309 100.0
138.40451 128.0
138.512253 28.0
138.530991 56.0
138.561447 48.0
138.775726 112.0
138.805206 44.0
138.826309 92.0
138.910736 44.0
138.952972 76.0
138.971741 84.0
138.988159 88.0
139.009277 32.0
139.04213 116.0
139.077347 168.0
139.100067 400.0
139.130127 2416.0
139.199417 124.0
139.2229 80.0
139.253281 120.0
139.46019 44.0
139.664749 56.0
139.718857 32.0
139.815338 96.0
139.864761 92.0
139.928314 72.0
139.968338 88.0
139.984833 192.0
140.062546 52.0
140.135422 188.0
140.265198 64.0
140.306168 84.0
140.366562 84.0
140.409012 160.0
140.807861 148.0
140.824402 48.0
140.852737 68.0
140.883453 80.0
141.065414 212.0
141.081955 188.0
141.119781 144.0
141.221481 36.0
141.330292 224.0
142.010178 240.0
142.332932 192.0
142.389923 184.0
142.610886 176.0
142.653671 80.0
142.972382 108.0
143.085037 440.0
143.146164 144.0
143.260483 196.0
143.875763 80.0
144.088318 212.0
144.105042 132.0
144.559341 176.0
144.753235 140.0
144.789169 72.0
144.822693 156.0
144.930496 140.0
145.064514 10172.0
145.099884 160.0
145.127045 172.0
145.280533 104.0
145.779938 132.0
145.842422 40.0
146.069183 1352.0
146.104996 136.0
146.564392 136.0
146.687302 76.0
146.921219 148.0
146.962234 68.0
146.981537 136.0
147.013519 128.0
147.078003 484.0
147.164978 124.0
147.27124 72.0
147.404114 44.0
147.452438 100.0
147.546707 192.0
147.749863 188.0
148.079056 160.0
148.352875 104.0
148.571121 156.0
148.714294 124.0
148.91095 48.0
149.057159 288.0
149.091461 268.0
149.448196 136.0
149.735443 56.0
149.759796 52.0
149.830429 40.0
150.092407 200.0
150.12706 1692.0
150.23024 184.0
150.403488 380.0
150.427902 184.0
150.652573 48.0
150.689209 176.0
150.7332 276.0
150.818726 220.0
151.098007 408.0
151.131821 172.0
151.317764 160.0
152.013885 92.0
152.104156 228.0
152.264282 36.0
152.549301 136.0
152.70668 168.0
152.918259 76.0
152.969955 68.0
153.107834 156.0
153.524323 52.0
153.709335 224.0
153.894455 224.0
154.091278 316.0
154.122116 2948.0
154.185944 32.0
154.220535 72.0
154.242783 52.0
154.346619 108.0
154.368881 60.0
154.57666 88.0
154.735077 104.0
154.814316 216.0
154.866318 108.0
154.883652 168.0
154.90033 104.0
154.933197 100.0
155.064529 88.0
155.125702 932.0
155.252945 168.0
155.33728 64.0
155.409225 32.0
155.754288 216.0
155.779129 176.0
156.082962 176.0
156.129593 44.0
156.281326 136.0
156.430649 48.0
156.550156 60.0
156.570084 108.0
156.834183 104.0
156.901489 172.0
157.061081 92.0
157.471466 220.0
157.790268 100.0
158.073898 404.0
158.586014 176.0
159.075256 216.0
159.394394 168.0
159.603012 140.0
159.844498 188.0
160.312866 56.0
160.519577 116.0
160.928345 176.0
161.060608 1604.0
161.095001 1620.0
161.471634 52.0
161.825912 60.0
161.843628 44.0
162.064148 512.0
162.100769 500.0
162.254074 216.0
162.717606 68.0
162.950851 88.0
163.081619 204.0
163.305359 52.0
163.344513 112.0
163.65654 124.0
163.870224 200.0
164.031036 176.0
164.107269 1772.0
164.142822 8920.0
164.232468 76.0
164.256561 72.0
164.403412 44.0
164.427521 160.0
164.482529 68.0
164.622955 192.0
164.906525 148.0
165.114639 508.0
165.148651 2848.0
165.195679 348.0
165.231277 84.0
165.275711 84.0
165.346436 212.0
165.461609 84.0
165.528183 88.0
165.547104 104.0
165.612701 136.0
165.651123 52.0
165.825363 28.0
165.991989 56.0
166.149353 248.0
166.222855 56.0
166.287018 132.0
166.351181 72.0
166.584869 180.0
166.625961 68.0
166.674789 32.0
166.731323 56.0
166.98584 100.0
167.153061 156.0
167.183945 128.0
167.518661 84.0
167.593369 92.0
167.809875 120.0
168.102707 200.0
168.491226 80.0
168.716064 184.0
168.819489 136.0
168.904831 220.0
169.066101 192.0
169.894379 172.0
170.016327 208.0
170.598145 232.0
171.07605 168.0
171.389328 72.0
171.788223 152.0
171.85083 96.0
171.989151 112.0
172.075287 164.0
173.05928 804.0
173.095016 120.0
173.865723 112.0
174.06633 432.0
174.10463 172.0
174.272751 76.0
174.359467 56.0
175.071274 392.0
175.104004 164.0
175.130341 112.0
175.183029 124.0
175.204102 172.0
175.646957 104.0
175.797348 160.0
175.902924 180.0
176.079819 136.0
176.135284 148.0
176.608429 76.0
176.642807 124.0
176.783035 148.0
177.05452 376.0
177.877655 156.0
178.031647 144.0
178.058197 96.0
178.121979 1660.0
178.172409 68.0
178.297302 76.0
178.467422 92.0
179.12352 220.0
179.56723 152.0
180.047623 128.0
180.108871 184.0
180.344177 108.0
180.427048 192.0
180.608887 52.0
180.927322 80.0
180.972839 60.0
181.01033 108.0
181.066559 136.0
181.254089 128.0
181.401489 132.0
182.066895 140.0
182.112778 276.0
182.154114 2252.0
182.183914 212.0
182.203888 60.0
182.239441 152.0
182.300613 40.0
182.851913 92.0
182.913834 240.0
183.086136 100.0
183.155899 200.0
183.673691 44.0
184.175751 96.0
184.489212 76.0
186.093063 64.0
186.840469 180.0
187.562103 140.0
187.810226 76.0
188.044983 188.0
188.080353 88.0
188.552856 108.0
188.591125 144.0
188.74968 192.0
188.768829 92.0
188.998596 52.0
189.053329 3268.0
189.089432 4280.0
189.199203 104.0
189.244934 32.0
189.321609 60.0
189.447601 64.0
189.492752 108.0
189.529785 68.0
189.792923 96.0
189.919067 56.0
189.977829 48.0
190.020569 52.0
190.059067 980.0
190.093597 1112.0
190.237381 76.0
190.264832 104.0
190.841797 48.0
191.068329 3504.0
191.103088 296.0
191.149857 80.0
191.21315 28.0
191.298477 68.0
191.359055 44.0
191.414108 252.0
191.755722 96.0
192.04245 196.0
192.072571 580.0
192.137177 1904.0
192.23558 64.0
192.315613 36.0
192.564102 192.0
192.630386 108.0
192.652496 32.0
192.718796 48.0
192.800781 220.0
192.870789 220.0
193.064331 244.0
193.103043 72.0
193.145264 12444.0
193.203705 56.0
193.238708 88.0
193.30011 132.0
193.334656 100.0
193.388016 96.0
193.432312 44.0
193.531967 44.0
193.567963 72.0
193.598434 48.0
193.645508 32.0
193.761292 60.0
193.856064 108.0
193.908707 140.0
193.930893 120.0
193.964142 100.0
193.983551 48.0
194.148544 1572.0
194.30246 60.0
194.374603 64.0
195.057816 36.0
195.150421 316.0
195.447174 60.0
195.594666 124.0
195.931625 88.0
196.130508 376.0
196.288376 52.0
196.335785 104.0
196.651047 108.0
196.77388 84.0
197.142578 116.0
198.13588 132.0
198.410538 156.0
199.069122 144.0
199.333954 128.0
200.011734 108.0
200.823227 104.0
201.36795 76.0
201.896439 184.0
202.058868 300.0
203.0746 196.0
203.540024 120.0
205.310028 128.0
206.312225 120.0
206.709793 72.0
208.726349 164.0
210.151108 592.0
211.153885 760.0
211.631973 156.0
212.156418 268.0
214.368225 80.0
216.260681 140.0
216.697006 120.0
216.823013 88.0
216.846466 144.0
216.940262 48.0
216.998886 220.0
217.084503 11236.0
217.130844 48.0
217.151382 56.0
217.210037 76.0
217.285797 92.0
217.371399 72.0
217.518143 112.0
217.565109 44.0
217.603271 116.0
217.725677 104.0
217.77359 136.0
217.876404 144.0
218.023331 112.0
218.087219 1740.0
218.125702 120.0
218.152649 64.0
218.305542 112.0
218.402588 96.0
218.6203 116.0
218.740982 52.0
219.087799 196.0
219.509933 100.0
219.627914 52.0
219.790161 104.0
219.869843 108.0
221.307388 64.0
222.88147 80.0
225.121521 32.0
225.722168 92.0
226.081131 200.0
227.14476 168.0
228.066574 76.0
229.089676 172.0
231.509003 76.0
237.068665 92.0
238.087158 44.0
239.555405 56.0
240.541061 44.0
243.147202 172.0
244.757477 44.0
245.083862 576.0
245.237228 136.0
246.067001 92.0
246.71994 104.0
248.084854 88.0
248.718506 108.0
251.267471 100.0
252.799942 64.0
253.797729 52.0
255.093048 152.0
258.110107 200.0
259.178162 44.0
261.69635 48.0
262.073181 184.0
262.105255 780.0
263.111694 180.0
264.294617 88.0
271.002075 136.0
274.107269 140.0
276.332611 56.0
284.15564 144.0
285.536224 164.0
286.148651 92.0
290.518433 112.0
292.697021 84.0
296.300385 144.0
297.60025 44.0
303.503937 56.0
307.179993 124.0
323.757965 140.0
323.915558 100.0
333.47757 240.0
339.90506 112.0
346.179077 160.0
346.768127 76.0
350.059662 128.0
354.206024 184.0
355.202393 144.0
359.668854 64.0
367.517059 68.0
382.201843 848.0
383.200775 368.0
385.723602 108.0
387.629578 44.0
414.373016 40.0
415.374329 112.0
451.655396 48.0
472.952454 92.0
497.795044 92.0
500.044525 52.0
541.962952 52.0
545.69458 108.0
571.042297 120.0
579.587463 84.0
589.901245 120.0
605.251099 32.0
605.540039 64.0
632.501465 44.0
749.403137 196.0
765.314514 112.0
777.348083 152.0
779.1026 180.0
785.063782 68.0
797.959229 136.0
810.608337 40.0
812.683655 220.0
831.50946 200.0
840.654053 144.0
842.403442 148.0
843.432007 252.0
843.536072 56.0
857.052673 120.0
860.739136 200.0
868.751526 240.0
889.191284 36.0
914.695862 180.0
916.309814 152.0
921.800537 132.0
935.988708 124.0
941.68457 120.0
946.325928 124.0
948.194275 188.0
956.732239 144.0
965.592957 88.0
965.97644 212.0
969.040894 176.0
970.664856 164.0
977.485352 108.0
978.431396 72.0
978.62439 176.0
983.586731 164.0
985.453979 152.0
986.385132 208.0
995.519958 216.0
1003.713013 220.0
1004.961853 180.0
1007.752563 156.0
1007.866333 160.0
1010.705383 180.0
1017.042725 128.0
1019.449768 164.0
1030.69043 128.0
1041.202637 160.0
1044.96936 204.0
1046.765259 152.0
1057.28772 204.0
1061.919922 172.0
1078.039429 228.0
1080.131592 116.0
1080.740112 76.0
1086.328491 292.0
1086.47937 204.0
1088.468018 204.0
1096.473999 108.0
1099.989502 244.0
1104.178589 148.0
1104.91272 176.0
1105.488403 212.0
1106.660034 184.0
1108.064087 200.0
1111.027588 188.0
1111.637939 84.0
1115.058105 132.0
1120.334717 116.0
1121.234253 172.0
1121.307495 104.0
1121.387451 160.0
1122.700806 48.0
1124.041748 108.0
1131.253174 176.0
1131.802124 252.0
1134.549072 100.0
1135.548218 164.0
1138.004272 152.0
1139.488525 216.0
1141.948853 136.0
1142.836792 132.0
1143.79248 124.0
1146.25061 128.0
1153.62085 176.0
1157.111572 208.0
1157.836182 180.0
1158.262817 104.0
1159.468872 180.0
1160.621216 112.0
1163.694824 156.0
1164.747437 212.0
1165.984009 180.0
1166.650146 160.0
1170.255981 220.0
1170.337646 100.0
1172.49707 148.0
1179.342529 200.0
1180.149292 88.0
1181.106689 172.0
1181.400757 128.0
1181.804443 84.0
1182.372437 64.0
1183.015869 160.0
1187.634277 188.0
1188.670166 236.0
1190.400024 184.0
1191.042236 208.0
1192.522827 144.0
1200.439941 188.0
1200.667603 156.0
1201.709106 180.0
1201.985107 172.0
1202.889282 156.0
1203.365601 148.0
1206.557495 124.0
1211.900513 164.0
1212.434082 160.0
1217.935913 188.0
1219.978882 132.0
1220.896729 176.0
1221.967896 96.0
1233.817139 224.0
1239.934937 200.0
1243.560913 148.0
1245.161621 160.0
1245.65332 112.0
1248.331055 180.0
1251.384888 140.0
1252.018555 156.0
1253.885498 208.0
1257.51062 200.0
1257.948242 200.0
1259.092041 156.0
1261.345947 184.0
1262.710571 164.0
1263.524048 148.0
1264.387329 188.0
1264.45813 164.0
1268.949097 60.0
1270.913696 284.0
1270.963379 196.0
1273.284668 180.0
1274.442627 168.0
1282.14209 48.0
1282.833374 200.0
1283.211304 240.0
1285.015625 180.0
1285.593628 192.0
1286.442993 132.0
1286.685791 184.0
1288.249756 304.0
1290.050537 176.0
1291.280396 240.0
1292.653931 204.0
1296.879272 140.0
1297.287842 148.0
1297.933105 136.0
1300.644897 136.0
1300.759766 172.0
1305.35791 76.0
1311.340332 176.0
1314.361938 212.0
1316.318115 68.0
1316.722534 36.0
1318.275757 260.0
1319.034668 156.0
1319.73584 212.0
1320.249268 140.0
1321.182373 160.0
1324.186279 268.0
1326.555664 124.0
1326.997925 100.0
1327.331421 80.0
1329.065063 244.0
1331.264526 188.0
1333.058838 204.0
1335.719727 128.0
1336.476318 148.0
1336.61792 160.0
1338.259644 156.0
1339.577759 56.0
1340.408325 128.0
1341.239136 136.0
1341.516113 180.0
1342.639038 164.0
1342.989136 196.0
1343.040161 208.0
1343.171387 32.0
1343.616455 156.0
1346.163818 200.0
1347.317749 176.0
1347.821899 72.0
1349.525024 56.0
1349.912476 136.0
1350.504883 176.0
1350.797485 192.0
1354.567261 184.0
1356.113403 196.0
1357.616333 268.0
1357.887695 176.0
1361.190063 188.0
1362.240234 180.0
1362.556152 172.0
1363.077881 128.0
1363.305664 176.0
1363.69519 136.0
1366.835327 100.0
1367.431396 96.0
1367.563843 132.0
1371.902466 164.0
1372.536499 188.0
1375.133301 96.0
1376.063354 136.0
1378.803833 208.0
1379.114258 172.0
1379.949585 124.0
1382.0354 156.0
1382.383179 184.0
1382.649536 80.0
1383.411865 148.0
1383.611816 136.0
1384.418823 112.0
1387.464233 156.0
1387.864502 76.0
1387.931274 144.0
1388.47998 172.0
1388.858276 196.0
1389.392334 212.0
1389.473999 168.0
1389.911743 160.0
1389.993408 128.0
1390.112061 196.0
1391.084351 56.0
1391.878784 164.0
1393.847168 52.0
1395.140381 92.0
1396.183472 156.0
1397.884888 180.0
1400.654541 160.0
1401.064209 100.0
1401.140869 168.0
1404.060669 148.0
1404.217285 76.0
1404.329102 96.0
1404.381348 84.0
1406.978149 92.0
1408.015991 172.0
1408.733154 184.0
1409.211182 224.0
1410.055664 160.0
1410.190186 160.0
1410.8479 200.0
1410.900269 212.0
1413.682739 172.0
1415.269653 120.0
1415.456787 152.0
1416.010986 148.0
1416.115845 76.0
1419.893188 32.0
1420.935791 180.0
1422.62439 160.0
1423.1875 116.0
1424.591919 244.0
1426.432983 172.0
1427.267456 208.0
1427.756226 196.0
1429.644531 204.0
1432.490479 136.0
1433.221313 196.0
1437.330688 184.0
1439.753906 44.0
1441.755859 204.0
1442.57019 152.0
1442.708252 200.0
1444.107178 128.0
1444.969482 108.0
1447.050781 192.0
1447.48999 148.0
1448.785034 148.0
1449.861084 160.0
1451.733521 116.0
1451.930664 180.0
1452.347778 60.0
1452.441528 200.0
1454.897461 184.0
1455.64917 84.0
1456.112427 204.0
1457.912964 180.0
1458.477051 176.0
1462.361938 196.0
1462.613159 32.0
1462.955688 196.0
1463.846558 180.0
1464.181641 240.0
1464.432861 148.0
1468.708862 192.0
1469.021606 228.0
1470.532471 68.0
1471.692749 204.0
1475.581665 112.0
1476.738525 188.0
1479.184814 192.0
1481.750244 180.0
1484.586304 156.0
1486.112793 32.0
1488.361694 120.0
1489.121948 112.0
1489.867065 140.0
1490.01062 104.0
1492.155273 168.0
1492.680054 148.0
1493.587646 108.0
1495.765259 248.0
1496.719849 196.0
1497.767212 132.0
1501.821533 188.0
1503.704102 84.0
