>compound MLS000737282-01!
>formula C17H16O4
>ionization [M+H]+
>parentmass 285.11261
#inchi InChI=1S/C17H16O4/c1-20-13-10-15(19)17(16(11-13)21-2)14(18)9-8-12-6-4-3-5-7-12/h3-11,19H,1-2H3/b9-8+
#inchikey QKQLSQLKXBHUSO
#Ion_Source LC-ESI
#Instrument qTof
#Compound_Source NIH Natural Product Library
#PI Dorrestein
#Data_Collector VVP/LMS
#Scan -1
#Precursor_MZ 285.113
#ExactMass 284.105
#Charge 1
#CAS_Number N/A
#Pubmed_ID N/A
#Smiles COc1cc(O)c(C(=O)/C=C/c2ccccc2)c(OC)c1
#INCHI_AUX N/A
#Library_Class 1
#SpectrumID CCMSLIB00000080358
#IonMode Positive
#UpdateWorkflowName UPDATE-SINGLE-ANNOTATED-GOLD
#LibraryQualityString Gold
#TaskID b1d8e8f6646f4e71acdff9ca3d919d08
##Scan# 2623
#SpectrumFile p2-G07_GG7_01_18055.mzXML
#LibraryName NIH_Natural_Products_Library.mgf
#MQScore -1
#Organism NIH_Natural_Products_Library
#TIC_Query 0
#RT_Query -1
#MZErrorPPM -1
#SharedPeaks 0
#MassDiff 0
#LibMZ -1
#SpecMZ 285.113
#SpecCharge 0
#internalFilename spec-00000.mgf

>collision 10
94.965919 124.0
95.012894 2784.0
95.049255 2408.0
95.082329 128.0
95.218231 128.0
95.501999 76.0
95.616791 116.0
95.636261 168.0
95.766716 68.0
95.816414 236.0
96.016815 360.0
96.056297 312.0
96.082512 120.0
96.185936 96.0
96.250366 148.0
96.334351 144.0
96.373428 88.0
96.435959 180.0
96.488739 192.0
96.860565 132.0
96.913231 172.0
97.02227 132.0
97.065323 152.0
97.093697 208.0
97.121269 196.0
97.136963 92.0
97.191254 196.0
97.3293 164.0
97.527718 232.0
97.543449 164.0
97.557205 120.0
97.594559 60.0
97.753891 196.0
97.832626 168.0
97.848373 156.0
97.891731 192.0
97.909416 28.0
97.958656 160.0
97.98938 216.0
98.031563 40.0
98.080833 72.0
98.110405 44.0
98.157722 156.0
98.193222 148.0
98.491264 188.0
98.566338 124.0
98.691582 220.0
98.791733 184.0
99.044243 172.0
99.058983 216.0
99.181839 128.0
99.332542 56.0
99.405952 188.0
99.513138 68.0
99.616409 176.0
99.634293 224.0
99.672043 144.0
99.837036 176.0
99.974304 160.0
100.002174 152.0
100.18338 168.0
100.352783 176.0
100.507187 224.0
100.851868 232.0
101.00383 192.0
101.195953 128.0
101.388252 112.0
101.408295 120.0
101.802673 204.0
101.996414 148.0
102.044746 448.0
102.062759 160.0
102.090912 120.0
102.206886 232.0
102.245819 76.0
102.259903 196.0
102.292114 264.0
102.447174 100.0
102.503586 68.0
102.658813 152.0
102.75563 32.0
102.854515 88.0
102.993843 76.0
103.018082 180.0
103.053703 11840.0
103.102951 44.0
103.123161 68.0
103.14135 52.0
103.159546 116.0
103.244469 56.0
103.272781 168.0
103.31324 128.0
103.384056 48.0
103.489319 36.0
103.556145 188.0
103.641235 40.0
103.687843 140.0
103.712166 72.0
103.746628 120.0
103.7892 144.0
103.921043 64.0
104.0588 768.0
104.083427 176.0
104.184532 200.0
104.260162 204.0
104.374001 204.0
104.538773 152.0
104.648697 64.0
104.766823 104.0
104.81572 40.0
104.911514 132.0
104.9319 92.0
105.029274 128.0
105.168541 164.0
105.329849 192.0
105.370705 108.0
105.593758 172.0
105.62011 96.0
105.802238 224.0
105.839096 124.0
105.896439 144.0
105.955841 120.0
106.019363 196.0
106.361885 116.0
106.427582 148.0
106.517944 152.0
106.659729 132.0
106.711128 188.0
106.935356 168.0
107.009712 212.0
107.048912 604.0
107.104195 136.0
107.17012 76.0
107.306152 180.0
107.479408 164.0
107.531006 200.0
107.551643 172.0
107.646614 204.0
107.842125 164.0
107.886292 136.0
107.949371 164.0
107.971069 164.0
108.020485 1644.0
108.055626 196.0
108.147758 280.0
108.198685 104.0
108.482506 200.0
108.503235 168.0
108.61937 188.0
108.708588 196.0
108.748833 156.0
108.893356 296.0
108.914177 180.0
109.027245 1352.0
109.061653 336.0
109.238403 96.0
109.375748 168.0
109.400726 168.0
109.513176 204.0
109.638184 48.0
109.687294 192.0
109.746574 208.0
109.80497 148.0
109.827911 188.0
109.882149 48.0
110.009453 308.0
110.036377 1968.0
110.101326 108.0
110.149368 108.0
110.189064 140.0
110.255928 140.0
110.331177 156.0
110.43364 120.0
110.716187 172.0
110.795784 196.0
110.821533 124.0
111.010742 344.0
111.04245 480.0
111.062012 404.0
111.187904 172.0
111.364265 88.0
111.378967 172.0
111.547073 52.0
111.622765 92.0
111.770012 188.0
111.801575 168.0
111.93631 148.0
111.974213 208.0
112.050423 224.0
112.085869 184.0
112.243965 156.0
112.402168 196.0
112.423271 300.0
112.759071 136.0
112.845741 176.0
112.864769 152.0
112.883797 164.0
113.059425 432.0
113.213364 208.0
113.256287 132.0
113.315605 144.0
113.542419 192.0
113.760971 120.0
113.977608 228.0
114.066872 108.0
114.187683 176.0
114.236992 152.0
114.526497 116.0
114.645805 128.0
114.701218 124.0
114.765182 152.0
114.888878 60.0
114.996605 188.0
115.051071 176.0
115.213387 100.0
115.241158 204.0
115.298851 120.0
115.322365 248.0
115.356567 120.0
115.628212 120.0
115.7995 172.0
115.998772 144.0
116.03093 124.0
116.155312 128.0
116.707253 132.0
116.76532 220.0
116.847061 292.0
116.963264 176.0
117.064461 164.0
117.290688 172.0
117.659576 120.0
117.696281 200.0
117.750267 160.0
117.786987 144.0
117.940407 196.0
118.027641 204.0
118.036369 44.0
118.04335 188.0
118.420753 164.0
118.548576 164.0
118.585419 232.0
118.615982 196.0
118.975876 128.0
119.011871 476.0
119.064903 80.0
119.138756 172.0
119.245232 148.0
119.430046 156.0
119.573647 196.0
119.599762 216.0
119.79792 160.0
119.996246 104.0
120.181641 152.0
120.445801 92.0
120.690575 84.0
120.821808 32.0
120.856812 144.0
121.028664 1044.0
121.207161 128.0
121.307976 52.0
121.358406 72.0
121.386909 60.0
121.489998 180.0
121.665565 192.0
121.76223 192.0
121.944542 120.0
122.035675 624.0
122.208427 168.0
122.272247 116.0
122.383659 236.0
122.439568 144.0
122.640068 136.0
122.686356 140.0
122.717224 132.0
122.776764 140.0
122.796616 180.0
122.816467 220.0
122.851761 132.0
122.891472 164.0
123.008461 1028.0
123.043816 2076.0
123.269058 172.0
123.3442 76.0
123.36631 44.0
123.402962 160.0
123.443695 132.0
123.579132 176.0
123.606438 204.0
123.695923 180.0
123.853142 316.0
123.884148 100.0
124.017494 160.0
124.048569 504.0
124.234421 292.0
124.26104 84.0
124.334267 244.0
124.511879 32.0
124.674057 128.0
124.833954 156.0
124.889725 164.0
124.989838 128.0
125.023064 1404.0
125.058998 2256.0
125.094444 184.0
125.196861 208.0
125.212456 44.0
125.23027 64.0
125.435265 164.0
125.584663 84.0
125.644897 188.0
125.776558 200.0
125.807808 96.0
125.928391 48.0
126.035721 204.0
126.061653 236.0
126.250221 160.0
126.3218 124.0
126.536644 104.0
126.823387 260.0
127.036407 184.0
127.061089 168.0
127.117188 120.0
127.260841 224.0
127.471992 156.0
127.728294 128.0
127.78904 168.0
127.820961 156.0
127.942078 140.0
127.982605 52.0
128.061295 196.0
128.153305 148.0
128.205612 84.0
128.406265 212.0
128.469421 164.0
128.78093 184.0
128.875824 60.0
129.043076 228.0
129.072464 228.0
129.138062 188.0
129.153885 168.0
129.217224 172.0
129.244385 172.0
129.298691 176.0
129.631592 188.0
129.949051 88.0
130.405502 152.0
130.673828 228.0
130.719345 152.0
130.758026 100.0
130.78508 236.0
130.873932 180.0
130.972061 124.0
130.994843 160.0
131.048889 5136.0
131.152069 212.0
131.206772 60.0
131.245544 72.0
131.270615 128.0
131.31395 108.0
131.537567 48.0
131.770508 200.0
132.051025 468.0
132.145462 152.0
132.271332 192.0
132.573669 136.0
132.601166 160.0
132.679108 144.0
132.887817 116.0
132.910767 68.0
132.970428 144.0
133.047577 224.0
133.268967 144.0
133.407715 88.0
133.766586 244.0
133.876236 132.0
134.037491 212.0
134.088196 108.0
134.274948 176.0
134.2957 80.0
134.332611 128.0
134.353378 208.0
134.644211 176.0
134.748169 124.0
135.002426 132.0
135.044556 588.0
135.088013 64.0
135.155106 176.0
135.1875 184.0
135.291656 120.0
135.435226 168.0
135.715652 168.0
135.764343 184.0
135.826965 124.0
136.01619 1744.0
136.049377 176.0
136.105469 156.0
136.189072 196.0
136.328476 184.0
136.356354 176.0
136.851852 248.0
136.879791 180.0
137.000916 164.0
137.021622 1720.0
137.059311 220.0
137.136063 44.0
137.215317 176.0
137.264282 76.0
137.38324 232.0
137.408905 188.0
137.443893 208.0
137.464905 216.0
137.714706 180.0
137.823395 184.0
137.885269 128.0
137.991882 144.0
138.031036 24576.0
138.063721 144.0
138.098557 212.0
138.137207 64.0
138.166046 52.0
138.210327 64.0
138.273514 44.0
138.296906 180.0
138.313293 60.0
138.343735 40.0
138.38353 48.0
138.414551 32.0
138.449097 56.0
138.495941 48.0
138.533417 36.0
138.599014 48.0
138.692764 184.0
138.73027 52.0
138.763092 64.0
138.795914 52.0
138.852203 204.0
139.033844 1496.0
139.12439 84.0
139.166824 56.0
139.232407 92.0
139.305222 76.0
139.346832 152.0
139.368652 120.0
139.419113 44.0
139.455597 156.0
139.502609 76.0
139.568451 32.0
139.594315 88.0
139.782654 180.0
139.826553 56.0
139.866989 116.0
139.949631 84.0
139.973175 152.0
139.99202 172.0
140.031448 188.0
140.135696 120.0
140.167313 96.0
140.347839 200.0
140.398026 168.0
140.666336 160.0
140.746613 164.0
140.888321 132.0
141.053436 444.0
141.070709 136.0
141.078201 336.0
141.552963 108.0
141.588486 116.0
141.657166 52.0
141.723511 164.0
141.77327 72.0
141.950912 180.0
142.024582 152.0
142.0578 144.0
142.314117 176.0
142.644348 160.0
142.69664 220.0
143.03447 208.0
143.444183 136.0
143.460876 168.0
143.534775 212.0
143.723221 164.0
143.739929 148.0
143.782883 196.0
143.885529 112.0
144.157822 136.0
144.655319 152.0
144.954941 192.0
145.085251 348.0
145.121582 228.0
145.304779 76.0
145.403152 204.0
145.621643 144.0
145.712921 144.0
145.984543 160.0
146.047073 180.0
146.263626 168.0
146.422546 104.0
146.542984 104.0
146.972855 144.0
146.996307 148.0
147.25946 264.0
147.405823 212.0
147.535812 120.0
147.619553 140.0
147.706619 176.0
148.108444 140.0
148.370163 256.0
148.408951 196.0
148.760742 100.0
148.797165 116.0
148.874863 68.0
149.023178 836.0
149.275833 44.0
149.412048 60.0
149.626221 192.0
149.687088 344.0
149.716309 88.0
149.86734 128.0
149.972122 92.0
150.025757 164.0
150.274521 136.0
150.406311 160.0
150.777557 160.0
150.919342 84.0
151.039261 2552.0
151.076202 352.0
151.110123 144.0
151.208008 192.0
151.254517 80.0
151.457748 124.0
151.977478 148.0
151.999573 192.0
152.039108 328.0
152.252426 196.0
152.419464 252.0
152.871933 152.0
153.018661 204.0
153.052216 1096.0
153.108276 60.0
153.142746 76.0
153.182159 140.0
153.256073 180.0
153.432236 148.0
153.697449 52.0
153.808502 72.0
153.919601 80.0
154.059387 180.0
154.073456 188.0
154.230896 144.0
154.334717 156.0
154.379227 36.0
154.693466 160.0
154.725647 192.0
154.819733 88.0
155.036209 304.0
155.149292 136.0
155.236069 204.0
155.625656 64.0
155.901382 136.0
156.028152 176.0
156.070419 140.0
156.120148 132.0
156.16243 160.0
156.294281 88.0
156.423706 192.0
156.627884 148.0
156.727539 196.0
156.79483 196.0
157.021698 352.0
157.313644 120.0
157.348602 144.0
157.448486 140.0
157.579849 216.0
157.693329 160.0
158.186081 184.0
158.293747 180.0
158.633591 100.0
158.682129 116.0
158.759857 216.0
158.855179 140.0
158.882767 132.0
159.02832 184.0
159.121201 124.0
159.204056 116.0
159.475403 156.0
159.518127 176.0
160.223923 176.0
160.44455 152.0
160.598373 188.0
160.684143 144.0
160.989578 164.0
161.021622 168.0
161.249786 116.0
161.406525 112.0
161.768326 52.0
161.912659 168.0
162.111389 180.0
162.133072 116.0
162.239532 136.0
162.262344 104.0
162.340942 156.0
162.384064 140.0
162.515976 116.0
162.87648 96.0
163.034958 204.0
163.054337 176.0
163.290787 104.0
163.395081 116.0
164.018997 160.0
164.043808 152.0
164.103119 180.0
164.230637 132.0
164.305252 204.0
164.646652 204.0
164.73349 136.0
164.78714 60.0
165.012009 164.0
165.068176 684.0
165.096451 128.0
165.16806 144.0
165.366623 172.0
165.418839 152.0
165.503326 240.0
165.52124 148.0
165.585266 144.0
165.618561 84.0
165.641617 64.0
165.751785 84.0
165.785095 184.0
165.81842 188.0
165.854294 128.0
165.883972 136.0
165.949661 200.0
165.992737 332.0
166.025986 27592.0
166.076843 440.0
166.118423 56.0
166.156372 116.0
166.204529 52.0
166.234375 116.0
166.2621 76.0
166.282639 64.0
166.34877 240.0
166.366364 84.0
166.386429 92.0
166.434097 68.0
166.549667 80.0
166.590759 64.0
166.633698 108.0
166.672989 96.0
166.737228 92.0
166.762924 192.0
166.827194 76.0
166.851837 96.0
166.878616 120.0
166.912033 64.0
166.973755 72.0
167.003387 212.0
167.028793 2124.0
167.080139 300.0
167.146118 104.0
167.197586 204.0
167.320648 220.0
167.422974 132.0
167.576126 80.0
167.689514 84.0
167.898346 176.0
167.973145 140.0
168.007416 208.0
168.028931 148.0
168.059402 184.0
168.081985 128.0
168.149979 92.0
168.17662 112.0
168.267334 120.0
168.378372 104.0
168.453278 112.0
168.649673 68.0
168.696198 172.0
169.024658 124.0
169.062683 116.0
169.088242 312.0
169.571091 68.0
169.960098 208.0
170.352127 188.0
170.393692 88.0
170.492432 72.0
170.669205 164.0
170.757629 164.0
170.851273 76.0
170.921509 92.0
170.965759 40.0
171.200058 176.0
171.314667 124.0
171.403244 144.0
171.473602 56.0
171.807373 164.0
171.919571 172.0
172.146698 76.0
172.311249 268.0
172.337387 148.0
172.546478 160.0
172.604004 228.0
173.014771 200.0
173.043579 188.0
173.067139 176.0
173.300262 148.0
173.488953 116.0
173.554504 156.0
173.879959 132.0
173.953293 136.0
174.250046 212.0
174.299072 220.0
174.723297 136.0
175.036499 172.0
175.170822 184.0
175.252502 144.0
175.985764 64.0
176.033295 160.0
176.070267 172.0
176.30275 180.0
176.426971 140.0
176.559189 152.0
176.63324 40.0
176.926987 108.0
177.061096 152.0
177.215668 84.0
177.234222 128.0
177.435654 116.0
177.674347 100.0
177.695572 52.0
177.732727 68.0
177.756607 72.0
177.979584 160.0
178.021561 104.0
178.077362 156.0
178.266464 176.0
178.330246 192.0
178.513687 88.0
178.675949 52.0
179.032333 352.0
179.07695 296.0
179.28038 80.0
179.394989 180.0
179.445648 224.0
179.501648 128.0
179.648346 156.0
179.704361 88.0
179.736389 80.0
179.763077 68.0
179.885849 164.0
179.999954 92.0
180.100754 112.0
180.163574 252.0
180.204041 140.0
180.287827 144.0
180.398743 204.0
180.481628 124.0
180.537781 136.0
180.577896 152.0
180.666443 120.0
180.686432 260.0
180.733917 188.0
180.789261 116.0
180.876297 208.0
180.901443 184.0
180.972473 152.0
180.996201 144.0
181.019302 352.0
181.05014 109408.0
181.109329 264.0
181.141235 268.0
181.176178 40.0
181.191406 64.0
181.225143 304.0
181.243073 72.0
181.268234 100.0
181.311554 108.0
181.344498 124.0
181.366196 116.0
181.427216 92.0
181.453552 72.0
181.491776 240.0
181.520584 72.0
181.542038 40.0
181.588669 52.0
181.62265 192.0
181.7164 68.0
181.781006 52.0
181.802017 88.0
181.839844 48.0
181.86528 108.0
181.888153 44.0
181.915894 60.0
181.988602 260.0
182.052765 11092.0
182.100052 48.0
182.146286 60.0
182.196228 180.0
182.225189 152.0
182.269516 48.0
182.301773 76.0
182.328644 76.0
182.385406 108.0
182.414001 100.0
182.435303 68.0
182.457672 40.0
182.503754 56.0
182.541016 160.0
182.586731 60.0
182.63443 180.0
182.692795 84.0
182.736618 92.0
182.757446 104.0
182.791183 92.0
182.812714 56.0
182.834244 84.0
182.86116 60.0
182.906921 40.0
182.933838 108.0
182.952682 60.0
182.971527 132.0
183.011917 40.0
183.053589 2388.0
183.114243 52.0
183.147247 96.0
183.174957 160.0
183.197754 36.0
183.23204 104.0
183.276138 128.0
183.347137 108.0
183.399109 144.0
183.442139 192.0
183.498169 80.0
183.51796 172.0
183.583191 52.0
183.654404 88.0
183.696472 108.0
183.772003 116.0
183.804382 40.0
183.855652 108.0
183.971725 116.0
184.035995 1592.0
184.236389 32.0
184.260696 116.0
184.332596 144.0
184.406616 32.0
184.493118 124.0
184.552597 132.0
185.034012 332.0
185.131683 56.0
185.212936 44.0
185.231903 72.0
185.277954 128.0
185.418854 108.0
185.51915 140.0
185.589645 48.0
186.059021 76.0
186.12146 72.0
186.205658 88.0
186.270844 32.0
188.480377 56.0
188.923309 56.0
189.983505 68.0
190.260696 172.0
190.744186 76.0
190.895401 108.0
191.010925 100.0
191.233795 72.0
191.451294 92.0
192.032822 200.0
192.052124 180.0
192.430191 56.0
193.048264 308.0
194.054382 320.0
194.095901 76.0
194.259537 92.0
194.373291 100.0
194.39827 76.0
194.487076 64.0
194.531494 44.0
194.714752 72.0
195.042618 128.0
195.457001 64.0
195.894119 72.0
196.803314 68.0
197.04071 192.0
197.060272 144.0
197.088913 320.0
197.25032 116.0
200.855865 108.0
207.081253 148.0
208.075928 128.0
209.056107 224.0
210.062927 492.0
210.096268 196.0
210.653427 40.0
213.197388 132.0
217.056625 168.0
221.376709 72.0
222.067245 112.0
223.06694 148.0
223.094666 108.0
223.787872 92.0
224.076096 348.0
225.081955 160.0
226.050476 140.0
226.071426 144.0
227.051056 140.0
227.075058 140.0
227.105743 172.0
228.079163 128.0
230.773056 88.0
231.4478 56.0
237.052811 204.0
238.071289 140.0
238.541397 56.0
239.064255 144.0
239.116577 180.0
240.075516 124.0
241.442825 36.0
243.100143 148.0
244.102264 156.0
245.099731 72.0
251.062195 140.0
251.80069 132.0
252.079941 620.0
253.049774 176.0
253.085968 232.0
254.057785 144.0
258.099365 72.0
258.787292 40.0
259.094757 88.0
259.312653 64.0
260.567352 80.0
262.089233 84.0
267.058624 168.0
267.105896 136.0
267.224548 48.0
268.067902 192.0
268.090698 132.0
268.315613 48.0
268.788544 168.0
269.08078 340.0
269.477509 40.0
269.513458 36.0
269.572266 76.0
269.879547 60.0
270.072327 176.0
272.110809 184.0
277.223572 44.0
278.740112 52.0
282.862427 100.0
283.260895 48.0
283.679779 92.0
283.897736 120.0
284.337219 180.0
285.11261 412.0
285.234009 68.0
285.314697 116.0
285.3685 36.0
286.273651 100.0
296.12973 60.0
300.647339 64.0
300.850983 100.0
304.764679 52.0
312.590485 84.0
317.34494 52.0
318.970917 80.0
325.44809 72.0
326.61969 48.0
326.734802 48.0
340.214844 64.0
350.937012 60.0
354.724182 96.0
357.526154 92.0
360.671722 128.0
362.355743 76.0
379.574493 76.0
379.95462 152.0
392.675903 48.0
400.743042 68.0
406.950623 152.0
417.550323 52.0
420.206268 56.0
430.434998 72.0
439.955597 132.0
447.961243 68.0
449.457947 96.0
451.299561 112.0
451.993256 92.0
486.966156 56.0
493.333435 44.0
506.958069 64.0
514.465027 104.0
543.577271 56.0
558.904297 104.0
582.313538 44.0
585.088135 108.0
598.645813 48.0
635.76123 68.0
641.152344 124.0
643.190002 100.0
677.060425 52.0
692.05249 48.0
696.746521 80.0
706.158447 20.0
714.297729 56.0
723.321167 104.0
740.844299 52.0
741.158508 128.0
761.336975 64.0
766.017639 116.0
767.362305 180.0
797.041443 80.0
807.996643 204.0
818.491211 212.0
821.540405 64.0
825.721619 196.0
834.730957 68.0
857.133118 116.0
864.660583 108.0
881.905334 212.0
895.629578 212.0
901.930603 180.0
906.868591 192.0
909.219666 64.0
926.555603 100.0
938.010864 132.0
946.796936 156.0
951.770203 196.0
954.455383 40.0
960.16394 196.0
960.712524 124.0
964.305115 148.0
983.867432 164.0
991.097473 168.0
1005.958923 216.0
1006.684998 192.0
1007.904114 112.0
1008.169556 200.0
1009.528687 156.0
1015.621399 88.0
1016.198669 160.0
1016.547668 168.0
1020.619385 144.0
1020.784668 224.0
1027.970215 152.0
1039.661865 232.0
1041.074219 188.0
1043.625244 180.0
1046.308228 48.0
1051.897339 76.0
1060.830811 84.0
1061.706177 216.0
1064.503052 56.0
1065.711304 164.0
1065.802246 160.0
1071.430176 56.0
1073.229004 164.0
1075.081543 264.0
1076.805054 64.0
1077.889526 84.0
1078.484253 188.0
1079.916138 212.0
1086.105835 168.0
1086.309082 28.0
1088.993774 220.0
1089.374756 184.0
1092.753906 132.0
1094.313721 48.0
1094.787842 96.0
1096.27002 56.0
1097.008301 236.0
1100.082397 244.0
1101.620972 152.0
1105.429321 236.0
1110.026489 156.0
1113.211792 108.0
1114.055298 216.0
1114.394043 212.0
1115.324463 80.0
1117.306152 228.0
1118.756958 148.0
1121.574585 188.0
1123.188232 176.0
1125.317139 144.0
1125.370483 168.0
1125.697754 144.0
1128.196533 168.0
1128.691284 228.0
1136.669189 144.0
1137.23291 116.0
1139.603394 164.0
1140.127563 176.0
1143.95459 220.0
1145.476562 48.0
1146.291748 180.0
1146.40625 152.0
1154.743896 144.0
1157.877441 184.0
1162.297363 120.0
1164.116577 88.0
1164.755005 208.0
1165.726562 176.0
1166.480957 172.0
1167.310425 232.0
1169.262817 152.0
1172.320679 84.0
1173.656616 76.0
1179.206665 208.0
1182.386841 136.0
1185.001709 144.0
1185.167114 136.0
1186.832764 164.0
1187.189331 192.0
1191.630371 184.0
1192.40686 108.0
1192.888062 84.0
1194.407715 188.0
1195.563599 180.0
1196.885254 140.0
1202.262085 152.0
1202.966064 268.0
1205.604492 104.0
1207.768555 232.0
1208.598755 144.0
1213.266724 156.0
1214.79248 144.0
1215.35437 60.0
1216.26355 164.0
1218.360596 204.0
1218.749756 172.0
1220.647461 176.0
1223.834229 212.0
1225.213257 260.0
1225.721802 272.0
1227.910767 180.0
1229.285156 196.0
1229.758423 176.0
1232.455322 160.0
1232.88855 100.0
1235.45459 116.0
1236.308228 176.0
1237.344116 88.0
1239.03894 104.0
1240.02002 124.0
1242.151611 196.0
1243.323242 36.0
1245.036255 268.0
1245.773804 216.0
1246.778564 72.0
1248.268799 176.0
1250.315918 64.0
1250.653809 204.0
1253.893677 208.0
1257.412964 188.0
1257.899902 216.0
1260.19519 160.0
1261.7854 176.0
1262.032837 164.0
1263.114868 144.0
1264.657349 136.0
1266.760376 100.0
1267.851562 212.0
1268.531982 200.0
1269.666382 104.0
1272.107178 156.0
1272.462158 116.0
1275.175659 168.0
1275.964722 176.0
1279.294067 96.0
1280.333618 144.0
1281.252563 136.0
1281.98645 136.0
1284.645874 168.0
1285.378296 188.0
1286.422729 88.0
1286.522705 188.0
1288.59375 152.0
1291.102783 188.0
1292.004028 144.0
1292.841187 128.0
1293.73584 188.0
1296.58667 192.0
1298.91687 208.0
1299.232544 252.0
1301.521973 44.0
1301.737427 120.0
1302.908203 144.0
1303.389526 156.0
1304.525146 168.0
1307.056763 268.0
1307.452515 88.0
1309.821289 164.0
1311.853394 164.0
1316.983765 156.0
1317.280029 168.0
1318.775757 164.0
1320.199951 184.0
1320.554321 184.0
1322.898682 172.0
1323.847168 148.0
1324.977173 148.0
1325.708984 184.0
1325.766968 120.0
1326.419312 140.0
1327.456055 212.0
1327.702637 168.0
1328.34082 208.0
1328.826904 120.0
1329.414673 128.0
1330.394531 72.0
1331.549072 188.0
1331.694336 132.0
1332.624146 192.0
1332.871094 204.0
1333.023804 164.0
1333.19812 156.0
1334.19397 92.0
1335.29187 120.0
1335.444702 76.0
1335.68042 228.0
1335.932007 132.0
1337.80957 220.0
1338.639526 188.0
1341.196777 140.0
1341.736206 140.0
1343.449951 160.0
1346.727417 128.0
1348.787964 92.0
1349.504395 208.0
1349.943115 156.0
1351.41333 120.0
1352.459839 216.0
1352.657471 176.0
1353.682495 160.0
1353.843506 236.0
1354.253662 192.0
1357.009888 232.0
1357.610352 152.0
1358.974731 80.0
1361.896362 264.0
1363.703857 164.0
1365.733154 160.0
1366.314331 132.0
1370.665649 188.0
1370.871948 132.0
1373.223755 140.0
1374.618042 244.0
1375.15686 108.0
1375.38562 184.0
1376.07959 116.0
1376.175537 224.0
1377.815186 120.0
1377.93335 208.0
1378.218994 156.0
1379.477905 176.0
1380.475952 128.0
1381.038086 144.0
1381.903564 104.0
1383.894531 156.0
1385.212769 172.0
1386.568726 64.0
1387.176514 96.0
1387.562012 196.0
1388.310913 148.0
1390.202637 144.0
1391.865356 188.0
1392.392578 184.0
1394.123535 176.0
1395.952271 156.0
1399.226196 112.0
1399.687744 196.0
1399.769653 184.0
1400.745361 148.0
1401.01355 124.0
1401.460571 136.0
1401.594604 100.0
1401.751099 156.0
1402.973511 168.0
1404.979614 88.0
1405.889893 144.0
1406.300293 136.0
1406.352539 180.0
1406.673584 176.0
1407.644165 52.0
1407.793457 152.0
1408.375977 36.0
1408.592651 216.0
1409.190308 144.0
1409.675903 112.0
1410.67749 136.0
1413.557007 208.0
1413.751465 168.0
1415.780273 128.0
1415.982544 76.0
1416.199707 36.0
1417.960327 224.0
1418.859863 120.0
1420.172119 144.0
1422.38562 48.0
1423.128906 180.0
1423.707031 88.0
1423.894043 188.0
1424.060059 176.0
1426.487061 184.0
1426.945679 188.0
1427.329102 176.0
1427.960815 120.0
1429.743774 192.0
1430.511597 212.0
1430.707275 140.0
1430.850342 92.0
1432.6427 96.0
1433.358398 72.0
1433.479004 68.0
1434.98645 148.0
1435.876343 144.0
1436.615479 160.0
1437.551025 216.0
1438.132202 200.0
1440.453613 140.0
1441.024414 144.0
1442.520752 76.0
1444.169189 104.0
1444.418701 84.0
1445.197998 200.0
1445.515747 84.0
1447.044678 64.0
1447.218872 148.0
1448.082153 200.0
1448.854736 160.0
1449.900391 152.0
1450.261475 220.0
1450.332397 192.0
1451.739502 176.0
1454.853516 124.0
1455.06604 128.0
1459.875732 60.0
1460.218018 152.0
1460.811279 168.0
1461.009033 176.0
1462.036255 132.0
1463.25415 188.0
1463.375977 92.0
1465.85144 168.0
1468.084961 204.0
1468.550171 152.0
1470.167603 176.0
1470.717163 156.0
1471.068237 80.0
1472.244141 244.0
1472.740479 144.0
1473.580811 96.0
1474.092773 52.0
1474.765259 136.0
1476.799072 132.0
1478.872559 164.0
1479.227783 184.0
1479.331787 120.0
1479.668701 100.0
1479.737549 172.0
1480.105103 148.0
1482.050659 44.0
1482.441406 156.0
1484.51123 224.0
1485.160034 168.0
1485.976196 144.0
1489.407715 184.0
1489.584351 192.0
1490.498657 152.0
1492.627808 180.0
1493.119995 180.0
1493.719971 164.0
1496.143921 164.0
1496.467285 196.0
1496.629028 152.0
1496.775269 104.0
1497.429932 156.0
1498.015259 188.0
1498.171021 188.0
1499.479248 116.0
1500.604736 88.0
1501.630249 204.0
1501.745972 168.0
1502.170288 124.0
1503.476562 144.0
1503.551392 168.0
1503.63623 184.0
1503.875488 160.0
1504.037598 148.0
