>compound Demeclocycline
>formula C21H21ClN2O8 
>ionization [M+H]+
>parentmass 465.106689
#inchi InChI=1S/C21H21ClN2O8/c1-24(2)14-7-5-6-10(16(27)12-9(25)4-3-8(22)11(12)15(6)26)18(29)21(7,32)19(30)13(17(14)28)20(23)31/h3-4,6-7,14-15,25-27,30,32H,5H2,1-2H3,(H2,23,31)
#inchikey GUXHBMASAHGULD
#Ion_Source LC-ESI
#Instrument qTof
#Compound_Source Commercial
#PI Dorrestein
#Data_Collector Garg_Neha
#Scan -1
#Precursor_MZ 465.109
#ExactMass 464.099
#Charge 1
#CAS_Number N/A
#Pubmed_ID N/A
#Smiles N/A
#INCHI_AUX N/A
#Library_Class 1
#SpectrumID CCMSLIB00000077057
#IonMode Positive
#UpdateWorkflowName UPDATE-SINGLE-ANNOTATED-GOLD
#LibraryQualityString Gold
#TaskID 48f7f52fc6d249b5abbcc6e7b3df5969
##Scan# 1053
#SpectrumFile NCP003017_E2_F11_BA8_01_15703.mzXML
#LibraryName NIH_Clinical_Collection_2.mgf
#MQScore -1
#Organism NIHcollection2_04212014_2_mgf
#TIC_Query 0
#RT_Query -1
#MZErrorPPM -1
#SharedPeaks 0
#MassDiff 0
#LibMZ -1
#SpecMZ 465.109
#SpecCharge 0
#internalFilename spec-00000.mgf

>collision 10
45.403191 144.0
53.203728 168.0
54.060787 224.0
58.981071 192.0
67.492966 156.0
68.320686 268.0
68.880066 176.0
71.116364 148.0
73.794739 148.0
76.07235 160.0
90.173653 140.0
96.864906 160.0
97.072655 232.0
97.596939 140.0
98.027802 176.0
98.060356 988.0
99.061348 168.0
110.831619 152.0
114.056404 168.0
119.267044 160.0
124.037056 504.0
124.261032 184.0
125.624786 192.0
126.056351 1288.0
127.058388 124.0
128.916412 144.0
132.101852 156.0
136.035599 176.0
137.049606 152.0
139.021271 260.0
139.046021 248.0
139.067795 304.0
140.658966 152.0
144.064468 800.0
144.932755 168.0
147.715881 160.0
149.710983 172.0
150.166718 208.0
150.232574 156.0
151.028915 148.0
151.439819 148.0
151.849426 156.0
152.031784 288.0
153.030899 172.0
153.110214 140.0
154.050018 2672.0
154.403412 192.0
155.051254 468.0
155.585358 144.0
155.78154 148.0
156.047455 148.0
156.983704 236.0
157.91774 156.0
158.04039 140.0
161.694244 168.0
164.043747 216.0
167.056671 108.0
167.567596 148.0
168.025314 328.0
168.977264 152.0
169.083359 192.0
170.044205 384.0
170.424026 184.0
171.053391 172.0
171.183563 164.0
172.49852 184.0
173.061005 148.0
173.603409 160.0
175.054001 140.0
175.744614 204.0
176.167023 248.0
176.270065 196.0
176.894241 200.0
178.049774 128.0
178.996994 152.0
179.058426 120.0
179.72467 148.0
180.05513 160.0
182.038681 280.0
182.994659 152.0
184.059708 160.0
184.55304 152.0
185.030365 176.0
186.06601 184.0
186.767105 156.0
187.126312 140.0
189.008331 208.0
190.264938 140.0
191.050919 176.0
191.711746 212.0
192.053604 164.0
192.694046 200.0
194.013077 172.0
194.04744 164.0
194.52739 264.0
195.055832 228.0
196.055679 476.0
196.118454 180.0
197.063965 128.0
198.061768 168.0
198.472366 208.0
199.029099 116.0
200.775436 164.0
202.788422 152.0
203.852661 152.0
204.151154 144.0
206.512589 164.0
207.018646 908.0
207.463257 164.0
207.916458 256.0
208.022705 216.0
208.715042 212.0
209.019455 336.0
209.054474 180.0
210.065338 156.0
211.053299 172.0
211.072495 372.0
212.046432 160.0
213.233475 168.0
215.023819 308.0
217.026169 164.0
219.118179 200.0
221.003281 132.0
221.036499 972.0
221.073196 192.0
222.04335 312.0
222.88768 160.0
223.035065 232.0
224.369904 228.0
226.060989 164.0
228.078903 168.0
228.996597 140.0
229.542068 176.0
231.020645 488.0
233.000534 696.0
233.03833 368.0
234.001266 124.0
234.02623 168.0
235.015747 420.0
235.753113 144.0
236.000717 164.0
236.135269 256.0
236.395294 168.0
237.018097 124.0
237.069016 204.0
238.069077 204.0
238.099792 152.0
238.619095 168.0
239.025101 144.0
241.752991 148.0
242.052048 228.0
243.02272 356.0
243.088608 212.0
245.037781 136.0
246.044342 116.0
247.036499 464.0
248.991577 180.0
249.015411 136.0
249.048599 140.0
249.462997 148.0
250.579208 136.0
250.854767 156.0
251.037766 152.0
251.066025 388.0
251.277359 188.0
251.548752 140.0
251.905594 176.0
252.039307 420.0
252.442886 172.0
252.686035 156.0
253.042145 252.0
254.064575 156.0
255.024277 172.0
256.506836 224.0
256.529144 144.0
256.995758 288.0
257.034058 276.0
258.036224 148.0
258.093536 172.0
258.887115 160.0
259.015778 2996.0
259.91037 136.0
260.020966 728.0
261.029633 3724.0
261.146515 244.0
262.032745 832.0
263.027771 936.0
264.028656 400.0
264.084808 160.0
264.143036 180.0
265.052795 168.0
265.850494 152.0
266.126404 228.0
267.021057 284.0
267.254272 264.0
267.719757 168.0
267.954285 152.0
268.769379 144.0
269.049988 128.0
270.007477 148.0
271.013855 284.0
271.930634 152.0
272.01712 200.0
273.030609 1108.0
274.035889 324.0
275.025848 600.0
276.015228 96.0
276.041473 208.0
277.026062 1288.0
277.111206 160.0
277.552032 140.0
278.024994 380.0
278.089996 228.0
279.021881 412.0
279.072876 144.0
279.135956 140.0
279.778107 156.0
280.01709 160.0
280.037903 168.0
280.06781 160.0
281.027893 152.0
283.01297 744.0
284.082397 144.0
285.030518 348.0
287.009796 3548.0
287.06311 140.0
288.01001 296.0
288.078857 192.0
288.422943 144.0
289.025818 5868.0
289.203522 136.0
290.029785 860.0
290.597076 144.0
290.977203 140.0
291.026001 1864.0
291.288879 168.0
292.025604 352.0
292.100464 104.0
293.167175 124.0
294.047607 152.0
294.638336 184.0
295.022705 160.0
295.058685 164.0
297.029938 416.0
298.038757 132.0
299.010834 1112.0
300.0112 104.0
300.052277 184.0
301.024902 1544.0
301.078827 168.0
302.028503 516.0
302.108673 168.0
303.022095 244.0
304.029907 480.0
304.065521 200.0
305.040283 176.0
305.102417 188.0
306.049988 304.0
307.011658 136.0
307.077484 156.0
307.362122 168.0
308.007965 144.0
308.81189 184.0
309.035614 164.0
309.29126 140.0
309.504791 160.0
310.061279 168.0
311.009674 1168.0
311.057892 268.0
312.013458 392.0
312.08374 116.0
312.407318 140.0
313.025818 2772.0
313.181732 144.0
314.031494 208.0
315.025055 780.0
315.210266 172.0
316.015411 192.0
316.072968 488.0
316.140289 144.0
316.331421 144.0
317.021942 2880.0
317.077637 288.0
317.482941 228.0
317.979614 140.0
318.022278 556.0
318.071533 276.0
318.211609 148.0
319.018158 1084.0
319.257568 132.0
320.025146 264.0
320.07547 172.0
321.00708 156.0
321.048492 196.0
321.105011 164.0
322.054688 200.0
323.007538 164.0
323.064362 164.0
324.0354 152.0
325.00766 432.0
325.936188 148.0
326.002838 160.0
327.019867 168.0
328.016785 184.0
328.072388 148.0
328.438263 152.0
329.021454 1784.0
330.019623 436.0
330.79425 164.0
330.855774 164.0
331.018433 712.0
331.068817 148.0
331.85321 152.0
332.034546 244.0
332.087799 276.0
332.113525 224.0
332.301849 236.0
333.032562 132.0
333.165894 216.0
334.046509 512.0
334.084503 1152.0
334.323456 144.0
334.780853 140.0
335.082367 300.0
336.081909 180.0
337.356781 180.0
337.996826 160.0
338.055389 152.0
339.005798 2556.0
339.059509 208.0
339.110107 140.0
339.546417 148.0
339.784851 160.0
340.008392 740.0
340.071991 128.0
340.625519 156.0
341.020294 3716.0
341.068207 276.0
341.272308 152.0
341.978638 192.0
342.024292 940.0
342.245331 124.0
343.018677 848.0
343.064026 272.0
344.018921 228.0
344.574677 180.0
344.988586 184.0
345.521118 184.0
346.079987 368.0
346.105927 140.0
346.798676 148.0
347.074219 148.0
348.086761 152.0
349.040985 276.0
349.096039 144.0
351.641266 188.0
352.105316 184.0
352.586151 200.0
352.784241 168.0
354.046631 180.0
354.386047 156.0
355.006226 340.0
355.079559 148.0
355.74054 124.0
356.006744 252.0
356.07196 648.0
357.017059 1932.0
357.068329 328.0
358.019531 316.0
358.071594 328.0
358.22937 144.0
358.941681 152.0
359.015411 584.0
359.050415 400.0
360.016876 180.0
360.068817 168.0
361.079132 144.0
362.083344 156.0
363.021881 144.0
363.05603 156.0
365.03772 208.0
365.099152 180.0
366.051178 300.0
366.998535 2836.0
367.818298 136.0
368.000488 344.0
368.051666 180.0
369.014038 1844.0
369.688477 164.0
370.013794 424.0
371.017883 372.0
371.056641 172.0
371.872986 144.0
372.017059 128.0
373.05481 172.0
373.194458 156.0
373.744476 172.0
374.070679 404.0
376.020233 160.0
376.08252 116.0
377.022186 140.0
377.08313 260.0
378.856262 208.0
379.025879 164.0
381.234741 200.0
383.056488 136.0
384.063416 1104.0
384.939392 140.0
385.008667 1504.0
385.064972 256.0
386.012207 120.0
386.057678 788.0
387.004791 556.0
388.015106 100.0
388.960205 140.0
393.033508 140.0
394.049744 284.0
394.096191 288.0
395.055389 100.0
395.665771 148.0
396.02478 164.0
397.025574 112.0
399.598846 220.0
402.071289 252.0
403.074188 208.0
404.064392 252.0
404.099335 160.0
405.05957 120.0
406.08905 160.0
406.278778 148.0
406.391113 164.0
412.054657 1140.0
413.058563 336.0
413.576508 156.0
414.065948 244.0
416.146667 168.0
416.857483 196.0
418.187347 160.0
418.439728 164.0
418.51709 256.0
420.155518 232.0
424.462372 204.0
429.438507 180.0
429.545746 152.0
430.068054 15212.0
430.460602 120.0
430.723602 116.0
430.891541 148.0
431.073364 3476.0
431.474274 164.0
432.064728 4076.0
433.069336 688.0
434.022949 120.0
434.061096 308.0
436.045807 136.0
438.868805 212.0
442.072632 140.0
443.894867 152.0
444.045837 244.0
444.196838 168.0
444.981842 148.0
445.135895 156.0
445.333374 104.0
445.720306 96.0
445.788086 176.0
446.055664 424.0
446.410217 156.0
446.626038 332.0
446.662354 152.0
446.866058 172.0
447.094025 756.0
447.157043 128.0
447.239044 176.0
447.687775 116.0
447.771515 300.0
447.837372 156.0
447.905182 176.0
447.967438 196.0
448.080322 86172.0
448.269043 200.0
448.3172 392.0
448.439514 200.0
448.486084 104.0
448.640167 128.0
448.710358 180.0
448.777924 120.0
448.831482 100.0
448.890259 252.0
448.96286 236.0
449.015625 108.0
449.082581 20312.0
449.19928 172.0
449.246063 216.0
449.287323 264.0
449.331665 144.0
449.415253 132.0
449.582245 172.0
449.811401 120.0
449.85965 132.0
450.003357 136.0
450.078125 27000.0
450.216248 196.0
450.285553 204.0
450.439362 148.0
450.657166 156.0
450.903473 156.0
451.080017 4424.0
451.188324 120.0
451.277954 152.0
451.611267 104.0
451.737457 196.0
451.807465 164.0
451.844269 148.0
451.919098 112.0
451.976685 132.0
452.079651 764.0
452.167328 104.0
452.209167 96.0
452.249542 96.0
452.98819 136.0
453.024078 184.0
453.339355 136.0
457.360962 152.0
460.87793 152.0
463.091064 272.0
463.542297 108.0
463.765808 112.0
464.092224 260.0
464.471802 252.0
464.570709 136.0
464.684265 224.0
464.7435 144.0
464.847321 184.0
464.892883 168.0
464.9422 212.0
465.027405 324.0
465.106689 54500.0
465.259857 112.0
465.586365 128.0
465.737823 172.0
465.859833 164.0
466.108643 12232.0
466.233765 140.0
466.494904 108.0
466.70459 136.0
466.839752 128.0
466.916626 116.0
467.103729 16320.0
467.317017 160.0
467.986938 108.0
468.105988 3368.0
468.209045 148.0
468.26001 152.0
468.33374 196.0
468.709747 96.0
468.990784 100.0
469.073395 164.0
469.107452 688.0
470.892914 120.0
471.00824 160.0
471.282623 116.0
533.35791 168.0
1079.018921 176.0
1283.988647 140.0
1648.536255 152.0
1661.182129 180.0
1724.207031 144.0
1744.4646 224.0
1751.337769 220.0
1787.900391 272.0
1809.907471 156.0
1848.639038 144.0
1931.441284 164.0
1972.39978 216.0
