>compound MLS002153346-01!Metrazoline
>formula C12H14N2
>ionization [M+H]+
>parentmass 187.12381
#inchi InChI=1S/C12H14N2/c1-10-4-2-3-5-11(10)6-7-12-13-8-9-14-12/h2-7H,8-9H2,1H3,(H,13,14)/b7-6+
#inchikey GFIPROCAVXFHHK
#origInchi InChI=1S/C12H14N2.C2H2O4/c1-10-4-2-3-5-11(10)6-7-12-13-8-9-14-12;3-1(4)2(5)6/h2-7H,8-9H2,1H3,(H,13,14);(H,3,4)(H,5,6)/b7-6+;
#Ion_Source LC-ESI
#Instrument qTof
#Compound_Source NIH Pharmacologically Active Library
#PI Dorrestein
#Data_Collector VP/LMS
#Scan -1
#Precursor_MZ 187.128
#ExactMass 186.116
#Charge 1
#CAS_Number N/A
#Pubmed_ID N/A
#Smiles Cc1ccccc1/C=C/C2=NCCN2.OC(=O)C(=O)O
#INCHI_AUX N/A
#Library_Class 1
#SpectrumID CCMSLIB00000085561
#IonMode Positive
#UpdateWorkflowName UPDATE-SINGLE-ANNOTATED-GOLD
#LibraryQualityString Gold
#TaskID d252d724072548979f1f6f1ced849daf
##Scan# 1311
#SpectrumFile p4-C08_GC8_01_18356.mzXML
#LibraryName Pharm_Active_Library.mgf
#MQScore -1
#Organism Pharm_Active_Library
#TIC_Query 0
#RT_Query -1
#MZErrorPPM -1
#SharedPeaks 0
#MassDiff 0
#LibMZ -1
#SpecMZ 187.128
#SpecCharge 0
#internalFilename spec-00000.mgf

>collision 10
44.889889 144.0
44.936127 108.0
44.945469 144.0
44.956142 180.0
44.978832 172.0
44.99218 144.0
45.009537 188.0
45.026897 140.0
45.050941 160.0
45.0937 108.0
45.108269 204.0
45.133804 48.0
45.152523 192.0
45.168201 216.0
45.188641 152.0
45.214066 160.0
45.266273 100.0
45.294399 120.0
45.318512 236.0
45.334839 152.0
45.408939 140.0
45.412621 180.0
45.443203 176.0
45.468212 260.0
45.564453 232.0
45.582722 172.0
45.596287 136.0
45.637959 216.0
45.66354 164.0
45.720013 132.0
45.735714 160.0
45.783287 104.0
45.804836 156.0
45.819653 104.0
45.838516 216.0
45.884342 184.0
45.973366 164.0
46.022617 148.0
46.048473 220.0
46.104359 172.0
46.115173 168.0
46.155727 100.0
46.179798 120.0
46.314068 172.0
46.350647 228.0
46.391819 296.0
46.43605 148.0
46.452076 236.0
46.468605 160.0
46.48896 188.0
46.501175 104.0
46.511307 172.0
46.531036 148.0
46.624763 172.0
46.636753 112.0
46.670746 208.0
46.7145 236.0
46.791 168.0
46.803967 212.0
46.826115 176.0
46.846546 164.0
46.866982 196.0
46.888786 188.0
46.935673 172.0
46.955589 208.0
46.97332 172.0
47.04974 196.0
47.086609 184.0
47.122124 192.0
47.131355 180.0
47.146721 84.0
47.176788 56.0
47.241062 144.0
47.286217 172.0
47.303478 72.0
47.339607 180.0
47.351933 200.0
47.36974 180.0
47.417694 92.0
47.440998 156.0
47.552101 164.0
47.56308 112.0
47.578049 164.0
47.616631 92.0
47.636375 192.0
47.660816 192.0
47.726154 228.0
47.744442 168.0
47.782955 88.0
47.807724 100.0
47.818733 160.0
47.871048 132.0
47.883442 104.0
47.908234 132.0
47.920635 148.0
47.944057 148.0
47.959217 116.0
47.98679 204.0
48.039196 96.0
48.088871 164.0
48.155891 176.0
48.177242 216.0
48.221458 124.0
48.253254 156.0
48.279934 192.0
48.291969 204.0
48.312721 100.0
48.352848 180.0
48.391605 52.0
48.484413 136.0
48.49894 108.0
48.527386 180.0
48.550957 132.0
48.624485 144.0
48.65086 176.0
48.672169 172.0
48.702236 172.0
48.753643 184.0
48.770321 188.0
48.78561 196.0
48.798679 180.0
48.850971 56.0
48.941433 176.0
48.954651 140.0
48.970676 144.0
49.055672 204.0
49.083557 188.0
49.14772 180.0
49.158882 188.0
49.221661 272.0
49.255215 92.0
49.308311 160.0
49.344654 216.0
49.37262 172.0
49.400967 180.0
49.422977 80.0
49.470913 144.0
49.490162 128.0
49.525173 132.0
49.581215 32.0
49.622272 124.0
49.680767 144.0
49.713039 192.0
49.885796 284.0
49.908287 168.0
49.940632 168.0
49.957512 128.0
49.971581 124.0
49.994095 64.0
50.003944 152.0
50.034912 180.0
50.099693 144.0
50.147602 136.0
50.188484 144.0
50.202587 172.0
50.223743 92.0
50.241604 220.0
50.274532 44.0
50.297783 152.0
50.362064 156.0
50.417164 196.0
50.511894 212.0
50.55151 156.0
50.614643 220.0
50.624187 200.0
50.666195 116.0
50.74131 112.0
50.763996 88.0
50.788105 84.0
50.812222 240.0
50.884602 148.0
50.951351 152.0
50.968399 132.0
50.982613 164.0
51.011036 128.0
51.035206 208.0
51.048004 40.0
51.063648 248.0
51.110592 132.0
51.161678 188.0
51.179951 148.0
51.209599 168.0
51.219395 160.0
51.268654 128.0
51.292885 196.0
51.305714 116.0
51.325672 148.0
51.367031 176.0
51.411263 84.0
51.428387 180.0
51.479786 200.0
51.496922 168.0
51.50835 172.0
51.529778 108.0
51.543514 176.0
51.546448 108.0
51.551537 140.0
51.59409 56.0
51.687054 188.0
51.698502 172.0
51.807411 188.0
51.878048 236.0
51.929218 200.0
51.944939 176.0
51.973629 204.0
51.98798 220.0
52.012379 96.0
52.025299 172.0
52.049706 104.0
52.107929 200.0
52.20499 184.0
52.224842 212.0
52.242401 160.0
52.282581 196.0
52.295536 184.0
52.320004 116.0
52.357441 148.0
52.39201 128.0
52.406418 192.0
52.419388 116.0
52.464066 116.0
52.490021 192.0
52.513092 192.0
52.539059 100.0
52.564205 164.0
52.58379 124.0
52.611214 104.0
52.66753 152.0
52.705093 200.0
52.72966 204.0
52.741894 224.0
52.773026 92.0
52.784592 152.0
52.82943 48.0
52.8405 184.0
52.971291 144.0
53.003166 128.0
53.106094 232.0
53.152515 152.0
53.200871 252.0
53.232353 172.0
53.267208 120.0
53.292068 144.0
53.315155 32.0
53.328236 124.0
53.339863 204.0
53.37862 152.0
53.396568 128.0
53.409718 100.0
53.41988 160.0
53.438141 152.0
53.473679 188.0
53.498425 132.0
53.579975 172.0
53.596004 172.0
53.609119 128.0
53.623692 172.0
53.638859 128.0
53.68784 96.0
53.709717 108.0
53.756401 132.0
53.788509 124.0
53.820415 164.0
53.825008 140.0
53.839611 56.0
53.867432 164.0
53.879017 188.0
53.92873 260.0
53.947735 176.0
53.959881 208.0
54.015366 176.0
54.03109 172.0
54.044258 128.0
54.080845 216.0
54.094017 140.0
54.115978 180.0
54.133766 244.0
54.200932 96.0
54.284485 92.0
54.342537 76.0
54.361549 176.0
54.37397 180.0
54.385712 120.0
54.400391 212.0
54.428288 140.0
54.460594 56.0
54.479691 136.0
54.506138 168.0
54.534058 136.0
54.547287 396.0
54.645817 104.0
54.657169 168.0
54.740021 108.0
54.788624 380.0
54.883057 220.0
54.97588 176.0
55.031971 112.0
55.074799 120.0
55.154774 128.0
55.207813 56.0
55.218166 128.0
55.302498 184.0
55.358013 156.0
55.552917 152.0
55.572201 160.0
55.624146 160.0
55.661259 136.0
55.691082 148.0
55.729004 164.0
55.740841 236.0
55.774166 168.0
55.807171 40.0
55.847023 184.0
55.867851 116.0
55.893143 172.0
55.909512 196.0
55.945816 204.0
55.982456 140.0
56.018204 164.0
56.074821 216.0
56.088627 260.0
56.116562 196.0
56.203068 128.0
56.250828 96.0
56.335335 260.0
56.347561 180.0
56.386795 120.0
56.401691 136.0
56.677059 152.0
56.728828 140.0
56.772995 176.0
56.811993 232.0
56.848 164.0
56.867512 168.0
56.87952 180.0
56.907398 140.0
56.933571 144.0
56.997868 224.0
57.014694 252.0
57.043251 188.0
57.062202 132.0
57.080837 172.0
57.094372 44.0
57.121685 124.0
57.147018 128.0
57.231167 172.0
57.243351 164.0
57.337154 224.0
57.353333 148.0
57.372955 224.0
57.440788 140.0
57.453995 148.0
57.467392 308.0
57.523781 200.0
57.537365 108.0
57.552574 168.0
57.581158 120.0
57.591728 176.0
57.62719 164.0
57.640072 180.0
57.67181 136.0
57.683903 160.0
57.708088 160.0
57.762531 228.0
57.774635 196.0
57.865437 84.0
57.882092 180.0
57.910866 136.0
57.96389 188.0
58.00481 116.0
58.077591 184.0
58.209625 196.0
58.227848 196.0
58.243038 156.0
58.259449 164.0
58.319008 124.0
58.363094 120.0
58.503029 172.0
58.531994 168.0
58.551788 220.0
58.580242 188.0
58.611198 152.0
58.624912 88.0
58.748413 108.0
58.76062 76.0
58.772823 56.0
58.788849 296.0
58.870518 172.0
58.894077 248.0
58.959122 136.0
59.000393 164.0
59.021797 140.0
59.056969 76.0
59.099804 92.0
59.112045 132.0
59.242188 168.0
59.261761 144.0
59.278957 176.0
59.332603 108.0
59.387577 188.0
59.392834 260.0
59.455311 44.0
59.522854 328.0
59.555107 164.0
59.591976 92.0
59.618095 196.0
59.699574 116.0
59.738022 216.0
59.88271 196.0
59.925842 196.0
59.939713 148.0
59.969177 200.0
60.078472 164.0
60.104698 296.0
60.137108 88.0
60.234383 28.0
60.246742 148.0
60.260647 144.0
60.303741 192.0
60.334827 128.0
60.34565 208.0
60.368847 172.0
60.382763 84.0
60.398232 156.0
60.497265 140.0
60.511196 140.0
60.565399 124.0
60.604126 124.0
60.651413 156.0
60.731247 112.0
60.743221 200.0
60.746628 144.0
60.751774 188.0
60.768475 156.0
60.797958 208.0
60.824345 188.0
60.864708 120.0
60.917427 148.0
60.96257 188.0
61.002979 192.0
61.062065 148.0
61.118069 172.0
61.158527 144.0
61.170982 180.0
61.199005 184.0
61.228592 132.0
61.256626 164.0
61.331573 164.0
61.437458 192.0
61.510799 128.0
61.562321 168.0
61.652889 156.0
61.693081 116.0
61.710766 140.0
61.729527 184.0
61.743565 172.0
61.763935 116.0
61.778011 60.0
61.854691 192.0
61.868778 192.0
61.882164 180.0
61.96431 56.0
62.042671 180.0
62.067757 188.0
62.136768 144.0
62.147751 148.0
62.174427 168.0
62.218376 92.0
62.268623 220.0
62.287472 176.0
62.419487 136.0
62.436787 148.0
62.480827 224.0
62.51387 152.0
62.691818 220.0
62.707577 168.0
62.724915 136.0
62.742256 180.0
62.753292 128.0
62.769058 160.0
62.841751 184.0
62.866859 240.0
62.93158 108.0
62.94421 196.0
63.018448 192.0
63.052032 188.0
63.081406 148.0
63.100632 200.0
63.141743 188.0
63.225594 128.0
63.26358 160.0
63.307911 132.0
63.339588 168.0
63.407295 180.0
63.437836 184.0
63.507603 128.0
63.537411 192.0
63.677429 140.0
63.737793 144.0
63.755276 176.0
63.778957 204.0
63.857788 216.0
63.903152 160.0
63.923023 176.0
63.944527 196.0
63.954952 180.0
64.017761 180.0
64.044632 188.0
64.102188 204.0
64.125374 220.0
64.170723 204.0
64.181633 176.0
64.255035 148.0
64.30632 128.0
64.354782 188.0
64.40052 160.0
64.437256 196.0
64.459625 52.0
64.485199 128.0
64.51136 196.0
64.546318 240.0
64.563812 168.0
64.60672 180.0
64.632317 152.0
64.686737 224.0
64.705948 168.0
64.745972 44.0
64.773201 264.0
64.866142 116.0
64.877365 200.0
64.899353 168.0
64.931877 140.0
65.041458 188.0
65.061905 128.0
65.105202 188.0
65.126129 144.0
65.148575 192.0
65.191956 136.0
65.25946 136.0
65.271988 172.0
65.296448 172.0
65.529854 68.0
65.555641 160.0
65.572258 152.0
65.607216 180.0
65.673325 284.0
65.747543 168.0
65.781433 32.0
65.813728 128.0
65.973671 64.0
66.065849 220.0
66.107918 148.0
66.216255 208.0
66.232346 140.0
66.269836 164.0
66.297386 132.0
66.311974 112.0
66.331421 148.0
66.367088 140.0
66.378441 164.0
66.644638 168.0
66.730782 196.0
66.852776 60.0
66.879311 224.0
66.929283 168.0
66.953705 76.0
66.992798 100.0
67.110138 100.0
67.172112 164.0
67.204735 108.0
67.229218 184.0
67.247421 128.0
67.27655 164.0
67.387604 220.0
67.403938 144.0
67.422325 160.0
67.484032 152.0
67.497116 104.0
67.583801 264.0
67.601807 64.0
67.649269 132.0
67.680374 140.0
67.695114 156.0
67.729507 196.0
67.749161 244.0
67.822311 144.0
67.849594 168.0
67.872086 160.0
67.895164 108.0
67.936043 164.0
67.959015 224.0
67.973778 132.0
67.993469 104.0
68.01664 172.0
68.073914 148.0
68.087051 112.0
68.103477 112.0
68.114975 176.0
68.243156 172.0
68.290848 128.0
68.309692 200.0
68.33197 152.0
68.352821 224.0
68.39286 140.0
68.419197 212.0
68.457062 72.0
68.509773 132.0
68.536041 488.0
68.57074 224.0
68.620186 156.0
68.651566 132.0
68.673416 172.0
68.714195 124.0
68.763702 200.0
68.83799 176.0
68.854507 140.0
68.888077 140.0
68.900757 164.0
68.913971 176.0
68.9338 324.0
69.063789 160.0
69.092529 192.0
69.157066 136.0
69.181892 92.0
69.235771 192.0
69.261375 156.0
69.279594 128.0
69.336411 208.0
69.359138 176.0
69.443695 140.0
69.45697 88.0
69.523331 96.0
69.552132 192.0
69.570694 292.0
69.606331 160.0
69.636223 156.0
69.667206 160.0
69.682739 132.0
69.724274 184.0
69.780792 160.0
69.794098 212.0
69.808044 256.0
69.843987 140.0
69.885574 128.0
70.040398 164.0
70.207062 172.0
70.243759 172.0
70.367249 132.0
70.390625 136.0
70.432381 116.0
70.477486 196.0
70.583153 92.0
70.597839 208.0
70.642998 168.0
70.689842 228.0
70.771858 272.0
70.842201 224.0
70.887436 132.0
70.951134 100.0
70.964546 172.0
71.006462 188.0
71.058594 160.0
71.083366 176.0
71.221298 164.0
71.232025 104.0
71.252182 208.0
71.259361 200.0
71.329628 172.0
71.349007 188.0
71.384315 188.0
71.401138 140.0
71.41851 240.0
71.461288 232.0
71.507675 148.0
71.523956 196.0
71.551804 200.0
71.576149 204.0
71.626671 36.0
71.673843 136.0
71.754745 184.0
71.790154 192.0
71.801956 180.0
71.821884 152.0
71.834557 184.0
71.855934 72.0
71.874496 184.0
71.947067 172.0
71.981445 184.0
72.045021 148.0
72.075432 188.0
72.097397 140.0
72.127815 148.0
72.175156 168.0
72.246666 148.0
72.303719 120.0
72.315567 120.0
72.346031 140.0
72.412689 176.0
72.427315 180.0
72.457809 168.0
72.495079 132.0
72.543121 164.0
72.566277 160.0
72.620537 212.0
72.642586 204.0
72.763611 204.0
72.802132 184.0
72.820816 144.0
72.858185 48.0
72.875175 212.0
72.887062 164.0
72.900658 152.0
72.926155 88.0
72.943146 208.0
72.990753 220.0
73.058784 388.0
73.09111 196.0
73.121742 156.0
73.135361 64.0
73.177917 184.0
73.203453 148.0
73.233261 112.0
73.337433 388.0
73.361908 164.0
73.389183 156.0
73.432983 276.0
73.484695 208.0
73.580276 208.0
73.592224 100.0
73.701538 104.0
73.737724 248.0
73.769897 144.0
73.785286 92.0
73.848557 108.0
73.870789 136.0
73.922119 100.0
73.96833 116.0
73.997429 152.0
74.009415 208.0
74.079124 188.0
74.091629 204.0
74.158455 168.0
74.170448 196.0
74.204735 168.0
74.239029 168.0
74.25618 176.0
74.31794 160.0
74.362747 104.0
74.390015 40.0
74.475868 132.0
74.52494 128.0
74.568649 124.0
74.647728 168.0
74.730293 172.0
74.757828 192.0
74.792244 120.0
74.819786 156.0
74.837006 84.0
74.931732 168.0
74.962746 176.0
75.006653 180.0
75.143791 156.0
75.190384 160.0
75.21109 212.0
75.233536 140.0
75.25425 156.0
75.376884 180.0
75.446022 140.0
75.461418 168.0
75.532486 152.0
75.560165 168.0
75.575218 160.0
75.580246 112.0
75.585266 228.0
75.672661 136.0
75.736732 44.0
75.766182 68.0
75.868423 180.0
75.891907 52.0
75.904839 220.0
75.969009 136.0
76.036674 144.0
76.073128 184.0
76.140846 188.0
76.163422 184.0
76.203377 148.0
76.232918 156.0
76.252411 204.0
76.351891 156.0
76.453773 156.0
76.526878 116.0
76.582603 136.0
76.603508 116.0
76.671455 148.0
76.708061 168.0
76.734436 124.0
76.801369 168.0
76.843414 224.0
76.873589 176.0
76.918755 264.0
76.945312 132.0
77.068115 204.0
77.090286 172.0
77.17244 180.0
77.207932 176.0
77.292236 204.0
77.307693 148.0
77.322495 220.0
77.38414 296.0
77.406906 160.0
77.441933 144.0
77.454193 176.0
77.487473 136.0
77.530579 140.0
77.562828 176.0
77.595642 256.0
77.659264 156.0
77.790863 160.0
77.803154 156.0
77.834755 220.0
77.852318 216.0
77.875145 144.0
77.890106 144.0
77.958092 132.0
77.999901 148.0
78.02803 224.0
78.101883 160.0
78.121231 88.0
78.174454 176.0
78.233856 140.0
78.277878 184.0
78.323662 168.0
78.397659 152.0
78.469933 132.0
78.499908 132.0
78.524597 188.0
78.581039 144.0
78.699608 160.0
78.745209 148.0
78.761101 136.0
78.816666 156.0
78.875954 48.0
78.901756 188.0
78.94976 204.0
79.029045 92.0
79.066452 148.0
79.071129 104.0
79.07798 184.0
79.093971 220.0
79.148407 168.0
79.164345 184.0
79.178513 216.0
79.212158 160.0
79.254677 144.0
79.280067 208.0
79.309616 100.0
79.341522 124.0
79.355705 160.0
79.375214 164.0
79.394722 176.0
79.499481 152.0
79.518906 108.0
79.541977 224.0
79.570381 160.0
79.655624 72.0
79.66806 284.0
79.752663 164.0
79.774681 68.0
79.824463 180.0
79.852921 224.0
79.882523 180.0
79.900993 156.0
79.970345 324.0
79.997047 140.0
80.15377 124.0
80.206596 188.0
80.280334 144.0
80.306046 192.0
80.326706 80.0
80.343681 124.0
80.383797 124.0
80.404335 252.0
80.434906 180.0
80.53376 200.0
80.55162 176.0
80.573059 208.0
80.585564 228.0
80.599861 196.0
80.640961 160.0
80.658836 136.0
80.708893 64.0
80.741829 96.0
80.766121 156.0
80.80011 144.0
80.822029 160.0
80.873474 140.0
80.893578 176.0
80.923599 184.0
80.965767 168.0
80.991653 164.0
81.014938 176.0
81.092934 144.0
81.111702 136.0
81.126045 172.0
81.15831 348.0
81.217491 104.0
81.242607 40.0
81.260544 184.0
81.296432 152.0
81.323311 156.0
81.42749 104.0
81.442284 204.0
81.467461 220.0
81.497543 72.0
81.567635 200.0
81.605385 192.0
81.638611 184.0
81.714691 176.0
81.734886 164.0
81.758247 208.0
81.786217 176.0
81.824883 196.0
81.851891 168.0
81.908417 164.0
81.992401 168.0
82.065651 208.0
82.129425 184.0
82.176582 228.0
82.201584 52.0
82.25573 36.0
82.376717 152.0
82.394783 192.0
82.414658 160.0
82.439651 168.0
82.468872 188.0
82.48333 268.0
82.521172 176.0
82.541183 200.0
82.571922 188.0
82.604446 208.0
82.707619 184.0
82.723915 64.0
82.759071 124.0
82.799957 160.0
82.816261 68.0
82.836182 144.0
82.970284 60.0
83.043602 380.0
83.065208 220.0
83.072701 76.0
83.076515 180.0
83.099846 228.0
83.13353 168.0
83.150925 136.0
83.169823 140.0
83.195236 180.0
83.331444 204.0
83.441925 212.0
83.478676 120.0
83.496864 188.0
83.542336 164.0
83.571442 76.0
83.589638 32.0
83.606018 196.0
83.642418 104.0
83.680649 120.0
83.718887 168.0
83.733452 68.0
83.748024 132.0
83.761513 208.0
83.782257 200.0
83.819077 128.0
83.870102 204.0
83.924789 152.0
83.948494 220.0
83.970383 140.0
83.99044 180.0
84.039894 152.0
84.127304 192.0
84.180252 204.0
84.242348 112.0
84.31543 148.0
84.356255 216.0
84.371811 144.0
84.399521 132.0
84.412323 176.0
84.42878 224.0
84.454384 164.0
84.472679 152.0
84.507698 224.0
84.539886 152.0
84.578804 208.0
84.63739 168.0
84.679085 380.0
84.723465 128.0
84.738602 200.0
84.76561 120.0
84.791267 188.0
84.858154 188.0
84.963623 176.0
84.992981 176.0
85.046204 176.0
85.073738 160.0
85.117798 140.0
85.200447 180.0
85.220657 84.0
85.325417 152.0
85.338287 124.0
85.353966 152.0
85.470718 136.0
85.50016 132.0
85.526894 160.0
85.560905 120.0
85.581154 144.0
85.609779 164.0
85.632713 172.0
85.649292 132.0
85.676926 132.0
85.748787 148.0
85.761688 252.0
85.804893 132.0
85.829903 136.0
85.850182 120.0
85.894447 176.0
85.925804 100.0
85.986626 188.0
86.049461 176.0
86.101166 128.0
86.157898 196.0
86.184288 160.0
86.220657 188.0
86.256363 212.0
86.282738 196.0
86.301598 128.0
86.317375 136.0
86.330322 176.0
86.404884 140.0
86.452415 96.0
86.515343 240.0
86.585709 136.0
86.602371 288.0
86.657944 180.0
86.739487 164.0
86.772858 200.0
86.796822 164.0
86.828484 168.0
86.900826 188.0
86.917526 188.0
86.930519 156.0
86.986198 164.0
87.044487 164.0
87.079033 148.0
87.092033 128.0
87.208244 176.0
87.237465 196.0
87.257423 164.0
87.332214 144.0
87.428436 168.0
87.488106 160.0
87.503693 108.0
87.532791 196.0
87.594254 168.0
87.638962 160.0
87.691139 128.0
87.728424 156.0
87.765709 220.0
87.803001 196.0
87.864555 164.0
87.974663 120.0
88.062424 220.0
88.136978 180.0
88.165176 160.0
88.190971 160.0
88.223122 72.0
88.258644 124.0
88.271736 184.0
88.305397 188.0
88.339066 136.0
88.377502 336.0
88.400803 108.0
88.447594 220.0
88.46257 124.0
88.500015 320.0
88.522484 184.0
88.53746 196.0
88.588036 168.0
88.687347 164.0
88.702339 224.0
88.756706 184.0
88.820297 128.0
88.846733 100.0
88.874878 76.0
88.905678 164.0
88.919914 164.0
89.03566 176.0
89.03936 232.0
89.11145 144.0
89.150909 168.0
89.164062 96.0
89.222336 136.0
89.303192 68.0
89.341492 176.0
89.34903 152.0
89.402901 196.0
89.488815 216.0
89.50267 140.0
89.569435 124.0
89.593071 196.0
89.606262 132.0
89.626602 176.0
89.660904 104.0
89.689034 208.0
89.706139 260.0
89.737282 116.0
89.75663 164.0
89.798531 56.0
89.851349 204.0
89.875877 144.0
89.930603 128.0
89.983459 136.0
90.047348 192.0
90.083 88.0
90.103935 212.0
90.159126 144.0
90.183067 96.0
90.19693 112.0
90.230957 168.0
90.254814 168.0
90.282005 144.0
90.299026 204.0
90.363838 152.0
90.389145 232.0
90.427681 36.0
90.45607 156.0
90.49015 108.0
90.565895 124.0
90.601883 148.0
90.62841 264.0
90.679665 172.0
90.717484 160.0
90.880173 380.0
90.975479 164.0
91.002052 212.0
91.054787 8576.0
91.106117 156.0
91.13121 104.0
91.190941 148.0
91.211021 180.0
91.227394 144.0
91.327011 192.0
91.3993 108.0
91.437363 32.0
91.475426 72.0
91.55349 192.0
91.578247 160.0
91.606819 160.0
91.673508 108.0
91.703995 52.0
91.755463 160.0
91.827927 180.0
91.877518 176.0
91.892784 148.0
91.959572 240.0
91.972931 124.0
92.060951 1184.0
92.089401 136.0
92.18325 224.0
92.219322 40.0
92.240349 112.0
92.261375 88.0
92.284775 284.0
92.342514 120.0
92.392166 164.0
92.41629 52.0
92.437546 220.0
92.471008 208.0
92.476357 124.0
92.485237 132.0
92.510063 196.0
92.53006 144.0
92.5541 68.0
92.56942 96.0
92.681992 208.0
92.730339 60.0
92.776459 140.0
92.792694 152.0
92.797768 184.0
92.831947 160.0
92.85688 160.0
92.895241 32.0
92.908669 128.0
92.932205 60.0
92.99118 204.0
93.029572 172.0
93.064842 156.0
93.114868 196.0
93.129417 136.0
93.166939 124.0
93.208183 200.0
93.223557 180.0
93.25238 120.0
93.275444 76.0
93.333122 64.0
93.350426 232.0
93.410049 156.0
93.466187 200.0
93.531273 116.0
93.548599 72.0
93.590958 84.0
93.614059 192.0
93.70652 128.0
93.797089 112.0
93.814438 172.0
93.843361 192.0
93.86071 164.0
93.910851 164.0
93.955215 160.0
93.982231 216.0
94.020821 104.0
94.066841 152.0
94.142441 232.0
94.15789 176.0
94.204247 192.0
94.304726 88.0
94.329857 136.0
94.395584 124.0
94.486496 192.0
94.508392 188.0
94.54261 144.0
94.57164 220.0
94.58519 128.0
94.610352 76.0
94.668434 96.0
94.689743 204.0
94.7033 80.0
94.788536 184.0
94.811592 172.0
94.844742 196.0
94.878479 228.0
94.930046 136.0
94.981644 172.0
95.017784 152.0
95.06015 1020.0
95.11824 176.0
95.137039 304.0
95.1726 272.0
95.193954 80.0
95.282921 164.0
95.302734 252.0
95.345482 180.0
95.518524 348.0
95.55938 160.0
95.683937 124.0
95.750137 136.0
95.809967 140.0
95.853386 140.0
95.874825 196.0
95.960449 220.0
96.01519 96.0
96.050293 108.0
96.092842 232.0
96.124428 164.0
96.154564 168.0
96.18103 104.0
96.22007 152.0
96.242599 156.0
96.259117 172.0
96.272789 68.0
96.372406 192.0
96.411491 164.0
96.46035 284.0
96.493584 144.0
96.515091 212.0
96.550293 204.0
96.579628 188.0
96.59919 132.0
96.624619 172.0
96.644188 72.0
96.680618 136.0
96.712677 156.0
96.74987 152.0
96.777283 84.0
96.820358 156.0
96.849739 148.0
96.890877 184.0
96.908508 116.0
96.92614 228.0
96.969254 152.0
96.987877 164.0
97.033943 68.0
97.049629 208.0
97.098648 116.0
97.155533 168.0
97.177116 152.0
97.249718 152.0
97.277199 256.0
97.373413 120.0
97.418587 40.0
97.438232 132.0
97.457878 32.0
97.476311 400.0
97.583672 152.0
97.597435 152.0
97.620285 324.0
97.735115 60.0
97.774475 176.0
97.859116 168.0
97.886681 48.0
97.910316 184.0
97.96743 160.0
98.048218 160.0
98.176361 56.0
98.25914 132.0
98.324318 208.0
98.369713 124.0
98.400314 80.0
98.450668 56.0
98.474365 148.0
98.53875 296.0
98.593216 228.0
98.679878 128.0
98.721397 176.0
98.745132 180.0
98.897476 152.0
98.970726 144.0
99.022209 144.0
99.051918 120.0
99.133148 68.0
99.158005 148.0
99.17675 176.0
99.200539 72.0
99.2164 176.0
99.273895 76.0
99.289764 64.0
99.317528 160.0
99.361168 176.0
99.375061 148.0
99.426651 192.0
99.442528 156.0
99.482224 132.0
99.496124 84.0
99.531418 36.0
99.587463 140.0
99.713486 168.0
99.72905 292.0
99.792145 160.0
99.904663 132.0
99.923409 120.0
99.94104 144.0
99.99704 60.0
100.018929 124.0
100.03746 156.0
100.06472 148.0
100.094582 56.0
100.15686 176.0
100.281845 148.0
100.317726 288.0
100.33168 180.0
100.439362 132.0
100.477264 160.0
100.557083 160.0
100.573044 148.0
100.614967 256.0
100.676865 128.0
100.700829 60.0
100.746773 84.0
100.82016 396.0
100.891029 280.0
100.978516 196.0
100.99427 152.0
101.010643 204.0
101.037727 368.0
101.068657 144.0
101.164139 164.0
101.18074 80.0
101.204765 164.0
101.222786 160.0
101.252823 192.0
101.290878 128.0
101.419113 216.0
101.463219 160.0
101.519356 176.0
101.595573 136.0
101.641724 64.0
101.737099 200.0
101.784233 172.0
101.93087 104.0
101.979431 196.0
102.013275 180.0
102.045517 1504.0
102.087662 180.0
102.111794 152.0
102.148537 196.0
102.182198 176.0
102.265038 184.0
102.311005 52.0
102.333145 208.0
102.347244 156.0
102.367378 44.0
102.389526 48.0
102.421753 192.0
102.57489 164.0
102.627098 188.0
102.720078 196.0
102.834274 208.0
102.913818 132.0
102.964302 140.0
103.015266 192.0
103.054398 7108.0
103.10405 160.0
103.122391 184.0
103.170403 112.0
103.194656 200.0
103.267456 100.0
103.30014 176.0
103.332191 260.0
103.350395 156.0
103.437721 160.0
103.483246 164.0
103.523735 228.0
103.560219 204.0
103.605499 136.0
103.633865 108.0
103.686546 200.0
103.733162 132.0
103.778305 232.0
103.835617 188.0
103.845566 120.0
103.925827 144.0
103.968445 52.0
103.992798 156.0
104.058739 1824.0
104.153198 192.0
104.199921 152.0
104.215141 220.0
104.252747 144.0
104.305595 176.0
104.33812 132.0
104.372681 132.0
104.394928 136.0
104.502853 60.0
104.523201 376.0
104.597816 260.0
104.665688 152.0
104.720673 88.0
104.741035 60.0
104.761406 124.0
104.790298 156.0
104.818459 160.0
104.906097 88.0
104.936478 168.0
105.006004 36.0
105.032204 180.0
105.070267 1728.0
105.105965 144.0
105.197807 80.0
105.214134 176.0
105.306023 136.0
105.325195 208.0
105.369347 128.0
105.383652 212.0
105.430649 92.0
105.459259 164.0
105.545731 160.0
105.726494 144.0
105.751862 136.0
105.858192 136.0
105.873894 156.0
105.886116 120.0
105.910553 188.0
105.957932 184.0
105.993385 208.0
106.039108 180.0
106.075775 220.0
106.146797 140.0
106.165581 96.0
106.325592 136.0
106.42363 224.0
106.487785 168.0
106.629547 160.0
106.655632 108.0
106.678879 52.0
106.779633 196.0
106.811226 232.0
106.831055 228.0
106.876312 68.0
106.901009 164.0
106.970543 188.0
107.057953 532.0
107.084229 136.0
107.111008 168.0
107.129547 72.0
107.21608 140.0
107.234406 148.0
107.282036 228.0
107.312965 124.0
107.450829 232.0
107.473839 56.0
107.546074 344.0
107.707123 96.0
107.783562 32.0
107.809273 208.0
107.824471 224.0
108.037865 164.0
108.06739 472.0
108.199287 208.0
108.213654 204.0
108.257263 196.0
108.287201 208.0
108.318138 152.0
108.34874 216.0
108.371185 168.0
108.393982 100.0
108.454079 228.0
108.478951 80.0
108.584976 180.0
108.60305 160.0
108.607147 136.0
108.698799 176.0
108.719543 164.0
108.800499 200.0
108.837868 140.0
108.891624 212.0
108.938583 172.0
108.987419 164.0
109.008194 172.0
109.069206 180.0
109.075142 176.0
109.08239 160.0
109.199501 172.0
109.245216 88.0
109.283119 164.0
109.345093 44.0
109.422112 164.0
109.488792 172.0
109.513733 168.0
109.530396 172.0
109.549141 68.0
109.57206 108.0
109.592896 120.0
109.661659 100.0
109.676254 148.0
109.703354 64.0
109.727509 188.0
109.767982 320.0
109.813866 104.0
109.847237 164.0
109.92041 160.0
109.936951 80.0
109.984955 184.0
110.078903 348.0
110.106049 180.0
110.170799 76.0
110.210495 164.0
110.281021 112.0
110.317078 136.0
110.333809 176.0
110.365166 128.0
110.425812 56.0
110.446724 196.0
110.469734 52.0
110.534592 180.0
110.555519 188.0
110.582726 192.0
110.629166 236.0
110.69368 120.0
110.72509 152.0
110.860527 148.0
110.886414 164.0
110.926231 128.0
110.955444 176.0
110.999313 196.0
111.124374 216.0
111.140152 36.0
111.175026 180.0
111.211502 100.0
111.293373 148.0
111.331169 220.0
111.375275 144.0
111.391113 212.0
111.440399 160.0
111.526558 56.0
111.60041 60.0
111.62326 160.0
111.690559 208.0
111.732635 172.0
111.806282 168.0
111.832375 200.0
111.873634 96.0
111.894684 60.0
111.917847 56.0
111.983124 208.0
112.086403 156.0
112.128372 136.0
112.20649 136.0
112.33696 136.0
112.367447 188.0
112.410515 184.0
112.444847 176.0
112.465958 136.0
112.487061 108.0
112.615868 128.0
112.677124 152.0
112.693306 176.0
112.72361 184.0
112.76799 184.0
112.79335 280.0
112.817673 148.0
112.945595 176.0
112.994247 152.0
113.040985 176.0
113.131805 148.0
113.269447 124.0
113.284279 228.0
113.307579 44.0
113.322411 116.0
113.364784 72.0
113.379623 204.0
113.453804 164.0
113.547104 124.0
113.602249 184.0
113.653168 120.0
113.668671 208.0
113.708344 232.0
113.725319 268.0
113.742302 140.0
113.799622 168.0
113.835716 100.0
113.85788 156.0
113.873947 164.0
113.929169 248.0
113.978653 240.0
114.012039 276.0
114.043503 308.0
114.137459 128.0
114.162971 88.0
114.184242 224.0
114.207634 216.0
114.283424 160.0
114.311882 204.0
114.358696 156.0
114.377853 116.0
114.494957 140.0
114.540535 160.0
114.558853 120.0
114.573769 56.0
114.597206 168.0
114.71228 112.0
114.726479 164.0
114.736488 124.0
114.742744 208.0
114.75177 184.0
114.766457 204.0
114.814362 352.0
114.847076 204.0
114.885612 200.0
114.900734 316.0
114.906044 88.0
114.913132 164.0
114.942879 132.0
114.97538 372.0
115.022194 176.0
115.055443 63092.0
115.129822 92.0
115.177734 140.0
115.229591 152.0
115.262138 288.0
115.294769 172.0
115.332527 168.0
115.362183 144.0
115.389015 76.0
115.406303 328.0
115.439156 116.0
115.489525 180.0
115.509537 156.0
115.551559 108.0
115.575096 52.0
115.610062 376.0
115.63073 176.0
115.662834 64.0
115.697746 224.0
115.747383 236.0
115.791298 180.0
115.834137 48.0
115.894127 120.0
115.927803 148.0
115.96051 188.0
116.02549 172.0
116.059723 9780.0
116.119118 196.0
116.14418 80.0
116.18943 168.0
116.222176 48.0
116.243629 92.0
116.260803 52.0
116.280113 128.0
116.365265 88.0
116.399429 76.0
116.434692 108.0
116.46476 136.0
116.520615 64.0
116.536568 236.0
116.571793 44.0
116.595818 72.0
116.632355 92.0
116.669846 136.0
116.68927 228.0
116.702583 60.0
116.745255 188.0
116.807335 180.0
116.832199 124.0
116.883972 152.0
116.91539 240.0
116.935623 128.0
116.96949 156.0
116.980904 152.0
117.009605 304.0
117.069733 36244.0
117.12178 28.0
117.150436 152.0
117.186028 112.0
117.201874 80.0
117.236 192.0
117.262344 160.0
117.291779 236.0
117.316757 72.0
117.338432 44.0
117.384476 80.0
117.415894 52.0
117.424072 28.0
117.473396 288.0
117.520889 148.0
117.550713 144.0
117.585739 148.0
117.618286 352.0
117.636139 256.0
117.695175 244.0
117.741943 232.0
117.763809 128.0
117.794395 112.0
117.808899 144.0
117.832664 152.0
117.860748 140.0
117.882072 84.0
117.910454 48.0
117.946198 80.0
117.976357 200.0
118.004387 184.0
118.019829 168.0
118.066681 16028.0
118.148827 204.0
118.17318 80.0
118.213211 92.0
118.258659 44.0
118.307854 44.0
118.314102 52.0
118.421585 160.0
118.465919 184.0
118.498489 292.0
118.545914 200.0
118.609543 84.0
118.664749 60.0
118.730957 212.0
118.752647 68.0
118.769997 148.0
118.803055 184.0
118.848099 104.0
118.865456 120.0
118.897377 124.0
118.921471 84.0
118.949913 92.0
118.967461 176.0
118.995399 120.0
119.040543 188.0
119.082779 3532.0
119.115128 140.0
119.171814 128.0
119.321571 36.0
119.341141 80.0
119.410728 44.0
119.495567 124.0
119.517319 156.0
119.64138 88.0
119.665321 68.0
119.682602 116.0
119.75164 220.0
119.798172 72.0
119.822136 100.0
119.850456 168.0
119.872246 96.0
119.944168 68.0
119.972504 124.0
120.000847 124.0
120.046638 148.0
120.087921 408.0
120.112068 108.0
120.168785 96.0
120.210243 104.0
120.332474 172.0
120.426376 144.0
120.474426 72.0
120.513756 40.0
120.550903 116.0
120.607727 108.0
120.719223 144.0
120.865784 140.0
120.909546 96.0
120.949623 128.0
121.076729 264.0
121.094254 284.0
121.110809 160.0
121.159164 64.0
121.188126 256.0
121.227089 140.0
121.378334 184.0
121.404648 188.0
121.441269 184.0
121.509933 44.0
121.619659 140.0
121.635025 100.0
121.707466 152.0
121.832657 148.0
121.871567 180.0
121.905159 64.0
121.949699 136.0
122.081024 28.0
122.125008 148.0
122.144806 208.0
122.197601 148.0
122.400093 96.0
122.501404 168.0
122.739433 120.0
122.798332 180.0
122.82103 84.0
122.836472 128.0
122.896034 160.0
122.918098 116.0
123.018753 160.0
123.061569 36.0
123.083649 200.0
123.098389 148.0
123.176407 32.0
123.231293 196.0
123.261589 144.0
123.286873 248.0
123.302345 120.0
123.326782 140.0
123.370865 124.0
123.401817 192.0
123.42614 48.0
123.447441 200.0
123.491043 80.0
123.567696 192.0
123.841309 192.0
123.859901 100.0
123.967392 176.0
123.988411 188.0
124.032738 164.0
124.074852 32.0
124.13694 216.0
124.157997 204.0
124.236748 104.0
124.298866 128.0
124.32328 256.0
124.343254 160.0
124.378761 232.0
124.491989 128.0
124.625267 148.0
124.734161 72.0
124.820869 136.0
124.845329 136.0
125.012169 124.0
125.076714 108.0
125.10788 132.0
125.179123 168.0
125.2994 200.0
125.48748 164.0
125.524513 168.0
125.578041 136.0
125.601273 168.0
125.623619 228.0
125.665039 92.0
125.696274 160.0
125.747604 128.0
125.97982 120.0
126.04734 360.0
126.080772 176.0
126.122833 152.0
126.194366 164.0
126.218468 168.0
126.292763 40.0
126.36364 164.0
126.45575 156.0
126.601608 56.0
126.740494 188.0
126.760658 76.0
126.789795 184.0
126.894562 292.0
126.92878 112.0
126.960175 132.0
126.993813 212.0
127.027458 56.0
127.054947 7244.0
127.101494 52.0
127.148621 60.0
127.16433 152.0
127.251877 60.0
127.312424 120.0
127.510201 168.0
127.651825 56.0
127.798035 152.0
127.824883 180.0
127.850464 132.0
127.90155 156.0
127.996101 140.0
128.059814 6444.0
128.178558 168.0
128.241653 184.0
128.340851 48.0
128.363403 52.0
128.432678 72.0
128.476166 152.0
128.505493 164.0
128.543854 52.0
128.582214 56.0
128.627365 44.0
128.649933 148.0
128.702713 180.0
128.724442 128.0
128.810257 188.0
128.865433 72.0
128.99556 52.0
129.018158 184.0
129.068649 7200.0
129.135391 32.0
129.178726 156.0
129.262436 176.0
129.305969 200.0
129.37944 184.0
129.423141 124.0
129.466171 172.0
129.506927 132.0
129.570358 192.0
129.595276 216.0
129.645126 188.0
129.660995 180.0
129.76619 128.0
129.783401 88.0
129.831024 56.0
129.891129 152.0
129.93309 76.0
129.951248 136.0
129.983002 140.0
130.066116 6084.0
130.114655 204.0
130.135803 152.0
130.205475 184.0
130.2827 192.0
130.319061 44.0
130.359955 168.0
130.396317 28.0
130.464508 36.0
130.741333 176.0
130.816467 156.0
130.907349 88.0
130.974228 268.0
131.045364 1048.0
131.073639 5564.0
131.134171 80.0
131.161072 144.0
131.282013 164.0
131.309265 160.0
131.393677 84.0
131.418762 224.0
131.441589 208.0
131.571686 232.0
131.699554 124.0
131.726959 164.0
131.949066 320.0
131.996643 104.0
132.038956 200.0
132.081863 6148.0
132.113297 220.0
132.150391 168.0
132.218552 48.0
132.381088 76.0
132.403976 144.0
132.422302 236.0
132.479568 168.0
132.541428 208.0
132.690414 224.0
132.724792 192.0
132.798187 120.0
132.832581 60.0
132.910583 124.0
132.951889 160.0
132.978134 120.0
133.023041 176.0
133.049316 108.0
133.084015 724.0
133.128662 120.0
133.218231 152.0
133.475647 168.0
133.620544 48.0
133.661957 100.0
133.758621 180.0
133.89447 124.0
133.979691 112.0
133.998123 156.0
134.048813 36.0
134.064941 136.0
134.090454 172.0
134.236618 128.0
134.406219 140.0
134.42601 132.0
134.48468 172.0
134.609344 108.0
134.627731 100.0
134.671707 96.0
134.697113 76.0
134.747925 208.0
135.121826 160.0
135.145599 172.0
135.245117 212.0
135.300674 176.0
135.349289 140.0
135.432816 176.0
135.472031 124.0
135.536911 200.0
135.687561 148.0
135.764084 156.0
135.852814 216.0
135.982147 140.0
136.08197 152.0
136.130737 152.0
136.307266 184.0
136.418839 164.0
136.458359 180.0
136.490204 160.0
136.68396 208.0
136.711884 140.0
136.75145 104.0
136.865524 132.0
136.90744 100.0
136.928406 124.0
136.944702 104.0
137.098465 160.0
137.1241 132.0
137.208008 168.0
137.230209 156.0
137.263977 144.0
137.29306 128.0
137.410919 144.0
137.478577 188.0
137.539261 60.0
137.555603 160.0
137.680496 188.0
137.826508 132.0
137.905975 140.0
138.184235 208.0
138.209412 212.0
138.280182 164.0
138.378494 220.0
138.49913 132.0
138.647873 192.0
138.705826 160.0
138.739288 100.0
138.788513 144.0
138.924545 72.0
139.013702 88.0
139.057114 588.0
139.080521 188.0
139.166275 156.0
139.556305 72.0
139.575119 188.0
139.631546 160.0
139.876251 60.0
139.916183 284.0
139.946869 128.0
139.988068 156.0
140.010452 148.0
140.049606 1600.0
140.097595 292.0
140.236618 200.0
140.253128 76.0
140.285767 132.0
140.335632 192.0
140.451187 204.0
140.500717 168.0
140.656464 164.0
140.783966 84.0
140.861465 340.0
141.058914 1024.0
141.157333 112.0
141.251938 164.0
141.340286 116.0
141.360764 196.0
141.450699 44.0
141.552505 176.0
141.588028 32.0
141.666183 96.0
141.713562 112.0
141.799301 176.0
141.841537 136.0
141.941116 212.0
141.976685 108.0
142.001404 132.0
142.065735 6888.0
142.119003 136.0
142.137436 68.0
142.242416 76.0
142.273911 172.0
142.304138 148.0
142.323135 72.0
142.373001 196.0
142.444244 92.0
142.487015 180.0
142.593933 152.0
142.617706 176.0
142.767487 160.0
142.893555 236.0
142.979218 172.0
143.017303 64.0
143.073486 19588.0
143.148239 108.0
143.169662 40.0
143.191956 212.0
143.206985 228.0
143.250641 32.0
143.317352 64.0
143.405533 32.0
143.460922 164.0
143.584335 344.0
143.605804 88.0
143.63443 324.0
143.663055 132.0
143.708374 172.0
143.768036 152.0
143.784744 200.0
143.842896 152.0
143.887375 132.0
143.968567 68.0
143.990051 220.0
144.006775 188.0
144.081207 21132.0
144.116547 184.0
144.155731 52.0
144.176392 36.0
144.206482 156.0
144.25528 72.0
144.290497 196.0
144.31694 192.0
144.348511 160.0
144.38678 48.0
144.403519 68.0
144.434616 120.0
144.46727 80.0
144.48877 256.0
144.535095 56.0
144.568588 80.0
144.611664 28.0
144.635605 52.0
144.750519 164.0
144.787018 296.0
144.858292 152.0
144.887039 128.0
145.004456 32.0
145.040405 152.0
145.082642 2888.0
145.222626 152.0
145.268204 44.0
145.287964 220.0
145.305237 92.0
145.368973 80.0
145.440979 52.0
145.532196 184.0
145.594635 44.0
145.611435 48.0
145.630661 112.0
145.743561 80.0
145.770752 76.0
145.989899 208.0
146.060669 1372.0
146.096359 9792.0
146.17157 60.0
146.229324 72.0
146.24617 44.0
146.301529 108.0
146.356903 112.0
146.414703 88.0
146.460464 96.0
146.501404 112.0
146.535141 100.0
146.597794 144.0
146.682587 44.0
146.780991 92.0
146.872635 56.0
146.998077 160.0
147.019806 136.0
147.06662 372.0
147.099396 1316.0
147.176697 56.0
147.234665 132.0
147.369934 176.0
147.389267 128.0
147.485931 88.0
147.575378 116.0
147.759903 176.0
147.868073 36.0
148.090363 184.0
148.09996 124.0
148.19014 92.0
148.211945 184.0
148.250717 36.0
148.282211 60.0
148.329559 128.0
148.471313 100.0
148.708847 176.0
148.82074 144.0
148.84259 84.0
148.893356 204.0
148.971313 168.0
149.039719 152.0
149.11467 228.0
149.173004 288.0
149.328613 68.0
149.425919 120.0
149.584106 196.0
149.6474 84.0
149.90802 168.0
149.978699 160.0
150.295731 132.0
150.432404 200.0
150.466583 108.0
150.522736 192.0
150.784134 160.0
150.881897 148.0
150.945465 204.0
151.050903 220.0
151.12648 60.0
151.20723 92.0
151.433609 196.0
151.505951 208.0
151.621109 132.0
151.682388 152.0
151.812332 172.0
151.898178 224.0
152.012665 60.0
152.061096 444.0
152.131287 52.0
152.327744 68.0
152.35968 128.0
152.507111 184.0
152.57103 48.0
152.664459 32.0
153.004013 144.0
153.06868 356.0
153.240448 180.0
153.321762 188.0
153.351334 112.0
153.402039 140.0
153.479523 116.0
153.509109 176.0
153.674377 52.0
153.832321 52.0
154.000854 128.0
154.06575 1200.0
154.205292 48.0
154.40802 128.0
154.430969 100.0
154.459961 148.0
154.479752 216.0
154.515945 120.0
154.583664 72.0
154.62326 56.0
154.680191 228.0
154.769318 88.0
154.811401 116.0
154.828735 160.0
154.888184 224.0
154.999664 172.0
155.06134 4496.0
155.157059 88.0
155.294678 180.0
155.386459 156.0
155.515488 136.0
155.571274 168.0
155.612305 104.0
155.798569 172.0
155.870621 220.0
155.971954 176.0
156.080215 828.0
156.1707 164.0
156.268448 164.0
156.416245 164.0
156.44017 156.0
156.573517 60.0
156.714935 196.0
156.776413 116.0
156.831238 60.0
156.896057 168.0
156.945908 44.0
157.028214 220.0
157.047699 152.0
157.077194 2860.0
157.227798 68.0
157.260239 168.0
157.280212 216.0
157.405029 40.0
157.44455 184.0
157.494934 188.0
157.547394 140.0
157.567383 252.0
157.617355 160.0
157.747314 176.0
157.772308 120.0
158.030441 204.0
158.093857 3900.0
158.202591 92.0
158.240143 236.0
158.327789 64.0
158.345306 80.0
158.391235 144.0
158.508148 112.0
158.528198 72.0
158.550751 80.0
158.584106 168.0
158.726227 32.0
158.831558 144.0
158.921768 196.0
158.987106 152.0
159.01973 128.0
159.091797 1388.0
159.233139 84.0
159.44696 108.0
159.481873 224.0
159.499466 60.0
159.630203 140.0
159.665405 72.0
159.80249 144.0
159.873856 168.0
160.07428 972.0
160.096313 324.0
160.117584 636.0
160.16626 92.0
160.299789 116.0
160.420761 128.0
160.471191 108.0
160.650406 192.0
160.695648 56.0
160.722687 112.0
160.809204 140.0
160.920273 116.0
160.937958 148.0
161.048676 204.0
161.078369 324.0
161.098602 204.0
161.132431 128.0
161.276459 112.0
161.33461 60.0
161.524261 236.0
161.541962 156.0
161.669907 156.0
161.833008 120.0
161.908417 220.0
161.979889 144.0
162.022949 208.0
162.063492 196.0
162.089767 452.0
162.14711 52.0
162.28653 156.0
162.494507 168.0
162.527496 120.0
162.557938 132.0
162.700073 192.0
162.738159 112.0
162.758469 28.0
162.856171 184.0
162.890533 68.0
162.913391 168.0
163.067703 164.0
163.269241 180.0
163.505829 136.0
163.541458 188.0
163.602554 124.0
163.806274 188.0
163.956604 40.0
164.022873 120.0
164.197937 60.0
164.364609 48.0
164.488144 216.0
164.642853 164.0
164.689087 120.0
164.895782 144.0
165.427795 132.0
165.486679 144.0
165.522522 316.0
165.604477 164.0
165.903809 172.0
166.155609 204.0
166.201782 140.0
166.235138 156.0
166.268509 48.0
166.373734 108.0
166.453339 52.0
166.5047 280.0
166.684799 148.0
166.72049 180.0
166.923569 60.0
166.957001 120.0
166.97757 72.0
167.076187 348.0
167.157654 52.0
167.386749 180.0
167.421753 128.0
167.461426 184.0
167.497482 164.0
167.603119 88.0
167.770645 48.0
168.020798 192.0
168.08049 1700.0
168.126587 204.0
168.185944 200.0
168.216919 104.0
168.242737 48.0
168.265961 156.0
168.35376 208.0
168.74614 168.0
168.958588 208.0
169.08197 1160.0
169.113846 184.0
169.243286 72.0
169.28212 40.0
169.359818 188.0
169.433792 216.0
169.484161 96.0
169.512039 200.0
169.541168 196.0
169.587814 176.0
169.696701 80.0
169.779678 48.0
170.031311 96.0
170.090179 960.0
170.140335 104.0
170.205246 164.0
170.24704 124.0
170.298737 32.0
170.436417 132.0
170.509186 176.0
170.545563 196.0
170.574158 92.0
170.618301 232.0
170.646942 148.0
170.694351 208.0
170.737152 192.0
170.758759 128.0
170.816544 204.0
170.835907 140.0
170.868927 220.0
170.906265 120.0
170.974701 156.0
170.995514 76.0
171.013733 220.0
171.036682 312.0
171.092361 69876.0
171.179428 56.0
171.259949 128.0
171.298004 228.0
171.326828 84.0
171.353317 88.0
171.393951 164.0
171.430557 84.0
171.482681 76.0
171.4935 60.0
171.501251 88.0
171.519272 112.0
171.544754 88.0
171.551422 76.0
171.579803 52.0
171.605591 80.0
171.638016 144.0
171.646561 92.0
171.652847 136.0
171.700974 144.0
171.743271 80.0
171.770721 92.0
171.788452 100.0
171.83197 152.0
171.855453 72.0
171.899811 188.0
171.978455 60.0
172.001587 84.0
172.049408 148.0
172.09697 17580.0
172.15564 132.0
172.186966 76.0
172.20787 220.0
172.231369 32.0
172.260101 84.0
172.301895 36.0
172.3228 52.0
172.359375 64.0
172.406006 76.0
172.435165 40.0
172.544281 124.0
172.626007 104.0
172.67308 100.0
172.707077 88.0
172.813873 116.0
172.903305 92.0
172.934708 224.0
172.989685 116.0
173.023712 144.0
173.099747 1300.0
173.134476 184.0
173.204391 132.0
173.241074 148.0
173.278336 140.0
173.302597 140.0
173.373123 76.0
173.403519 80.0
173.428909 76.0
173.439819 52.0
173.446945 120.0
173.474289 124.0
173.539841 88.0
173.571304 52.0
173.715546 240.0
173.754898 52.0
173.79425 228.0
173.89061 172.0
173.991089 88.0
174.054108 184.0
174.105911 160.0
174.245834 84.0
174.362579 188.0
174.411392 32.0
174.471848 252.0
174.498138 64.0
174.568359 136.0
174.732208 80.0
174.875397 136.0
175.026993 192.0
175.074402 144.0
175.113892 120.0
175.156036 132.0
175.174484 72.0
175.385284 140.0
175.477539 96.0
175.743927 84.0
175.788788 248.0
175.944519 124.0
176.290527 48.0
176.338089 160.0
176.531082 172.0
176.732101 120.0
177.01004 204.0
177.073593 172.0
177.134506 204.0
177.428665 160.0
177.582458 152.0
177.818588 124.0
177.890259 164.0
178.329697 200.0
178.60173 356.0
178.937683 40.0
179.230652 64.0
179.34259 100.0
179.396729 180.0
179.659897 100.0
179.683914 128.0
179.844025 204.0
179.910751 124.0
179.950806 132.0
180.012207 136.0
180.303391 152.0
180.383575 120.0
180.495865 80.0
180.696472 100.0
180.830261 188.0
180.919296 168.0
181.221222 84.0
181.258743 196.0
181.440994 132.0
181.569702 116.0
181.591156 196.0
181.652847 104.0
181.840668 152.0
182.10408 176.0
182.173615 120.0
182.391281 44.0
182.450409 136.0
182.619827 140.0
183.090103 264.0
183.432983 52.0
183.942795 132.0
184.02919 212.0
184.096832 1044.0
184.256058 148.0
184.318192 132.0
184.515503 112.0
184.615082 208.0
184.685867 120.0
184.73996 100.0
184.764313 172.0
184.894196 180.0
184.967499 184.0
185.01329 172.0
185.075302 188.0
185.107376 19700.0
185.202545 148.0
185.238647 128.0
185.28952 48.0
185.317749 76.0
185.341003 80.0
185.384354 120.0
185.473785 88.0
185.498184 60.0
185.522583 48.0
185.559967 76.0
185.606628 128.0
185.712402 64.0
185.8806 96.0
186.000015 96.0
186.021729 228.0
186.040726 76.0
186.112595 2692.0
186.159134 148.0
186.230804 52.0
186.388367 124.0
186.426407 80.0
186.453583 92.0
186.491226 160.0
186.520172 172.0
186.575897 132.0
186.608521 92.0
186.654755 112.0
186.738174 212.0
186.774414 200.0
186.830231 156.0
186.857285 296.0
186.902054 220.0
186.934921 208.0
186.959412 200.0
187.003769 188.0
187.027847 188.0
187.056259 168.0
187.12381 94344.0
187.217941 116.0
187.222153 148.0
187.233963 80.0
187.241104 136.0
187.279312 48.0
187.322205 180.0
187.363983 48.0
187.392532 140.0
187.412552 80.0
187.43869 56.0
187.488342 160.0
187.519073 40.0
187.545883 48.0
187.572311 412.0
187.620544 100.0
187.652008 136.0
187.715363 48.0
187.742752 88.0
187.775909 268.0
187.806717 48.0
187.847641 108.0
187.884048 208.0
187.912201 60.0
187.956772 44.0
187.978592 176.0
188.0168 28.0
188.060471 264.0
188.078201 80.0
188.084763 40.0
188.125793 12320.0
188.179382 100.0
188.221527 84.0
188.243378 44.0
188.311646 84.0
188.338669 72.0
188.365829 72.0
188.397461 68.0
188.505615 52.0
188.587601 56.0
188.655197 44.0
188.673981 80.0
188.694214 60.0
188.817261 40.0
188.86496 72.0
188.885635 64.0
189.036118 56.0
189.128174 1124.0
189.172409 120.0
189.238007 84.0
189.247696 120.0
189.279739 80.0
189.298904 152.0
189.326294 88.0
189.34819 100.0
189.366455 72.0
189.40213 52.0
189.420731 124.0
189.444061 96.0
189.467285 152.0
189.500305 76.0
189.551102 120.0
189.613937 72.0
189.682251 148.0
189.717804 108.0
189.844971 104.0
189.877136 96.0
189.986847 36.0
190.128082 148.0
190.25853 28.0
190.365616 76.0
190.406815 32.0
190.478226 128.0
190.618332 100.0
190.684296 68.0
190.851974 72.0
190.972977 52.0
191.129791 120.0
191.253632 40.0
192.080246 48.0
192.599182 112.0
193.057953 80.0
193.744385 80.0
194.326584 116.0
194.681885 60.0
194.773529 96.0
195.020828 88.0
195.198746 112.0
195.686996 92.0
196.421387 36.0
196.772995 80.0
196.856766 84.0
196.943344 100.0
197.315002 56.0
198.277893 80.0
198.485336 36.0
198.681671 88.0
198.71814 124.0
198.768646 68.0
199.186951 64.0
200.185379 120.0
200.433258 72.0
201.234299 80.0
201.494125 88.0
201.578888 92.0
202.495483 108.0
202.546463 112.0
202.74762 64.0
203.144577 152.0
203.365891 40.0
204.12442 76.0
205.831253 36.0
206.617249 56.0
206.688782 64.0
206.975006 48.0
207.396133 84.0
207.803345 80.0
209.047501 36.0
209.681061 72.0
212.010391 72.0
214.145737 108.0
215.128372 100.0
216.845352 56.0
216.880524 76.0
222.532791 92.0
229.890427 100.0
231.483505 80.0
231.792465 72.0
233.206665 100.0
234.570297 136.0
235.956238 120.0
240.09848 76.0
241.070908 124.0
242.156784 32.0
245.341766 88.0
246.968643 68.0
247.265884 88.0
247.447433 80.0
249.609253 84.0
251.884705 64.0
252.684494 84.0
254.678421 80.0
257.513092 116.0
257.605713 112.0
258.446533 120.0
260.848633 56.0
263.856323 68.0
266.549744 52.0
266.617981 76.0
269.351562 92.0
271.13797 32.0
272.256653 56.0
273.400696 36.0
274.316315 96.0
277.42038 64.0
280.528564 64.0
281.853516 72.0
284.445679 84.0
284.512817 140.0
286.227509 48.0
289.096802 68.0
289.472534 144.0
291.443298 44.0
292.63031 80.0
293.894806 56.0
294.936371 84.0
304.75827 68.0
307.956177 88.0
308.9664 76.0
312.246063 56.0
317.980103 80.0
320.551239 76.0
328.391724 32.0
328.478302 56.0
329.789001 88.0
332.360199 88.0
337.382629 84.0
340.570618 108.0
343.718262 52.0
346.769165 28.0
348.093567 72.0
349.413025 56.0
350.995972 88.0
351.174988 40.0
352.477844 88.0
356.250671 76.0
358.542114 64.0
360.954315 96.0
362.525238 84.0
365.053436 120.0
371.270477 64.0
377.96167 76.0
382.334991 52.0
383.078674 116.0
384.454987 32.0
384.771179 48.0
386.717834 56.0
403.087158 28.0
404.603027 68.0
408.821533 52.0
432.010986 100.0
439.251434 68.0
443.524841 96.0
444.543976 56.0
446.35025 48.0
448.695068 92.0
449.564331 88.0
453.25589 52.0
458.231323 88.0
461.966797 68.0
470.031097 44.0
472.493866 96.0
473.117035 76.0
474.56839 48.0
476.013306 80.0
476.38681 120.0
479.101349 44.0
483.708374 104.0
492.091888 64.0
493.651642 116.0
508.109985 112.0
516.032104 52.0
520.881104 104.0
523.227661 76.0
532.900696 44.0
538.917969 60.0
552.938354 112.0
555.337158 96.0
555.928284 60.0
562.881042 92.0
567.020325 76.0
580.056396 168.0
618.047913 84.0
618.117188 192.0
626.164246 64.0
630.469666 128.0
632.885742 108.0
636.510986 84.0
640.227112 108.0
640.619995 80.0
649.704346 80.0
651.450684 92.0
656.183533 52.0
665.515808 28.0
672.269287 136.0
681.143311 72.0
684.117737 160.0
692.33606 112.0
701.330627 156.0
703.884033 80.0
704.29071 152.0
704.454407 220.0
705.157166 88.0
705.648804 64.0
709.333313 92.0
713.346375 260.0
714.287598 80.0
723.674805 208.0
738.543762 44.0
740.318909 64.0
743.902771 68.0
746.711914 168.0
747.304871 196.0
762.473877 180.0
762.886108 168.0
769.574341 200.0
772.719177 52.0
776.48584 96.0
778.289368 196.0
778.517029 88.0
787.399719 172.0
788.198547 44.0
788.561768 240.0
790.463196 168.0
790.882935 260.0
795.922791 224.0
796.203552 48.0
797.001221 152.0
799.334778 148.0
801.964722 140.0
805.818909 116.0
806.355774 148.0
810.367798 152.0
810.651062 56.0
810.809753 44.0
812.317932 92.0
816.646179 136.0
817.072815 200.0
818.968384 108.0
821.579102 160.0
831.357483 64.0
836.161926 152.0
837.682007 228.0
842.914856 244.0
843.059326 176.0
843.972595 156.0
848.47699 204.0
849.051086 196.0
849.288879 108.0
854.738159 136.0
856.688538 200.0
857.096375 156.0
857.504272 188.0
860.987244 108.0
862.313416 196.0
863.143555 64.0
865.413818 140.0
866.626221 152.0
867.558044 200.0
868.279297 196.0
871.026123 36.0
873.647888 152.0
873.930237 72.0
876.998352 168.0
877.293091 204.0
877.982971 172.0
878.242432 212.0
880.993164 180.0
887.272156 104.0
888.416748 188.0
890.820923 84.0
892.996399 44.0
893.597229 104.0
894.638672 140.0
897.707153 164.0
897.95166 116.0
898.452698 208.0
900.088074 120.0
900.607605 52.0
901.330505 184.0
906.686279 68.0
910.5979 228.0
911.462952 164.0
913.789856 176.0
915.318665 220.0
915.704041 164.0
918.802368 104.0
924.784607 160.0
927.78302 140.0
929.390259 56.0
930.136719 212.0
931.788452 216.0
933.362671 68.0
937.453247 132.0
939.032227 180.0
941.174133 72.0
941.571106 36.0
943.03125 48.0
945.336853 140.0
948.202942 172.0
948.264221 172.0
949.024353 200.0
949.821594 232.0
952.252991 144.0
953.302673 68.0
953.597656 236.0
954.790344 220.0
956.08844 140.0
958.471558 80.0
960.900818 128.0
961.166138 132.0
967.253601 128.0
967.470276 196.0
969.563843 156.0
972.025696 132.0
973.354065 168.0
973.54657 168.0
974.552856 160.0
976.467468 148.0
976.579407 180.0
976.890442 88.0
977.027283 196.0
977.562378 56.0
978.446228 68.0
979.218384 128.0
979.7229 172.0
981.455505 164.0
982.041748 244.0
983.498779 128.0
984.113525 40.0
984.613098 140.0
984.969055 240.0
985.775024 160.0
986.812622 36.0
987.231567 176.0
987.775696 44.0
988.851868 40.0
992.115295 152.0
992.403748 200.0
992.547913 100.0
993.582825 164.0
993.921631 152.0
994.3797 220.0
995.409241 152.0
995.798645 196.0
998.425659 188.0
999.262268 196.0
999.822266 160.0
1002.523926 152.0
1002.838989 152.0
1003.078552 140.0
1004.06842 172.0
1004.535156 108.0
1004.90741 148.0
1005.330139 156.0
1005.538391 196.0
1005.872925 216.0
1006.100159 132.0
1006.428467 164.0
1006.946289 124.0
1007.382141 168.0
1010.783569 148.0
1011.163269 164.0
1012.600403 160.0
1013.316223 176.0
1013.417603 52.0
1014.285767 196.0
1014.691528 100.0
1015.008545 92.0
1015.653076 152.0
1015.833008 132.0
1016.156555 136.0
1016.448425 192.0
1016.530884 96.0
1017.210022 104.0
1017.368713 124.0
1018.810242 176.0
1019.474731 220.0
1020.5672 128.0
1021.304199 156.0
1022.052734 116.0
1022.657288 156.0
1022.784607 160.0
1023.249329 176.0
1023.892456 172.0
1024.745972 156.0
1024.85437 152.0
1024.898926 168.0
1025.78479 160.0
1027.812866 188.0
1028.042603 164.0
1028.291504 84.0
1028.604248 140.0
1031.11438 172.0
1033.141235 180.0
1033.627563 48.0
1034.254761 204.0
1034.819214 252.0
1035.445557 96.0
1035.958008 88.0
1036.271973 160.0
1036.688477 212.0
1036.983276 92.0
1039.619019 160.0
1040.729492 84.0
1041.468018 32.0
1042.039795 140.0
1042.418823 152.0
1043.119385 128.0
1043.402222 192.0
1044.141724 140.0
1044.829956 168.0
1046.23938 48.0
1048.72583 164.0
1051.073242 128.0
1051.344238 192.0
1052.44812 208.0
1052.603027 72.0
1053.268188 92.0
1053.713989 144.0
1054.547607 124.0
1056.422729 136.0
1057.632812 116.0
1058.105347 176.0
1058.275757 188.0
1059.756836 112.0
1059.854004 188.0
1060.437256 116.0
1062.149048 128.0
1062.239868 196.0
1063.810181 168.0
1064.050415 152.0
1064.206177 140.0
1064.83606 160.0
1065.453247 72.0
1066.635864 128.0
1067.741211 132.0
1068.599854 116.0
1068.808105 136.0
1069.211548 160.0
1070.428833 188.0
1070.585083 156.0
1070.943359 148.0
1071.536133 168.0
1071.686035 164.0
1072.155151 176.0
1072.709106 136.0
1072.833008 120.0
1073.452393 184.0
1073.511108 160.0
1073.96106 132.0
1074.039429 92.0
1074.261108 52.0
1074.698242 180.0
1075.083252 36.0
1075.925293 172.0
1076.34314 144.0
1076.715332 188.0
1077.126831 140.0
1077.21167 40.0
1077.629883 212.0
1078.55127 188.0
1078.812744 180.0
1079.041504 140.0
1079.231201 168.0
1080.356079 128.0
1080.513062 192.0
1081.272095 204.0
1081.952881 184.0
1083.740845 196.0
1084.009521 184.0
1085.930298 168.0
1086.067993 144.0
1086.127075 72.0
1086.743774 124.0
1087.662476 164.0
1087.760986 40.0
1087.83313 136.0
1088.353394 192.0
1089.260376 196.0
1089.803345 224.0
1090.296265 156.0
1091.571533 212.0
1091.624146 48.0
1092.419922 132.0
1092.544922 168.0
1093.354248 140.0
1094.940918 240.0
1095.329468 64.0
1095.658813 148.0
1097.510864 176.0
1097.827393 164.0
1099.027954 156.0
1099.404053 176.0
1100.163086 164.0
1100.81665 104.0
1100.915771 244.0
1101.662109 184.0
1102.269897 88.0
1102.567383 144.0
1102.983765 160.0
1104.02832 184.0
1104.233398 204.0
1106.198486 116.0
1107.529419 128.0
1107.595703 116.0
1108.920776 168.0
1111.321411 100.0
1111.5271 160.0
1112.383179 148.0
1112.901001 84.0
1113.033813 144.0
1113.609741 236.0
1113.724487 208.0
1114.535034 176.0
1114.581543 112.0
1115.133057 236.0
1115.558472 156.0
1116.303101 100.0
1116.362915 208.0
1116.848511 144.0
1117.297241 224.0
1117.773193 236.0
1118.385498 164.0
1118.704956 184.0
1119.051147 232.0
1119.324219 124.0
1120.22998 144.0
1120.662964 176.0
1120.802856 220.0
1121.642578 176.0
1122.449341 120.0
1122.889404 208.0
1123.082886 180.0
1123.990112 164.0
1124.997925 188.0
1125.765747 84.0
1126.781006 144.0
1126.907959 80.0
1127.068359 172.0
1127.40918 120.0
1128.619019 236.0
1128.665894 168.0
1129.528564 212.0
1129.626953 208.0
1129.856323 136.0
1131.897705 68.0
1132.41333 180.0
1132.96521 204.0
1133.297607 164.0
1134.960205 140.0
1135.442749 116.0
1136.132446 120.0
1136.442139 108.0
1136.509277 152.0
1136.623413 176.0
1136.871582 248.0
1137.294434 136.0
1137.415283 32.0
1139.544922 188.0
1139.893433 116.0
1140.417725 144.0
1141.042847 168.0
1141.352173 160.0
1142.885742 88.0
1143.12793 148.0
1143.410522 140.0
1144.036499 92.0
1144.629028 140.0
1145.161011 144.0
1145.511353 160.0
1145.774048 124.0
1145.952515 164.0
1147.337524 232.0
1147.910645 120.0
1148.052246 224.0
1148.18042 176.0
1148.301758 116.0
1148.402954 56.0
1148.605347 108.0
1148.753662 216.0
1149.082642 240.0
1150.636597 172.0
1151.217163 288.0
1151.338745 172.0
1152.284424 156.0
1152.629028 84.0
1154.007935 180.0
1154.068726 160.0
1154.744995 164.0
1154.8396 52.0
1155.001953 108.0
1157.546631 88.0
1157.756592 172.0
1158.589722 156.0
1158.928467 176.0
1159.694214 132.0
1159.850098 144.0
1160.487305 156.0
1160.907715 144.0
1161.674194 104.0
1161.735229 188.0
1163.357056 224.0
1163.534912 208.0
1163.94104 172.0
1164.171875 164.0
1164.491089 116.0
1164.837524 156.0
1165.768311 120.0
1165.951782 192.0
1166.41394 188.0
1167.182129 156.0
1167.331787 180.0
1168.005005 76.0
1168.317993 172.0
1168.433594 40.0
1168.580566 108.0
1169.263794 60.0
1169.501953 236.0
1169.624512 260.0
1170.257568 156.0
1170.972656 224.0
1171.093384 200.0
1171.551636 196.0
1171.892212 192.0
1172.655396 164.0
1172.873535 188.0
1173.882568 200.0
1174.059937 156.0
1174.128052 196.0
1174.373657 180.0
1176.061279 192.0
1176.413818 164.0
1176.81665 200.0
1178.435303 132.0
1179.20752 136.0
1179.49353 204.0
1179.856934 232.0
1180.000488 208.0
1180.567993 180.0
1180.834717 184.0
1181.435425 228.0
1182.196045 160.0
1182.264526 148.0
1182.319336 168.0
1183.213623 184.0
1183.654175 200.0
1183.763672 140.0
1184.22937 220.0
1185.860107 120.0
1186.525024 128.0
1186.833496 172.0
1187.080322 180.0
1187.36145 236.0
1187.66333 168.0
1187.92395 168.0
1189.043091 156.0
1189.625732 140.0
1189.824829 180.0
1189.962158 216.0
1190.216187 152.0
1190.332886 120.0
1190.635132 108.0
1191.239502 228.0
1191.349487 80.0
1191.686035 172.0
1192.641235 176.0
1192.909302 172.0
1193.150024 244.0
1193.418091 244.0
1193.816895 216.0
1194.009521 176.0
1194.256226 152.0
1194.332764 120.0
1194.490967 136.0
1194.683594 192.0
1194.862427 160.0
1194.97937 220.0
1195.365723 168.0
1195.722534 112.0
1196.169922 72.0
1196.293823 180.0
1196.885986 124.0
1197.278442 220.0
1197.34729 172.0
1197.450562 212.0
1197.657227 172.0
1197.987915 224.0
1198.12561 160.0
1199.352295 128.0
1199.5177 224.0
1199.621094 156.0
1199.87793 196.0
1200.634644 140.0
1200.862183 144.0
1200.917358 216.0
1201.351929 132.0
1201.44165 144.0
1201.503784 188.0
1201.724487 192.0
1202.007446 176.0
1202.345581 216.0
1202.959839 48.0
1204.057617 104.0
1204.872681 84.0
1205.156006 180.0
1205.791748 208.0
1205.978394 128.0
1206.164917 112.0
1206.275635 60.0
1206.58667 116.0
1207.462402 172.0
1207.831421 172.0
1207.962769 140.0
1208.080444 216.0
1209.00061 156.0
1209.485107 192.0
1210.01123 188.0
1210.149658 140.0
1210.267456 176.0
1210.502808 112.0
1211.223145 60.0
1211.628662 204.0
1211.687256 156.0
1211.846313 172.0
1212.976196 148.0
1213.315063 164.0
1214.730591 92.0
1215.132935 72.0
1215.264771 192.0
1215.336304 104.0
1215.92395 152.0
1216.756958 136.0
1216.826416 220.0
1217.21521 192.0
1217.437378 272.0
1217.49292 156.0
1217.784668 160.0
1218.166626 176.0
1218.694702 52.0
1219.327026 176.0
1219.813599 136.0
1219.873901 148.0
1220.334961 156.0
1221.510254 176.0
1221.684204 204.0
1222.839233 224.0
1223.298584 120.0
1223.437866 48.0
1224.44751 148.0
1224.607666 172.0
1225.060425 168.0
1225.868652 168.0
1227.661499 144.0
1228.42041 156.0
1228.832031 164.0
1229.097168 220.0
1229.885742 148.0
1230.241821 184.0
1230.555908 188.0
1230.793335 164.0
1231.540527 164.0
1231.701172 128.0
1232.420776 220.0
1232.868042 196.0
1233.049683 76.0
1233.552979 208.0
1233.846558 76.0
1234.447876 104.0
1235.063354 128.0
1235.399048 120.0
1236.462646 224.0
1236.630615 156.0
1237.323608 120.0
1237.575562 148.0
1237.785645 176.0
1237.915161 140.0
1238.010498 184.0
1238.257446 200.0
1238.549072 60.0
1238.703125 80.0
1238.822266 148.0
1239.228516 180.0
1239.522827 160.0
1239.866211 228.0
1240.111572 84.0
1240.174561 136.0
1240.87561 184.0
1241.106934 144.0
1241.436523 136.0
1241.682007 136.0
1241.990601 160.0
1242.039673 116.0
1242.769287 132.0
1242.853516 144.0
1243.688599 140.0
1244.460815 172.0
1244.85791 180.0
1245.682739 184.0
1246.553955 172.0
1246.673462 132.0
1246.736694 116.0
1246.863159 96.0
1248.12854 168.0
1248.452026 192.0
1248.585571 184.0
1249.162354 188.0
1249.464844 84.0
1250.766724 164.0
1251.04834 176.0
1251.196167 152.0
1251.27356 192.0
1251.400269 148.0
1251.843872 132.0
1251.893188 124.0
1251.984741 120.0
1252.069214 216.0
1252.139648 136.0
1252.548218 160.0
1253.111816 144.0
1254.261719 156.0
1254.577637 156.0
1255.071167 184.0
1255.89624 144.0
1256.404175 176.0
1256.848633 180.0
1257.208496 204.0
1257.335571 176.0
1257.434326 164.0
1257.681396 140.0
1258.140259 276.0
1258.457886 148.0
1258.874512 172.0
1259.178223 148.0
1259.368896 168.0
1259.481934 128.0
1260.449707 204.0
1260.661743 164.0
1262.061401 168.0
1262.13208 124.0
1264.06311 168.0
1264.388672 112.0
1264.586792 124.0
1265.280518 152.0
1265.379639 120.0
1265.549561 180.0
1266.20813 228.0
1266.512695 256.0
1266.576416 128.0
1267.022705 204.0
1267.114746 60.0
1267.199829 172.0
1268.617188 56.0
1268.730591 76.0
1269.049683 132.0
1269.198608 200.0
1269.347412 176.0
1269.574341 100.0
1270.453857 208.0
1270.737671 160.0
1270.957642 184.0
1271.851807 128.0
1271.965332 104.0
1272.071899 36.0
1272.157104 140.0
1273.072998 152.0
1273.122681 124.0
1274.408325 188.0
1275.346436 156.0
1275.40332 164.0
1275.602295 132.0
1275.964844 156.0
1276.27771 212.0
1276.455444 172.0
1276.953247 188.0
1277.045776 188.0
1277.162964 164.0
1277.351562 60.0
1277.885132 136.0
1277.942017 104.0
1278.255127 184.0
1278.461548 164.0
1278.88855 168.0
1279.322754 168.0
1279.76416 160.0
1279.927856 76.0
1280.896484 200.0
1280.953491 200.0
1281.003296 60.0
1281.29541 148.0
1281.608887 32.0
1282.200317 168.0
1282.342896 184.0
1282.471191 156.0
1283.457397 188.0
1283.633179 132.0
1283.839966 104.0
1285.009766 136.0
1285.223877 92.0
1285.359375 84.0
1285.66626 60.0
1285.873291 132.0
1286.21582 144.0
1286.644165 184.0
1287.179688 168.0
1287.32959 140.0
1287.629517 84.0
1287.840942 204.0
1288.308105 136.0
1288.436646 164.0
1288.679565 56.0
1289.158325 252.0
1289.256226 220.0
1289.453369 236.0
1289.658569 156.0
1289.787231 108.0
1290.845337 172.0
1291.202881 124.0
1291.338867 156.0
1291.41748 152.0
1291.697998 172.0
1291.946777 160.0
1292.089966 144.0
1292.476318 212.0
1292.934204 148.0
1293.098877 140.0
1293.635742 100.0
1293.88623 84.0
1293.993652 192.0
1294.093872 180.0
1294.501953 120.0
1294.602417 148.0
1294.759766 84.0
1295.095947 160.0
1295.812744 164.0
1296.486328 168.0
1296.557983 204.0
1296.722778 100.0
1297.633179 144.0
1297.769409 192.0
1297.912842 184.0
1298.056274 144.0
1298.242676 168.0
1298.974243 220.0
1299.160767 136.0
1299.684448 188.0
1300.10791 120.0
1300.7052 160.0
1301.057251 180.0
1301.536377 204.0
1301.600952 204.0
1302.541748 116.0
1302.778809 172.0
1303.195557 120.0
1303.461426 220.0
1303.5979 104.0
1303.727295 176.0
1304.223145 152.0
1304.438843 60.0
1304.733521 236.0
1304.827026 160.0
1304.999634 220.0
1305.057129 228.0
1305.272827 132.0
1305.61084 196.0
1305.790649 136.0
1306.042358 132.0
1306.186035 180.0
1306.588989 164.0
1306.95752 204.0
1307.078247 104.0
1307.445312 132.0
1307.646851 220.0
1307.697144 184.0
1307.826782 172.0
1308.085815 124.0
1308.287476 116.0
1308.366577 120.0
1309.414673 196.0
1309.577759 168.0
1309.633911 80.0
1310.307007 280.0
1310.462402 64.0
1310.801025 64.0
1310.916382 192.0
1310.988403 148.0
1311.283936 148.0
1312.115479 132.0
1312.293091 156.0
1312.507935 184.0
1312.617554 104.0
1313.050171 168.0
1313.259399 168.0
1313.490234 228.0
1313.599731 216.0
1313.656128 216.0
1313.75708 108.0
1314.067383 56.0
1314.704956 184.0
1314.88269 220.0
1314.962158 140.0
1315.019897 196.0
1315.156982 184.0
1315.669556 172.0
1316.182129 76.0
1316.283203 188.0
1316.456543 168.0
1316.947632 136.0
1317.092041 152.0
1317.366577 160.0
1317.720581 132.0
1318.233521 128.0
1318.529907 132.0
1318.855103 204.0
1319.339355 88.0
1319.397217 192.0
1319.823853 160.0
1319.953979 160.0
1320.178101 164.0
1320.489136 164.0
1320.756714 116.0
1320.959229 124.0
1321.132812 148.0
1321.219727 64.0
1321.349854 228.0
1321.407837 220.0
1321.732544 176.0
1321.741943 156.0
1321.986694 64.0
1322.167603 176.0
1322.413574 180.0
1322.8479 100.0
1323.014404 140.0
1323.086792 192.0
1323.28064 224.0
1323.514038 72.0
1323.962891 120.0
1324.057129 112.0
1324.397461 192.0
1324.969727 200.0
1325.165405 128.0
1325.230591 168.0
1325.505981 152.0
1325.824829 152.0
1326.774292 156.0
1327.310791 148.0
1327.687866 124.0
1327.745972 52.0
1327.854736 128.0
1328.057739 48.0
1328.521973 68.0
1328.681641 56.0
1329.233032 164.0
1329.784546 192.0
1330.060425 112.0
1330.44519 156.0
1330.58313 164.0
1330.786377 140.0
1331.46167 152.0
1332.48584 136.0
1332.863647 272.0
1333.185791 352.0
1333.386963 160.0
1333.634033 132.0
1334.129761 176.0
1334.659058 204.0
1334.942627 264.0
1335.706299 40.0
1336.746704 120.0
1336.804932 144.0
1337.234253 184.0
1337.787476 88.0
1338.05896 212.0
1338.872314 184.0
1339.360352 40.0
1339.760986 200.0
1340.096069 216.0
1340.460449 208.0
1340.759155 100.0
1341.15271 224.0
1341.480835 88.0
1342.749512 136.0
1343.20166 180.0
1343.281982 172.0
1343.362183 212.0
1343.814453 184.0
1343.931274 108.0
1344.748535 180.0
1344.838745 176.0
1344.938354 56.0
1345.208374 232.0
1345.602661 172.0
1345.814331 108.0
1346.340088 156.0
1346.518799 172.0
1346.668701 216.0
1347.550781 236.0
1347.691406 196.0
1347.998291 60.0
1348.056763 120.0
1348.283325 64.0
1348.466064 256.0
1350.17688 112.0
1350.39624 164.0
1350.930176 132.0
1351.047241 144.0
1351.105713 108.0
1351.530151 124.0
1351.749634 232.0
1352.159424 144.0
1352.605957 156.0
1353.117676 140.0
1353.184204 172.0
1353.77002 136.0
1353.945801 188.0
1354.333984 96.0
1354.546387 128.0
1355.132446 176.0
1355.251099 192.0
1355.542725 164.0
1355.660034 160.0
1356.334229 116.0
1356.38562 132.0
1356.546875 136.0
1356.70813 208.0
1356.784058 188.0
1356.862061 52.0
1356.972046 148.0
1357.177368 184.0
1357.463379 204.0
1358.424072 168.0
1358.515869 232.0
1358.746948 64.0
1358.922974 128.0
1359.24585 172.0
1359.935669 88.0
1360.126465 136.0
1361.631592 172.0
1361.778564 152.0
1361.932739 104.0
1362.006226 176.0
1362.483643 192.0
1362.748169 60.0
1363.027344 200.0
1363.130249 144.0
1363.299316 196.0
1363.60791 196.0
1364.064941 112.0
1364.387085 208.0
1365.048828 164.0
1365.563599 156.0
1366.46106 188.0
1366.836304 120.0
1366.895142 72.0
1367.82251 192.0
1367.962402 240.0
1368.118042 184.0
1368.404053 220.0
1368.956299 164.0
1369.110962 104.0
1369.162476 80.0
1369.390869 156.0
1369.486572 200.0
1370.046387 168.0
1370.301025 168.0
1371.232666 120.0
1371.630737 132.0
1371.792847 164.0
1371.844482 160.0
1371.896118 188.0
1372.043579 188.0
1372.581787 148.0
1372.898804 116.0
1373.356079 216.0
1373.621704 136.0
1374.167603 152.0
1374.440552 192.0
1374.957153 176.0
1375.709961 148.0
1375.953613 120.0
1376.03479 136.0
1376.425049 208.0
1377.009521 272.0
1377.112915 192.0
1377.630005 212.0
1377.737183 148.0
1378.303467 128.0
1378.760498 136.0
1378.893555 180.0
1379.447876 164.0
1380.01709 192.0
1380.151978 180.0
1380.497681 212.0
1380.815796 132.0
1380.941406 212.0
1381.821777 116.0
1381.959595 208.0
1382.376709 108.0
1382.6875 192.0
1382.842896 168.0
1382.946533 176.0
1383.050171 164.0
1383.560913 228.0
1383.775635 220.0
1384.797485 160.0
1384.886353 128.0
1385.287476 192.0
1385.34436 200.0
1385.590088 128.0
1385.638916 140.0
1386.212524 224.0
1386.479248 196.0
1386.848633 164.0
1387.250122 132.0
1387.516968 188.0
1387.594604 188.0
1387.717163 92.0
1387.866211 132.0
1388.280762 160.0
1388.49585 112.0
1388.747925 152.0
1389.37854 252.0
1389.734619 60.0
1389.905273 192.0
1390.113037 80.0
1390.17981 152.0
1390.78833 176.0
1390.840332 144.0
1391.190552 220.0
1391.961426 192.0
1392.513428 108.0
1392.585205 100.0
1392.971436 204.0
1393.127441 140.0
1393.996704 140.0
1394.12207 124.0
1394.383179 60.0
1394.539185 136.0
1395.862549 100.0
1396.041016 172.0
1396.185303 176.0
1396.345947 148.0
1396.680664 172.0
1398.362183 104.0
1398.622681 124.0
1398.994873 144.0
1399.102051 220.0
1399.210693 160.0
1399.712158 152.0
1400.156372 136.0
1400.744751 176.0
1401.09668 212.0
1401.564331 160.0
1401.825073 88.0
1402.182739 140.0
1402.585327 276.0
1402.697144 212.0
1403.890015 148.0
1404.151001 100.0
1404.330078 136.0
1404.762695 172.0
1405.090942 172.0
1405.322144 176.0
1405.560913 168.0
1405.919067 172.0
1406.068359 208.0
1406.271973 156.0
1406.493774 96.0
1406.777466 124.0
1407.143311 140.0
1407.615967 196.0
1407.852661 224.0
1408.263428 144.0
1408.390381 124.0
1408.442627 56.0
1408.95813 140.0
1409.421265 164.0
1409.608154 148.0
1410.258301 172.0
1410.310669 160.0
1410.789062 188.0
1410.893677 156.0
1411.267456 156.0
1412.03125 152.0
1412.269531 180.0
1412.912842 168.0
1413.02124 204.0
1413.481567 116.0
1413.743408 168.0
1414.207397 184.0
1414.259888 160.0
1414.334717 164.0
1415.105713 196.0
1415.667358 104.0
1415.891968 148.0
1416.41626 172.0
1416.940674 188.0
1417.240356 176.0
1417.472656 144.0
1418.117188 120.0
1418.2146 160.0
1418.394409 160.0
1418.529419 184.0
1418.724243 168.0
1418.866699 148.0
1420.081543 176.0
1420.674072 236.0
1420.839111 88.0
1421.424316 52.0
1421.604492 156.0
1421.784546 168.0
1422.362427 176.0
1422.837891 192.0
1422.985596 144.0
1423.315918 148.0
1423.59375 152.0
1423.683594 180.0
1423.916748 108.0
1425.201294 188.0
1425.486816 100.0
1425.802368 184.0
1426.005371 184.0
1426.220947 228.0
1426.393799 172.0
1426.486328 64.0
1426.584106 188.0
1426.666748 104.0
1426.764526 160.0
1427.238159 100.0
1427.31604 112.0
1427.561523 144.0
1428.050415 224.0
1428.170654 168.0
1428.381348 196.0
1429.020752 180.0
1429.148682 200.0
1429.261475 96.0
1429.487305 152.0
1429.645264 196.0
1429.758179 196.0
1429.871094 108.0
1429.999023 164.0
1430.059204 196.0
1430.187134 148.0
1430.27002 176.0
1430.838623 184.0
1430.991699 152.0
1431.105591 144.0
1431.549805 144.0
1432.03186 164.0
1432.190063 180.0
1432.37085 44.0
1432.762451 152.0
1432.883057 184.0
1433.824951 216.0
1434.427979 80.0
1434.565674 252.0
1434.993286 164.0
1435.098877 116.0
1435.814331 188.0
1435.87561 28.0
1436.507324 176.0
1436.637451 120.0
1437.859741 164.0
1438.05603 164.0
1438.191895 144.0
1438.388062 128.0
1438.727783 168.0
1438.992065 184.0
1439.044922 188.0
1439.852905 44.0
1439.95105 220.0
1440.147461 140.0
1440.207886 196.0
1440.442017 156.0
1441.03125 212.0
1441.177734 200.0
1441.468994 204.0
1441.582886 132.0
1442.021118 156.0
1442.406616 160.0
1442.56543 220.0
1443.049194 160.0
1443.276001 192.0
1443.351685 200.0
1443.639038 128.0
1444.362183 196.0
1444.561768 196.0
1444.781128 180.0
1444.887085 92.0
1445.023193 228.0
1445.106445 124.0
1445.205688 168.0
1445.545288 212.0
1445.620972 60.0
1446.824463 116.0
1447.119629 136.0
1447.240845 112.0
1447.377075 160.0
1447.55127 68.0
1447.717896 132.0
1448.058716 176.0
1448.596436 172.0
1448.67981 104.0
1448.77063 120.0
1449.248047 124.0
1449.32373 80.0
1449.399536 80.0
1449.661865 116.0
1449.854248 256.0
1450.346802 180.0
1450.748535 164.0
1451.47644 100.0
1451.783203 256.0
1452.310669 188.0
1452.58374 260.0
1452.752441 160.0
1453.008545 116.0
1453.478882 120.0
1453.769653 184.0
1453.972168 84.0
1454.199829 60.0
1454.26062 108.0
1454.488281 160.0
1455.019653 176.0
1455.239868 140.0
1455.338623 124.0
1455.490479 160.0
1455.809326 176.0
1456.128296 180.0
1456.211914 144.0
1456.348633 152.0
1456.553711 208.0
1456.865112 148.0
1457.032227 164.0
1457.452881 172.0
1457.735107 180.0
1457.784424 216.0
1458.141602 172.0
1458.202393 188.0
1458.324097 216.0
1458.802856 144.0
1459.160156 144.0
1459.251465 40.0
1460.042236 44.0
1460.673584 108.0
1460.947388 168.0
1461.1604 192.0
1461.297363 168.0
1461.365845 152.0
1461.47229 192.0
1461.563599 164.0
1461.63208 148.0
1461.776733 148.0
1461.966919 188.0
1462.339844 228.0
1462.545898 172.0
1463.078247 188.0
1463.253296 188.0
1463.344727 160.0
1464.01062 296.0
1464.601196 40.0
1465.340088 148.0
1465.50769 140.0
1465.599121 332.0
1465.743896 212.0
1465.82019 60.0
1465.957275 144.0
1466.399292 164.0
1466.871948 184.0
1467.131104 204.0
1467.283569 204.0
1467.649536 184.0
1468.06897 140.0
1468.442627 84.0
1468.599365 168.0
1469.174927 68.0
1469.594482 60.0
1469.678467 92.0
1470.113403 156.0
1470.166748 200.0
1470.457886 160.0
1470.578857 156.0
1470.685791 104.0
1470.754395 104.0
1471.301514 200.0
1471.464355 168.0
1471.922485 140.0
1472.098145 160.0
1472.713989 192.0
1472.991699 188.0
1473.075806 168.0
1473.190308 124.0
1474.657471 104.0
1474.710938 68.0
1475.160889 180.0
1475.258423 132.0
1475.391235 148.0
1475.666504 156.0
1475.895874 124.0
1476.132935 156.0
1476.308716 120.0
1476.591675 188.0
1476.645264 160.0
1476.709473 308.0
1477.264771 188.0
1477.394897 224.0
1477.639893 116.0
1477.807983 156.0
1477.945679 168.0
1478.167603 124.0
1478.30542 164.0
1478.374268 164.0
1478.449585 176.0
1478.511963 180.0
1478.894653 176.0
1479.009521 132.0
1479.277344 216.0
1480.058228 216.0
1480.456421 136.0
1480.755127 140.0
1481.145752 220.0
1481.253052 68.0
1482.149414 216.0
1482.394531 184.0
1482.67041 80.0
1482.958008 436.0
1483.306641 80.0
1483.40625 208.0
1483.47522 144.0
1483.774414 212.0
1484.184204 204.0
1484.324341 212.0
1484.863037 188.0
1485.361572 144.0
1485.729858 100.0
1486.696655 128.0
1487.172485 56.0
1487.694458 308.0
1487.878662 160.0
1487.978516 232.0
1488.907593 200.0
1489.061157 200.0
1489.260864 60.0
1489.575806 176.0
1489.706421 164.0
1489.852295 188.0
1490.467041 72.0
1490.574585 192.0
1490.717285 172.0
1491.361572 184.0
1491.481445 164.0
1491.704346 160.0
1492.165649 168.0
1493.003784 124.0
1493.242188 172.0
1493.903687 336.0
1494.203613 56.0
1494.549927 72.0
1494.634521 64.0
1494.704712 224.0
1494.826904 176.0
1495.080811 292.0
1495.588745 184.0
1495.711914 180.0
1495.873657 176.0
1496.258545 140.0
1496.404785 100.0
1496.497192 164.0
1496.811157 164.0
1496.897583 184.0
1496.974609 48.0
1497.390503 120.0
1497.852539 180.0
1498.045166 164.0
1498.245483 148.0
1498.519897 140.0
1499.34729 172.0
1499.793945 192.0
1499.97937 68.0
1500.680908 176.0
1500.773315 136.0
1500.847656 232.0
1501.174316 92.0
1501.390259 304.0
1501.552246 200.0
1501.714233 140.0
1502.670776 136.0
1503.272583 140.0
1503.349731 52.0
1504.036621 144.0
1504.299072 216.0
1504.53064 148.0
1504.823975 48.0
1505.117432 168.0
