>compound MLS002153328-01!LE 300274694-98-3
>formula C20H22N2
>ionization [M+H]+
>parentmass 291.185028
#inchi InChI=1S/C20H22N2/c1-22-12-10-15-6-2-3-7-16(15)14-20-18(11-13-22)17-8-4-5-9-19(17)21-20/h2-9,21H,10-14H2,1H3
#inchikey YEWGIGCYIAMFMA
#Ion_Source LC-ESI
#Instrument qTof
#Compound_Source NIH Pharmacologically Active Library
#PI Dorrestein
#Data_Collector VP/LMS
#Scan -1
#Precursor_MZ 291.189
#ExactMass 290.178
#Charge 1
#CAS_Number N/A
#Pubmed_ID N/A
#Smiles CN1CCc2c(Cc3ccccc3CC1)[nH]c4ccccc24
#INCHI_AUX N/A
#Library_Class 1
#SpectrumID CCMSLIB00000085850
#IonMode Positive
#UpdateWorkflowName UPDATE-SINGLE-ANNOTATED-GOLD
#LibraryQualityString Gold
#TaskID d252d724072548979f1f6f1ced849daf
##Scan# 1520
#SpectrumFile p4-G03_GG3_01_18399.mzXML
#LibraryName Pharm_Active_Library.mgf
#MQScore -1
#Organism Pharm_Active_Library
#TIC_Query 0
#RT_Query -1
#MZErrorPPM -1
#SharedPeaks 0
#MassDiff 0
#LibMZ -1
#SpecMZ 291.189
#SpecCharge 0
#internalFilename spec-00000.mgf

>collision 10
44.93964 192.0
44.963993 144.0
44.971733 164.0
45.066616 208.0
45.083858 156.0
45.182808 116.0
45.208233 228.0
45.318039 192.0
45.529991 264.0
45.570293 184.0
45.636154 100.0
45.681881 132.0
45.698029 220.0
45.721302 216.0
45.73167 164.0
45.754108 192.0
45.84211 204.0
45.947289 212.0
46.039078 208.0
46.073666 152.0
46.110683 104.0
46.167465 60.0
46.194519 172.0
46.263538 128.0
46.278431 140.0
46.314331 120.0
46.325832 144.0
46.336674 108.0
46.388172 112.0
46.464119 176.0
46.493973 156.0
46.610764 140.0
46.700493 140.0
46.733143 108.0
46.780781 180.0
46.803925 124.0
46.855682 80.0
46.912926 220.0
46.951103 356.0
47.012497 132.0
47.090733 224.0
47.103977 116.0
47.149071 76.0
47.22974 140.0
47.3228 132.0
47.387177 120.0
47.435143 124.0
47.479023 140.0
47.520485 160.0
47.557228 168.0
47.568211 72.0
47.58194 156.0
47.606655 56.0
47.643284 240.0
47.656109 188.0
47.700089 112.0
47.739265 152.0
47.783981 160.0
47.874832 192.0
47.953362 116.0
47.97266 212.0
47.987827 132.0
48.008511 120.0
48.135139 192.0
48.181053 84.0
48.312393 44.0
48.338234 148.0
48.349377 132.0
48.388515 196.0
48.41898 172.0
48.466084 172.0
48.518753 140.0
48.536564 192.0
48.564514 116.0
48.586712 188.0
48.707489 36.0
48.729717 148.0
48.775578 156.0
48.941139 124.0
49.013309 192.0
49.105583 208.0
49.144684 156.0
49.263321 160.0
49.473095 196.0
49.482899 212.0
49.499699 144.0
49.517906 148.0
49.558533 112.0
49.582355 164.0
49.635628 164.0
49.649651 252.0
49.719761 144.0
49.733837 76.0
49.743664 192.0
49.759106 208.0
49.77034 236.0
49.823711 32.0
49.843647 172.0
49.958679 168.0
49.979782 184.0
50.087448 144.0
50.100613 132.0
50.130459 136.0
50.164383 180.0
50.195705 256.0
50.239033 120.0
50.392628 208.0
50.487637 80.0
50.572529 136.0
50.626331 112.0
50.701416 152.0
50.732601 116.0
50.780815 148.0
50.830471 156.0
50.918877 176.0
50.96769 200.0
50.999477 144.0
51.025066 152.0
51.04213 168.0
51.061661 164.0
51.144566 168.0
51.158802 64.0
51.187279 124.0
51.210068 84.0
51.222885 128.0
51.278488 188.0
51.28986 216.0
51.312672 136.0
51.324078 132.0
51.366863 32.0
51.394188 184.0
51.412666 160.0
51.432507 168.0
51.448208 232.0
51.511044 188.0
51.523903 112.0
51.615379 216.0
51.701214 152.0
51.786449 188.0
51.802879 160.0
51.841564 36.0
51.927586 48.0
51.967754 72.0
51.99789 176.0
52.025166 200.0
52.056755 184.0
52.084042 140.0
52.197586 184.0
52.226349 224.0
52.259438 112.0
52.298393 116.0
52.398922 160.0
52.422157 112.0
52.437004 172.0
52.461075 180.0
52.511543 120.0
52.554821 60.0
52.611111 148.0
52.674652 148.0
52.709328 60.0
52.770248 212.0
52.809086 144.0
52.838017 156.0
52.869854 220.0
52.936447 228.0
52.949482 200.0
53.01178 140.0
53.042213 176.0
53.052364 340.0
53.063938 236.0
53.169857 148.0
53.204697 148.0
53.240997 240.0
53.272953 36.0
53.348522 116.0
53.368877 72.0
53.379833 232.0
53.395676 216.0
53.409599 376.0
53.430714 160.0
53.539139 132.0
53.569729 232.0
53.595955 124.0
53.690712 240.0
53.779713 88.0
53.801609 88.0
53.853291 204.0
53.928699 112.0
53.976944 204.0
54.000889 248.0
54.016434 36.0
54.03022 208.0
54.180401 180.0
54.195053 228.0
54.206776 236.0
54.266872 100.0
54.300602 256.0
54.317318 172.0
54.359287 124.0
54.385513 184.0
54.398914 216.0
54.43985 132.0
54.453396 156.0
54.476749 124.0
54.512756 164.0
54.601692 144.0
54.613461 116.0
54.650238 196.0
54.660538 168.0
54.678829 168.0
54.689976 192.0
54.712055 144.0
54.757706 216.0
54.782993 168.0
54.819958 188.0
54.837269 124.0
54.847588 124.0
54.863804 128.0
54.95377 76.0
54.98476 112.0
55.018711 236.0
55.033173 156.0
55.166447 116.0
55.249268 176.0
55.290699 116.0
55.382496 180.0
55.4062 156.0
55.453621 184.0
55.481644 124.0
55.529236 80.0
55.561874 172.0
55.60936 152.0
55.636078 108.0
55.69548 232.0
55.740547 108.0
55.780182 156.0
55.79356 176.0
55.817013 176.0
55.936378 176.0
55.949593 160.0
56.018284 136.0
56.044292 236.0
56.071926 108.0
56.173321 140.0
56.235992 176.0
56.252415 120.0
56.264355 132.0
56.277794 204.0
56.339031 96.0
56.361443 208.0
56.413754 116.0
56.443474 196.0
56.457115 128.0
56.521442 264.0
56.584309 72.0
56.596287 88.0
56.618641 164.0
56.669682 132.0
56.695156 188.0
56.711643 108.0
56.89616 152.0
56.910725 160.0
56.960735 140.0
57.031361 168.0
57.050903 200.0
57.091503 168.0
57.129108 216.0
57.141144 224.0
57.181774 84.0
57.199837 156.0
57.213387 168.0
57.234467 156.0
57.261574 96.0
57.34444 184.0
57.456032 156.0
57.50885 164.0
57.675003 156.0
57.729187 196.0
57.807739 184.0
57.836857 168.0
57.871677 220.0
57.897423 208.0
58.067169 172.0
58.086887 200.0
58.170353 208.0
58.197681 204.0
58.25378 192.0
58.299458 296.0
58.367867 168.0
58.380032 188.0
58.485016 148.0
58.504807 224.0
58.533733 156.0
58.558102 224.0
58.57317 164.0
58.60228 120.0
58.638855 220.0
58.658672 68.0
58.730339 208.0
58.849205 176.0
58.866177 92.0
58.921165 160.0
58.988407 68.0
59.023575 148.0
59.046513 248.0
59.100056 116.0
59.152092 168.0
59.170464 180.0
59.205685 128.0
59.289948 120.0
59.308105 184.0
59.349556 172.0
59.400345 212.0
59.46479 148.0
59.509312 176.0
59.530842 184.0
59.582996 160.0
59.613766 112.0
59.669926 152.0
59.699856 148.0
59.744465 196.0
59.778316 200.0
59.799862 128.0
59.893787 168.0
59.938469 116.0
60.007832 168.0
60.046383 140.0
60.101009 196.0
60.149765 176.0
60.19511 76.0
60.231609 88.0
60.264278 192.0
60.319691 132.0
60.330513 212.0
60.380909 176.0
60.415573 124.0
60.429497 148.0
60.446518 136.0
60.468185 136.0
60.576576 56.0
60.610661 192.0
60.668011 224.0
60.700569 212.0
60.743999 160.0
60.84177 132.0
60.866611 112.0
60.92408 152.0
60.966442 152.0
60.981575 216.0
61.010014 164.0
61.106518 152.0
61.127029 204.0
61.165123 196.0
61.253883 220.0
61.323261 180.0
61.534607 204.0
61.584579 52.0
61.664265 172.0
61.675205 196.0
61.759644 160.0
61.782845 188.0
61.856663 48.0
61.867622 132.0
61.978867 148.0
62.005466 136.0
62.021141 108.0
62.037468 116.0
62.063473 56.0
62.077583 128.0
62.105816 148.0
62.116795 172.0
62.130917 116.0
62.170143 144.0
62.196598 192.0
62.221943 172.0
62.232937 168.0
62.265915 92.0
62.330326 136.0
62.363663 208.0
62.415211 160.0
62.432507 204.0
62.497005 240.0
62.51366 168.0
62.574131 224.0
62.594601 176.0
62.64185 176.0
62.662872 152.0
62.692272 124.0
62.734829 160.0
62.756905 148.0
62.808357 224.0
62.908363 148.0
62.96521 52.0
63.027802 200.0
63.063171 100.0
63.075817 148.0
63.219749 100.0
63.238739 144.0
63.341667 180.0
63.371769 68.0
63.398705 136.0
63.459412 136.0
63.47163 160.0
63.497002 60.0
63.546181 216.0
63.649353 36.0
63.668411 188.0
63.684296 120.0
63.709709 156.0
63.751022 40.0
63.778042 236.0
63.795528 172.0
63.820969 212.0
63.843231 156.0
63.867088 152.0
63.960289 128.0
64.046204 180.0
64.075638 112.0
64.091568 140.0
64.120255 180.0
64.199188 172.0
64.239845 68.0
64.270157 312.0
64.329475 244.0
64.353165 116.0
64.381905 116.0
64.397881 200.0
64.525719 40.0
64.552902 116.0
64.645691 140.0
64.668678 268.0
64.688904 172.0
64.704918 152.0
64.724129 156.0
64.833061 132.0
64.911613 184.0
64.932465 124.0
64.948509 148.0
64.962944 168.0
64.975777 200.0
65.109009 188.0
65.162025 232.0
65.173271 120.0
65.200592 180.0
65.306709 124.0
65.364624 232.0
65.382324 176.0
65.437057 132.0
65.472885 192.0
65.543365 208.0
65.567543 180.0
65.610832 232.0
65.636864 236.0
65.682022 204.0
65.698151 184.0
65.73204 228.0
65.820824 208.0
65.832123 148.0
65.857964 188.0
65.890274 184.0
65.90712 188.0
65.922592 244.0
65.970238 168.0
66.019592 148.0
66.040138 188.0
66.137703 220.0
66.152275 108.0
66.194366 160.0
66.221901 176.0
66.28405 156.0
66.30291 144.0
66.349678 160.0
66.395927 140.0
66.44886 172.0
66.520851 212.0
66.596588 144.0
66.617706 184.0
66.650726 160.0
66.726593 124.0
66.745247 228.0
66.777008 160.0
66.794899 180.0
66.921844 144.0
66.941383 300.0
66.961502 192.0
67.000023 160.0
67.041534 168.0
67.092918 116.0
67.141838 48.0
67.277275 136.0
67.33606 112.0
67.442261 140.0
67.481499 172.0
67.50766 164.0
67.524017 128.0
67.779541 144.0
67.797432 228.0
67.926964 68.0
67.951576 132.0
68.050056 204.0
68.104248 84.0
68.133598 152.0
68.259613 248.0
68.37973 140.0
68.456215 180.0
68.512215 132.0
68.601212 92.0
68.62429 396.0
68.673103 300.0
68.679077 180.0
68.71006 216.0
68.762863 156.0
68.852219 132.0
68.921555 176.0
68.987511 144.0
69.023888 132.0
69.101631 132.0
69.113213 216.0
69.123856 152.0
69.20784 192.0
69.234848 160.0
69.323524 140.0
69.350174 232.0
69.366615 100.0
69.411385 200.0
69.514229 100.0
69.564026 36.0
69.575645 148.0
69.688591 328.0
69.741768 196.0
69.893112 144.0
69.931389 228.0
70.004646 136.0
70.172943 188.0
70.186287 108.0
70.241318 148.0
70.282257 164.0
70.338104 200.0
70.431618 196.0
70.444984 228.0
70.526863 228.0
70.618828 140.0
70.663994 176.0
70.752701 156.0
70.772797 212.0
70.786194 152.0
70.834763 144.0
70.866592 400.0
70.908493 88.0
70.920219 172.0
70.953682 192.0
70.985611 132.0
70.999023 156.0
71.029221 132.0
71.061096 188.0
71.18531 176.0
71.215538 132.0
71.332176 244.0
71.362663 184.0
71.550766 140.0
71.576324 184.0
71.592285 184.0
71.634392 120.0
71.661346 160.0
71.673843 180.0
71.711906 84.0
71.728058 196.0
71.789459 124.0
71.880554 56.0
71.958206 152.0
71.978867 184.0
72.105171 184.0
72.169411 132.0
72.214638 204.0
72.272591 176.0
72.291206 156.0
72.404633 188.0
72.432083 328.0
72.469009 132.0
72.489342 160.0
72.548668 144.0
72.591057 132.0
72.65551 228.0
72.675873 192.0
72.874535 168.0
72.905121 156.0
72.949234 164.0
72.966316 116.0
73.019028 88.0
73.087082 144.0
73.112602 152.0
73.143242 148.0
73.1744 200.0
73.213051 140.0
73.230087 160.0
73.350235 164.0
73.403923 180.0
73.420975 92.0
73.455086 160.0
73.531876 192.0
73.569427 140.0
73.618942 224.0
73.641144 216.0
73.692398 76.0
73.85994 152.0
73.907845 220.0
73.947205 88.0
74.0037 120.0
74.020821 116.0
74.046509 64.0
74.108185 124.0
74.127029 152.0
74.171593 152.0
74.224739 176.0
74.287788 148.0
74.343109 216.0
74.360275 136.0
74.374001 112.0
74.389908 136.0
74.509987 176.0
74.562943 136.0
74.585289 212.0
74.732994 140.0
74.739685 124.0
74.771049 124.0
74.784821 116.0
74.864632 56.0
74.960487 132.0
75.018196 184.0
75.143265 124.0
75.162247 64.0
75.236465 228.0
75.282883 204.0
75.302086 220.0
75.331451 160.0
75.448967 236.0
75.461075 188.0
75.525063 156.0
75.573502 124.0
75.675621 108.0
75.695534 152.0
75.711166 160.0
75.867935 156.0
75.885277 128.0
75.897415 104.0
75.909554 192.0
75.95118 136.0
75.977196 168.0
76.013634 132.0
76.074387 436.0
76.091263 216.0
76.152527 168.0
76.16642 212.0
76.194221 140.0
76.220284 192.0
76.232445 192.0
76.246353 144.0
76.260254 224.0
76.2985 224.0
76.39415 124.0
76.421455 196.0
76.536873 148.0
76.554283 180.0
76.618736 152.0
76.639641 84.0
76.77179 164.0
76.804062 180.0
76.84539 132.0
76.886497 180.0
76.963348 200.0
77.034859 192.0
77.084618 124.0
77.203491 188.0
77.241974 156.0
77.27903 88.0
77.32946 176.0
77.439774 188.0
77.464928 244.0
77.492325 188.0
77.597488 196.0
77.611519 136.0
77.648346 176.0
77.722023 184.0
77.750107 172.0
77.7659 112.0
77.80452 164.0
77.925705 132.0
77.939766 172.0
77.964371 156.0
77.987213 156.0
78.078697 132.0
78.141975 100.0
78.157806 124.0
78.204155 228.0
78.226448 208.0
78.289841 180.0
78.335632 188.0
78.358536 292.0
78.467812 164.0
78.645988 168.0
78.658348 40.0
78.723671 84.0
78.780197 64.0
78.792564 220.0
78.861481 132.0
78.923355 152.0
79.008255 132.0
79.05072 164.0
79.128609 116.0
79.140999 176.0
79.181732 188.0
79.199448 56.0
79.253891 172.0
79.337669 132.0
79.431656 204.0
79.536354 100.0
79.564758 164.0
79.59494 160.0
79.8722 212.0
79.923798 112.0
79.951538 236.0
79.966507 68.0
79.980751 152.0
80.007454 188.0
80.04306 64.0
80.08046 192.0
80.102592 216.0
80.214104 128.0
80.230148 140.0
80.330017 68.0
80.379974 168.0
80.635361 172.0
80.651443 116.0
80.683624 32.0
80.71402 252.0
80.790932 136.0
80.83445 160.0
80.853561 116.0
80.889236 228.0
80.957397 228.0
81.00576 120.0
81.077431 96.0
81.098938 164.0
81.147339 196.0
81.274689 172.0
81.332123 148.0
81.430878 160.0
81.445244 196.0
81.547668 184.0
81.581818 324.0
81.644753 48.0
81.765297 176.0
81.781494 204.0
81.816765 256.0
82.024673 204.0
82.127457 152.0
82.177971 168.0
82.258652 232.0
82.302513 160.0
82.405472 40.0
82.418121 176.0
82.521149 232.0
82.582634 180.0
82.600723 188.0
82.632317 336.0
82.709251 168.0
82.727402 188.0
82.792587 124.0
82.83606 72.0
82.86142 144.0
82.959358 208.0
83.042702 132.0
83.086235 120.0
83.153381 156.0
83.206024 200.0
83.225998 232.0
83.24234 204.0
83.2714 240.0
83.293198 168.0
83.327713 80.0
83.374962 204.0
83.414948 156.0
83.473129 124.0
83.598648 96.0
83.622314 200.0
83.647797 176.0
83.686874 240.0
83.709702 304.0
83.724266 120.0
83.737015 184.0
83.749771 184.0
83.930695 188.0
84.046936 208.0
84.088913 140.0
84.203934 140.0
84.230072 172.0
84.245949 40.0
84.356285 160.0
84.388504 148.0
84.419594 156.0
84.443367 172.0
84.523865 120.0
84.609894 148.0
84.625137 192.0
84.648346 244.0
84.673988 224.0
84.763756 156.0
84.796738 196.0
84.817963 220.0
84.860901 156.0
84.932266 184.0
84.981964 136.0
85.015358 160.0
85.031509 132.0
85.082413 208.0
85.136162 148.0
85.208801 180.0
85.240875 108.0
85.260193 164.0
85.275787 296.0
85.309235 164.0
85.50386 232.0
85.529625 180.0
85.549873 72.0
85.693535 56.0
85.824402 156.0
85.848373 136.0
85.894485 192.0
85.966446 216.0
85.999115 176.0
86.077202 40.0
86.151085 188.0
86.178802 52.0
86.222687 160.0
86.247177 224.0
86.374771 128.0
86.463524 128.0
86.548744 76.0
86.617271 304.0
86.708061 164.0
86.895355 180.0
86.910202 92.0
86.971443 132.0
87.021568 136.0
87.035538 88.0
87.058708 108.0
87.073906 344.0
87.285423 184.0
87.341217 156.0
87.441696 140.0
87.478928 332.0
87.497543 140.0
87.531059 272.0
87.549683 200.0
87.693138 124.0
87.743477 156.0
87.758392 212.0
87.890823 148.0
87.928108 184.0
87.948685 360.0
87.969215 152.0
87.986015 104.0
88.043907 144.0
88.124229 152.0
88.176682 176.0
88.22142 104.0
88.29808 212.0
88.378525 196.0
88.392647 176.0
88.399422 96.0
88.403786 192.0
88.415955 224.0
88.444031 104.0
88.490829 48.0
88.52079 164.0
88.550758 140.0
88.601334 116.0
88.623817 144.0
88.711906 48.0
88.758781 236.0
88.786911 244.0
88.901352 160.0
88.989578 100.0
89.060944 104.0
89.100388 176.0
89.333511 88.0
89.350441 168.0
89.367378 136.0
89.421951 180.0
89.517967 116.0
89.543907 176.0
89.5504 128.0
89.629112 140.0
89.684311 320.0
89.738434 288.0
89.755409 104.0
89.768608 172.0
89.796898 232.0
89.815758 152.0
89.953514 156.0
89.9907 212.0
90.012047 148.0
90.047928 188.0
90.180191 184.0
90.19342 140.0
90.293633 104.0
90.335243 124.0
90.47718 200.0
90.499901 164.0
90.575661 144.0
90.668503 172.0
90.695038 152.0
90.742432 208.0
90.780357 172.0
90.85054 168.0
90.890236 208.0
90.905563 124.0
90.930237 224.0
90.962502 168.0
91.054024 544.0
91.099236 208.0
91.152435 128.0
91.167641 132.0
91.224663 168.0
91.260788 152.0
91.325447 88.0
91.365395 144.0
91.398209 260.0
91.612885 140.0
91.673729 172.0
91.73996 224.0
91.763451 108.0
91.780609 140.0
91.799683 136.0
91.881706 104.0
91.920311 224.0
91.998123 116.0
92.160461 176.0
92.189133 132.0
92.252205 184.0
92.301918 196.0
92.321037 172.0
92.353554 84.0
92.412384 208.0
92.454964 160.0
92.49324 72.0
92.536255 196.0
92.606216 192.0
92.659851 204.0
92.769981 156.0
92.805519 144.0
92.820862 124.0
92.86689 128.0
92.882233 172.0
93.024239 144.0
93.079918 180.0
93.172119 184.0
93.199013 228.0
93.252823 140.0
93.270126 160.0
93.349792 128.0
93.512489 136.0
93.584167 188.0
93.616623 132.0
93.64534 164.0
93.703133 128.0
93.726257 64.0
93.741669 148.0
93.784073 248.0
93.816292 196.0
93.980782 180.0
94.073425 320.0
94.114677 208.0
94.191223 124.0
94.258842 208.0
94.417366 120.0
94.432846 132.0
94.450249 148.0
94.481201 164.0
94.537315 84.0
94.595383 96.0
94.694138 132.0
94.738266 128.0
94.807419 200.0
94.849152 164.0
94.871422 180.0
94.917007 92.0
94.98877 204.0
95.148903 180.0
95.217812 164.0
95.265701 188.0
95.285011 244.0
95.342155 180.0
95.379089 164.0
95.440178 236.0
95.458801 188.0
95.484085 76.0
95.503532 156.0
95.519096 164.0
95.567734 260.0
95.633904 148.0
95.668938 184.0
95.698143 140.0
95.715668 168.0
95.7332 188.0
95.799423 176.0
95.863724 44.0
95.935837 64.0
96.021637 144.0
96.045044 132.0
96.097717 144.0
96.111374 184.0
96.137665 288.0
96.189445 204.0
96.296837 160.0
96.412109 168.0
96.439476 176.0
96.502037 152.0
96.51963 212.0
96.57048 144.0
96.636993 200.0
96.656563 176.0
96.711365 112.0
96.742683 168.0
96.918739 368.0
96.936592 200.0
97.017357 136.0
97.048325 148.0
97.142464 188.0
97.220955 192.0
97.240578 80.0
97.324997 180.0
97.431053 116.0
97.464455 176.0
97.545036 136.0
97.58033 156.0
97.652092 172.0
97.676796 84.0
97.714172 200.0
97.75943 184.0
97.8106 268.0
97.829842 88.0
97.912994 168.0
97.991791 204.0
98.041054 200.0
98.082443 188.0
98.190887 216.0
98.2145 132.0
98.221954 128.0
98.225288 228.0
98.321335 208.0
98.421783 156.0
98.449432 208.0
98.526466 160.0
98.556107 124.0
98.573891 108.0
98.639114 184.0
98.658882 236.0
98.707886 148.0
98.765671 144.0
98.779518 168.0
98.869072 92.0
98.918037 216.0
98.981361 212.0
99.009117 156.0
99.022987 224.0
99.176857 188.0
99.210983 156.0
99.237007 200.0
99.272705 304.0
99.365929 176.0
99.424164 392.0
99.540604 148.0
99.558479 180.0
99.596214 192.0
99.639923 132.0
99.804893 184.0
99.872513 56.0
100.037682 160.0
100.058662 104.0
100.113342 140.0
100.147202 188.0
100.18306 240.0
100.210953 168.0
100.224899 156.0
100.360443 160.0
100.400322 228.0
100.424255 236.0
100.446198 192.0
100.528008 128.0
100.637794 168.0
100.68972 132.0
100.755638 76.0
100.789604 60.0
100.805054 180.0
100.887543 160.0
100.953522 208.0
101.012955 208.0
101.056717 108.0
101.140457 204.0
101.171623 160.0
101.185638 180.0
101.259041 208.0
101.305809 120.0
101.44841 204.0
101.484184 108.0
101.498215 52.0
101.603767 256.0
101.663834 192.0
101.694824 176.0
101.728951 172.0
101.774086 156.0
101.807259 120.0
101.825333 216.0
101.843414 132.0
101.877563 184.0
101.9077 236.0
101.951912 172.0
102.041428 156.0
102.130852 228.0
102.319244 208.0
102.352592 336.0
102.501297 224.0
102.533501 192.0
102.610146 44.0
102.64846 160.0
102.807831 152.0
102.825996 232.0
102.900681 116.0
102.996674 180.0
103.055031 1716.0
103.133003 132.0
103.192642 184.0
103.209831 164.0
103.246231 128.0
103.276573 164.0
103.315002 80.0
103.391899 232.0
103.432381 160.0
103.526367 160.0
103.543747 232.0
103.657196 184.0
103.705833 236.0
103.726105 364.0
103.754486 144.0
103.885612 220.0
103.939064 176.0
103.989799 128.0
104.006035 152.0
104.028366 208.0
104.059616 1016.0
104.103493 148.0
104.125832 204.0
104.192871 208.0
104.223343 44.0
104.247734 180.0
104.284317 188.0
104.391823 168.0
104.416473 144.0
104.510056 168.0
104.719742 236.0
104.758446 148.0
104.858292 160.0
104.897018 156.0
104.929634 148.0
104.968376 164.0
105.005089 172.0
105.04615 280.0
105.06955 2264.0
105.174446 160.0
105.194855 160.0
105.241814 236.0
105.256111 228.0
105.433838 156.0
105.462456 252.0
105.482895 56.0
105.503342 176.0
105.519691 144.0
105.59127 188.0
105.609673 184.0
105.663414 148.0
105.699692 164.0
105.799988 180.0
105.841858 152.0
105.875755 120.0
105.912621 132.0
105.926956 148.0
106.0653 424.0
106.101158 156.0
106.125755 96.0
106.20369 96.0
106.255745 192.0
106.268478 172.0
106.293961 112.0
106.392937 200.0
106.464355 192.0
106.50132 80.0
106.540352 200.0
106.641045 108.0
106.677483 160.0
106.741783 136.0
106.79731 184.0
106.898125 168.0
106.941345 132.0
106.963387 164.0
107.080536 432.0
107.213219 220.0
107.320923 192.0
107.516388 156.0
107.601021 176.0
107.648514 172.0
107.673294 164.0
107.689819 140.0
107.707001 200.0
107.724937 164.0
107.799316 180.0
107.983315 168.0
108.051582 184.0
108.105385 168.0
108.129654 132.0
108.173683 220.0
108.273079 72.0
108.391159 108.0
108.481262 184.0
108.644119 208.0
108.741646 208.0
108.773132 260.0
108.830917 192.0
108.945145 140.0
109.01503 152.0
109.038658 184.0
109.21331 140.0
109.236504 132.0
109.258492 128.0
109.413086 152.0
109.460014 216.0
109.487679 180.0
109.610962 216.0
109.631805 88.0
109.681328 168.0
109.848648 144.0
109.863251 144.0
110.015503 168.0
110.082626 192.0
110.276718 320.0
110.311348 184.0
110.506752 168.0
110.548607 152.0
110.596741 192.0
110.709801 192.0
110.950775 216.0
111.116463 208.0
111.133247 132.0
111.307472 108.0
111.362076 212.0
111.439804 240.0
111.465019 208.0
111.530174 192.0
111.57222 120.0
111.614265 152.0
111.637398 176.0
111.734161 112.0
111.788872 148.0
111.852013 192.0
111.883591 224.0
111.913063 128.0
112.056297 60.0
112.193291 132.0
112.275528 180.0
112.329201 232.0
112.408432 144.0
112.440086 172.0
112.528748 232.0
112.568871 152.0
112.826653 168.0
112.883743 248.0
112.937485 176.0
112.991623 40.0
113.097427 36.0
113.205406 180.0
113.228706 164.0
113.319054 172.0
113.366417 116.0
113.410919 192.0
113.449081 144.0
113.470284 112.0
113.51664 204.0
113.574196 140.0
113.790657 128.0
113.81826 144.0
113.8395 160.0
113.922333 144.0
114.013702 152.0
114.156143 52.0
114.264626 156.0
114.298668 300.0
114.319893 152.0
114.417862 188.0
114.468964 140.0
114.492393 200.0
114.507301 120.0
114.669228 164.0
114.703331 112.0
114.726784 168.0
114.78009 172.0
114.868515 156.0
114.957146 208.0
114.978485 156.0
114.999832 168.0
115.053947 10736.0
115.118523 216.0
115.138977 212.0
115.164742 376.0
115.192917 160.0
115.24678 132.0
115.301613 116.0
115.369385 56.0
115.457687 216.0
115.482719 188.0
115.538155 156.0
115.596115 184.0
115.617348 152.0
115.69529 120.0
115.7117 44.0
115.752388 240.0
115.795334 72.0
115.823067 200.0
115.876617 144.0
115.964401 212.0
116.010605 120.0
116.056313 1400.0
116.118858 244.0
116.178917 256.0
116.21302 224.0
116.247581 192.0
116.262604 188.0
116.309822 140.0
116.329147 64.0
116.415031 92.0
116.571854 152.0
116.586899 156.0
116.619141 244.0
116.664276 152.0
116.706787 208.0
116.747368 164.0
116.772957 208.0
116.808365 152.0
116.84063 96.0
116.886467 172.0
116.905182 152.0
116.922401 136.0
117.002045 248.0
117.035149 172.0
117.069336 13596.0
117.148499 40.0
117.190414 172.0
117.213135 76.0
117.256233 108.0
117.295525 192.0
117.314438 116.0
117.340309 224.0
117.3554 32.0
117.469704 64.0
117.532272 40.0
117.562485 160.0
117.61171 144.0
117.627129 160.0
117.655304 172.0
117.674736 48.0
117.697746 152.0
117.727264 208.0
117.752472 140.0
117.770393 176.0
117.840561 124.0
117.897232 184.0
117.917648 236.0
117.977203 128.0
118.06813 696.0
118.117775 116.0
118.132912 76.0
118.22319 188.0
118.250305 176.0
118.293442 200.0
118.316872 180.0
118.362343 236.0
118.386162 56.0
118.403488 192.0
118.438141 68.0
118.544304 32.0
118.598488 76.0
118.692833 116.0
118.737259 80.0
118.845726 148.0
118.904312 208.0
118.965546 172.0
119.05629 192.0
119.085182 2328.0
119.356186 64.0
119.39315 100.0
119.412727 212.0
119.514977 36.0
119.554146 148.0
119.584839 156.0
119.608559 352.0
119.658783 172.0
119.67823 156.0
119.715248 148.0
119.763161 180.0
119.848129 120.0
119.978905 140.0
120.007248 204.0
120.087013 640.0
120.160164 172.0
120.192657 128.0
120.362915 208.0
120.592308 144.0
120.640404 216.0
120.707512 156.0
120.867599 96.0
120.877197 76.0
120.900696 148.0
120.920395 48.0
120.981689 144.0
121.082413 92.0
121.115265 180.0
121.167847 208.0
121.292763 188.0
121.358528 148.0
121.494514 124.0
121.516457 68.0
121.551262 176.0
121.65033 176.0
121.667892 116.0
121.720589 64.0
121.764511 192.0
121.795265 156.0
121.869164 460.0
121.896332 112.0
121.918304 80.0
121.95787 160.0
121.993042 204.0
122.012825 136.0
122.032616 144.0
122.111778 264.0
122.173378 220.0
122.270195 132.0
122.315506 252.0
122.389069 140.0
122.554276 104.0
122.593941 152.0
122.609367 196.0
122.724945 232.0
122.803391 76.0
122.966667 236.0
122.998238 196.0
123.0373 168.0
123.147713 156.0
123.219498 184.0
123.311218 168.0
123.415596 232.0
123.463776 100.0
123.614204 60.0
123.655975 156.0
123.731522 160.0
123.764732 192.0
123.868828 160.0
123.897781 176.0
124.029182 132.0
124.074928 212.0
124.152077 96.0
124.18441 164.0
124.263451 100.0
124.358879 164.0
124.469879 188.0
124.557648 388.0
124.581444 176.0
124.600929 72.0
124.669273 164.0
124.760948 140.0
124.858788 176.0
124.927742 196.0
124.967796 116.0
125.061264 176.0
125.1325 100.0
125.214897 164.0
125.281723 224.0
125.357475 128.0
125.399826 128.0
125.451736 168.0
125.598274 236.0
125.761162 108.0
125.796875 184.0
125.881721 172.0
125.919685 124.0
126.043755 488.0
126.1409 160.0
126.413773 108.0
126.443756 236.0
126.480919 104.0
126.64949 156.0
126.682457 84.0
126.702621 196.0
126.803459 236.0
126.834846 88.0
126.86174 212.0
127.054832 1684.0
127.097244 76.0
127.139885 136.0
127.236404 220.0
127.555412 208.0
127.58239 160.0
127.602623 120.0
127.660843 216.0
127.791557 148.0
127.807312 204.0
127.848022 216.0
127.917595 200.0
127.947769 148.0
127.985184 176.0
128.061325 6344.0
128.109009 152.0
128.264496 308.0
128.31636 180.0
128.365967 156.0
128.390762 68.0
128.432922 168.0
128.492828 196.0
128.55658 144.0
128.618652 152.0
128.649689 64.0
128.876114 176.0
128.907745 164.0
128.998154 160.0
129.068222 5084.0
129.138992 72.0
129.201691 80.0
129.27179 184.0
129.39917 208.0
129.457474 132.0
129.541275 228.0
129.602448 228.0
129.636734 156.0
129.6931 232.0
129.77417 260.0
129.804199 168.0
129.85144 116.0
129.95845 32.0
129.990219 176.0
130.019714 124.0
130.037872 164.0
130.065048 28428.0
130.10083 180.0
130.137756 72.0
130.155792 68.0
130.189987 136.0
130.205887 304.0
130.254333 208.0
130.268661 188.0
130.308105 172.0
130.351288 60.0
130.392197 80.0
130.413361 76.0
130.432602 36.0
130.451294 232.0
130.503586 80.0
130.562714 96.0
130.606659 172.0
130.676453 112.0
130.748138 200.0
130.772034 188.0
130.813416 88.0
130.849426 184.0
130.978302 224.0
131.013412 84.0
131.072372 10172.0
131.120117 116.0
131.15477 348.0
131.204849 52.0
131.332993 104.0
131.378174 156.0
131.399918 80.0
131.432938 44.0
131.463181 220.0
131.540039 108.0
131.617828 100.0
131.678421 120.0
131.716034 172.0
131.741165 96.0
131.76651 88.0
131.793716 188.0
131.816574 124.0
131.914856 256.0
131.958282 156.0
132.01889 208.0
132.044769 156.0
132.079605 1884.0
132.138977 176.0
132.183701 168.0
132.20076 40.0
132.260269 68.0
132.319794 184.0
132.397644 68.0
132.414383 364.0
132.47049 60.0
132.489273 208.0
132.615311 92.0
132.631638 252.0
132.678848 184.0
132.711594 104.0
132.830856 80.0
132.872147 76.0
132.950165 136.0
133.005249 108.0
133.023621 140.0
133.08696 732.0
133.193542 164.0
133.269363 52.0
133.331085 172.0
133.350891 168.0
133.430527 232.0
133.524536 32.0
133.547531 168.0
133.584335 196.0
133.623444 56.0
133.701691 220.0
133.743118 152.0
133.927322 144.0
133.945755 48.0
134.101608 364.0
134.259232 224.0
134.293823 152.0
134.335342 76.0
134.419891 280.0
134.469177 140.0
134.678574 256.0
134.739349 120.0
134.809448 192.0
134.933502 180.0
134.961243 148.0
135.021378 196.0
135.076889 284.0
135.190262 44.0
135.236542 176.0
135.310623 228.0
135.387039 140.0
135.502869 140.0
135.535294 52.0
135.625687 132.0
135.641907 132.0
135.665756 212.0
135.685959 200.0
135.746246 200.0
135.794952 104.0
135.85527 104.0
135.89238 208.0
136.240646 136.0
136.283463 180.0
136.407303 140.0
136.500381 188.0
136.547485 128.0
136.596329 172.0
136.631226 76.0
136.735947 100.0
136.768814 160.0
136.898911 180.0
136.985092 176.0
137.04567 168.0
137.227478 52.0
137.414062 272.0
137.48407 136.0
137.505081 152.0
137.561096 80.0
137.577438 88.0
137.659164 160.0
137.939545 152.0
138.04007 64.0
138.086853 136.0
138.103226 196.0
138.152344 248.0
138.172882 164.0
138.201477 52.0
138.25531 84.0
138.299774 188.0
138.323181 144.0
138.444458 176.0
138.512863 160.0
138.545654 152.0
138.563675 124.0
138.596115 208.0
138.620636 92.0
138.68158 112.0
138.737839 96.0
138.782379 228.0
138.819901 148.0
138.958435 180.0
139.005219 204.0
139.040421 44.0
139.080322 184.0
139.096756 36.0
139.268173 164.0
139.305756 132.0
139.47966 88.0
139.503159 188.0
139.646606 124.0
139.6866 152.0
139.792465 208.0
139.855011 260.0
140.011414 32.0
140.034744 116.0
140.062531 256.0
140.084442 152.0
140.136261 232.0
140.207886 160.0
140.367264 188.0
140.395569 120.0
140.584305 212.0
140.61734 140.0
140.678711 192.0
140.744827 156.0
140.766083 204.0
140.851105 200.0
140.894592 224.0
140.974609 104.0
140.993088 228.0
141.069977 932.0
141.132355 84.0
141.441711 136.0
141.63266 196.0
141.721741 52.0
141.868683 172.0
141.916107 80.0
142.064758 824.0
142.15332 192.0
142.215027 176.0
142.274368 160.0
142.347046 244.0
142.450104 48.0
142.545151 136.0
142.614075 148.0
142.630707 200.0
142.652954 56.0
142.679703 404.0
142.763855 192.0
142.787643 152.0
142.847107 200.0
142.868515 140.0
142.897064 132.0
142.997009 168.0
143.035553 220.0
143.073593 6284.0
143.126663 156.0
143.153076 116.0
143.187485 48.0
143.24942 168.0
143.315826 192.0
143.345276 192.0
143.395889 144.0
143.405991 68.0
143.412537 124.0
143.485352 200.0
143.530655 204.0
143.561661 184.0
143.590286 192.0
143.621292 184.0
143.653473 220.0
143.745346 88.0
143.764435 100.0
143.788315 184.0
143.819336 160.0
143.836044 88.0
143.865723 140.0
143.88269 104.0
143.93222 360.0
143.948257 220.0
143.968857 172.0
143.988358 188.0
144.007584 200.0
144.035614 284.0
144.080521 73912.0
144.144882 60.0
144.163269 92.0
144.178757 60.0
144.20871 168.0
144.251526 56.0
144.321121 156.0
144.352081 220.0
144.388733 52.0
144.413422 108.0
144.465179 124.0
144.552063 76.0
144.59375 132.0
144.622482 172.0
144.64357 64.0
144.677536 32.0
144.709412 152.0
144.746964 56.0
144.782898 160.0
144.806839 128.0
144.866425 64.0
144.921829 92.0
144.969757 148.0
144.997467 200.0
145.015289 156.0
145.087524 30552.0
145.147476 60.0
145.178238 200.0
145.202164 168.0
145.207703 112.0
145.217285 148.0
145.26564 100.0
145.312592 136.0
145.33905 68.0
145.449448 160.0
145.471054 96.0
145.534164 212.0
145.554611 100.0
145.59111 52.0
145.633926 160.0
145.658371 284.0
145.696243 68.0
145.716751 148.0
145.807343 124.0
145.826569 32.0
145.853012 156.0
145.879456 60.0
145.950897 84.0
145.974319 88.0
146.011703 120.0
146.032684 220.0
146.094604 10912.0
146.154892 168.0
146.194611 332.0
146.252747 96.0
146.278717 132.0
146.341385 168.0
146.37558 156.0
146.396774 92.0
146.481064 164.0
146.505157 56.0
146.541306 100.0
146.56282 56.0
146.688309 160.0
146.705185 72.0
146.748581 160.0
146.831833 284.0
146.859512 180.0
146.915009 52.0
146.964508 60.0
147.004272 40.0
147.026001 48.0
147.099045 1416.0
147.13945 120.0
147.197815 164.0
147.24411 140.0
147.279526 116.0
147.35199 140.0
147.395493 64.0
147.417236 48.0
147.495102 164.0
147.503189 100.0
147.510178 184.0
147.540512 236.0
147.629974 64.0
147.661423 72.0
147.913055 64.0
147.94696 148.0
147.980194 104.0
148.007477 100.0
148.055923 88.0
148.111404 2852.0
148.29335 112.0
148.334305 232.0
148.460648 168.0
148.494598 156.0
148.530991 120.0
148.628036 72.0
148.734818 72.0
148.943649 52.0
148.987381 72.0
149.111938 644.0
149.162354 100.0
149.223129 188.0
149.286346 116.0
149.344727 36.0
149.38121 44.0
149.532074 124.0
149.639191 140.0
149.697632 84.0
149.72789 160.0
149.748764 136.0
149.775558 148.0
149.814545 204.0
149.838898 112.0
149.880325 200.0
150.102158 88.0
150.121658 184.0
150.143616 180.0
150.17775 84.0
150.216782 48.0
150.311935 208.0
150.49501 128.0
150.53009 176.0
150.560944 92.0
150.673309 72.0
151.058182 140.0
151.110962 96.0
151.182861 156.0
151.233917 180.0
151.671783 168.0
151.782104 204.0
151.857437 212.0
151.929276 160.0
152.063583 424.0
152.091232 36.0
152.221359 116.0
152.355942 116.0
152.463242 132.0
152.626816 96.0
152.666168 232.0
152.715347 88.0
152.76387 176.0
152.946655 176.0
153.065781 568.0
153.478806 76.0
153.53299 132.0
153.695877 188.0
153.816803 36.0
154.064438 816.0
154.10083 108.0
154.125534 80.0
154.197205 28.0
154.239212 72.0
154.300522 196.0
154.33316 116.0
154.37767 60.0
154.407349 116.0
154.427139 172.0
154.535995 156.0
154.654785 48.0
154.773621 76.0
154.823151 164.0
154.947006 164.0
155.068573 868.0
155.109329 136.0
155.150223 28.0
155.363403 184.0
155.376419 220.0
155.413132 120.0
155.519852 96.0
155.539703 36.0
155.597672 184.0
155.634048 172.0
155.658875 76.0
155.690887 72.0
155.989334 208.0
156.079956 5196.0
156.267883 200.0
156.394791 120.0
156.427246 112.0
156.499359 124.0
156.528076 124.0
156.598969 164.0
156.656265 128.0
156.712906 196.0
156.78833 68.0
156.877945 164.0
157.088104 916.0
157.134949 48.0
157.277191 116.0
157.309647 168.0
157.352081 44.0
157.384552 68.0
157.45697 112.0
157.760315 100.0
157.84433 144.0
157.969391 204.0
158.011917 140.0
158.034348 316.0
158.04332 116.0
158.049561 184.0
158.095749 27036.0
158.145782 220.0
158.173798 304.0
158.194611 124.0
158.214645 76.0
158.262207 64.0
158.282242 40.0
158.305984 92.0
158.343933 120.0
158.371155 48.0
158.400314 56.0
158.430023 64.0
158.455078 32.0
158.487656 76.0
158.546051 156.0
158.670624 48.0
158.690674 56.0
158.728287 140.0
158.777298 148.0
158.828613 96.0
158.894653 172.0
158.917419 212.0
158.984177 72.0
159.009277 232.0
159.031357 160.0
159.067001 124.0
159.099457 3388.0
159.247803 68.0
159.30809 48.0
159.423798 224.0
159.460464 156.0
159.529236 52.0
159.680557 236.0
159.720352 140.0
159.783249 48.0
159.810776 132.0
159.843628 232.0
159.909439 160.0
159.929199 88.0
160.001572 176.0
160.056839 220.0
160.075699 300.0
160.111664 49244.0
160.19368 140.0
160.257538 184.0
160.296906 60.0
160.345795 212.0
160.370605 132.0
160.439453 64.0
160.485962 88.0
160.51564 76.0
160.538086 72.0
160.586838 68.0
160.607025 160.0
160.626312 96.0
160.67514 104.0
160.714783 56.0
160.724838 40.0
160.778595 56.0
160.826553 36.0
160.896774 356.0
160.968658 56.0
160.987854 204.0
161.018448 144.0
161.071487 44.0
161.114059 4160.0
161.18013 40.0
161.200165 60.0
161.222458 80.0
161.237732 292.0
161.282349 116.0
161.328171 168.0
161.402573 84.0
161.43544 120.0
161.511322 160.0
161.541672 48.0
161.584686 84.0
161.653702 176.0
161.694763 120.0
161.718811 40.0
161.741592 64.0
161.820068 48.0
161.873245 56.0
161.946686 60.0
162.00705 92.0
162.115417 748.0
162.245712 40.0
162.276138 128.0
162.293884 148.0
162.359818 112.0
162.386703 188.0
162.453674 108.0
162.626236 108.0
162.656693 44.0
162.727768 72.0
162.798874 184.0
162.961456 52.0
162.994476 128.0
163.078354 36.0
163.126648 124.0
163.279465 184.0
163.304642 96.0
163.398773 180.0
163.604919 152.0
163.869797 176.0
163.902924 52.0
164.155289 108.0
164.2267 184.0
164.249664 48.0
164.614639 176.0
164.652939 248.0
164.686142 188.0
164.844543 68.0
164.936554 132.0
164.992798 96.0
165.070816 500.0
165.251129 116.0
165.312531 172.0
165.41748 48.0
165.494278 176.0
165.624893 188.0
166.074158 336.0
166.450729 44.0
166.525208 108.0
166.571457 76.0
166.741043 216.0
166.864426 156.0
166.946716 68.0
167.081436 476.0
167.206558 128.0
167.525848 172.0
167.636642 60.0
167.791306 92.0
167.95636 40.0
168.078598 1164.0
168.160202 60.0
168.210007 148.0
168.289276 96.0
168.382248 272.0
168.544998 140.0
168.573425 172.0
168.601852 36.0
168.627701 56.0
168.829361 128.0
168.930237 148.0
169.086456 192.0
169.55426 64.0
169.577591 116.0
169.831696 184.0
170.090286 720.0
170.330078 152.0
170.667953 176.0
170.704346 208.0
171.060806 176.0
171.105072 168.0
171.141525 196.0
171.222244 176.0
171.2509 172.0
171.498428 172.0
171.579239 124.0
171.64772 108.0
171.708221 148.0
171.74353 132.0
172.017532 204.0
172.038406 212.0
172.109848 200.0
172.155914 108.0
172.283493 128.0
172.307419 108.0
172.39888 112.0
172.71785 140.0
172.801575 104.0
173.089493 152.0
173.118378 152.0
173.212601 100.0
173.278091 104.0
173.569031 176.0
173.652954 140.0
173.681808 128.0
173.847107 132.0
174.126205 824.0
174.248871 104.0
174.451233 112.0
174.814209 84.0
174.972137 140.0
175.124725 132.0
175.386978 128.0
175.509644 116.0
175.8452 228.0
175.997803 116.0
176.201187 220.0
176.246109 128.0
176.267242 152.0
176.291565 176.0
176.64798 164.0
176.894089 260.0
176.99469 132.0
177.071487 176.0
177.813873 64.0
177.876663 140.0
177.986435 136.0
178.07132 368.0
178.291931 128.0
178.612259 208.0
178.714752 132.0
179.03154 128.0
179.082108 424.0
179.356598 164.0
179.543228 80.0
179.61792 104.0
179.641922 188.0
179.660599 52.0
179.882095 124.0
180.028946 160.0
180.077927 280.0
180.157166 60.0
180.381638 116.0
180.425522 272.0
180.630341 184.0
180.876526 56.0
181.093414 108.0
181.149673 192.0
181.492737 116.0
181.602692 192.0
181.844177 120.0
182.029419 172.0
182.09584 508.0
182.118042 148.0
182.628754 60.0
182.669098 132.0
182.752502 112.0
183.105423 160.0
183.164413 180.0
183.444672 124.0
183.528259 180.0
183.94104 140.0
184.197571 152.0
184.338074 108.0
184.529984 164.0
184.557022 96.0
185.120407 168.0
185.203842 88.0
185.244476 88.0
185.485657 124.0
185.507339 164.0
185.718857 168.0
185.976624 92.0
186.558426 256.0
187.039459 144.0
187.122726 316.0
187.366257 136.0
187.486145 156.0
187.701508 116.0
187.851517 148.0
188.299179 240.0
188.542343 224.0
188.572403 204.0
188.941574 132.0
189.256332 92.0
189.286453 176.0
189.341217 112.0
189.45079 176.0
189.494629 136.0
189.683731 196.0
189.960693 128.0
190.051239 232.0
190.074493 204.0
190.150024 232.0
190.388885 68.0
190.660873 120.0
190.78183 144.0
190.825806 128.0
190.913803 152.0
191.037582 172.0
191.090683 228.0
191.770065 188.0
191.883087 104.0
192.090515 336.0
192.600601 148.0
192.644806 128.0
193.08815 348.0
193.208786 108.0
193.269653 196.0
193.457855 172.0
193.587997 120.0
193.964813 104.0
194.09465 212.0
194.2005 68.0
194.519608 260.0
194.561264 116.0
194.858429 176.0
195.000153 152.0
195.097458 176.0
195.297668 172.0
195.754105 56.0
196.046616 84.0
196.101624 136.0
196.158112 140.0
196.33609 116.0
196.484406 172.0
196.593231 108.0
196.660217 132.0
196.682541 140.0
196.788635 152.0
197.020447 96.0
197.067947 208.0
197.244019 148.0
197.294327 52.0
197.901474 108.0
197.991089 136.0
198.047104 152.0
198.119934 192.0
198.18158 124.0
198.209595 136.0
198.475891 44.0
198.531982 208.0
198.810684 208.0
198.913574 144.0
199.216858 84.0
199.259003 136.0
199.346115 204.0
199.407944 80.0
199.517578 80.0
199.638474 212.0
199.857895 100.0
200.291458 72.0
200.316818 216.0
200.959625 140.0
201.069672 132.0
201.112015 84.0
201.131775 92.0
201.275757 176.0
201.337891 144.0
201.357666 200.0
201.386795 260.0
201.6091 260.0
201.668457 140.0
202.074951 480.0
202.248322 60.0
202.372879 108.0
202.415359 216.0
202.63237 108.0
202.664627 216.0
202.69014 112.0
202.780823 156.0
203.022751 192.0
203.083527 544.0
203.166473 152.0
203.404861 80.0
203.595093 112.0
203.930359 188.0
204.081787 1004.0
204.132202 108.0
204.154953 48.0
204.405304 208.0
204.550461 60.0
204.633011 116.0
204.900742 164.0
205.026123 176.0
205.089127 1068.0
205.402496 164.0
205.480667 140.0
205.605087 248.0
205.653595 140.0
205.756363 196.0
205.782059 176.0
206.013397 64.0
206.09581 1060.0
206.436432 184.0
206.556564 76.0
206.582306 120.0
206.648117 124.0
206.859894 212.0
207.1008 208.0
207.321045 112.0
207.378372 160.0
207.688034 64.0
207.759766 196.0
207.822876 152.0
207.870422 136.0
208.023788 104.0
208.049622 140.0
208.074646 184.0
208.164474 68.0
208.216171 236.0
208.434494 148.0
209.156387 132.0
209.257156 172.0
209.304657 120.0
209.415543 164.0
209.550934 136.0
209.771667 184.0
209.922791 212.0
210.136246 200.0
210.430649 132.0
210.52594 260.0
210.687683 128.0
210.852402 128.0
210.988266 120.0
211.008499 232.0
211.14151 176.0
211.184906 104.0
211.766693 188.0
212.255157 156.0
212.395691 228.0
212.517532 140.0
212.7323 104.0
212.801987 152.0
212.944275 128.0
213.040131 180.0
213.383087 112.0
213.580841 144.0
213.970795 140.0
214.195038 104.0
214.229996 180.0
214.413574 92.0
214.512756 136.0
214.603058 116.0
214.982269 228.0
215.084885 980.0
215.318024 128.0
215.396881 224.0
215.572189 80.0
215.899612 148.0
215.99614 132.0
216.079926 1060.0
216.165833 108.0
216.294617 52.0
216.461502 164.0
217.034271 164.0
217.088699 5328.0
217.340912 188.0
217.414276 188.0
217.525803 44.0
217.593658 164.0
217.61882 112.0
217.690231 48.0
217.848846 196.0
217.87822 68.0
217.901718 56.0
218.007507 172.0
218.094498 11396.0
218.14566 32.0
218.225815 136.0
218.309723 100.0
218.350967 68.0
218.409515 120.0
218.436783 156.0
218.604492 184.0
218.645691 52.0
218.943054 124.0
218.987228 52.0
219.101212 5884.0
219.1819 52.0
219.255341 72.0
219.302505 244.0
219.329498 128.0
219.3703 112.0
219.473495 188.0
219.585556 192.0
219.700607 92.0
219.725739 100.0
219.865234 124.0
219.918976 72.0
219.995728 80.0
220.054764 120.0
220.108536 1096.0
220.205383 52.0
220.259537 84.0
220.441727 76.0
220.527435 48.0
220.678207 144.0
220.81424 116.0
221.006531 92.0
221.172256 36.0
221.231476 128.0
221.28476 148.0
221.447632 140.0
221.708359 164.0
221.740967 64.0
221.877319 92.0
222.052277 40.0
222.111603 244.0
222.13533 168.0
222.301483 152.0
222.325226 208.0
222.497391 108.0
222.669632 156.0
222.978622 180.0
223.067795 160.0
223.40947 148.0
223.484177 56.0
223.707397 224.0
224.058807 204.0
224.100525 100.0
224.275299 112.0
224.796417 140.0
225.159531 124.0
225.362671 128.0
225.861938 132.0
225.894852 144.0
225.966644 196.0
226.83815 132.0
226.931091 60.0
227.087036 176.0
227.132034 140.0
227.183029 228.0
227.222031 48.0
227.285034 144.0
227.426086 208.0
227.693314 136.0
227.780426 136.0
227.927643 164.0
227.993759 104.0
228.094849 636.0
228.228241 152.0
228.297394 184.0
228.444778 124.0
228.544067 68.0
228.649399 156.0
228.772812 60.0
228.793884 80.0
228.926376 164.0
229.004684 140.0
229.091476 728.0
229.133316 180.0
229.492889 64.0
229.583359 148.0
229.628586 44.0
229.731155 48.0
229.78244 64.0
229.827698 188.0
229.872971 80.0
229.909927 128.0
230.017838 180.0
230.04715 220.0
230.095856 27284.0
230.189087 200.0
230.280533 32.0
230.392563 152.0
230.417267 152.0
230.491013 228.0
230.525253 52.0
230.599213 136.0
230.670334 104.0
230.695999 180.0
230.782196 76.0
230.915268 40.0
230.993912 140.0
231.033234 184.0
231.102661 20504.0
231.202682 44.0
231.284409 52.0
231.314682 64.0
231.374084 64.0
231.402481 92.0
231.429718 44.0
231.467621 148.0
231.496338 84.0
231.53154 148.0
231.559952 76.0
231.581146 40.0
231.672028 132.0
231.696259 116.0
231.723526 40.0
231.772003 84.0
231.819351 148.0
231.985184 156.0
232.107956 7168.0
232.205521 52.0
232.254456 240.0
232.306412 108.0
232.345154 140.0
232.379807 116.0
232.414856 40.0
232.499115 120.0
232.557495 44.0
232.589813 148.0
232.657669 124.0
232.688019 76.0
232.722702 76.0
232.861115 32.0
232.936127 104.0
232.947525 72.0
232.976883 204.0
233.116806 1688.0
233.171295 44.0
233.295654 264.0
233.371658 76.0
233.426392 144.0
233.572388 72.0
233.608887 148.0
233.706253 52.0
233.806671 204.0
233.849289 100.0
233.873627 84.0
233.942703 104.0
233.977142 72.0
234.037079 192.0
234.077621 124.0
234.126312 16488.0
234.192596 196.0
234.253479 92.0
234.397476 36.0
234.448807 156.0
234.471725 120.0
234.580353 44.0
234.641434 160.0
234.698029 60.0
234.716812 148.0
234.756287 96.0
234.845322 76.0
234.940201 32.0
235.007324 192.0
235.074463 220.0
235.129318 2712.0
235.187378 40.0
235.284195 128.0
235.361404 44.0
235.569092 40.0
235.694366 64.0
235.743256 56.0
236.135223 152.0
236.214111 44.0
236.284485 72.0
236.428299 96.0
236.489517 108.0
236.651413 68.0
236.696167 88.0
236.755875 84.0
236.782837 100.0
236.887589 56.0
237.307465 96.0
237.479202 48.0
237.528275 40.0
237.62645 104.0
237.743057 192.0
237.973282 44.0
238.603149 48.0
238.763046 40.0
238.830719 100.0
238.956848 112.0
239.175339 204.0
239.233841 172.0
239.322571 156.0
239.526382 156.0
239.806793 168.0
240.294037 180.0
240.389694 160.0
240.519318 200.0
240.886795 176.0
240.914597 116.0
240.967117 156.0
241.103088 132.0
241.650421 160.0
241.703033 80.0
242.092239 324.0
242.25415 204.0
242.331604 48.0
242.60434 80.0
242.838531 128.0
243.044769 104.0
243.104828 1368.0
243.165802 180.0
243.28685 60.0
243.367584 160.0
243.398636 92.0
243.560135 96.0
243.594299 108.0
243.765198 108.0
244.008804 160.0
244.110611 8260.0
244.206665 100.0
244.230743 136.0
244.278214 52.0
244.316879 48.0
244.446777 68.0
244.595627 84.0
244.673447 148.0
244.888321 160.0
244.959961 144.0
245.065231 164.0
245.116745 7900.0
245.214401 128.0
245.274704 60.0
245.340164 68.0
245.455536 88.0
245.610367 156.0
245.861084 216.0
245.94957 208.0
245.982819 108.0
246.06749 308.0
246.126587 19868.0
246.17952 80.0
246.207108 164.0
246.310699 72.0
246.3638 48.0
246.398178 80.0
246.426285 60.0
246.457535 48.0
246.501282 88.0
246.581146 36.0
246.588791 68.0
246.657562 92.0
246.706848 204.0
246.76825 64.0
246.823257 36.0
246.986649 100.0
247.023438 96.0
247.086349 228.0
247.130295 3552.0
247.191864 48.0
247.223679 60.0
247.298798 56.0
247.342621 28.0
247.432083 104.0
247.477249 72.0
247.693344 264.0
247.796722 128.0
247.831192 112.0
247.873734 104.0
247.926773 80.0
247.956543 64.0
248.006241 56.0
248.011917 48.0
248.087189 212.0
248.142303 3736.0
248.273193 44.0
248.66008 76.0
248.935364 172.0
249.015045 120.0
249.045303 112.0
249.098694 156.0
249.146133 936.0
249.258942 68.0
249.656265 100.0
249.821747 104.0
249.85321 208.0
249.953888 92.0
250.082932 168.0
250.145233 156.0
250.407227 92.0
250.649811 92.0
250.690781 88.0
250.747513 52.0
250.873596 44.0
250.939804 68.0
251.06279 48.0
251.242584 48.0
251.428757 156.0
252.310059 76.0
252.43338 128.0
252.920624 108.0
253.839417 72.0
253.944077 40.0
254.289917 128.0
254.566132 100.0
254.734467 128.0
255.198486 88.0
255.465637 156.0
255.612 40.0
255.92395 164.0
256.111847 140.0
257.113007 164.0
257.390747 88.0
257.834808 68.0
257.978638 84.0
258.011993 152.0
258.126495 2276.0
258.27475 104.0
258.301636 164.0
258.384827 168.0
258.487213 48.0
258.576813 48.0
258.816925 112.0
259.135284 820.0
259.185303 188.0
259.239777 56.0
259.300659 204.0
259.371185 56.0
259.428894 28.0
259.476959 184.0
259.531464 204.0
259.816925 64.0
259.868256 132.0
259.895935 172.0
259.946716 160.0
259.990204 172.0
260.025513 116.0
260.0784 224.0
260.142334 20860.0
260.196381 240.0
260.231781 256.0
260.352997 208.0
260.378693 104.0
260.507172 60.0
260.538727 68.0
260.558838 96.0
260.610962 200.0
260.751373 36.0
260.799591 48.0
260.825317 36.0
260.854248 120.0
260.960327 48.0
261.01178 56.0
261.063232 92.0
261.145172 3496.0
261.304474 44.0
261.549072 76.0
261.595856 136.0
261.787323 36.0
261.838867 88.0
261.859894 60.0
261.907776 96.0
261.990265 116.0
262.032135 76.0
262.149384 588.0
262.322174 32.0
262.451141 52.0
262.605957 64.0
262.655853 120.0
262.718842 84.0
262.95108 248.0
263.109375 124.0
263.209442 60.0
263.467865 44.0
263.532471 148.0
263.833038 48.0
263.884766 48.0
264.075592 92.0
264.272919 32.0
265.043579 104.0
265.169952 80.0
267.153992 108.0
267.833282 84.0
268.095001 56.0
268.134125 44.0
269.897003 188.0
270.610291 60.0
271.121307 176.0
273.891144 60.0
277.984314 68.0
278.063965 124.0
278.173492 32.0
279.546234 96.0
279.629425 44.0
279.969025 80.0
280.432129 88.0
281.479706 52.0
283.483521 136.0
283.939484 156.0
284.187714 36.0
286.019318 100.0
286.949158 156.0
287.347137 192.0
289.56134 108.0
289.781525 148.0
290.781921 172.0
291.094238 180.0
291.141785 188.0
291.185028 8080.0
291.345306 44.0
291.444122 40.0
291.85202 56.0
292.056091 88.0
292.187286 1612.0
292.466248 52.0
292.614197 104.0
292.678894 60.0
292.726562 108.0
292.757202 60.0
292.85257 144.0
293.094452 56.0
293.187378 240.0
293.735443 104.0
293.820709 124.0
293.880432 64.0
293.926483 96.0
294.049347 76.0
294.100555 32.0
294.301971 92.0
294.347565 124.0
295.351166 40.0
298.320862 84.0
300.018097 80.0
300.849548 64.0
301.018738 88.0
302.734009 56.0
305.114349 76.0
311.16925 88.0
315.248322 100.0
316.737885 96.0
317.5354 60.0
318.479523 80.0
320.01944 100.0
320.999359 88.0
321.588013 100.0
324.747467 56.0
324.991394 132.0
327.727753 48.0
328.034088 104.0
328.517334 84.0
330.833862 84.0
331.453217 140.0
332.998688 108.0
337.342224 80.0
338.238495 92.0
339.634613 44.0
339.928101 60.0
345.127319 48.0
346.395233 64.0
349.242371 92.0
352.485962 68.0
354.664185 80.0
355.523071 68.0
357.597717 120.0
358.822021 48.0
359.448151 64.0
360.108856 108.0
369.330292 100.0
375.325439 52.0
376.347961 76.0
378.025635 72.0
382.699341 108.0
382.964172 60.0
383.837158 96.0
391.782166 116.0
394.900696 72.0
396.97995 112.0
397.991852 68.0
400.628845 84.0
400.836029 100.0
402.882904 136.0
404.374451 88.0
405.243439 156.0
413.741852 96.0
416.332916 60.0
423.744873 116.0
425.882233 80.0
429.23645 48.0
430.924713 116.0
431.544678 84.0
434.049835 52.0
441.002533 76.0
445.39386 64.0
446.356323 104.0
446.465668 76.0
449.566376 84.0
450.267181 40.0
455.65976 52.0
456.463135 88.0
467.668243 92.0
469.589966 108.0
475.886597 112.0
479.401398 116.0
480.513306 92.0
480.871155 48.0
487.910767 60.0
488.605652 28.0
488.764069 44.0
496.49057 108.0
496.756714 144.0
513.112305 124.0
517.250488 80.0
518.441711 84.0
520.242493 112.0
524.974609 88.0
525.73645 36.0
527.101929 240.0
528.757446 60.0
534.655029 68.0
535.041687 96.0
539.248779 64.0
540.104187 88.0
541.390869 48.0
546.794983 100.0
569.240112 88.0
572.683472 88.0
576.118042 128.0
576.787109 80.0
578.892334 40.0
581.860413 64.0
583.585327 124.0
584.186523 76.0
585.712524 156.0
587.394897 56.0
593.193054 72.0
613.210449 76.0
613.299194 52.0
619.446411 188.0
629.528442 64.0
634.492249 68.0
638.434021 120.0
640.406982 84.0
642.075256 76.0
650.449341 52.0
651.454834 136.0
662.320618 152.0
663.16095 104.0
679.653992 88.0
681.144043 128.0
688.023499 112.0
689.052368 160.0
689.669006 64.0
693.02887 240.0
699.852051 192.0
707.454956 120.0
711.170959 208.0
712.328552 36.0
714.689148 60.0
716.819153 44.0
726.765259 28.0
727.688477 80.0
728.547791 40.0
734.248291 184.0
737.395996 176.0
752.771179 60.0
756.593262 196.0
771.204224 68.0
776.059387 156.0
782.421143 212.0
783.562927 120.0
789.725952 148.0
790.346924 140.0
791.740845 44.0
797.243225 88.0
798.610779 208.0
799.178955 156.0
802.710876 208.0
803.359497 64.0
805.357788 188.0
805.487732 204.0
806.323975 192.0
806.691406 128.0
810.109558 52.0
811.367676 120.0
813.296448 176.0
815.574219 136.0
820.544128 92.0
823.52301 160.0
823.625793 96.0
831.016785 52.0
831.487305 196.0
832.830872 68.0
841.648193 112.0
841.896545 120.0
842.84967 164.0
843.780273 196.0
844.734558 136.0
847.229675 148.0
850.140503 276.0
851.046082 96.0
851.086731 60.0
852.196167 68.0
859.492188 192.0
860.186707 236.0
861.453918 36.0
862.053223 220.0
873.224365 180.0
873.818542 124.0
876.462341 76.0
878.396118 168.0
878.449219 160.0
881.200439 176.0
882.760986 152.0
887.729553 200.0
888.346375 64.0
889.224609 156.0
892.991577 112.0
894.973328 104.0
895.795227 144.0
898.137939 196.0
898.340759 96.0
901.075134 84.0
905.100586 56.0
906.742065 132.0
906.999817 108.0
908.169067 164.0
910.017456 136.0
916.381104 172.0
917.158569 136.0
919.933411 152.0
919.98175 152.0
923.613586 156.0
924.611938 184.0
929.13855 204.0
929.623962 204.0
935.629456 48.0
936.664734 100.0
936.756104 172.0
938.389465 160.0
938.50531 196.0
938.840698 184.0
940.335449 196.0
944.16626 168.0
944.96759 256.0
945.928467 236.0
948.801697 248.0
949.016296 44.0
950.144836 164.0
952.152161 100.0
952.262695 188.0
955.520752 144.0
958.605713 48.0
961.288269 52.0
961.578369 144.0
961.849915 176.0
963.789246 160.0
965.031616 100.0
965.421204 84.0
971.522461 204.0
973.415527 92.0
973.707458 160.0
973.93103 132.0
975.552979 140.0
977.842041 132.0
979.099731 76.0
981.598755 148.0
983.532837 172.0
989.227661 52.0
989.59082 36.0
989.916382 176.0
990.423706 124.0
991.796021 160.0
992.429199 188.0
993.583252 212.0
994.668945 132.0
994.775696 200.0
995.472656 180.0
1000.949951 136.0
1002.064819 168.0
1003.0354 68.0
1006.581177 132.0
1009.747437 52.0
1014.686768 160.0
1014.934082 136.0
1016.342224 172.0
1016.72937 168.0
1017.453003 68.0
1018.742249 52.0
1020.312012 144.0
1021.272217 156.0
1022.984009 176.0
1023.302307 228.0
1023.907288 156.0
1024.397705 168.0
1024.786377 220.0
1025.2771 184.0
1025.50647 164.0
1025.678589 112.0
1030.612061 52.0
1030.656738 164.0
1031.999023 28.0
1032.235718 108.0
1033.40625 180.0
1033.88623 44.0
1035.179321 228.0
1036.505371 224.0
1037.691284 168.0
1039.859497 72.0
1040.084229 192.0
1041.060059 160.0
1043.238281 136.0
1045.103516 140.0
1045.251465 124.0
1045.418823 224.0
1046.480957 132.0
1047.859253 168.0
1048.774414 196.0
1049.012939 164.0
1049.567383 56.0
1049.625488 156.0
1050.651001 148.0
1051.522095 232.0
1052.768188 76.0
1052.955444 196.0
1056.232544 128.0
1056.80835 116.0
1057.921631 220.0
1058.873413 228.0
1058.983521 212.0
1060.545166 284.0
1060.817383 196.0
1062.004028 100.0
1062.328369 232.0
1064.743042 40.0
1065.262695 176.0
1066.029419 200.0
1066.276367 128.0
1066.497437 184.0
1066.900391 196.0
1067.212524 156.0
1067.765259 180.0
1068.604492 164.0
1070.264282 40.0
1070.329346 164.0
1070.440063 92.0
1072.700928 176.0
1073.268188 128.0
1074.722778 112.0
1075.068604 164.0
1075.270142 128.0
1075.995605 164.0
1076.322021 172.0
1077.060059 100.0
1077.24292 192.0
1077.772217 192.0
1078.268799 188.0
1078.654419 220.0
1078.909424 152.0
1079.236328 112.0
1079.39978 92.0
1080.008057 192.0
1080.178101 104.0
1080.819336 196.0
1081.11377 236.0
1081.5 176.0
1083.228638 144.0
1085.647339 136.0
1085.909668 172.0
1086.270386 176.0
1086.651001 164.0
1087.339966 128.0
1088.298462 188.0
1088.895996 52.0
1089.506958 172.0
1090.334839 96.0
1090.610962 152.0
1091.025146 96.0
1091.274902 116.0
1091.952271 184.0
1092.374756 164.0
1093.728882 32.0
1094.011963 140.0
1095.776978 120.0
1097.464355 104.0
1098.235962 172.0
1098.354736 216.0
1099.667725 148.0
1100.360962 208.0
1102.85144 208.0
1102.950562 32.0
1103.512573 180.0
1104.325928 224.0
1106.14563 156.0
1106.509766 120.0
1107.105713 196.0
1107.741577 140.0
1108.284912 172.0
1108.470459 96.0
1108.994019 32.0
1110.69812 260.0
1110.930298 100.0
1111.51416 220.0
1111.759766 136.0
1112.49646 152.0
1114.814697 140.0
1116.835815 108.0
1118.24646 128.0
1118.925415 128.0
1119.804443 216.0
1120.770508 64.0
1122.036865 124.0
1122.643677 136.0
1122.883789 204.0
1123.117188 144.0
1123.464111 172.0
1124.88562 244.0
1126.862427 148.0
1127.203247 188.0
1128.245972 188.0
1128.566895 136.0
1130.045044 156.0
1130.319458 120.0
1131.216309 128.0
1131.336792 144.0
1131.631348 160.0
1133.352783 120.0
1133.446655 140.0
1133.965088 156.0
1134.331299 200.0
1134.378296 128.0
1135.249878 208.0
1136.376831 204.0
1136.423828 80.0
1138.148926 220.0
1138.45105 152.0
1139.855103 136.0
1140.9552 204.0
1141.354126 196.0
1141.697144 128.0
1142.423584 140.0
1143.062744 168.0
1144.954468 156.0
1145.156494 120.0
1146.194092 148.0
1146.430542 236.0
1146.611938 144.0
1146.699463 140.0
1146.875244 172.0
1146.97583 120.0
1147.623047 40.0
1148.324463 152.0
1148.513306 232.0
1148.911255 144.0
1150.582642 208.0
1152.280273 32.0
1153.050659 172.0
1153.706299 148.0
1153.841553 148.0
1154.226929 256.0
1155.194214 152.0
1155.593384 160.0
1155.897827 168.0
1156.459595 68.0
1157.624023 136.0
1158.010132 80.0
1158.179443 184.0
1161.361572 148.0
1162.70874 212.0
1162.844482 164.0
1162.986938 164.0
1164.181885 172.0
1166.954468 116.0
1168.26709 128.0
1170.336182 204.0
1171.330444 192.0
1171.378174 168.0
1172.434326 152.0
1173.197754 104.0
1174.528931 188.0
1174.977783 72.0
1175.84436 120.0
1176.10376 172.0
1178.610229 100.0
1178.664917 164.0
1181.611938 136.0
1183.822876 172.0
1184.124146 80.0
1184.884644 188.0
1185.261475 228.0
1185.583496 52.0
1185.823364 108.0
1186.262085 80.0
1186.378662 140.0
1186.782959 180.0
1187.030029 72.0
1188.079468 48.0
1188.841064 200.0
1189.2323 92.0
1190.179688 160.0
1193.257935 52.0
1193.615601 112.0
1194.988281 192.0
1195.335327 116.0
1195.879028 64.0
1195.934082 188.0
1197.531494 140.0
1197.738159 48.0
1197.972412 148.0
1199.116211 128.0
1200.612305 104.0
1202.102539 124.0
1202.240479 152.0
1202.489014 76.0
1202.820312 192.0
1203.158569 100.0
1203.338135 152.0
1203.890503 176.0
1203.980347 116.0
1204.070068 176.0
1205.203003 164.0
1205.279053 144.0
1206.10144 168.0
1206.426392 244.0
1206.944946 152.0
1207.325317 164.0
1207.529175 156.0
1207.982422 172.0
1208.106934 144.0
1208.902588 208.0
1209.387085 132.0
1210.058594 80.0
1211.762451 96.0
1212.850464 176.0
1213.661621 144.0
1214.438354 100.0
1215.409668 40.0
1216.020386 52.0
1216.09668 176.0
1217.193604 112.0
1217.506104 112.0
1217.811768 160.0
1218.18689 168.0
1219.753174 240.0
1220.654297 192.0
1221.273315 48.0
1221.60022 184.0
1221.683716 120.0
1222.205566 164.0
1222.616089 76.0
1223.576782 172.0
1224.050171 240.0
1224.140747 160.0
1224.238281 52.0
1224.788452 132.0
1225.51416 196.0
1226.83728 164.0
1226.903687 212.0
1227.625244 152.0
1227.820435 176.0
1228.008789 184.0
1228.169189 224.0
1229.739136 164.0
1230.618774 176.0
1232.288086 108.0
1232.937988 232.0
1233.336426 160.0
1234.371094 116.0
1236.448975 152.0
1236.518921 164.0
1237.162964 156.0
1237.302979 228.0
1237.751099 156.0
1238.192261 152.0
1238.388428 52.0
1239.108643 176.0
1240.504639 128.0
1241.149658 208.0
1242.334961 176.0
1242.636597 104.0
1242.931396 124.0
1243.19104 208.0
1243.493896 152.0
1243.906982 120.0
1244.019287 144.0
1244.531738 160.0
1246.217529 224.0
1248.776489 148.0
1249.304077 180.0
1252.50708 284.0
1253.091797 128.0
1253.697876 176.0
1254.156006 152.0
1254.543701 108.0
1255.199463 216.0
1255.714233 152.0
1255.841187 200.0
1257.104126 88.0
1257.379395 100.0
1259.744873 156.0
1259.956787 144.0
1260.006226 152.0
1260.536255 144.0
1262.155029 244.0
1263.194702 224.0
1263.739502 192.0
1264.312622 184.0
1265.466553 152.0
1265.678955 204.0
1266.004639 116.0
1266.075439 144.0
1266.592529 200.0
1267.109741 204.0
1267.194702 184.0
1267.279785 124.0
1268.279053 100.0
1268.364136 192.0
1268.839111 124.0
1269.186523 128.0
1270.54834 52.0
1270.952759 132.0
1271.839844 160.0
1272.088379 140.0
1272.47168 160.0
1273.153442 100.0
1274.616821 160.0
1274.979248 144.0
1275.277832 124.0
1275.891235 216.0
1276.799316 216.0
1276.863281 156.0
1277.119385 176.0
1277.453735 168.0
1277.531982 64.0
1278.321777 208.0
1278.748779 224.0
1279.503418 92.0
1280.229736 260.0
1280.500366 180.0
1280.661011 232.0
1280.813721 184.0
1281.212646 184.0
1281.640137 76.0
1282.188843 116.0
1282.267334 164.0
1284.770264 140.0
1286.06897 72.0
1286.975708 168.0
1287.197021 188.0
1288.111206 96.0
1288.332642 200.0
1288.604248 188.0
1288.86145 248.0
1289.168701 132.0
1289.297363 244.0
1289.797729 120.0
1290.290894 136.0
1290.498291 84.0
1290.741455 172.0
1291.127563 88.0
1291.442261 264.0
1291.907227 156.0
1292.157715 128.0
1292.579834 160.0
1292.844604 252.0
1293.095093 200.0
1293.28125 144.0
1293.696411 124.0
1295.415161 132.0
1295.669678 244.0
1295.697021 128.0
1295.717529 160.0
1296.138794 72.0
1296.275635 124.0
1296.35376 120.0
1297.034668 160.0
1297.565186 152.0
1298.196167 32.0
1298.719727 164.0
1298.805908 136.0
1299.157349 188.0
1299.5896 192.0
1300.104492 156.0
1300.492065 72.0
1301.805908 184.0
1301.870605 128.0
1301.949585 128.0
1302.021362 164.0
1302.141479 152.0
1302.696655 220.0
1303.278564 256.0
1303.537231 152.0
1304.293213 196.0
1304.428467 176.0
1304.629761 144.0
1304.88147 244.0
1306.427734 204.0
1306.672363 136.0
1306.780273 128.0
1309.076538 172.0
1309.234985 184.0
1310.041748 72.0
1311.872192 216.0
1312.045166 208.0
1312.759033 220.0
1312.905762 248.0
1313.761719 184.0
1314.259521 168.0
1315.125488 176.0
1315.796875 340.0
1316.461182 192.0
1317.797607 124.0
1317.877075 260.0
1317.927612 172.0
1318.679199 168.0
1320.356689 76.0
1320.515747 76.0
1321.210205 244.0
1321.629883 144.0
1322.035034 164.0
1322.427979 124.0
1323.750854 228.0
1323.888428 140.0
1325.279297 164.0
1326.06189 164.0
1326.960815 96.0
1327.033325 40.0
1327.265381 156.0
1327.736816 116.0
1327.823853 180.0
1328.153564 208.0
1329.08606 168.0
1329.361816 140.0
1329.74646 148.0
1330.428833 56.0
1330.588623 156.0
1330.806396 192.0
1332.564087 180.0
1333.101929 116.0
1333.632446 140.0
1334.094238 204.0
1335.406616 200.0
1336.927246 144.0
1337.145508 156.0
1337.403198 168.0
1337.873413 152.0
1338.339478 188.0
1338.958374 116.0
1339.584839 184.0
1339.635864 104.0
1339.68689 152.0
1340.845459 196.0
1341.508789 200.0
1341.567139 36.0
1342.194214 212.0
1342.26709 196.0
1342.602539 168.0
1343.317383 152.0
1344.061523 192.0
1344.112671 228.0
1345.07605 212.0
1345.214722 188.0
1345.557861 140.0
1345.769531 164.0
1346.032471 148.0
1346.29541 68.0
1346.521729 132.0
1346.784668 172.0
1347.223022 204.0
1348.596802 224.0
1349.357056 152.0
1350.54187 348.0
1351.053955 184.0
1352.166138 128.0
1352.97876 164.0
1353.095825 156.0
1354.091797 112.0
1354.487305 160.0
1354.890259 108.0
1356.92041 56.0
1357.228394 168.0
1358.431152 240.0
1358.614624 188.0
1359.076782 144.0
1359.553833 148.0
1360.126343 192.0
1360.185059 180.0
1361.727051 168.0
1361.793091 128.0
1361.940063 184.0
1362.197144 176.0
1362.535034 236.0
1363.578613 160.0
1363.637329 204.0
1363.776978 148.0
1364.21814 112.0
1364.857788 56.0
1365.181274 152.0
1365.703491 180.0
1368.779907 172.0
1369.531128 176.0
1370.164673 168.0
1370.297241 156.0
1370.658325 116.0
1371.682739 144.0
1371.955566 128.0
1373.06897 232.0
1373.622192 152.0
1374.111938 232.0
1374.190308 204.0
1374.271484 180.0
1374.374756 140.0
1374.751099 164.0
1375.149658 180.0
1376.050293 184.0
1376.13147 188.0
1376.323486 84.0
1377.675049 148.0
1378.007568 164.0
1378.06665 164.0
1378.133179 176.0
1379.049561 180.0
1379.175171 176.0
1379.378906 276.0
1379.72229 148.0
1379.796265 152.0
1380.180664 132.0
1380.831421 144.0
1381.519409 168.0
1382.229736 32.0
1382.318481 212.0
1382.789795 204.0
1384.191406 104.0
1384.376587 116.0
1384.643188 228.0
1385.231323 136.0
1385.317261 156.0
1385.465332 204.0
1385.680298 180.0
1385.895142 176.0
1387.021606 132.0
1387.177368 208.0
1388.163452 212.0
1388.497192 52.0
1388.756714 56.0
1388.905151 160.0
1389.209229 124.0
1389.802856 212.0
1389.921509 116.0
1390.908691 80.0
1391.153687 208.0
1391.532227 120.0
1391.844116 256.0
1392.052002 176.0
1392.215454 164.0
1392.675903 168.0
1392.7948 84.0
1392.90625 120.0
1392.965576 156.0
1393.017578 140.0
1393.44104 48.0
1394.065308 168.0
1396.0354 236.0
1396.206421 152.0
1396.392334 168.0
1396.481567 208.0
1397.489746 124.0
1398.058838 236.0
1398.944702 84.0
1399.309448 152.0
1399.815796 140.0
1400.024292 156.0
1400.255249 184.0
1400.694702 180.0
1400.758545 176.0
1401.312988 148.0
1401.678101 192.0
1401.752686 152.0
1402.065674 156.0
1402.155151 160.0
1402.579956 148.0
1402.684326 144.0
1403.086914 60.0
1404.376953 132.0
1404.921509 156.0
1405.563232 192.0
1405.749756 204.0
1406.09314 244.0
1406.690308 204.0
1407.138184 120.0
1407.817749 180.0
1408.071655 188.0
1408.295776 200.0
1408.758911 164.0
1409.790039 124.0
1409.894653 192.0
1410.163696 216.0
1410.268311 180.0
1410.4104 204.0
1410.873779 140.0
1410.933594 188.0
1411.389771 140.0
1411.67395 88.0
1412.115112 172.0
1412.496704 212.0
1412.826172 196.0
1413.005371 216.0
1413.701294 64.0
1415.415527 108.0
1415.490479 28.0
1415.730103 184.0
1415.902344 76.0
1416.231934 132.0
1416.44165 124.0
1416.77124 136.0
1417.168335 200.0
1417.378174 132.0
1418.27002 156.0
1418.412476 224.0
1418.652344 136.0
1418.982178 56.0
1419.679565 176.0
1420.20459 140.0
1420.347168 40.0
1420.482178 188.0
1421.780273 192.0
1422.577148 164.0
1423.965088 152.0
1424.61853 68.0
1424.701172 144.0
1425.151978 224.0
1425.753174 140.0
1426.850708 172.0
1427.354492 112.0
1427.625244 176.0
1427.888428 172.0
1428.302124 200.0
1428.896484 164.0
1429.129639 156.0
1429.596191 168.0
1429.972534 136.0
1430.552124 112.0
1430.996338 128.0
1431.049072 164.0
1431.561157 228.0
1431.892456 136.0
1432.020508 224.0
1432.171143 156.0
1432.231445 132.0
1432.819092 124.0
1434.477051 204.0
1434.680542 152.0
1435.036255 216.0
1436.43811 168.0
1437.433716 220.0
1437.487305 176.0
1437.734375 160.0
1437.969482 148.0
1438.17334 200.0
1438.482788 124.0
1438.625854 144.0
1439.041504 144.0
1439.13208 176.0
1439.411499 212.0
1439.675781 112.0
1440.008057 156.0
1440.060913 164.0
1440.899536 236.0
1440.997681 176.0
1441.262207 168.0
1441.53418 132.0
1441.828979 172.0
1442.562134 228.0
1442.841919 168.0
1443.379395 148.0
1443.529907 128.0
1443.598022 216.0
1443.953491 228.0
1444.725098 200.0
1445.005005 140.0
1445.269775 192.0
1445.557373 132.0
1445.875244 180.0
1446.230957 156.0
1446.435303 48.0
1447.169678 88.0
1447.679321 176.0
1448.156128 144.0
1448.275391 156.0
1448.813232 132.0
1449.070801 176.0
1449.449707 108.0
1449.547852 148.0
1449.874146 148.0
1450.404663 136.0
1450.836792 176.0
1451.276489 192.0
1451.367554 164.0
1451.739136 168.0
1452.94519 44.0
1453.279053 116.0
1454.053101 76.0
1454.690674 168.0
1454.804565 144.0
1454.89563 164.0
1455.009521 252.0
1456.065063 192.0
1456.376465 116.0
1457.151367 372.0
1457.455322 104.0
1457.73645 236.0
1458.564941 172.0
1459.044922 112.0
1459.378418 168.0
1459.872681 228.0
1460.321411 144.0
1460.838623 148.0
1462.048462 188.0
1463.136963 128.0
1463.224121 148.0
1464.408691 108.0
1465.460083 148.0
1465.833374 148.0
1466.016357 132.0
1466.100098 156.0
1466.458374 148.0
1466.572632 148.0
1468.303467 176.0
1468.74585 268.0
1469.112061 136.0
1469.394287 128.0
1469.531616 184.0
1469.661377 164.0
1469.829224 64.0
1470.41687 108.0
1470.516113 160.0
1471.531372 240.0
1472.623413 128.0
1472.783813 96.0
1473.471436 128.0
1473.547852 168.0
1474.709351 172.0
1475.091553 212.0
1475.359131 144.0
1475.993774 168.0
1476.054932 148.0
1476.314941 196.0
1476.930786 188.0
1476.951416 96.0
1476.976807 208.0
1477.110474 216.0
1477.286377 172.0
1477.447021 136.0
1477.649536 176.0
1478.503052 144.0
1478.606445 276.0
1478.663696 256.0
1478.717285 132.0
1479.056641 216.0
1479.88855 172.0
1480.072388 92.0
1480.309814 216.0
1480.397827 192.0
1480.547119 172.0
1481.182861 132.0
1481.41272 172.0
1481.558228 120.0
1481.650269 180.0
1481.803467 108.0
1481.880005 184.0
1482.088745 156.0
1482.454712 140.0
1482.577393 168.0
1482.753662 188.0
1483.510742 140.0
1483.566162 184.0
1484.885132 180.0
1484.961792 200.0
1485.130615 184.0
1486.189331 168.0
1486.327393 112.0
1487.263672 180.0
1487.442261 200.0
1488.699463 144.0
1489.505981 192.0
1489.948853 192.0
1490.174316 124.0
1490.466309 192.0
1491.019653 192.0
1491.17334 104.0
1492.364868 112.0
1493.549316 56.0
1493.803101 188.0
1494.203247 68.0
1494.610962 320.0
1494.8573 144.0
1495.434448 40.0
1495.488281 156.0
1495.803955 116.0
1496.00415 256.0
1496.688721 200.0
1496.866455 200.0
1498.091064 196.0
1498.268311 244.0
1498.56311 148.0
1498.70752 52.0
1499.185303 192.0
1499.724731 172.0
1499.994629 168.0
1501.474976 192.0
1502.261841 44.0
1502.593506 176.0
1503.419189 144.0
1503.987549 244.0
1504.530762 76.0
1504.802612 220.0
