>compound Gliquidone
>formula C27H33N3O6S
>ionization [M+H]+
>parentmass 528.2162832280906
#inchi InChI=1S/C27H33N3O6S/c1-27(2)23-14-11-20(36-3)17-22(23)24(31)30(25(27)32)16-15-18-9-12-21(13-10-18)37(34,35)29-26(33)28-19-7-5-4-6-8-19/h9-14,17,19H,4-8,15-16H2,1-3H3,(H2,28,29,33)
#inchikey LLJFMFZYVVLQKT
#Ion_Source LC-ESI
#Instrument qTof
#Compound_Source Commercial
#PI Dorrestein
#Data_Collector Garg_Neha
#Scan -1
#Precursor_MZ 528.216
#ExactMass 527.209
#Charge 1
#CAS_Number 33342-05-1,62783-47-5(sodium salt)
#Pubmed_ID N/A
#Smiles C1(C=CC(=CC=1)CCN2C(C3C=C(C=CC(C(C2=O)(C)C)=3)OC)=O)S(=O)(=O)NC(=O)NC4CCCCC4
#INCHI_AUX N/A
#Library_Class 1
#SpectrumID CCMSLIB00000078589
#IonMode Positive
#UpdateWorkflowName UPDATE-SINGLE-ANNOTATED-GOLD
#LibraryQualityString Gold
#TaskID 77f51c88eb8b467eb4a01dd2d0cb90d2
##Scan# 2495
#SpectrumFile Plate9_41_60_GC6_01_15755.mzXML
#LibraryName FDALibrary_2_04302014.mgf
#MQScore -1
#Organism FDALibrary_2_04302014
#TIC_Query 0
#RT_Query -1
#MZErrorPPM -1
#SharedPeaks 0
#MassDiff 0
#LibMZ -1
#SpecMZ 528.216
#SpecCharge 0
#internalFilename spec-00000.mgf

>collision 10
45.859116 236.0
46.397129 268.0
50.022743 204.0
51.762035 144.0
51.932579 232.0
53.759918 152.0
54.938152 188.0
55.096115 152.0
55.320904 140.0
55.783741 204.0
56.638786 160.0
57.542599 156.0
58.031296 184.0
58.054642 212.0
60.590969 180.0
60.745995 176.0
61.09864 148.0
61.720417 172.0
62.302441 160.0
64.25135 208.0
64.497276 140.0
64.761292 200.0
65.501778 192.0
66.376137 192.0
66.897675 156.0
67.323235 152.0
72.145821 220.0
72.740425 180.0
73.385201 172.0
77.308365 144.0
78.444756 216.0
78.679382 160.0
81.044945 156.0
82.560646 180.0
89.370598 152.0
90.141815 224.0
92.280228 152.0
93.704346 176.0
96.456245 168.0
97.235794 176.0
100.111534 456.0
100.862549 232.0
101.042526 176.0
101.118568 200.0
102.048058 248.0
102.196182 184.0
103.053925 2776.0
104.059868 152.0
104.291298 164.0
105.068314 1212.0
106.069839 168.0
107.04895 228.0
108.607521 160.0
113.28437 168.0
114.80835 212.0
115.055237 236.0
115.853554 180.0
115.919975 152.0
117.036957 296.0
117.069115 3400.0
117.146797 220.0
118.071571 268.0
118.557716 192.0
119.048622 228.0
119.085251 1080.0
120.055 848.0
120.092712 260.0
121.062637 384.0
121.606728 160.0
122.06881 180.0
123.178879 168.0
123.50824 148.0
127.059204 144.0
127.353271 164.0
128.490067 152.0
129.069321 372.0
131.06105 1260.0
132.06546 408.0
133.063705 1052.0
133.503693 240.0
134.036758 452.0
134.072067 776.0
134.101273 164.0
135.025909 364.0
135.070221 192.0
136.335663 184.0
137.026749 152.0
139.024399 264.0
140.893204 168.0
141.68811 148.0
142.074539 176.0
142.216629 164.0
143.935776 220.0
144.076431 276.0
145.061615 380.0
145.472855 176.0
146.059174 564.0
146.520111 112.0
146.84198 184.0
147.080673 6124.0
147.723618 164.0
148.083801 1104.0
148.106552 180.0
148.1521 160.0
148.496292 184.0
149.097061 204.0
149.3172 144.0
150.006271 200.0
150.09108 184.0
151.023499 332.0
151.617004 140.0
152.02388 140.0
152.938354 204.0
153.012207 172.0
154.018341 172.0
154.946014 152.0
155.002991 196.0
156.095215 172.0
156.563049 192.0
157.998291 240.0
159.0672 208.0
159.321991 192.0
160.056015 156.0
160.075851 864.0
160.951538 152.0
161.060257 2288.0
161.252167 164.0
162.062485 280.0
162.541168 160.0
162.650299 160.0
162.858505 160.0
163.079559 140.0
163.224472 208.0
163.2677 164.0
163.914307 180.0
166.405609 176.0
166.611084 144.0
166.703583 224.0
166.745361 108.0
167.016525 19088.0
168.019058 1384.0
168.705124 100.0
169.012924 940.0
169.049072 140.0
169.100601 212.0
169.223694 152.0
170.009094 144.0
172.072403 256.0
173.061035 316.0
174.091599 3880.0
174.978195 188.0
175.0755 3288.0
176.058487 144.0
176.080872 144.0
177.080154 164.0
177.920746 164.0
179.638977 164.0
180.740616 204.0
181.048462 140.0
181.080597 188.0
182.749939 120.0
183.984695 144.0
184.037949 172.0
184.073715 920.0
185.081314 176.0
186.047592 144.0
188.067413 164.0
188.985626 188.0
189.062241 144.0
190.086456 1032.0
190.743546 184.0
191.096695 272.0
192.096939 128.0
193.087189 248.0
194.069504 180.0
195.656677 148.0
197.797821 180.0
198.666519 156.0
198.781555 164.0
200.113892 148.0
201.044098 164.0
201.639984 140.0
202.044342 196.0
202.08638 17336.0
203.062042 216.0
203.09053 2752.0
203.132172 176.0
203.236923 108.0
204.026703 160.0
204.064133 268.0
204.09436 308.0
205.102737 172.0
209.106415 236.0
209.340149 144.0
209.818985 172.0
210.018433 280.0
210.049149 184.0
210.094788 248.0
211.002136 196.0
211.100449 176.0
215.486694 144.0
216.100082 160.0
217.105392 188.0
218.081528 1808.0
218.509445 176.0
218.530045 144.0
219.086288 516.0
219.404755 156.0
220.09903 472.0
221.080414 172.0
221.101105 300.0
221.443665 236.0
222.122437 216.0
222.143204 152.0
223.116104 164.0
223.144012 156.0
223.715225 156.0
225.33461 148.0
226.552246 252.0
228.100677 184.0
231.110489 152.0
232.097961 808.0
233.104416 224.0
233.138611 160.0
234.283188 176.0
235.837433 132.0
236.084991 176.0
236.114456 120.0
236.987045 192.0
237.017685 172.0
237.093399 152.0
238.05574 328.0
239.022797 144.0
239.059723 184.0
242.21199 140.0
242.698547 140.0
242.872223 156.0
246.226593 184.0
249.132965 168.0
250.10524 260.0
251.143127 900.0
252.092178 120.0
252.140915 144.0
254.046356 192.0
254.119339 152.0
257.081757 144.0
260.340698 172.0
262.121643 316.0
263.125946 192.0
264.140656 312.0
265.120239 128.0
266.154358 444.0
267.043671 160.0
267.157867 156.0
272.368195 180.0
276.139191 828.0
276.519379 224.0
276.910034 184.0
277.111938 144.0
277.14917 192.0
277.655731 204.0
278.148071 324.0
278.658203 152.0
279.125183 680.0
280.055389 140.0
280.152588 176.0
280.298584 160.0
281.168945 148.0
281.309143 164.0
289.103058 212.0
289.537018 212.0
289.889343 156.0
290.099457 160.0
290.449554 148.0
292.02475 144.0
292.121674 172.0
293.359528 176.0
294.148102 4172.0
295.004944 140.0
295.152222 1116.0
296.153625 348.0
296.785248 152.0
296.956696 140.0
300.325745 124.0
300.417084 164.0
303.106964 172.0
303.991211 160.0
304.132965 1068.0
305.136963 244.0
305.17569 224.0
306.137512 164.0
306.66214 196.0
306.843414 196.0
307.120941 748.0
308.126434 116.0
308.466736 152.0
310.156128 268.0
311.107819 124.0
314.282623 140.0
316.049316 160.0
316.793365 124.0
317.069183 188.0
318.907623 184.0
319.620605 140.0
322.143738 7220.0
322.210968 180.0
322.958099 168.0
323.146393 1624.0
323.197784 168.0
323.231201 152.0
324.153625 288.0
326.440491 172.0
326.803772 168.0
334.509399 132.0
335.310181 152.0
337.128052 436.0
338.07312 220.0
338.136963 668.0
339.147736 124.0
340.095917 264.0
340.343811 148.0
340.509064 156.0
340.793945 116.0
341.098297 120.0
342.89682 156.0
343.092163 164.0
345.374268 148.0
345.744263 160.0
348.629486 188.0
349.183411 152.0
353.41745 160.0
356.09433 596.0
357.098083 128.0
358.1091 968.0
359.118866 212.0
365.937469 152.0
367.328491 260.0
367.633728 168.0
368.100677 288.0
369.093567 264.0
370.094269 172.0
370.673828 164.0
374.103546 396.0
375.10321 144.0
375.136139 140.0
376.108093 168.0
376.181427 156.0
385.133392 144.0
386.028473 304.0
386.10672 19012.0
386.249115 240.0
386.886292 140.0
387.110016 4000.0
387.345917 160.0
387.757324 156.0
388.000366 176.0
388.105988 1480.0
389.112915 104.0
389.275543 196.0
389.64447 100.0
392.202637 208.0
394.266815 204.0
398.884308 208.0
399.297821 180.0
400.719574 120.0
401.163208 208.0
401.625092 140.0
401.690002 116.0
401.770874 168.0
401.974915 188.0
402.086121 144.0
402.128357 264.0
402.312408 216.0
402.63736 128.0
402.657227 216.0
402.744904 224.0
402.813629 168.0
403.021088 208.0
403.051361 236.0
403.133545 116808.0
403.276245 224.0
403.397736 136.0
403.443756 144.0
403.483856 244.0
403.58847 164.0
403.704498 152.0
403.755981 152.0
403.792084 472.0
403.842285 96.0
403.880493 128.0
403.936432 288.0
403.981689 164.0
404.040924 204.0
404.132751 29880.0
404.381226 108.0
404.592743 108.0
404.733582 148.0
404.79538 108.0
404.992371 136.0
405.062469 248.0
405.130157 6892.0
405.361389 136.0
405.632233 148.0
405.755829 116.0
405.942383 144.0
406.126526 1284.0
406.268494 144.0
406.398621 148.0
406.453156 96.0
406.510529 176.0
406.5625 144.0
406.604462 132.0
406.687042 128.0
406.714844 332.0
406.757172 232.0
406.909149 148.0
407.136414 128.0
407.187256 216.0
407.427094 124.0
407.730743 140.0
407.808502 108.0
408.13562 140.0
408.513672 144.0
408.915283 204.0
420.740448 184.0
421.141724 1216.0
422.140625 524.0
423.147644 228.0
429.111176 1316.0
430.11795 240.0
431.110535 164.0
432.530548 148.0
441.061951 208.0
444.141479 112.0
444.181488 188.0
445.138397 160.0
445.176178 196.0
446.140839 1580.0
447.138184 764.0
448.135101 128.0
491.724396 148.0
527.803162 160.0
528.213501 3076.0
529.222412 864.0
530.222534 572.0
1325.176147 168.0
1392.285156 144.0
1433.829834 160.0
1497.842896 192.0
1516.596191 172.0
1518.581055 172.0
1555.29248 184.0
1561.098511 176.0
1563.781128 200.0
1572.734985 180.0
1635.531616 172.0
1636.900269 180.0
1653.449585 184.0
1665.700806 144.0
1710.117554 180.0
1721.116211 232.0
1727.702026 164.0
1739.137329 176.0
1741.595093 176.0
1744.977295 176.0
1748.163086 152.0
1759.95813 168.0
1761.177368 144.0
1783.717529 140.0
1846.472046 140.0
1848.747681 152.0
1849.903198 240.0
1861.297485 160.0
1888.34021 196.0
1889.464722 240.0
1955.876099 172.0
1992.664673 164.0
1997.776611 220.0
2001.986572 148.0
