>compound MLS001141330-01!(2R)-3-benzylsulfanyl-2-[[2-(4-ethyl-7-methyl-2-oxochromen-5-yl)oxyacetyl]amino]propanoic acid
>formula C24H25NO6S
>ionization [M+H]+
>parentmass 456.148
#inchi InChI=1S/C24H25NO6S/c1-3-17-11-22(27)31-20-10-15(2)9-19(23(17)20)30-12-21(26)25-18(24(28)29)14-32-13-16-7-5-4-6-8-16/h4-11,18H,3,12-14H2,1-2H3,(H,25,26)(H,28,29)/t18-/m0/s1
#inchikey OCLCWAFCRIVZTE
#Ion_Source LC-ESI
#Instrument qTof
#Compound_Source NIH Natural Product Library
#PI Dorrestein
#Data_Collector VVP/LMS
#Scan -1
#Precursor_MZ 456.148
#ExactMass 455.14
#Charge 1
#CAS_Number N/A
#Pubmed_ID N/A
#Smiles CCc1cc(=O)oc2cc(C)cc(OCC(=O)N[C@@H](CSCc3ccccc3)C(=O)O)c12
#INCHI_AUX N/A
#Library_Class 3
#SpectrumID CCMSLIB00000079464
#IonMode Positive
#UpdateWorkflowName UPDATE-SINGLE-ANNOTATED-BRONZE
#LibraryQualityString Bronze
#TaskID b1d8e8f6646f4e71acdff9ca3d919d08
##Scan# 2257
#SpectrumFile p1-F06_GF6_01_17938.mzXML
#LibraryName NIH_Natural_Products_Library.mgf
#MQScore -1
#Organism NIH_Natural_Products_Library
#TIC_Query 0
#RT_Query -1
#MZErrorPPM -1
#SharedPeaks 0
#MassDiff 0
#LibMZ -1
#SpecMZ 456.148
#SpecCharge 0
#internalFilename spec-00000.mgf

>collision 10
95.212929 160.0
95.901665 144.0
95.950394 200.0
96.137642 232.0
96.774879 52.0
97.288536 160.0
97.46611 68.0
97.837021 168.0
97.970932 144.0
98.097054 84.0
99.045547 144.0
99.118843 124.0
100.024475 296.0
100.183777 188.0
100.39505 136.0
101.234375 36.0
101.250397 196.0
101.56707 156.0
102.006821 112.0
102.604713 152.0
103.055161 528.0
103.917297 80.0
104.209663 36.0
104.680565 184.0
105.030067 116.0
105.070381 552.0
105.822975 32.0
106.555168 180.0
107.048813 156.0
107.856064 160.0
108.018845 224.0
108.35836 140.0
108.586372 160.0
108.773117 340.0
109.027184 208.0
109.913605 116.0
110.768692 156.0
111.437912 144.0
111.688072 144.0
112.003807 196.0
112.303108 124.0
112.693649 160.0
113.053116 276.0
113.555214 184.0
113.933044 160.0
114.35833 220.0
115.002007 84.0
115.054382 976.0
115.102341 72.0
115.119423 60.0
115.512688 168.0
115.5298 88.0
115.696724 232.0
116.015923 120.0
116.058769 304.0
116.541733 188.0
117.065514 172.0
117.193672 108.0
117.437271 200.0
117.51709 100.0
118.806526 72.0
119.030075 220.0
119.04528 156.0
119.08654 136.0
119.55397 152.0
120.081184 160.0
120.251366 184.0
120.705765 124.0
120.801994 120.0
121.069351 392.0
121.777405 112.0
122.51429 196.0
122.756737 148.0
122.814079 84.0
123.023712 124.0
123.047997 136.0
123.063446 180.0
123.081108 116.0
123.167244 132.0
123.240143 232.0
123.996948 192.0
124.019112 164.0
124.873924 132.0
125.024574 324.0
125.058586 188.0
125.189941 156.0
125.834343 144.0
126.033127 204.0
126.281265 200.0
127.049751 208.0
127.647026 112.0
127.77523 216.0
127.815727 128.0
127.921509 176.0
128.061111 760.0
128.079132 148.0
128.959091 92.0
129.039673 528.0
129.065994 896.0
129.402466 136.0
130.066589 188.0
130.809998 116.0
130.901062 88.0
131.048126 1792.0
131.087601 376.0
131.245132 184.0
131.749527 56.0
131.813507 112.0
132.012375 120.0
132.053802 576.0
133.02507 228.0
133.066391 180.0
133.097321 340.0
133.825104 208.0
133.990936 124.0
134.030106 176.0
134.060165 188.0
134.106155 176.0
134.516724 180.0
135.020432 172.0
135.040665 200.0
135.080063 524.0
135.103699 148.0
135.680344 164.0
136.032959 124.0
136.14209 168.0
136.914169 108.0
137.05986 148.0
137.12384 148.0
137.14949 108.0
137.571701 192.0
137.667419 148.0
139.168381 64.0
139.318695 140.0
140.026703 112.0
140.062851 196.0
140.144485 192.0
140.949081 188.0
141.069122 816.0
141.651749 112.0
141.869766 40.0
142.07254 436.0
143.045639 100.0
143.087341 176.0
143.503052 212.0
143.584122 156.0
143.882385 164.0
144.020889 200.0
144.051605 200.0
144.088074 164.0
144.846115 128.0
145.064072 200.0
145.100128 128.0
145.644867 120.0
145.827469 100.0
145.926025 148.0
146.064346 384.0
146.390427 140.0
146.722931 156.0
147.035156 224.0
147.079346 320.0
147.311752 68.0
147.440887 208.0
147.476074 136.0
147.801849 180.0
148.052933 176.0
148.643372 152.0
149.042557 1004.0
149.102341 168.0
149.299255 64.0
150.046875 524.0
150.527451 168.0
151.028458 120.0
151.050461 136.0
151.270691 52.0
151.37352 20.0
151.755768 144.0
152.061325 216.0
153.070312 500.0
153.146683 132.0
153.432526 232.0
153.462112 148.0
154.024765 144.0
154.074173 244.0
154.093948 80.0
154.168076 36.0
155.052597 392.0
155.078491 204.0
155.103607 184.0
155.835693 84.0
156.046951 180.0
156.158859 160.0
156.29071 132.0
156.626785 180.0
156.699036 132.0
156.72644 56.0
157.08046 168.0
158.02478 52.0
158.0737 500.0
159.049728 188.0
159.078796 244.0
159.197861 84.0
159.25061 204.0
159.290787 36.0
159.333496 80.0
159.587341 68.0
159.607452 160.0
159.841385 196.0
160.051819 188.0
160.082718 156.0
160.45343 164.0
160.970673 144.0
161.040878 160.0
161.05806 616.0
161.093994 476.0
161.850632 196.0
162.060867 72.0
162.098862 160.0
162.266159 132.0
163.076721 208.0
163.908096 224.0
164.604462 128.0
165.036301 140.0
165.064163 196.0
165.261368 172.0
165.755554 112.0
166.064194 204.0
166.08371 52.0
166.186325 216.0
166.222244 116.0
167.023804 96.0
167.064972 64.0
167.085541 156.0
168.056427 788.0
168.278824 196.0
168.465714 220.0
169.062851 536.0
169.188858 148.0
170.065308 176.0
170.714508 112.0
171.075714 136.0
172.092941 156.0
173.05249 168.0
173.093903 196.0
173.204376 68.0
173.970078 44.0
174.066132 864.0
175.070221 880.0
176.044647 580.0
176.07576 208.0
176.303741 80.0
176.718887 64.0
177.012695 76.0
177.054123 1156.0
177.089005 156.0
177.134521 72.0
177.529419 116.0
177.831863 132.0
178.058609 332.0
178.092072 140.0
178.147842 196.0
178.589096 148.0
179.048538 436.0
179.537231 164.0
180.009567 156.0
180.046951 212.0
180.12442 108.0
181.398132 236.0
183.078979 988.0
183.179733 84.0
183.414169 80.0
184.083252 96.0
185.06163 280.0
185.091873 184.0
185.294998 128.0
185.585007 96.0
186.065292 792.0
186.736404 108.0
186.875137 84.0
187.074814 2228.0
187.133698 140.0
188.080475 292.0
188.576767 144.0
189.055435 1108.0
189.089218 1748.0
189.477036 40.0
189.496216 112.0
189.962265 100.0
190.061752 376.0
190.09639 352.0
190.825119 104.0
191.065765 236.0
191.20694 100.0
191.443695 192.0
192.038986 128.0
192.165878 156.0
192.35907 128.0
192.414276 132.0
192.77887 128.0
193.04425 176.0
193.226807 168.0
193.459274 56.0
193.597717 280.0
194.041046 192.0
194.315628 64.0
194.57373 48.0
195.040421 136.0
195.065094 164.0
195.093231 144.0
197.06105 392.0
197.23967 128.0
198.059082 156.0
199.077667 268.0
199.344452 164.0
200.078568 140.0
200.100143 180.0
200.108307 120.0
200.213715 136.0
200.579987 176.0
200.602539 164.0
201.025604 172.0
201.055099 504.0
201.091263 2272.0
201.322021 112.0
201.499969 104.0
201.548004 80.0
201.904175 156.0
202.061691 1152.0
202.091217 460.0
202.784668 208.0
203.067932 1444.0
203.210022 36.0
203.258255 52.0
203.374603 76.0
203.549255 132.0
203.763657 76.0
203.931305 64.0
203.968262 52.0
204.019424 184.0
204.077225 3364.0
204.147369 72.0
204.269669 48.0
204.500824 68.0
204.531464 48.0
204.847794 220.0
205.009933 212.0
205.084747 3344.0
205.87146 196.0
206.084076 140.0
206.77771 120.0
207.058289 136.0
207.087585 156.0
207.576981 112.0
207.674484 104.0
207.878174 148.0
208.110687 152.0
208.558823 52.0
211.080063 316.0
211.130585 204.0
211.584869 132.0
211.854187 140.0
212.085999 120.0
212.555817 60.0
213.087158 136.0
214.166412 100.0
215.029434 216.0
215.064957 164.0
215.739212 188.0
216.077545 128.0
216.335999 132.0
216.543884 136.0
217.050156 216.0
217.084152 3920.0
217.35495 132.0
217.552567 36.0
217.96962 72.0
218.092072 732.0
218.184189 92.0
218.26062 56.0
218.478271 148.0
219.093094 208.0
219.382355 164.0
221.699615 100.0
222.108765 268.0
223.157059 172.0
226.089279 192.0
226.463516 56.0
227.248917 128.0
228.234085 164.0
228.534866 92.0
228.932205 176.0
228.959305 224.0
228.980927 112.0
229.04364 92.0
229.084488 5940.0
229.152084 36.0
229.250809 200.0
229.616302 92.0
230.089874 940.0
230.159485 76.0
230.247055 84.0
230.392044 64.0
230.963364 108.0
231.097595 304.0
232.056595 120.0
232.574707 96.0
232.696762 124.0
233.03389 144.0
237.03714 124.0
238.913101 120.0
240.333405 104.0
241.077591 156.0
243.0755 128.0
244.08017 160.0
244.101151 228.0
245.080856 1040.0
245.170868 52.0
246.072327 116.0
247.075546 176.0
249.009583 148.0
249.144653 200.0
251.102524 156.0
252.157013 120.0
253.026901 156.0
253.125046 116.0
253.290863 112.0
257.695801 48.0
258.103333 48.0
258.328796 40.0
261.071136 160.0
261.18692 52.0
262.049652 152.0
262.097992 492.0
263.093353 792.0
263.449829 84.0
264.098785 156.0
264.199829 56.0
267.168182 148.0
268.180908 184.0
270.043274 176.0
272.089966 128.0
274.086304 144.0
275.032898 172.0
276.103363 156.0
277.122894 120.0
279.067871 176.0
279.148407 176.0
286.106934 336.0
287.098236 152.0
288.117371 192.0
288.147552 68.0
289.08078 276.0
289.128143 204.0
289.304169 120.0
290.045258 160.0
290.078491 160.0
290.110413 124.0
291.093475 160.0
292.05954 120.0
292.127563 228.0
294.120972 232.0
294.226807 20.0
295.121948 132.0
296.083496 160.0
296.134857 208.0
299.910919 160.0
302.075928 140.0
304.082123 116.0
304.759277 68.0
306.722076 68.0
307.128174 180.0
311.969391 76.0
313.148132 60.0
315.091766 92.0
319.092194 232.0
320.107147 132.0
320.135651 140.0
321.087158 80.0
321.9758 84.0
323.255585 128.0
332.104889 304.0
333.112091 360.0
335.11026 120.0
336.510773 156.0
337.32547 32.0
338.06427 148.0
340.081482 144.0
349.194977 148.0
351.739838 64.0
358.739594 92.0
364.260651 124.0
378.10611 148.0
379.020416 148.0
399.926514 48.0
410.148529 164.0
419.113037 76.0
428.14563 120.0
436.346893 124.0
456.161194 148.0
457.160675 172.0
458.131439 80.0
504.150116 96.0
580.30426 60.0
582.406189 116.0
584.531128 132.0
598.30127 180.0
694.300415 128.0
739.700989 180.0
740.042053 36.0
763.000916 48.0
774.916565 160.0
775.803284 188.0
777.106628 76.0
779.005249 124.0
782.074646 76.0
782.297302 68.0
789.321594 144.0
790.658569 152.0
791.45343 260.0
795.529297 176.0
811.05304 140.0
827.556824 224.0
827.848816 208.0
829.796997 176.0
834.091003 200.0
838.759216 192.0
838.90332 204.0
839.433777 204.0
839.71637 176.0
850.234314 96.0
854.417908 168.0
856.75824 136.0
857.667297 144.0
864.237183 100.0
864.95697 224.0
873.335938 44.0
874.842346 136.0
880.473267 84.0
884.807495 144.0
886.122314 60.0
887.224609 152.0
890.452576 104.0
891.652649 176.0
892.050903 96.0
897.194275 120.0
903.89563 112.0
904.37439 120.0
904.907166 128.0
905.553894 188.0
920.878845 180.0
923.006042 176.0
935.504333 168.0
941.870483 136.0
946.432678 108.0
947.375854 72.0
947.602539 92.0
952.780518 244.0
956.039368 80.0
962.388428 136.0
967.557129 176.0
968.950562 192.0
971.417908 120.0
971.709473 140.0
973.174194 216.0
973.789001 260.0
975.099915 192.0
979.318237 160.0
983.4021 176.0
985.056763 152.0
985.706543 160.0
991.952637 184.0
994.988892 92.0
1010.163879 224.0
1011.005371 192.0
1011.720581 56.0
1018.156372 100.0
1021.983093 88.0
1024.644409 168.0
1037.554199 160.0
1042.592773 288.0
1044.052124 160.0
1047.592163 144.0
1048.101196 192.0
1057.212524 220.0
1060.269287 220.0
1062.233887 148.0
1070.839722 128.0
1071.210938 140.0
1074.600952 48.0
1075.273071 220.0
1080.408936 228.0
1085.203003 188.0
1086.908325 72.0
1088.490234 208.0
1090.783203 184.0
1090.914673 152.0
1095.573853 232.0
1096.509521 208.0
1096.885132 200.0
1098.922974 188.0
1106.106445 180.0
1109.279419 160.0
1110.910645 148.0
1115.100464 132.0
1116.410156 168.0
1118.632446 148.0
1120.85022 180.0
1124.237793 144.0
1124.664917 168.0
1128.766846 100.0
1131.376221 200.0
1133.566406 128.0
1133.626709 188.0
1134.551636 96.0
1137.449585 180.0
1138.577515 132.0
1142.146484 220.0
1143.6604 128.0
1143.720947 176.0
1145.91626 68.0
1147.014771 140.0
1147.850708 136.0
1148.194702 136.0
1149.125488 160.0
1149.361694 164.0
1150.455078 200.0
1152.096069 148.0
1153.021729 232.0
1154.096558 224.0
1156.125854 120.0
1161.661377 76.0
1164.023315 128.0
1169.652588 168.0
1169.890747 36.0
1170.442261 156.0
1174.927002 192.0
1177.029175 192.0
1177.288574 148.0
1178.743652 56.0
1179.194702 176.0
1180.049194 160.0
1180.165405 196.0
1181.540161 200.0
1183.182617 160.0
1183.689209 196.0
1183.942627 80.0
1186.61499 140.0
1189.48938 124.0
1189.976807 164.0
1191.357178 228.0
1194.361206 216.0
1196.446167 160.0
1197.091919 92.0
1205.198364 144.0
1209.077759 196.0
1209.354614 200.0
1211.639648 144.0
1212.893921 160.0
1214.128052 144.0
1216.556519 72.0
1216.827271 36.0
1217.299438 148.0
1217.563354 152.0
1219.480957 216.0
1221.525146 180.0
1227.445068 148.0
1231.681274 148.0
1232.044556 136.0
1232.973755 116.0
1236.834595 172.0
1237.065552 164.0
1240.456055 184.0
1241.044922 132.0
1244.588257 64.0
1246.66748 132.0
1247.103149 200.0
1248.115479 132.0
1253.965454 188.0
1254.719727 56.0
1256.736816 152.0
1267.101685 236.0
1269.958496 84.0
1272.811279 196.0
1273.379395 180.0
1273.557007 176.0
1273.741699 140.0
1274.793213 120.0
1276.442383 196.0
1276.797852 132.0
1276.982788 176.0
1278.270508 160.0
1279.651367 176.0
1280.213867 172.0
1284.219116 264.0
1287.78064 168.0
1288.366455 164.0
1290.832275 184.0
1291.862183 208.0
1292.205566 172.0
1293.672607 140.0
1293.729858 200.0
1296.071899 144.0
1297.935547 208.0
1298.552246 64.0
1300.769409 132.0
1301.365234 204.0
1302.607666 172.0
1303.347656 200.0
1314.198364 152.0
1318.017944 248.0
1318.798462 136.0
1319.224976 192.0
1319.550293 80.0
1322.921509 136.0
1323.073608 176.0
1323.240112 152.0
1324.152466 168.0
1326.340576 172.0
1327.254028 192.0
1330.3302 148.0
1332.588867 64.0
1333.039307 240.0
1333.722534 28.0
1335.57666 172.0
1335.722046 348.0
1337.555786 192.0
1338.225586 84.0
1338.305664 144.0
1338.400269 156.0
1346.487427 160.0
1347.100952 72.0
1350.968018 172.0
1351.626465 208.0
1352.314453 176.0
1352.541382 152.0
1353.778687 160.0
1355.324219 228.0
1360.281982 172.0
1362.558472 136.0
1364.866333 96.0
1367.529419 192.0
1375.076538 236.0
1375.762939 204.0
1376.87793 88.0
1377.660889 104.0
1379.78186 224.0
1381.142456 260.0
1381.408813 196.0
1381.468018 56.0
1383.066284 188.0
1384.591553 136.0
1391.90332 240.0
1394.867676 120.0
1397.797974 144.0
1403.675171 232.0
1412.40564 180.0
1412.846924 152.0
1414.470825 132.0
1420.817993 220.0
1426.675781 200.0
1428.149536 64.0
1430.331665 232.0
1435.952393 188.0
1436.216431 180.0
1439.091675 180.0
1442.702881 156.0
1444.616211 216.0
1445.123047 108.0
1449.25708 264.0
1449.544922 212.0
1451.493042 132.0
1452.797607 204.0
1454.11792 164.0
1454.626465 208.0
1455.043945 144.0
1455.871582 128.0
1456.448853 268.0
1457.861938 132.0
1458.082275 192.0
1459.77002 180.0
1459.90686 192.0
1470.244629 224.0
1471.671997 144.0
1472.825195 152.0
1474.811768 60.0
1475.568604 156.0
1480.435059 132.0
1485.554932 200.0
1485.731323 148.0
1486.091919 48.0
1487.458008 96.0
1487.772705 156.0
1491.576416 132.0
1492.190186 216.0
1493.782104 100.0
1494.620728 184.0
1495.859741 164.0
1496.283203 72.0
1497.738647 220.0
