>compound TOPIRAMATE
>formula C12H21NO8S
>ionization [M+H]+
>parentmass 340.106
#inchi InChI=1S/C12H21NO8S/c1-10(2)18-7-5-16-12(6-17-22(13,14)15)9(8(7)19-10)20-11(3,4)21-12/h7-9H,5-6H2,1-4H3,(H2,13,14,15)/t7-,8-,9+,12+/m1/s1
#inchikey KJADKKWYZYXHBB
#Ion_Source LC-ESI
#Instrument qTof
#Compound_Source Commercial
#PI Dorrestein
#Data_Collector Garg_Neha
#Scan -1
#Precursor_MZ 340.106
#ExactMass 339.099
#Charge 1
#CAS_Number N/A
#Pubmed_ID N/A
#Smiles CC1(C)O[C@@H]2CO[C@@]3(COS(=O)(=O)N)OC(C)(C)O[C@H]3[C@@H]2O1
#INCHI_AUX N/A
#Library_Class 1
#SpectrumID CCMSLIB00000078944
#IonMode Positive
#UpdateWorkflowName UPDATE-SINGLE-ANNOTATED-GOLD
#LibraryQualityString Gold
#TaskID 278b19f5865741e282cec7349aa7e7a1
##Scan# 1203
#SpectrumFile NCP003272_E2_F11_BC2_01_15715.mzXML
#LibraryName NIHcollectionI_05062014.mgf
#MQScore -1
#Organism NIHcollectionI_05062014
#TIC_Query 0
#RT_Query -1
#MZErrorPPM -1
#SharedPeaks 0
#MassDiff 0
#LibMZ -1
#SpecMZ 340.106
#SpecCharge 0
#internalFilename spec-00000.mgf

>collision 10
66.381195 144.0
67.591507 168.0
86.385429 228.0
95.077148 172.0
96.05777 216.0
97.031097 328.0
98.067612 236.0
99.004082 152.0
99.050163 240.0
106.036156 164.0
107.05101 304.0
109.032883 236.0
109.064056 152.0
111.459068 172.0
112.039764 200.0
113.058449 164.0
114.767487 192.0
116.067528 156.0
120.03772 208.0
124.076897 344.0
125.061401 164.0
126.051155 152.0
127.038406 648.0
132.763657 176.0
137.0634 160.0
139.073212 164.0
140.002106 344.0
140.071594 168.0
143.068344 136.0
145.049927 180.0
148.06897 168.0
149.059082 140.0
151.684814 192.0
165.074768 164.0
167.070251 444.0
167.992035 140.0
175.999008 188.0
180.00145 216.0
182.111969 160.0
184.095886 2384.0
185.08165 1388.0
185.124435 192.0
186.09375 176.0
188.984726 328.0
191.997681 152.0
204.034393 196.0
206.01207 472.0
206.993668 272.0
210.855957 140.0
217.567245 144.0
224.023163 1356.0
224.598389 188.0
225.026474 152.0
226.217957 180.0
239.042267 164.0
239.108658 108.0
239.913895 156.0
240.108154 148.0
246.044144 144.0
255.518127 160.0
263.123962 160.0
264.053925 2800.0
265.057159 524.0
266.045776 296.0
274.511444 168.0
282.069794 324.0
282.152222 608.0
283.151886 140.0
284.159393 148.0
306.109375 152.0
322.094482 132.0
338.169952 172.0
338.250488 208.0
341.177826 144.0
1348.250854 144.0
1463.379395 144.0
1658.800049 228.0
1954.980225 248.0
1976.325562 172.0
