>compound MLS002153472-01!N-Phenylanthranilic acid91-40-7
>formula C13H11NO2
>ionization [M+H]+
>parentmass 214.086
#inchi InChI=1S/C13H11NO2/c15-13(16)11-8-4-5-9-12(11)14-10-6-2-1-3-7-10/h1-9,14H,(H,15,16)
#inchikey ZWJINEZUASEZBH
#Ion_Source LC-ESI
#Instrument qTof
#Compound_Source NIH Pharmacologically Active Library
#PI Dorrestein
#Data_Collector VP/LMS
#Scan -1
#Precursor_MZ 214.086
#ExactMass 213.079
#Charge 1
#CAS_Number N/A
#Pubmed_ID N/A
#Smiles OC(=O)c1ccccc1Nc2ccccc2
#INCHI_AUX N/A
#Library_Class 1
#SpectrumID CCMSLIB00000085084
#IonMode Positive
#UpdateWorkflowName UPDATE-SINGLE-ANNOTATED-GOLD
#LibraryQualityString Gold
#TaskID d252d724072548979f1f6f1ced849daf
##Scan# 2233
#SpectrumFile p3-E07_GE7_01_18276.mzXML
#LibraryName Pharm_Active_Library.mgf
#MQScore -1
#Organism Pharm_Active_Library
#TIC_Query 0
#RT_Query -1
#MZErrorPPM -1
#SharedPeaks 0
#MassDiff 0
#LibMZ -1
#SpecMZ 214.086
#SpecCharge 0
#internalFilename spec-00000.mgf

>collision 10
44.951096 148.0
44.977787 136.0
45.060589 112.0
45.10603 172.0
45.202332 200.0
45.237133 180.0
45.320171 200.0
45.361721 96.0
45.578533 232.0
45.592117 180.0
45.661278 188.0
45.700176 72.0
45.736515 128.0
45.775558 152.0
45.839886 180.0
46.018284 148.0
46.027737 52.0
46.122311 148.0
46.229164 168.0
46.246758 264.0
46.448666 148.0
46.52602 160.0
46.569477 56.0
46.606159 220.0
46.629261 140.0
46.665966 196.0
46.759834 64.0
46.85936 336.0
46.870148 48.0
46.883774 172.0
46.923306 144.0
46.972404 204.0
47.047462 236.0
47.076138 136.0
47.237427 144.0
47.255211 180.0
47.301746 220.0
47.427773 180.0
47.489475 188.0
47.628117 144.0
47.837139 256.0
48.090462 172.0
48.111492 156.0
48.277306 372.0
48.324341 168.0
48.396317 180.0
48.766739 140.0
48.776466 196.0
48.951782 156.0
49.017952 212.0
49.135815 160.0
49.285183 216.0
49.411022 192.0
49.441811 176.0
49.514614 228.0
49.555241 232.0
49.590183 184.0
49.754406 164.0
49.783894 148.0
49.868195 152.0
49.882252 140.0
50.094749 188.0
50.23996 208.0
50.297821 116.0
50.391033 456.0
50.406574 176.0
50.432575 172.0
50.494228 160.0
50.545158 124.0
50.645683 148.0
50.780338 208.0
50.859798 196.0
50.898132 44.0
51.135555 156.0
51.429184 136.0
51.559158 204.0
51.874069 140.0
51.898441 184.0
51.927124 96.0
51.937164 156.0
52.00317 152.0
52.074963 104.0
52.086452 108.0
52.097946 156.0
52.387119 172.0
52.42458 96.0
52.493778 132.0
52.604881 116.0
52.659756 152.0
52.672756 228.0
52.883873 156.0
52.89835 156.0
52.937443 156.0
52.962067 244.0
53.133129 172.0
53.217316 180.0
53.231834 100.0
53.271053 248.0
53.333538 164.0
53.73111 144.0
53.757378 128.0
53.999905 172.0
54.234184 196.0
54.266438 172.0
54.328037 152.0
54.338306 192.0
54.829468 160.0
54.881062 164.0
54.913509 144.0
54.962982 208.0
55.093601 116.0
55.108376 208.0
55.253277 116.0
55.407253 192.0
55.444302 80.0
55.625263 188.0
55.635654 60.0
55.692085 308.0
55.718826 224.0
55.796112 180.0
55.837749 176.0
55.864525 60.0
55.935955 76.0
55.967224 232.0
56.126667 140.0
56.262444 180.0
56.317699 272.0
56.356541 148.0
56.441101 228.0
56.465672 132.0
56.588387 200.0
56.811703 132.0
56.883736 120.0
56.924278 176.0
57.033955 124.0
57.194912 168.0
57.255138 168.0
57.274719 160.0
57.422436 184.0
57.522026 176.0
57.599041 192.0
57.609615 228.0
57.719955 144.0
57.850075 108.0
57.916027 196.0
57.947006 180.0
58.053116 208.0
58.098621 184.0
58.118347 136.0
58.201832 100.0
58.22765 172.0
58.247398 120.0
58.259552 48.0
58.632637 176.0
58.787922 128.0
58.967327 168.0
59.035412 72.0
59.087421 140.0
59.183422 172.0
59.199165 192.0
59.286488 164.0
59.309479 180.0
59.373878 68.0
59.416828 172.0
59.611839 64.0
59.625671 112.0
59.975071 180.0
60.167908 64.0
60.268303 136.0
60.308689 152.0
60.492962 204.0
60.60873 180.0
60.633526 204.0
60.74284 132.0
60.864677 112.0
60.95322 40.0
61.069824 120.0
61.11961 172.0
61.139839 164.0
61.295574 180.0
61.365719 160.0
61.406265 200.0
61.432785 88.0
61.473351 112.0
61.529545 168.0
61.559216 68.0
61.6208 160.0
61.634197 100.0
61.936153 60.0
61.956516 168.0
61.975319 200.0
62.019203 184.0
62.312668 156.0
62.389683 40.0
62.454159 184.0
62.501358 120.0
62.527245 196.0
62.660721 164.0
62.860645 164.0
62.963264 52.0
63.024876 60.0
63.151352 196.0
63.45858 48.0
63.553753 140.0
63.571205 136.0
63.604538 184.0
63.666462 172.0
63.677578 196.0
63.717293 132.0
63.83651 76.0
63.861958 112.0
63.945076 200.0
63.981308 172.0
64.105553 104.0
64.116707 156.0
64.170906 136.0
64.2714 140.0
64.461426 52.0
64.490196 172.0
64.502983 52.0
64.56694 144.0
64.608536 240.0
64.709366 204.0
64.733383 100.0
64.78624 168.0
64.797455 228.0
64.821495 132.0
64.951363 168.0
65.275795 196.0
65.328873 156.0
65.414169 52.0
65.437576 148.0
65.505959 116.0
65.552689 156.0
65.674797 168.0
65.69973 228.0
65.747215 116.0
65.833389 136.0
65.856003 116.0
66.04512 104.0
66.120667 204.0
66.143829 180.0
66.399849 136.0
66.435532 44.0
66.615738 140.0
66.744133 124.0
66.792931 124.0
67.103989 220.0
67.128448 180.0
67.180641 172.0
67.456635 108.0
67.500778 216.0
67.567848 136.0
67.611671 220.0
67.679146 104.0
67.716812 172.0
67.810204 144.0
67.862663 108.0
67.906944 152.0
68.038223 84.0
68.179489 72.0
68.209076 216.0
68.28965 160.0
68.301971 204.0
68.325844 168.0
68.455879 196.0
68.516823 92.0
68.574501 108.0
68.790588 136.0
68.968994 184.0
69.051674 72.0
69.106834 232.0
69.126122 148.0
69.184052 200.0
69.265198 144.0
69.480896 224.0
69.563698 200.0
69.771362 128.0
69.806282 120.0
69.839546 204.0
69.851189 184.0
69.937721 184.0
69.952698 160.0
70.167618 204.0
70.246002 164.0
70.277702 88.0
70.330177 180.0
70.468048 184.0
70.493111 68.0
70.656982 132.0
70.708855 148.0
70.720573 36.0
70.785866 140.0
70.81601 200.0
70.829414 72.0
71.198418 156.0
71.213539 180.0
71.413109 164.0
71.507782 168.0
71.563339 168.0
71.598701 108.0
71.866737 212.0
71.929184 104.0
72.076118 172.0
72.135277 212.0
72.39077 224.0
72.441582 172.0
72.500885 144.0
72.54496 192.0
72.901405 140.0
72.925201 236.0
73.028923 144.0
73.054436 64.0
73.069748 128.0
73.095276 184.0
73.146332 84.0
73.176979 212.0
73.221252 64.0
73.297913 84.0
73.355865 188.0
73.429192 164.0
73.502548 136.0
73.786087 176.0
73.878441 172.0
73.909241 164.0
74.071892 212.0
74.258728 184.0
74.270737 144.0
74.289604 288.0
74.457825 128.0
74.483589 136.0
74.552315 168.0
74.955009 148.0
75.268967 144.0
75.455574 144.0
75.543777 176.0
75.621651 180.0
75.758446 164.0
75.772308 124.0
75.841629 240.0
75.878036 128.0
75.92659 136.0
75.957809 148.0
76.001183 144.0
76.075813 180.0
76.096649 128.0
76.197388 128.0
76.2304 148.0
76.426903 176.0
76.609718 228.0
76.738693 104.0
76.794495 72.0
76.813683 124.0
77.070335 196.0
77.33091 184.0
77.374672 144.0
77.386932 196.0
77.549858 100.0
77.786659 72.0
77.849358 220.0
77.94825 176.0
78.057236 132.0
78.310669 132.0
78.395241 180.0
78.425201 116.0
78.449883 136.0
78.469276 88.0
78.553932 144.0
78.590981 196.0
78.603333 156.0
78.624512 68.0
78.645691 124.0
78.677269 216.0
78.862953 208.0
78.97081 140.0
79.02211 188.0
79.073433 200.0
79.121223 220.0
79.27533 188.0
79.436684 76.0
79.493462 268.0
79.60334 196.0
79.754539 136.0
80.028519 212.0
80.067696 192.0
80.090851 36.0
80.183502 72.0
80.233414 152.0
80.265511 176.0
80.286911 192.0
80.383247 88.0
80.522499 200.0
80.647575 160.0
80.701202 124.0
80.783478 136.0
80.9571 120.0
80.985756 168.0
81.05204 188.0
81.274399 132.0
81.321053 232.0
81.358757 140.0
81.527603 192.0
81.594109 72.0
81.606697 192.0
81.711014 120.0
81.730812 152.0
81.825203 152.0
81.840614 288.0
81.905449 128.0
81.919861 172.0
82.044205 40.0
82.114532 192.0
82.152412 124.0
82.175873 200.0
82.228203 148.0
82.29319 204.0
82.358208 148.0
82.37085 108.0
82.511818 120.0
82.5317 128.0
82.571487 156.0
82.610054 188.0
82.64566 176.0
82.672806 152.0
82.692711 152.0
82.80497 168.0
82.904617 136.0
83.047852 132.0
83.280182 148.0
83.44075 248.0
83.71669 136.0
83.833282 108.0
83.873383 108.0
83.889786 172.0
84.079491 108.0
84.179901 116.0
84.199989 172.0
84.282196 136.0
84.379074 184.0
84.52906 104.0
84.757965 160.0
84.842278 144.0
85.095467 136.0
85.424446 148.0
85.527496 196.0
85.706139 184.0
85.724564 168.0
85.744835 112.0
85.942162 240.0
86.102768 216.0
86.189598 112.0
86.253464 136.0
86.428131 160.0
86.47625 96.0
86.554008 144.0
86.567162 156.0
86.583633 120.0
86.670708 212.0
86.787483 180.0
86.934029 168.0
86.987854 148.0
87.025093 140.0
87.115997 204.0
87.149437 116.0
87.28141 232.0
87.34465 156.0
87.366974 176.0
87.394882 192.0
87.530769 132.0
87.601883 152.0
87.692848 128.0
87.730133 172.0
87.814682 176.0
87.86068 116.0
87.953987 116.0
88.167145 144.0
88.340813 128.0
88.376358 204.0
88.488663 192.0
88.644135 180.0
88.842667 204.0
88.882294 180.0
88.916069 160.0
88.953613 204.0
88.989281 96.0
89.098221 104.0
89.308762 148.0
89.498848 148.0
89.600555 164.0
89.643898 124.0
89.683472 232.0
89.815468 88.0
89.92868 168.0
89.964546 32.0
89.987206 188.0
90.198799 196.0
90.295227 104.0
90.370903 164.0
90.635994 196.0
90.928047 180.0
91.04995 192.0
91.279503 44.0
91.309937 172.0
91.370804 116.0
91.42218 232.0
91.544022 84.0
91.603065 104.0
91.697403 172.0
91.899734 172.0
91.934837 40.0
92.009285 200.0
92.045563 132.0
92.190742 60.0
92.209862 196.0
92.359001 144.0
92.560768 208.0
92.697884 156.0
92.759216 192.0
92.816734 124.0
92.874268 120.0
92.99131 132.0
93.058502 152.0
93.102669 180.0
93.254456 144.0
93.381355 228.0
93.464081 132.0
93.777992 220.0
93.812691 232.0
93.847397 136.0
93.864754 164.0
93.943832 200.0
93.993996 128.0
94.061546 32.0
94.144516 148.0
94.250816 216.0
94.478973 140.0
94.6493 184.0
94.664787 144.0
94.742271 68.0
94.779083 160.0
94.859779 168.0
94.874054 100.0
94.903137 132.0
95.038918 184.0
95.102959 196.0
95.369072 132.0
95.425446 192.0
95.491562 68.0
95.50518 68.0
95.680321 228.0
95.740685 200.0
95.896553 92.0
95.910202 192.0
95.931641 180.0
96.083763 44.0
96.409859 68.0
96.437225 196.0
96.652351 144.0
96.724762 208.0
96.756088 220.0
96.969612 164.0
96.999008 172.0
97.148048 156.0
97.259903 184.0
97.305061 200.0
97.417 168.0
97.586021 136.0
97.829987 196.0
97.883148 144.0
97.948143 120.0
97.963905 216.0
98.11171 168.0
98.178757 116.0
98.200447 144.0
98.257652 136.0
98.305016 60.0
98.391861 128.0
98.534065 128.0
98.54908 180.0
98.717896 144.0
98.844505 160.0
98.901894 60.0
98.992973 148.0
99.018715 108.0
99.323967 136.0
99.466843 276.0
99.50853 280.0
99.919952 124.0
99.997559 96.0
100.226585 140.0
100.296333 128.0
100.449883 188.0
100.507744 220.0
100.540726 232.0
100.853249 48.0
100.957214 132.0
100.975212 128.0
101.040146 148.0
101.110992 148.0
101.133286 172.0
101.157303 160.0
101.175323 172.0
101.203354 172.0
101.253418 160.0
101.363602 240.0
101.451096 172.0
101.676453 180.0
101.758759 76.0
101.778831 136.0
101.86319 128.0
102.119804 380.0
102.202965 48.0
102.551369 160.0
102.83577 156.0
102.886238 136.0
102.900368 148.0
103.565704 148.0
103.762283 168.0
103.782555 104.0
103.879906 152.0
103.922516 160.0
103.944832 200.0
104.058502 108.0
104.088959 124.0
104.168175 84.0
104.208801 144.0
104.401917 96.0
104.426323 156.0
104.44754 204.0
104.517876 168.0
104.725533 156.0
104.770348 220.0
104.843704 188.0
104.857971 224.0
105.019043 172.0
105.221077 160.0
105.433517 120.0
105.494843 124.0
105.627762 108.0
105.842659 188.0
105.902847 176.0
105.992485 144.0
106.012688 132.0
106.232086 160.0
106.31826 160.0
106.521538 160.0
106.700333 168.0
106.846359 40.0
106.976013 68.0
107.122223 108.0
107.365448 248.0
107.449677 168.0
107.602753 176.0
107.623405 168.0
107.677094 108.0
107.720474 136.0
107.827919 44.0
107.869263 168.0
107.912674 144.0
108.057457 176.0
108.086426 148.0
108.148514 140.0
108.254105 84.0
108.314171 204.0
108.382538 132.0
108.992989 172.0
109.086128 196.0
109.119392 124.0
109.169296 192.0
109.231697 148.0
109.25042 104.0
109.337814 132.0
109.52729 124.0
109.706505 116.0
109.808678 108.0
109.848312 204.0
109.862915 156.0
110.004822 108.0
110.057022 268.0
110.303551 144.0
110.364182 124.0
110.414368 84.0
110.533615 188.0
110.686424 140.0
110.740875 196.0
110.92318 68.0
110.969299 184.0
111.01963 220.0
111.195862 48.0
111.342827 180.0
111.426857 224.0
111.674911 228.0
111.708572 232.0
111.883247 168.0
111.916931 100.0
111.952728 152.0
112.087555 204.0
112.108627 180.0
112.163429 168.0
112.19294 136.0
112.308922 132.0
112.534737 120.0
112.674133 92.0
112.780792 196.0
112.824188 96.0
112.89608 192.0
112.961647 200.0
113.036469 288.0
113.073799 192.0
113.097076 76.0
113.196587 220.0
113.366676 220.0
113.41481 204.0
113.548386 108.0
113.575966 160.0
113.67144 120.0
113.70327 52.0
113.82428 188.0
114.057983 208.0
114.119637 68.0
114.155785 192.0
114.230232 168.0
114.33577 320.0
114.400475 196.0
114.805321 240.0
114.937584 196.0
115.053093 1772.0
115.211411 96.0
115.23011 172.0
115.324135 176.0
115.364754 120.0
115.422478 232.0
115.523003 112.0
115.621429 128.0
115.684448 184.0
115.76487 120.0
115.792709 160.0
115.913086 148.0
115.961975 84.0
116.030571 76.0
116.061035 164.0
116.112061 156.0
116.176407 128.0
116.22142 176.0
116.272972 140.0
116.287994 188.0
116.343803 192.0
116.382454 104.0
116.399635 128.0
116.713364 176.0
116.754219 232.0
116.83596 164.0
117.057663 312.0
117.07489 164.0
117.264488 140.0
117.314064 140.0
117.411095 104.0
117.715385 136.0
117.79702 176.0
118.084953 180.0
118.268867 104.0
118.299171 196.0
118.40744 100.0
118.461594 136.0
118.539597 80.0
118.765076 156.0
118.799782 104.0
118.990768 240.0
119.038536 184.0
119.064598 72.0
119.097176 212.0
119.281883 116.0
119.41452 208.0
119.484131 144.0
119.599472 160.0
119.625595 188.0
119.666962 224.0
119.732285 140.0
120.05825 188.0
120.286514 240.0
120.395287 64.0
120.430237 204.0
120.554771 228.0
120.594109 220.0
120.635643 168.0
120.659691 120.0
120.828094 116.0
120.884987 88.0
120.994431 188.0
121.257301 160.0
121.362526 196.0
121.437088 60.0
121.59726 176.0
121.821236 52.0
121.909119 176.0
122.10865 172.0
122.171997 188.0
122.322624 204.0
122.388672 160.0
122.439323 148.0
122.492188 160.0
122.600151 124.0
122.627914 168.0
122.655258 148.0
122.679504 192.0
122.785789 180.0
122.862549 248.0
122.884613 180.0
123.028069 208.0
123.259987 176.0
123.571762 200.0
123.58725 116.0
123.684631 180.0
123.799759 148.0
123.870636 184.0
124.036835 236.0
124.103348 160.0
124.334053 76.0
124.427284 168.0
124.473915 248.0
124.524994 172.0
124.560532 212.0
124.671631 160.0
124.7472 120.0
125.120956 188.0
125.267937 36.0
125.410553 84.0
125.742889 208.0
125.890236 160.0
125.919273 176.0
126.042 124.0
126.124832 140.0
126.200844 96.0
126.417831 160.0
126.458115 128.0
126.561096 56.0
126.581245 68.0
126.652916 188.0
126.685295 208.0
126.70668 136.0
126.773903 92.0
127.049919 168.0
127.139458 40.0
127.245956 160.0
127.323555 180.0
127.372971 148.0
127.64267 144.0
127.72364 124.0
127.757385 128.0
127.845139 52.0
127.946426 128.0
128.000473 144.0
128.048462 736.0
128.099564 100.0
128.12886 36.0
128.205475 168.0
128.266327 140.0
128.379059 160.0
128.410629 180.0
128.50087 416.0
128.521179 168.0
128.663376 176.0
128.984161 72.0
129.045197 148.0
129.251312 136.0
129.289505 184.0
129.572556 180.0
129.67453 136.0
129.767487 164.0
129.837784 56.0
130.078293 124.0
130.180466 160.0
130.237244 216.0
130.253143 36.0
130.291763 156.0
130.342438 92.0
130.396301 168.0
130.594101 184.0
130.67601 132.0
130.974228 280.0
131.015244 192.0
131.076752 200.0
131.174759 132.0
131.510086 152.0
131.571716 52.0
131.695023 172.0
131.726913 188.0
131.870972 144.0
132.001282 80.0
132.056168 124.0
132.115646 144.0
132.181992 124.0
132.225479 216.0
132.410934 44.0
132.532349 144.0
132.559845 164.0
132.619431 228.0
133.177002 144.0
133.211456 76.0
133.505676 164.0
133.526367 52.0
133.627579 188.0
133.912872 164.0
133.94989 164.0
134.203415 152.0
134.376404 172.0
134.416977 184.0
134.468704 76.0
134.547195 208.0
134.580658 148.0
134.67189 168.0
134.953827 152.0
135.018585 216.0
135.087021 124.0
135.226807 224.0
135.330994 152.0
135.351822 152.0
135.470901 196.0
135.525558 40.0
135.708664 152.0
135.733383 164.0
135.759689 120.0
135.924393 200.0
135.991699 72.0
136.035797 168.0
136.244812 164.0
136.528397 92.0
136.558624 156.0
136.614456 156.0
136.640045 244.0
136.748337 152.0
136.871872 208.0
137.338928 132.0
137.369247 124.0
137.450912 124.0
137.593292 180.0
137.686691 180.0
137.791809 368.0
137.847885 104.0
137.983459 172.0
138.048935 220.0
138.105072 148.0
138.348434 112.0
138.392914 148.0
138.455643 148.0
138.498764 144.0
138.73967 148.0
138.812363 112.0
138.955444 164.0
139.009415 164.0
139.052658 4200.0
139.171387 124.0
139.220703 68.0
139.349899 160.0
139.467392 48.0
139.60376 156.0
139.740204 188.0
139.780197 52.0
139.808441 52.0
139.843735 140.0
139.970871 128.0
140.056549 1260.0
140.121613 40.0
140.142822 48.0
140.166382 140.0
140.218231 96.0
140.314713 224.0
140.371475 168.0
140.398102 192.0
140.43515 88.0
140.503555 72.0
140.779739 132.0
140.845871 136.0
140.862396 140.0
140.961639 60.0
141.068726 2320.0
141.155472 64.0
141.266647 128.0
141.302124 192.0
141.339981 132.0
141.380219 60.0
141.437027 52.0
141.48436 48.0
141.69989 168.0
141.787567 164.0
141.87764 168.0
141.967743 144.0
142.027039 48.0
142.065781 520.0
142.091095 248.0
142.197876 68.0
142.221619 220.0
142.264343 200.0
142.421066 204.0
142.470963 52.0
142.549301 156.0
142.580261 76.0
142.613541 244.0
142.72052 200.0
142.746674 268.0
142.794235 128.0
142.834274 176.0
142.975067 104.0
143.044037 188.0
143.048431 184.0
143.332275 200.0
143.685165 160.0
143.938171 172.0
143.995483 168.0
144.079086 128.0
144.148392 180.0
144.278488 224.0
144.329437 156.0
144.375488 76.0
144.423325 200.0
144.528595 176.0
144.964417 80.0
145.012726 76.0
145.060287 112.0
145.105835 108.0
145.156189 160.0
145.297714 72.0
145.453705 144.0
145.595367 184.0
145.782761 140.0
145.878891 188.0
145.900528 76.0
145.983505 176.0
146.063095 172.0
146.124207 48.0
146.231995 156.0
146.299896 252.0
146.35643 156.0
146.555191 36.0
146.767319 164.0
146.832428 152.0
146.868607 256.0
147.059219 76.0
147.114746 124.0
147.452927 136.0
147.491592 264.0
147.523026 176.0
147.581039 120.0
147.711639 160.0
147.868927 32.0
148.474625 152.0
148.65657 168.0
148.685699 220.0
148.724533 80.0
149.239563 180.0
149.490112 148.0
149.555832 168.0
149.592346 188.0
149.787155 148.0
149.804214 92.0
149.89679 124.0
150.045349 308.0
150.223511 128.0
150.264984 156.0
150.282074 184.0
150.494415 220.0
150.595825 100.0
150.645844 220.0
151.002731 204.0
151.052109 912.0
151.088348 148.0
151.137283 104.0
151.315948 136.0
151.573135 104.0
151.614807 124.0
151.886963 188.0
151.950745 256.0
152.00473 48.0
152.050369 1028.0
152.12674 168.0
152.255127 156.0
152.319 140.0
152.417267 216.0
152.76886 180.0
153.056885 440.0
153.330276 88.0
153.377106 244.0
153.419022 148.0
153.470795 148.0
153.648376 204.0
154.058929 228.0
154.216354 176.0
154.369629 236.0
154.464584 180.0
154.6492 48.0
154.688812 120.0
154.998398 160.0
155.044495 180.0
155.139679 140.0
155.29982 204.0
155.352951 168.0
155.55397 224.0
155.593689 160.0
155.625961 124.0
155.655762 152.0
155.710403 136.0
155.931519 192.0
156.033447 224.0
156.053329 184.0
156.078201 132.0
156.137878 92.0
156.160263 168.0
156.187622 132.0
156.503693 104.0
156.558487 148.0
156.720398 64.0
156.959702 140.0
156.982132 184.0
157.01207 84.0
157.169235 132.0
157.360657 168.0
157.386398 148.0
157.64119 128.0
157.673676 132.0
158.008759 212.0
158.048798 112.0
158.203964 204.0
158.239014 188.0
158.712585 168.0
158.933319 96.0
159.184341 200.0
159.257172 156.0
159.302383 32.0
159.428024 176.0
159.488342 140.0
159.528564 128.0
159.648224 136.0
159.694519 180.0
160.04686 160.0
160.196426 152.0
160.41217 84.0
160.472031 248.0
160.525635 216.0
160.798096 72.0
160.959671 116.0
161.055649 232.0
161.096054 136.0
161.128906 168.0
161.328568 216.0
161.546051 208.0
161.621948 204.0
161.652313 100.0
161.86496 140.0
161.999191 152.0
162.092941 120.0
162.143631 156.0
162.176575 160.0
162.260239 56.0
162.333771 208.0
162.376877 220.0
162.442825 136.0
162.506256 192.0
162.567154 172.0
162.655991 152.0
162.785477 144.0
162.843887 140.0
162.917557 64.0
163.034439 148.0
163.217468 132.0
163.418411 52.0
163.448959 200.0
163.810486 164.0
163.881821 144.0
163.909851 116.0
164.053192 168.0
164.121429 44.0
164.169876 164.0
164.220886 228.0
164.251495 124.0
164.539871 40.0
164.680313 96.0
164.721191 124.0
164.746414 160.0
164.889832 136.0
165.009979 172.0
165.061615 208.0
165.123566 124.0
165.304138 192.0
165.327164 144.0
165.364197 140.0
165.403946 104.0
165.496124 128.0
165.59343 176.0
165.816345 148.0
165.880417 164.0
165.93425 152.0
165.987 264.0
166.06395 10740.0
166.107086 144.0
166.149689 52.0
166.231934 160.0
166.26004 392.0
166.301102 180.0
166.32933 72.0
166.372971 40.0
166.460281 44.0
166.511642 68.0
166.547592 32.0
166.565582 48.0
166.587631 188.0
166.606674 176.0
166.654266 192.0
166.716293 188.0
166.740784 208.0
166.785751 176.0
166.862656 180.0
166.904343 168.0
166.921585 168.0
166.952667 172.0
166.987305 144.0
167.007706 148.0
167.072433 101600.0
167.129745 212.0
167.153122 128.0
167.212112 36.0
167.262878 472.0
167.289978 116.0
167.297409 48.0
167.308746 148.0
167.341293 64.0
167.354141 52.0
167.374008 56.0
167.406479 292.0
167.465073 100.0
167.494324 552.0
167.53775 44.0
167.541962 52.0
167.557632 32.0
167.586945 80.0
167.651932 108.0
167.675659 160.0
167.70961 220.0
167.750015 236.0
167.75647 36.0
167.766525 200.0
167.823166 148.0
167.851227 128.0
167.907837 116.0
167.945282 144.0
167.991714 40.0
168.028152 332.0
168.076965 14540.0
168.147064 144.0
168.180649 56.0
168.257538 108.0
168.296265 64.0
168.335571 72.0
168.371155 124.0
168.396515 44.0
168.4254 80.0
168.466736 72.0
168.484818 52.0
168.518402 68.0
168.583008 44.0
168.67276 108.0
168.691559 92.0
168.727753 44.0
168.807907 80.0
168.854462 56.0
168.875153 108.0
168.893265 36.0
168.918579 100.0
168.970871 96.0
168.990494 148.0
169.022614 104.0
169.080566 1564.0
169.133911 168.0
169.185608 160.0
169.212708 100.0
169.257965 96.0
169.29184 88.0
169.319901 72.0
169.341049 96.0
169.385681 140.0
169.410339 176.0
169.433456 116.0
169.473175 84.0
169.493576 92.0
169.711639 172.0
169.812775 168.0
169.846497 76.0
169.877625 76.0
169.963242 52.0
170.030975 80.0
170.056824 132.0
170.118973 40.0
170.435837 180.0
170.472214 72.0
170.5112 160.0
170.547577 52.0
170.613647 160.0
170.706177 44.0
170.76355 68.0
170.906479 88.0
171.036606 56.0
171.062637 168.0
171.091278 96.0
171.109497 148.0
171.156357 92.0
171.369949 84.0
171.56282 88.0
171.797531 68.0
171.912338 176.0
172.003693 72.0
172.050674 172.0
172.076782 128.0
172.254379 144.0
172.340591 212.0
172.515701 144.0
172.774612 184.0
173.041565 160.0
173.272049 132.0
173.673141 140.0
173.775452 120.0
173.809555 116.0
174.022171 132.0
174.051056 192.0
174.153488 108.0
174.376816 108.0
174.626678 124.0
174.918671 184.0
174.944992 136.0
175.005554 60.0
175.163574 92.0
175.319031 168.0
175.55629 128.0
175.632782 128.0
175.755463 104.0
176.046295 124.0
176.070923 192.0
176.213562 164.0
176.232056 148.0
176.282272 76.0
176.440857 92.0
176.504318 120.0
176.563904 136.0
176.911774 160.0
177.05545 1064.0
177.115677 160.0
177.274658 208.0
177.293198 84.0
177.327652 88.0
177.502625 96.0
177.553024 108.0
177.590149 48.0
177.627289 116.0
177.675491 116.0
177.961685 160.0
178.062363 3528.0
178.094467 144.0
178.136978 52.0
178.259186 116.0
178.365509 68.0
178.434631 64.0
178.681976 52.0
179.066956 748.0
179.169189 76.0
179.254456 36.0
179.278442 120.0
179.355728 64.0
179.465027 252.0
179.523697 76.0
179.55571 208.0
179.769135 148.0
179.848511 240.0
179.905258 36.0
180.049454 140.0
180.070816 372.0
180.126907 80.0
180.23912 88.0
180.265396 72.0
180.386124 140.0
180.549225 116.0
180.651749 132.0
180.677612 56.0
180.709717 52.0
180.996124 100.0
181.045364 304.0
181.081818 120.0
181.151474 68.0
181.693008 152.0
182.313278 200.0
182.442307 36.0
182.603653 152.0
183.077576 168.0
183.133881 60.0
183.238953 196.0
183.271271 172.0
183.290146 192.0
183.480011 116.0
183.530045 140.0
183.880737 100.0
184.037323 120.0
184.072571 188.0
184.096725 128.0
184.183151 52.0
184.337158 104.0
184.818481 76.0
185.037735 136.0
185.09729 128.0
185.186676 80.0
185.503708 72.0
186.364044 168.0
186.940536 56.0
187.065536 164.0
187.125626 56.0
188.148041 148.0
188.224487 156.0
188.37471 164.0
188.402023 156.0
188.544113 200.0
188.943344 156.0
189.025421 340.0
189.058273 232.0
189.438858 144.0
190.316513 136.0
191.113785 212.0
191.218201 172.0
191.534851 192.0
191.664337 140.0
192.254471 196.0
192.607895 148.0
192.787476 152.0
193.08606 156.0
193.146912 152.0
193.318451 176.0
193.930527 180.0
194.015305 172.0
194.059418 484.0
194.084137 108.0
194.246643 180.0
194.465851 36.0
194.615753 96.0
194.665741 68.0
194.901855 112.0
194.990784 32.0
195.015808 108.0
195.067032 14652.0
195.135345 224.0
195.159607 44.0
195.185654 128.0
195.215988 60.0
195.245178 96.0
195.31633 96.0
195.338364 76.0
195.41626 100.0
195.466339 112.0
195.508789 64.0
195.552612 104.0
195.608292 116.0
195.658401 120.0
195.680679 248.0
195.756042 176.0
195.773453 212.0
195.796326 172.0
195.885681 120.0
195.931778 124.0
195.995758 132.0
196.028915 132.0
196.039032 284.0
196.07518 78988.0
196.155609 192.0
196.198563 212.0
196.228851 64.0
196.264832 184.0
196.284637 104.0
196.338867 140.0
196.365829 60.0
196.396881 164.0
196.425476 268.0
196.481888 144.0
196.533585 136.0
196.563278 56.0
196.603348 84.0
196.64241 56.0
196.678833 84.0
196.768463 52.0
196.812714 136.0
196.883652 88.0
196.941177 36.0
196.960724 52.0
196.98114 52.0
197.011017 76.0
197.0784 8876.0
197.198334 104.0
197.209717 108.0
197.221848 76.0
197.263611 72.0
197.340805 76.0
197.388992 52.0
197.438019 68.0
197.504181 124.0
197.55336 48.0
197.586929 120.0
197.623306 76.0
197.670868 76.0
197.69606 52.0
197.722183 48.0
197.815094 76.0
197.861206 28.0
197.907562 208.0
197.958633 152.0
198.032028 96.0
198.078766 1244.0
198.172104 164.0
198.190308 80.0
198.257568 48.0
198.289795 56.0
198.323425 84.0
198.415939 120.0
198.449234 128.0
198.474823 84.0
198.497253 36.0
198.519684 128.0
198.556152 64.0
198.586349 104.0
198.634399 40.0
198.680298 140.0
198.751114 200.0
198.833908 96.0
198.893616 168.0
198.943375 72.0
199.005142 80.0
199.047256 96.0
199.092194 248.0
199.201736 52.0
199.229828 48.0
199.302887 100.0
199.409668 148.0
199.484528 120.0
199.505249 144.0
199.547409 72.0
199.868073 92.0
199.893387 108.0
199.918716 88.0
200.150223 84.0
200.436874 40.0
200.521423 128.0
200.721588 52.0
200.792084 96.0
200.845673 92.0
201.345261 48.0
201.523224 32.0
202.04628 84.0
203.880905 140.0
204.00029 68.0
204.057144 308.0
204.156662 48.0
204.190796 40.0
204.466766 156.0
204.569244 72.0
205.022125 116.0
205.407043 44.0
205.546844 56.0
206.283737 56.0
206.355209 92.0
206.483887 120.0
206.755692 48.0
206.784302 92.0
207.033386 76.0
207.071716 84.0
207.156555 112.0
207.661057 60.0
209.81778 68.0
209.967728 76.0
211.287827 84.0
212.870438 120.0
213.442902 52.0
214.141357 164.0
216.16748 156.0
217.034561 84.0
217.392426 116.0
217.415909 32.0
221.787033 40.0
231.531219 112.0
242.621323 52.0
246.077927 72.0
252.903046 44.0
253.419235 64.0
258.303009 68.0
264.115723 28.0
265.476013 36.0
270.500275 92.0
270.955475 116.0
274.324066 112.0
274.970581 56.0
276.722626 156.0
285.02832 44.0
288.763702 100.0
293.692169 68.0
296.780365 44.0
301.054291 96.0
303.292816 88.0
304.052399 36.0
319.765533 36.0
324.192535 76.0
326.191742 144.0
326.662811 84.0
330.939575 128.0
335.22229 76.0
335.988007 144.0
337.141876 112.0
337.873199 128.0
347.50061 96.0
350.769623 64.0
358.336273 88.0
364.663574 100.0
374.71283 56.0
377.387634 128.0
390.479309 128.0
398.814392 92.0
406.703125 96.0
417.27951 72.0
423.875702 48.0
426.420166 72.0
428.720795 40.0
434.812775 48.0
442.244293 84.0
444.19696 88.0
445.120331 76.0
446.153931 68.0
465.861389 72.0
496.813202 64.0
497.04834 36.0
500.595734 72.0
532.464966 112.0
560.241699 48.0
585.898071 68.0
593.57843 124.0
603.15033 52.0
617.310364 48.0
640.706116 68.0
686.668213 88.0
687.816162 76.0
716.319458 56.0
746.189636 80.0
797.138062 212.0
809.447083 100.0
811.577637 72.0
823.728699 168.0
837.668518 168.0
851.040039 208.0
862.914612 124.0
863.060791 76.0
870.450012 56.0
900.106689 180.0
916.356079 232.0
916.741699 244.0
926.784912 168.0
931.498962 164.0
942.13562 176.0
946.649658 112.0
950.572998 132.0
954.110962 204.0
959.411743 216.0
970.286682 60.0
970.565735 140.0
974.463745 164.0
982.214539 136.0
987.042358 200.0
1003.777466 152.0
1011.333557 40.0
1012.891235 204.0
1016.676514 180.0
1022.733582 176.0
1030.207275 128.0
1033.647095 156.0
1036.900391 140.0
1038.208374 220.0
1055.86145 152.0
1059.693604 132.0
1060.406494 172.0
1066.598755 164.0
1072.07251 216.0
1072.998169 188.0
1074.145996 160.0
1080.319336 120.0
1081.765503 152.0
1088.643555 104.0
1089.379272 160.0
1104.594116 184.0
1106.956909 76.0
1110.641968 188.0
1112.659302 64.0
1113.18396 180.0
1123.274048 196.0
1127.166504 140.0
1129.024902 176.0
1135.669067 172.0
1144.05542 128.0
1147.673462 200.0
1148.786377 32.0
1152.249634 192.0
1152.675415 160.0
1153.229614 304.0
1159.625854 132.0
1161.036011 136.0
1162.677856 72.0
1163.539917 172.0
1164.144287 164.0
1165.12915 164.0
1165.93103 132.0
1169.712769 76.0
1173.37793 216.0
1175.949707 152.0
1176.318359 40.0
1178.339844 128.0
1179.481201 204.0
1179.59729 168.0
1180.294678 188.0
1181.12915 132.0
1183.456055 116.0
1184.044922 180.0
1186.909546 168.0
1187.773682 128.0
1187.890259 184.0
1189.180298 124.0
1189.255737 96.0
1190.766357 216.0
1190.91748 104.0
1191.37085 180.0
1192.504639 204.0
1192.992676 84.0
1193.508301 212.0
1193.810913 48.0
1194.911499 156.0
1199.408569 196.0
1199.884155 176.0
1202.719482 128.0
1206.14563 188.0
1211.280151 196.0
1213.109619 140.0
1213.532593 40.0
1215.918945 160.0
1217.029663 188.0
1217.369873 136.0
1221.874146 188.0
1222.806641 92.0
1226.289185 128.0
1226.435547 224.0
1227.160522 140.0
1227.446411 144.0
1227.69751 148.0
1228.269409 148.0
1232.325562 144.0
1232.402466 196.0
1232.605103 200.0
1234.51355 208.0
1236.92041 176.0
1240.261719 164.0
1240.387817 52.0
1241.334351 88.0
1246.381592 100.0
1248.603027 212.0
1258.772461 196.0
1259.838989 180.0
1262.595703 232.0
1267.664673 220.0
1272.566162 116.0
1273.603027 120.0
1274.107422 172.0
1275.016968 212.0
1275.720703 176.0
1276.133057 164.0
1276.915283 108.0
1277.747559 144.0
1278.430664 188.0
1279.064087 116.0
1280.979736 48.0
1282.43335 196.0
1290.47168 96.0
1294.378662 132.0
1296.42749 36.0
1297.151367 136.0
1297.20874 136.0
1298.112061 56.0
1299.109131 144.0
1300.357666 136.0
1303.639771 236.0
1305.882935 92.0
1306.436768 116.0
1309.092773 160.0
1312.277832 116.0
1315.98645 176.0
1316.614746 160.0
1321.356689 224.0
1321.530273 156.0
1322.536255 204.0
1324.375488 68.0
1328.130127 164.0
1328.282471 192.0
1334.37561 180.0
1334.491943 192.0
1334.702759 192.0
1335.37915 164.0
1336.870605 164.0
1337.926025 160.0
1339.317017 60.0
1339.506348 168.0
1340.796021 224.0
1342.567627 212.0
1345.055664 80.0
1345.384155 144.0
1346.705933 172.0
1347.363403 252.0
1349.278198 184.0
1352.387207 64.0
1355.016235 232.0
1356.584595 220.0
1357.6698 180.0
1358.748169 176.0
1358.946167 144.0
1361.831299 184.0
1363.557983 116.0
1366.161011 136.0
1367.463501 188.0
1368.626587 196.0
1373.114624 156.0
1373.22522 32.0
1376.679199 180.0
1377.994141 36.0
1380.662598 200.0
1381.121216 132.0
1381.52063 192.0
1382.386353 144.0
1382.615845 180.0
1382.800781 168.0
1383.148682 192.0
1383.726196 180.0
1384.000122 76.0
1384.65918 184.0
1385.355469 212.0
1386.726318 176.0
1388.498413 180.0
1389.06958 144.0
1391.325562 148.0
1393.397705 84.0
1393.4646 116.0
1395.53833 144.0
1396.876953 200.0
1397.561401 160.0
1397.799561 168.0
1398.015381 156.0
1398.573608 120.0
1399.720093 144.0
1399.943481 112.0
1400.859619 188.0
1401.925171 220.0
1402.672485 164.0
1402.953857 144.0
1403.580078 128.0
1405.400146 160.0
1409.447266 160.0
1410.672974 224.0
1411.158936 152.0
1413.028809 196.0
1416.277832 128.0
1416.330322 228.0
1418.563354 176.0
1419.320557 164.0
1420.175537 116.0
1421.698608 44.0
1423.297607 176.0
1424.566895 156.0
1425.723999 128.0
1427.274048 172.0
1427.949463 88.0
1428.897339 164.0
1431.155396 120.0
1432.782227 184.0
1434.025635 76.0
1435.99353 88.0
1436.612061 264.0
1438.60437 148.0
1440.107056 136.0
1443.530762 176.0
1445.028442 128.0
1445.217651 188.0
1445.611084 120.0
1445.664062 68.0
1446.958496 184.0
1448.465454 184.0
1449.003418 124.0
1449.745972 256.0
1449.874756 220.0
1450.822266 180.0
1451.505981 188.0
1452.39209 204.0
1452.634766 160.0
1453.46936 144.0
1453.909546 164.0
1456.058105 56.0
1456.559448 196.0
1457.07605 172.0
1457.311523 212.0
1458.405884 164.0
1461.25769 132.0
1461.828369 144.0
1462.421997 184.0
1462.779785 164.0
1463.1604 192.0
1463.533569 120.0
1464.081787 228.0
1464.165649 264.0
1465.041626 200.0
1465.110107 168.0
1465.19397 156.0
1466.893433 148.0
1468.898071 204.0
1469.959473 136.0
1471.302856 176.0
1471.55481 184.0
1473.433716 192.0
1480.785034 180.0
1481.443848 208.0
1482.654419 136.0
1483.137329 280.0
1485.06958 184.0
1485.246094 76.0
1485.644897 140.0
1487.233398 152.0
1488.314087 156.0
1488.761353 176.0
1493.071533 120.0
1494.088135 112.0
1495.842773 88.0
1496.658813 180.0
1498.191528 204.0
1499.540039 72.0
1500.033447 60.0
1502.184937 160.0
