>compound MLS000859931-01!(+/-)-SKF-38393 hydrochloride
>formula C16H17NO2
>ionization [M+H]+
>parentmass 256.13320523609053
#inchi InChI=1S/C16H17NO2/c18-15-8-12-6-7-17-10-14(13(12)9-16(15)19)11-4-2-1-3-5-11/h1-5,8-9,14,17-19H,6-7,10H2
#inchikey JUDKOGFHZYMDMF
#origInchi InChI=1S/C16H17NO2.ClH/c18-15-8-12-6-7-17-10-14(13(12)9-16(15)19)11-4-2-1-3-5-11;/h1-5,8-9,14,17-19H,6-7,10H2;1H
#Ion_Source LC-ESI
#Instrument qTof
#Compound_Source NIH Pharmacologically Active Library
#PI Dorrestein
#Data_Collector VP/LMS
#Scan -1
#Precursor_MZ 256.136
#ExactMass 255.126
#Charge 1
#CAS_Number N/A
#Pubmed_ID N/A
#Smiles Oc1cc2CCNCC(c3ccccc3)c2cc1O.Cl
#INCHI_AUX N/A
#Library_Class 1
#SpectrumID CCMSLIB00000085779
#IonMode Positive
#UpdateWorkflowName UPDATE-SINGLE-ANNOTATED-GOLD
#LibraryQualityString Gold
#TaskID d252d724072548979f1f6f1ced849daf
##Scan# 1208
#SpectrumFile p4-F05_GF5_01_18389.mzXML
#LibraryName Pharm_Active_Library.mgf
#MQScore -1
#Organism Pharm_Active_Library
#TIC_Query 0
#RT_Query -1
#MZErrorPPM -1
#SharedPeaks 0
#MassDiff 0
#LibMZ -1
#SpecMZ 256.136
#SpecCharge 0
#internalFilename spec-00000.mgf

>collision 10
44.919296 208.0
44.9641 164.0
45.009491 128.0
45.029522 76.0
45.175224 184.0
45.238121 200.0
45.276951 204.0
45.333218 168.0
45.358685 172.0
45.378796 148.0
45.479408 124.0
45.55595 116.0
45.629871 124.0
45.759033 356.0
46.074635 176.0
46.173309 176.0
46.1936 176.0
46.232838 116.0
46.347946 180.0
46.457767 84.0
46.589455 176.0
46.736298 196.0
46.992458 144.0
47.0648 128.0
47.115337 168.0
47.159702 240.0
47.226067 232.0
47.354729 128.0
47.402679 132.0
47.430088 160.0
47.472591 176.0
47.67852 160.0
47.713154 164.0
47.761017 212.0
47.807796 172.0
47.963436 232.0
47.977222 108.0
48.022728 152.0
48.080677 208.0
48.145176 200.0
48.330029 240.0
48.382015 76.0
48.465118 180.0
48.531651 56.0
48.542744 224.0
48.627373 216.0
48.644032 136.0
48.721802 260.0
48.757931 128.0
48.887268 96.0
48.983341 52.0
49.030716 136.0
49.146461 140.0
49.172974 160.0
49.444118 136.0
49.477715 240.0
49.512722 236.0
49.591183 208.0
49.645859 212.0
49.661289 192.0
49.828342 72.0
50.177387 124.0
50.373558 208.0
50.392799 200.0
50.575771 152.0
50.66782 152.0
50.823784 52.0
50.849327 160.0
50.964355 184.0
51.046803 144.0
51.13501 180.0
51.211895 96.0
51.224716 124.0
51.253212 96.0
51.289616 140.0
51.391525 152.0
51.442905 176.0
51.490025 28.0
51.59005 136.0
51.694462 216.0
51.889271 184.0
52.002598 136.0
52.07008 180.0
52.304451 148.0
52.350525 140.0
52.40094 140.0
52.42976 132.0
52.461472 176.0
52.559551 188.0
52.663494 128.0
52.722733 208.0
52.755978 180.0
52.832626 184.0
52.964359 212.0
53.038261 260.0
53.087559 160.0
53.118015 128.0
53.155739 136.0
53.228321 76.0
53.314034 108.0
53.595009 144.0
53.68235 156.0
53.724651 164.0
53.89986 80.0
53.910088 188.0
54.037308 160.0
54.079746 172.0
54.169617 192.0
54.327393 148.0
54.372883 104.0
54.422794 152.0
54.44482 160.0
54.587372 232.0
54.825863 160.0
54.927597 188.0
55.09589 116.0
55.14909 180.0
55.203793 184.0
55.264442 208.0
55.379917 220.0
55.430286 196.0
55.554832 80.0
55.580746 236.0
55.621613 140.0
55.932289 136.0
56.043987 148.0
56.176682 124.0
56.303555 272.0
56.505356 84.0
56.774986 184.0
56.828991 232.0
56.859005 152.0
57.377972 164.0
57.595284 108.0
57.900452 184.0
57.958382 180.0
58.037201 120.0
58.06905 328.0
58.403206 212.0
58.587402 168.0
58.681896 264.0
58.756634 180.0
58.797405 172.0
58.982651 200.0
59.094292 124.0
59.120304 164.0
59.515804 60.0
59.572632 164.0
59.778667 236.0
59.812527 220.0
59.852554 80.0
59.934196 180.0
59.972725 236.0
60.086842 136.0
60.157833 204.0
60.173271 148.0
60.197979 116.0
60.236591 120.0
60.643551 92.0
60.696262 172.0
60.717972 128.0
60.994354 124.0
61.262012 144.0
61.480309 228.0
61.556805 212.0
61.575996 152.0
61.591164 164.0
61.606785 148.0
61.683361 184.0
61.761543 184.0
61.86639 80.0
62.013638 220.0
62.082623 172.0
62.121838 136.0
62.197159 208.0
62.341656 224.0
62.374664 268.0
62.402962 224.0
62.519367 236.0
62.585484 160.0
62.752403 192.0
63.144135 32.0
63.239067 164.0
63.26281 188.0
63.288143 136.0
63.302395 252.0
63.31348 40.0
63.362587 140.0
63.546505 68.0
63.689381 136.0
63.703678 132.0
63.727509 60.0
63.820202 152.0
64.066399 228.0
64.122169 160.0
64.138107 56.0
64.321548 144.0
64.426949 160.0
64.438133 192.0
64.527634 180.0
64.585205 128.0
64.622002 124.0
64.661423 216.0
64.745262 148.0
64.820557 168.0
64.867035 112.0
65.131813 188.0
65.194473 168.0
65.215363 128.0
65.23159 168.0
65.392296 180.0
65.403557 132.0
65.43737 184.0
65.463135 188.0
65.627495 56.0
65.80175 216.0
65.829201 68.0
65.935829 204.0
66.112579 180.0
66.178482 220.0
66.191437 172.0
66.35347 168.0
66.46376 56.0
66.679901 128.0
66.697632 256.0
66.769173 168.0
67.132347 132.0
67.338371 236.0
67.41124 200.0
67.4589 168.0
67.687965 36.0
67.77314 164.0
67.81739 184.0
68.140678 96.0
68.152176 156.0
68.175186 252.0
68.19162 140.0
68.333046 172.0
68.443321 156.0
68.853951 212.0
69.082062 116.0
69.187973 200.0
69.211159 160.0
69.274094 168.0
69.411659 104.0
69.436539 160.0
69.592529 108.0
69.705482 152.0
69.725426 232.0
69.753296 140.0
69.875084 196.0
69.898376 80.0
70.043228 140.0
70.490364 216.0
70.572273 176.0
70.791481 124.0
71.047935 196.0
71.106667 184.0
71.168777 228.0
71.214127 148.0
71.501633 196.0
71.702057 236.0
71.755997 200.0
71.966904 132.0
71.995613 152.0
72.088524 196.0
72.19503 172.0
72.515015 92.0
72.783058 152.0
72.811928 168.0
72.877892 188.0
72.915565 152.0
73.09433 104.0
73.121361 144.0
73.269508 136.0
73.509933 184.0
73.60553 168.0
73.713882 176.0
73.867027 156.0
73.908089 132.0
73.964561 188.0
74.000511 196.0
74.05703 192.0
74.465248 144.0
74.750633 172.0
75.003807 104.0
75.083122 192.0
75.102097 136.0
75.114174 88.0
75.140045 116.0
75.174561 136.0
75.46476 228.0
75.625648 156.0
75.835228 160.0
75.951401 80.0
76.019066 232.0
76.392632 208.0
76.436127 212.0
76.463974 92.0
76.56321 204.0
76.632454 224.0
76.758392 376.0
76.795021 184.0
76.859566 152.0
77.013199 172.0
77.170486 164.0
77.235191 236.0
77.252686 176.0
77.503052 144.0
77.539856 140.0
77.571404 76.0
77.595947 184.0
77.767868 124.0
77.980392 108.0
78.494461 136.0
78.519157 168.0
78.5756 176.0
78.655182 216.0
78.685028 188.0
78.725639 528.0
78.815735 44.0
78.853119 208.0
79.043846 120.0
79.141197 76.0
79.279373 244.0
79.868835 160.0
80.326637 164.0
80.508698 180.0
80.619461 172.0
80.766068 144.0
80.988022 192.0
81.067459 332.0
81.23719 196.0
81.355637 168.0
81.473267 40.0
81.625153 88.0
81.848282 132.0
81.895103 164.0
81.977982 160.0
82.008621 156.0
82.068115 112.0
82.092415 136.0
82.243111 148.0
82.398415 92.0
82.588226 156.0
82.65155 160.0
82.689552 124.0
82.767403 224.0
82.961266 176.0
83.099098 180.0
83.164436 96.0
83.178955 168.0
83.221924 144.0
83.737175 116.0
83.795471 36.0
83.839706 236.0
84.014252 64.0
84.058037 188.0
84.112793 208.0
84.355003 244.0
84.600891 216.0
84.624687 156.0
85.118156 204.0
85.139977 144.0
85.202431 232.0
85.226318 100.0
85.334763 128.0
85.603409 84.0
85.922295 164.0
85.9795 92.0
86.093964 144.0
86.13829 160.0
86.166 216.0
86.20665 176.0
86.391556 36.0
86.448914 160.0
86.619255 192.0
86.823135 176.0
86.988274 148.0
87.021698 172.0
87.077705 200.0
87.117805 208.0
87.14975 136.0
87.214897 164.0
87.27253 144.0
87.520004 48.0
87.726814 268.0
87.844299 148.0
87.87561 164.0
87.982399 112.0
88.122475 112.0
88.150505 200.0
88.20845 200.0
88.292587 188.0
88.387993 176.0
88.607063 204.0
88.647484 140.0
88.665154 52.0
88.796394 48.0
88.841415 260.0
88.895828 252.0
89.030998 208.0
89.156868 192.0
89.177544 212.0
89.19236 208.0
89.322334 124.0
89.459702 148.0
89.499611 204.0
89.595299 148.0
89.619789 156.0
89.778137 124.0
89.800774 32.0
89.881897 152.0
89.959274 112.0
90.015923 196.0
90.125481 136.0
90.168236 160.0
90.225655 140.0
90.254013 192.0
90.518936 176.0
90.571968 188.0
90.60038 212.0
90.659119 160.0
90.755798 160.0
90.810791 88.0
90.829765 224.0
90.860115 76.0
90.884781 192.0
90.981926 176.0
91.027145 120.0
91.05452 11804.0
91.118904 52.0
91.14492 136.0
91.189819 96.0
91.232353 44.0
91.264671 156.0
91.367378 36.0
91.510124 96.0
91.567253 52.0
91.605354 112.0
91.700623 84.0
91.763535 148.0
91.79023 64.0
91.897812 120.0
92.056938 972.0
92.214546 124.0
92.313469 216.0
92.36702 128.0
92.455032 32.0
92.46843 80.0
92.682922 156.0
92.776833 140.0
92.943703 132.0
93.055031 156.0
93.070641 152.0
93.129921 188.0
93.27404 200.0
93.612663 160.0
93.705124 124.0
93.811119 116.0
93.828476 156.0
93.876678 180.0
94.039177 212.0
94.096657 212.0
94.285957 64.0
94.342018 172.0
94.498672 180.0
94.552856 124.0
94.634163 240.0
94.721313 180.0
94.959724 44.0
94.983002 236.0
95.049522 352.0
95.179024 300.0
95.200386 156.0
95.243111 200.0
95.418015 292.0
95.499687 152.0
95.587242 140.0
95.635895 100.0
95.721558 184.0
95.79557 132.0
96.082153 124.0
96.246101 132.0
96.418015 52.0
96.550957 92.0
96.627251 52.0
96.762291 168.0
96.828873 56.0
96.88176 68.0
96.985619 124.0
97.095421 192.0
97.215096 160.0
97.438942 228.0
97.887413 112.0
98.110062 148.0
98.492905 156.0
98.526482 144.0
98.741951 156.0
98.920029 232.0
98.985367 124.0
99.001213 148.0
99.017052 80.0
99.038841 144.0
99.116104 244.0
99.129982 172.0
99.151779 168.0
99.205299 184.0
99.248917 180.0
99.354034 300.0
99.540611 160.0
99.629997 192.0
100.224899 280.0
100.294647 120.0
100.370407 60.0
100.486099 144.0
100.657761 188.0
100.763626 292.0
100.991516 128.0
101.03524 172.0
101.083549 188.0
101.319817 124.0
101.464119 184.0
101.492188 92.0
101.538315 216.0
101.690796 196.0
101.947876 152.0
102.010185 68.0
102.046867 1356.0
102.215332 184.0
102.315971 160.0
102.67263 124.0
102.719025 180.0
102.854225 60.0
102.914795 164.0
103.052605 3240.0
103.081573 120.0
103.135002 52.0
103.153191 60.0
103.193626 32.0
103.250244 76.0
103.317719 180.0
103.355438 120.0
103.395912 132.0
103.452591 148.0
103.556938 128.0
103.778786 132.0
103.886276 68.0
104.05468 204.0
104.11158 120.0
104.135948 136.0
104.176575 140.0
104.207054 64.0
104.286659 184.0
104.416435 124.0
104.473389 128.0
104.548676 108.0
104.609741 136.0
104.632133 148.0
104.768585 36.0
104.996727 104.0
105.035179 284.0
105.068214 2584.0
105.230873 180.0
105.256058 148.0
105.270355 96.0
105.317329 216.0
105.335709 60.0
105.405174 172.0
105.637276 192.0
105.861359 148.0
106.036934 160.0
106.051895 184.0
106.082191 200.0
106.158508 184.0
106.332893 68.0
106.474556 92.0
106.488937 168.0
106.667702 220.0
106.799301 148.0
106.891884 72.0
107.04837 804.0
107.068932 152.0
107.099823 204.0
107.452347 84.0
107.483292 148.0
107.759979 64.0
107.836441 124.0
107.948082 144.0
108.079453 300.0
108.202591 156.0
108.447037 184.0
108.55899 224.0
108.592171 184.0
108.67308 140.0
108.691757 72.0
108.729111 184.0
108.841209 116.0
108.936752 44.0
108.959602 172.0
109.032333 148.0
109.064468 1360.0
109.115479 104.0
109.138351 160.0
109.194496 212.0
109.229858 56.0
109.252747 80.0
109.323486 120.0
109.702576 240.0
109.777634 132.0
109.794319 56.0
109.884018 76.0
110.068245 192.0
110.103203 160.0
110.322601 56.0
110.479454 92.0
110.680382 164.0
110.705505 208.0
110.875206 132.0
111.034538 48.0
111.108223 160.0
111.154121 148.0
111.345161 132.0
111.67514 112.0
111.959274 96.0
112.163651 152.0
112.435745 136.0
112.615913 216.0
112.999954 184.0
113.052856 60.0
113.376877 148.0
113.423508 28.0
113.608002 76.0
113.767166 180.0
114.002937 160.0
114.03907 76.0
114.077332 168.0
114.094337 212.0
114.260223 156.0
114.381531 188.0
114.421974 204.0
114.500763 144.0
114.549759 272.0
114.622192 212.0
114.698921 264.0
114.892982 136.0
114.980469 48.0
115.025352 156.0
115.05365 12812.0
115.217491 44.0
115.354599 220.0
115.407364 24.0
115.47187 208.0
115.608795 152.0
115.707977 60.0
115.773643 136.0
115.840042 52.0
115.863602 100.0
116.024345 140.0
116.057533 976.0
116.097244 36.0
116.18734 288.0
116.219521 216.0
116.303223 268.0
116.393387 144.0
116.447083 176.0
116.464264 108.0
116.587776 328.0
116.737213 112.0
116.924385 160.0
117.033287 196.0
117.058807 532.0
117.10524 88.0
117.13755 128.0
117.193565 144.0
117.2733 40.0
117.652962 104.0
117.793335 196.0
118.028915 236.0
118.065819 1420.0
118.269058 168.0
118.351326 116.0
118.435783 172.0
118.461784 168.0
118.548447 180.0
118.663338 172.0
118.706703 192.0
118.745285 136.0
118.786949 200.0
118.808647 140.0
118.82383 232.0
118.858551 216.0
118.993126 232.0
119.048347 16164.0
119.119087 56.0
119.158188 60.0
119.362511 32.0
119.462563 88.0
119.509224 80.0
119.547417 192.0
119.599655 188.0
119.623596 68.0
119.808708 140.0
119.847923 224.0
119.93074 192.0
120.022301 324.0
120.051849 640.0
120.080009 8372.0
120.120445 88.0
120.229546 36.0
120.305939 124.0
120.404205 52.0
120.452255 176.0
120.592102 48.0
120.718849 152.0
120.823898 36.0
120.8564 164.0
121.018692 64.0
121.038071 108.0
121.081001 976.0
121.134766 104.0
121.196114 192.0
121.387054 188.0
121.44165 104.0
121.465775 116.0
121.505264 184.0
121.628159 172.0
121.683037 148.0
122.00161 164.0
122.03019 160.0
122.059959 208.0
122.069221 112.0
122.077194 180.0
122.140152 200.0
122.25016 240.0
122.591499 156.0
122.728172 56.0
122.878159 184.0
123.043076 3812.0
123.088821 136.0
123.125389 48.0
123.207123 220.0
123.306557 136.0
123.381714 76.0
123.481224 144.0
123.501129 92.0
123.53878 216.0
123.61396 100.0
123.740135 120.0
123.892952 80.0
124.048599 624.0
124.667336 76.0
124.767365 204.0
124.845192 92.0
124.900795 108.0
124.987556 140.0
125.056549 116.0
125.116425 116.0
125.48204 156.0
125.584625 88.0
125.977493 184.0
126.019943 176.0
126.04229 144.0
126.21888 100.0
126.720268 148.0
126.955635 112.0
127.054695 124.0
127.34391 176.0
127.494438 76.0
127.51017 192.0
127.699036 232.0
127.73053 124.0
127.768768 76.0
127.840775 108.0
128.060989 3060.0
128.180817 176.0
128.426559 76.0
128.494232 72.0
128.543869 180.0
128.837402 100.0
128.984299 92.0
129.024979 96.0
129.040817 176.0
129.069717 2796.0
129.111633 324.0
129.18782 60.0
129.273804 84.0
129.382446 44.0
129.493408 72.0
129.570419 68.0
129.733597 152.0
129.753998 184.0
129.998978 120.0
130.040375 1292.0
130.075699 476.0
130.105667 72.0
130.147644 168.0
130.67157 44.0
130.8013 108.0
130.942474 136.0
131.046936 1016.0
131.076874 184.0
131.170319 188.0
131.238724 128.0
131.309418 196.0
131.33223 52.0
131.407074 64.0
131.437164 160.0
131.873367 112.0
132.040268 160.0
132.078781 512.0
132.184402 196.0
132.289688 68.0
132.374405 40.0
132.807571 108.0
133.062225 184.0
133.228256 136.0
133.296585 172.0
133.316269 160.0
133.694427 40.0
134.012207 88.0
134.066254 164.0
134.261169 56.0
134.800995 148.0
134.864151 172.0
135.043869 352.0
135.379715 92.0
135.395935 48.0
135.891998 120.0
136.080002 148.0
136.321579 176.0
136.549423 104.0
136.791412 108.0
136.935776 200.0
136.959076 136.0
136.984695 164.0
137.026627 256.0
137.05899 29952.0
137.105865 44.0
137.124512 36.0
137.143158 76.0
137.187439 44.0
137.213089 88.0
137.283035 72.0
137.440781 180.0
137.486008 68.0
137.572372 44.0
137.591049 76.0
137.607391 60.0
137.740509 100.0
138.061905 1352.0
138.39769 156.0
138.798386 48.0
138.96257 120.0
138.995422 68.0
139.019562 120.0
139.035309 84.0
139.061295 244.0
139.093994 64.0
139.166779 136.0
139.358261 92.0
139.389923 156.0
139.542709 200.0
139.570923 64.0
139.721451 100.0
140.013336 60.0
140.061676 168.0
140.513077 152.0
140.73494 76.0
140.831772 200.0
141.069519 760.0
141.607574 60.0
141.910904 204.0
142.088791 132.0
142.155228 248.0
142.197952 72.0
142.278656 232.0
142.644516 100.0
142.680176 172.0
143.048203 5776.0
143.085281 348.0
143.54689 196.0
143.969284 172.0
144.05246 812.0
144.079163 148.0
144.4832 116.0
144.537949 216.0
144.962082 160.0
144.986053 156.0
145.057571 348.0
145.077835 176.0
145.811646 80.0
145.895782 188.0
146.030441 160.0
146.056534 248.0
146.136292 44.0
146.273468 36.0
146.311996 44.0
147.043793 896.0
147.21312 128.0
147.283844 132.0
148.050491 1840.0
148.149231 56.0
148.174088 60.0
148.203171 172.0
148.389801 40.0
148.428589 164.0
148.484375 176.0
148.724579 72.0
148.909103 52.0
149.011139 216.0
149.058716 908.0
149.319855 64.0
149.818878 104.0
150.047958 132.0
150.065033 152.0
150.619019 184.0
150.924515 208.0
151.058777 744.0
151.533981 116.0
151.683472 196.0
151.732498 216.0
151.926254 140.0
152.061981 1384.0
152.102356 380.0
152.505783 56.0
152.606567 36.0
152.837784 108.0
153.067474 580.0
153.663208 208.0
153.731781 224.0
153.880402 60.0
154.02858 80.0
154.074707 428.0
154.124939 128.0
154.904282 84.0
155.003387 216.0
155.055847 288.0
155.080597 304.0
155.127304 52.0
155.216568 36.0
155.377792 136.0
155.48201 44.0
155.578812 72.0
156.063309 96.0
156.113037 160.0
156.192627 72.0
156.421555 172.0
156.650665 188.0
156.762787 144.0
156.840042 224.0
157.101883 184.0
157.164261 176.0
158.078842 128.0
158.67749 156.0
158.991043 128.0
159.043762 196.0
159.254669 164.0
159.397873 164.0
159.415466 100.0
159.996506 176.0
160.053268 368.0
160.07431 396.0
160.349167 180.0
160.530685 156.0
160.878891 156.0
161.057617 3684.0
161.159225 48.0
161.263885 52.0
161.366486 64.0
161.497986 52.0
161.984741 204.0
162.059448 184.0
162.397171 52.0
162.770248 132.0
162.843887 164.0
163.011566 148.0
163.06163 308.0
163.614395 100.0
163.700974 176.0
163.886917 64.0
164.067871 1864.0
164.200485 44.0
164.379059 36.0
164.925613 160.0
165.069016 3940.0
165.22226 152.0
165.375793 180.0
165.452591 48.0
165.613922 56.0
166.075378 3920.0
166.103516 236.0
166.172775 112.0
166.203568 68.0
166.293396 48.0
166.699173 92.0
166.753143 76.0
167.083069 1264.0
167.397568 132.0
167.656509 212.0
168.054169 152.0
168.093048 232.0
168.149109 64.0
168.185242 48.0
168.355652 148.0
168.376312 228.0
169.05867 128.0
169.10025 188.0
169.139069 44.0
169.247803 68.0
169.693466 40.0
169.906143 172.0
169.937286 68.0
170.433212 148.0
170.48259 168.0
170.690552 60.0
171.839249 124.0
171.873169 112.0
172.303986 272.0
173.691483 136.0
173.827911 148.0
174.145569 152.0
174.203369 168.0
174.287445 88.0
174.508224 220.0
174.700226 160.0
175.087158 172.0
175.808777 128.0
176.065521 140.0
176.303375 64.0
176.723831 156.0
176.893219 116.0
177.067612 636.0
177.348831 172.0
177.571548 108.0
177.94838 160.0
177.972275 132.0
178.00148 180.0
178.076981 19008.0
178.121002 164.0
178.176788 120.0
178.206009 40.0
178.299026 64.0
178.402679 64.0
178.442566 48.0
178.880615 220.0
179.009338 132.0
179.08049 2460.0
179.126709 56.0
179.25975 100.0
179.401016 40.0
179.480988 48.0
179.734406 220.0
179.769089 60.0
180.057419 136.0
180.087067 320.0
180.235321 108.0
180.345978 124.0
180.36618 60.0
180.394104 80.0
180.415482 96.0
180.48233 152.0
180.731094 56.0
180.846161 36.0
181.063812 1784.0
181.100601 856.0
181.12323 76.0
181.288071 112.0
181.448914 44.0
182.068787 424.0
182.11174 204.0
183.081451 212.0
183.36824 168.0
183.575836 184.0
183.80513 56.0
184.166901 40.0
184.369537 172.0
185.924072 124.0
187.17186 92.0
187.907806 48.0
188.030609 208.0
188.544052 116.0
189.003479 72.0
189.066483 164.0
189.449768 60.0
189.9487 208.0
190.077042 712.0
190.41806 64.0
191.020035 48.0
191.085159 1512.0
192.094193 1100.0
192.29512 64.0
192.38414 88.0
192.853745 80.0
192.895218 76.0
193.066238 208.0
193.099854 4684.0
193.137848 140.0
193.213242 44.0
193.240906 56.0
193.315628 52.0
193.528763 68.0
193.548157 32.0
193.700485 56.0
193.758652 44.0
193.861176 104.0
194.072495 164.0
194.100769 416.0
194.551834 168.0
195.07634 364.0
195.113037 192.0
195.238159 36.0
195.291 132.0
195.418976 148.0
195.441238 104.0
195.527496 100.0
195.711227 36.0
196.051086 180.0
196.081741 232.0
196.388443 28.0
196.541885 160.0
197.064148 188.0
197.097549 80.0
198.10759 152.0
198.160828 56.0
198.267303 192.0
198.539246 176.0
199.080887 152.0
199.106537 148.0
199.896133 44.0
199.929901 144.0
200.121323 252.0
200.887909 80.0
200.975372 36.0
201.05722 156.0
201.076965 48.0
202.023575 184.0
202.076248 3492.0
202.136749 68.0
202.173538 168.0
202.196182 44.0
203.084106 2364.0
203.341202 80.0
203.912094 120.0
204.086823 376.0
204.142365 48.0
204.341492 140.0
204.577698 112.0
205.0616 880.0
205.689468 48.0
205.718018 248.0
206.06958 1324.0
206.132172 60.0
206.492386 52.0
207.073837 528.0
207.414368 160.0
207.764236 140.0
208.079071 160.0
208.09111 220.0
208.143112 104.0
208.430359 60.0
208.752319 76.0
208.964523 140.0
209.095062 504.0
209.417145 116.0
209.814804 52.0
209.961868 56.0
210.013779 160.0
210.065811 1208.0
210.10321 168.0
210.334076 112.0
210.955154 160.0
211.070114 752.0
211.098114 272.0
211.183594 52.0
211.279053 40.0
211.736404 48.0
212.077026 180.0
212.536514 164.0
213.083755 176.0
213.262558 48.0
215.640961 100.0
217.544968 100.0
218.058746 176.0
218.070328 160.0
218.077347 152.0
218.089066 196.0
219.079742 276.0
220.084137 296.0
220.798019 128.0
221.093597 1484.0
222.098892 344.0
222.234756 100.0
223.072205 360.0
224.080444 1424.0
225.104294 192.0
226.081848 96.0
226.132721 128.0
227.106628 512.0
227.700806 40.0
231.089355 184.0
231.185989 52.0
232.088699 144.0
232.950653 212.0
233.811157 144.0
237.091232 164.0
238.094467 192.0
238.125168 180.0
238.254196 144.0
238.675262 208.0
239.065948 144.0
239.106155 1300.0
239.142883 176.0
240.104538 172.0
240.563934 76.0
241.115463 192.0
241.398163 72.0
241.902496 76.0
242.739044 40.0
245.079712 112.0
246.318298 56.0
246.640152 36.0
254.256302 120.0
255.565552 284.0
255.641922 44.0
256.130524 984.0
256.482758 108.0
256.744202 52.0
257.098328 56.0
257.131989 316.0
257.305817 68.0
258.927063 116.0
259.47821 112.0
276.169861 68.0
286.64682 80.0
292.836548 164.0
305.476929 72.0
317.965485 64.0
322.338745 112.0
326.468536 56.0
336.470673 76.0
338.656525 40.0
346.755188 76.0
354.286133 92.0
358.615082 60.0
380.560974 88.0
387.876038 64.0
391.687714 64.0
393.099213 36.0
428.185272 56.0
433.332428 92.0
437.831207 44.0
442.520691 92.0
454.220032 112.0
469.947296 60.0
550.756653 48.0
584.439514 56.0
660.920044 220.0
705.245605 92.0
730.457886 152.0
733.263245 200.0
737.051636 176.0
754.26416 108.0
762.288086 148.0
765.005188 128.0
765.363098 140.0
766.304993 40.0
778.813232 48.0
806.771484 144.0
815.040833 156.0
835.982239 164.0
839.075439 200.0
849.462158 184.0
849.549194 176.0
849.827637 96.0
851.302063 208.0
851.348511 176.0
852.400024 120.0
854.039551 188.0
868.103455 168.0
874.725159 148.0
876.191528 284.0
877.010681 144.0
880.350037 160.0
883.825928 124.0
885.376953 176.0
886.004822 88.0
888.008423 160.0
888.316895 148.0
888.488892 148.0
899.62384 108.0
906.6521 216.0
911.344849 248.0
916.067688 108.0
920.404175 156.0
920.579346 124.0
921.328308 200.0
930.740662 52.0
932.490295 96.0
934.831726 76.0
935.056946 132.0
935.982239 236.0
938.059875 216.0
939.053772 172.0
944.465515 176.0
949.555481 128.0
952.329773 216.0
954.259399 188.0
957.188293 152.0
964.443726 156.0
965.284546 192.0
969.320618 180.0
977.34967 148.0
977.611023 88.0
982.277771 172.0
982.377625 156.0
982.84552 108.0
983.182495 52.0
984.012756 208.0
984.837097 164.0
986.124207 160.0
987.162048 160.0
992.597595 96.0
994.109436 160.0
995.660095 88.0
998.934875 140.0
999.280884 144.0
1001.270142 192.0
1001.49054 40.0
1005.248169 180.0
1008.361694 164.0
1010.239746 144.0
1010.897766 200.0
1019.465393 184.0
1022.925476 160.0
1025.396851 176.0
1027.941528 80.0
1028.107422 124.0
1029.211792 176.0
1029.614136 184.0
1030.182617 200.0
1035.479004 172.0
1037.144897 40.0
1038.125854 128.0
1038.51709 128.0
1041.187134 208.0
1042.549072 188.0
1043.108276 188.0
1043.429688 208.0
1043.526245 176.0
1044.072754 112.0
1044.606689 132.0
1044.793213 236.0
1045.488159 84.0
1049.030762 132.0
1050.514038 168.0
1052.043457 208.0
1056.936157 144.0
1057.292114 192.0
1057.900513 164.0
1058.049438 160.0
1063.657104 132.0
1064.442627 212.0
1064.96228 200.0
1065.540405 208.0
1067.711548 152.0
1067.880615 208.0
1069.656982 192.0
1069.891357 164.0
1070.106201 196.0
1070.264526 212.0
1071.063599 216.0
1075.458496 140.0
1077.404419 160.0
1077.887939 140.0
1079.03833 172.0
1081.445679 216.0
1082.421265 132.0
1085.608765 152.0
1087.082153 176.0
1089.34082 132.0
1089.432739 200.0
1089.590454 148.0
1091.161255 168.0
1093.832153 212.0
1094.635376 152.0
1097.086548 176.0
1099.645386 192.0
1100.220215 168.0
1100.497559 212.0
1102.109131 116.0
1102.96167 132.0
1105.124268 176.0
1106.540771 80.0
1108.103882 116.0
1108.720093 144.0
1109.084595 116.0
1111.910156 160.0
1112.261963 56.0
1113.125122 60.0
1113.643066 188.0
1114.108154 164.0
1117.312622 172.0
1122.814819 168.0
1124.876587 176.0
1125.811279 112.0
1128.828247 152.0
1129.393799 44.0
1129.746094 216.0
1132.318726 176.0
1133.980347 184.0
1136.287109 88.0
1136.495117 60.0
1138.905273 244.0
1139.214355 72.0
1140.565063 232.0
1140.679321 140.0
1140.901123 168.0
1142.589233 120.0
1146.380127 204.0
1147.573242 212.0
1148.099243 176.0
1149.117798 148.0
1149.961426 176.0
1150.724243 148.0
1151.007812 160.0
1153.933594 224.0
1154.035034 128.0
1154.177002 116.0
1156.9375 136.0
1157.756836 124.0
1158.562866 132.0
1160.501221 160.0
1161.586426 288.0
1162.48877 160.0
1164.919556 148.0
1165.823242 180.0
1166.020264 124.0
1166.346558 200.0
1166.96521 204.0
1167.788086 216.0
1168.237061 208.0
1169.129395 136.0
1170.980225 156.0
1172.28833 172.0
1172.540527 168.0
1173.447144 40.0
1173.95166 72.0
1176.080444 156.0
1176.865479 180.0
1177.206909 204.0
1177.78064 76.0
1179.823853 156.0
1179.892212 196.0
1181.72522 204.0
1182.669678 112.0
1183.409058 196.0
1183.477539 256.0
1183.689819 136.0
1184.929565 236.0
1185.854614 176.0
1187.644287 124.0
1188.700806 204.0
1193.66748 132.0
1194.575317 156.0
1194.974365 156.0
1195.511108 164.0
1195.662476 56.0
1195.779541 160.0
1196.261353 152.0
1196.426636 100.0
1197.927856 156.0
1198.120728 152.0
1198.568604 140.0
1198.86499 72.0
1200.760864 224.0
1203.272705 156.0
1205.579834 188.0
1206.367798 116.0
1207.010864 36.0
1207.522583 172.0
1209.459961 140.0
1212.618408 260.0
1215.503418 184.0
1223.127808 184.0
1224.060669 52.0
1224.49939 164.0
1224.861694 200.0
1225.196045 84.0
1225.920654 160.0
1226.283081 176.0
1227.154541 176.0
1227.321899 160.0
1228.402832 180.0
1230.922485 184.0
1231.055176 156.0
1231.928223 176.0
1234.290649 192.0
1234.514404 160.0
1235.941528 252.0
1237.656494 220.0
1238.440796 140.0
1239.9823 160.0
1240.711304 200.0
1241.145996 156.0
1241.468628 232.0
1242.394409 116.0
1242.745239 200.0
1244.956421 168.0
1245.349731 152.0
1247.886719 148.0
1248.041382 76.0
1249.244019 196.0
1250.806274 132.0
1253.059937 204.0
1253.299438 52.0
1255.576416 104.0
1256.46521 128.0
1256.564087 160.0
1257.686157 140.0
1258.900513 104.0
1259.175903 156.0
1259.394897 236.0
1261.175537 100.0
1262.108643 208.0
1262.617798 164.0
1263.593994 172.0
1264.025635 152.0
1265.044922 132.0
1266.439819 140.0
1269.069092 164.0
1270.345703 164.0
1272.062988 232.0
1272.219238 148.0
1277.499512 156.0
1278.92981 192.0
1279.299927 140.0
1282.141968 120.0
1282.783569 196.0
1283.746094 140.0
1284.409424 152.0
1284.687622 96.0
1286.072021 212.0
1287.792725 172.0
1289.621948 184.0
1289.900757 136.0
1290.065186 168.0
1290.751465 200.0
1291.509644 104.0
1292.360962 188.0
1293.670654 184.0
1297.718628 216.0
1299.870605 208.0
1301.715454 140.0
1301.902222 236.0
1302.067383 48.0
1303.827515 140.0
1305.452271 128.0
1305.934204 104.0
1307.93457 100.0
1310.15979 208.0
1310.55603 140.0
1310.75061 108.0
1311.060425 164.0
1313.136841 176.0
1314.75293 204.0
1315.034424 200.0
1315.604736 200.0
1315.821289 168.0
1315.958496 64.0
1316.471191 176.0
1316.882812 216.0
1318.645752 40.0
1319.274658 124.0
1320.554565 244.0
1324.745728 188.0
1325.216675 184.0
1325.644287 184.0
1326.369019 168.0
1327.59436 196.0
1329.059692 60.0
1330.003174 140.0
1330.300781 164.0
1330.671021 160.0
1330.736328 124.0
1331.506104 196.0
1332.741089 180.0
1332.930054 160.0
1335.103638 160.0
1336.376709 56.0
1336.427612 208.0
1336.733276 136.0
1337.635742 148.0
1338.189087 252.0
1338.487549 180.0
1339.339722 184.0
1342.481079 164.0
1342.758179 132.0
1343.95459 188.0
1344.224487 196.0
1344.684326 172.0
1344.998169 180.0
1346.312378 232.0
1347.006348 176.0
1347.539673 200.0
1347.707642 164.0
1351.670898 168.0
1354.050171 216.0
1355.398193 212.0
1355.742554 164.0
1356.614868 176.0
1357.773315 172.0
1357.94104 216.0
1358.162109 204.0
1358.726929 236.0
1359.218628 212.0
1360.994995 164.0
1361.075684 164.0
1361.450317 172.0
1362.50061 132.0
1362.845947 72.0
1363.323608 176.0
1363.963135 156.0
1364.418823 120.0
1364.779175 136.0
1366.080933 148.0
1366.743164 136.0
1367.611572 156.0
1367.758789 252.0
1368.568604 80.0
1369.540649 208.0
1370.874268 120.0
1371.456543 160.0
1371.515503 64.0
1372.621338 176.0
1375.609497 160.0
1375.830933 68.0
1377.640381 52.0
1377.758545 220.0
1380.175415 204.0
1380.619141 136.0
1381.506714 132.0
1383.615967 168.0
1383.727051 100.0
1384.800781 176.0
1384.919312 116.0
1385.223022 132.0
1386.608643 156.0
1387.698364 132.0
1388.514038 172.0
1390.880981 144.0
1391.051758 152.0
1391.615967 160.0
1392.158081 168.0
1393.472778 160.0
1394.379395 108.0
1394.676758 208.0
1396.438965 232.0
1396.647217 36.0
1396.885254 176.0
1397.175415 108.0
1398.351074 156.0
1398.447876 212.0
1399.2146 172.0
1399.423096 148.0
1399.847534 204.0
1400.028198 204.0
1400.421021 220.0
1400.823242 188.0
1402.119751 148.0
1402.846436 100.0
1403.200684 200.0
1404.192505 156.0
1404.557983 124.0
1405.794556 156.0
1406.88623 164.0
1407.431274 168.0
1407.700073 160.0
1407.879395 164.0
1408.491821 168.0
1408.768188 196.0
1409.022217 140.0
1409.634888 160.0
1411.286865 100.0
1412.984741 148.0
1413.740479 156.0
1413.837769 116.0
1414.369263 96.0
1414.571289 116.0
1414.765991 168.0
1418.594116 136.0
1420.116333 168.0
1422.450073 124.0
1423.411011 84.0
1423.606323 56.0
1423.749023 184.0
1424.252197 160.0
1425.258911 176.0
1426.957642 188.0
1429.003418 128.0
1429.078735 72.0
1429.40979 168.0
1430.162354 148.0
1430.651733 212.0
1431.299194 104.0
1432.029785 180.0
1432.496704 132.0
1432.783081 132.0
1432.911133 96.0
1433.189941 144.0
1433.717407 212.0
1434.644531 220.0
1439.956787 180.0
1440.168335 144.0
1440.22876 104.0
1440.712158 52.0
1440.857666 132.0
1441.142822 64.0
1441.256226 144.0
1441.377075 140.0
1441.687378 156.0
1441.777588 108.0
1442.110229 196.0
1442.782959 160.0
1443.750854 216.0
1444.083618 220.0
1446.308228 120.0
1447.04248 152.0
1447.595337 140.0
1449.489136 236.0
1452.097046 176.0
1453.121094 156.0
1455.641235 172.0
1455.770264 164.0
1456.210815 164.0
1459.067993 148.0
1459.372192 132.0
1460.559814 172.0
1461.12146 172.0
1462.080322 204.0
1462.133545 196.0
1463.130737 168.0
1463.297485 204.0
1464.737671 148.0
1466.337769 184.0
1467.084717 80.0
1467.763306 224.0
1467.946411 160.0
1467.999756 168.0
1469.380371 272.0
1472.219971 176.0
1473.044922 132.0
1473.182373 40.0
1474.626587 144.0
1475.773315 168.0
1476.072388 184.0
1476.3927 208.0
1477.027588 216.0
1477.302979 72.0
1478.733887 152.0
1479.239014 132.0
1479.797974 108.0
1480.318604 52.0
1481.322021 248.0
1482.364014 120.0
1482.425293 176.0
1482.885132 212.0
1482.938843 236.0
1484.364746 200.0
1485.722412 132.0
1485.814453 140.0
1486.758301 176.0
1487.517456 168.0
1488.59314 172.0
1488.677612 148.0
1489.184448 184.0
1489.322754 100.0
1489.460938 60.0
1490.30603 132.0
1490.505859 144.0
1490.651855 144.0
1491.182129 212.0
1491.274414 188.0
1492.327515 100.0
1492.973511 136.0
1494.488892 128.0
1494.735229 216.0
1495.219971 152.0
1495.566406 204.0
1496.913696 96.0
1496.975342 172.0
1497.968872 144.0
1498.654541 180.0
1499.432861 128.0
1499.832397 160.0
1499.93396 152.0
1500.990234 236.0
1501.406616 188.0
1502.779663 244.0
1503.142334 136.0
1503.821533 136.0
1505.342407 128.0
