>compound MLS000863595-01!(E)-3-(4-hydroxyphenyl)-1-(2,4,6-trihydroxyphenyl)prop-2-en-1-one
>formula C15H12O5
>ionization [M+H]+
>parentmass 273.074707
#inchi InChI=1S/C15H12O5/c16-10-4-1-9(2-5-10)3-6-12(18)15-13(19)7-11(17)8-14(15)20/h1-8,16-17,19-20H/b6-3+
#inchikey YQHMWTPYORBCMF
#Ion_Source LC-ESI
#Instrument qTof
#Compound_Source NIH Natural Product Library
#PI Dorrestein
#Data_Collector VVP/LMS
#Scan -1
#Precursor_MZ 273.076
#ExactMass 272.068
#Charge 1
#CAS_Number N/A
#Pubmed_ID N/A
#Smiles Oc1ccc(/C=C/C(=O)c2c(O)cc(O)cc2O)cc1
#INCHI_AUX N/A
#Library_Class 1
#SpectrumID CCMSLIB00000079566
#IonMode Positive
#UpdateWorkflowName UPDATE-SINGLE-ANNOTATED-GOLD
#LibraryQualityString Gold
#TaskID b1d8e8f6646f4e71acdff9ca3d919d08
##Scan# 1897
#SpectrumFile p1-C08_GC8_01_17904.mzXML
#LibraryName NIH_Natural_Products_Library.mgf
#MQScore -1
#Organism NIH_Natural_Products_Library
#TIC_Query 0
#RT_Query -1
#MZErrorPPM -1
#SharedPeaks 0
#MassDiff 0
#LibMZ -1
#SpecMZ 273.076
#SpecCharge 0
#internalFilename spec-00000.mgf

>collision 10
94.99791 220.0
95.04731 176.0
96.064079 240.0
97.028595 424.0
99.994965 64.0
102.260574 152.0
102.869286 104.0
103.601318 44.0
103.850639 152.0
103.95208 104.0
104.887604 136.0
105.069092 140.0
105.649277 212.0
105.722931 216.0
106.857628 232.0
107.049049 188.0
108.250862 140.0
108.505714 124.0
111.00988 140.0
111.257454 96.0
111.83551 168.0
112.012383 116.0
112.075584 44.0
117.070953 220.0
119.049858 1136.0
119.119148 36.0
119.247337 56.0
119.998329 180.0
120.050659 312.0
120.260094 48.0
121.071198 204.0
121.428421 104.0
121.876236 72.0
122.893448 180.0
123.041183 128.0
123.578369 112.0
125.022896 172.0
125.054054 204.0
125.200989 140.0
127.042725 140.0
128.787216 108.0
130.641403 104.0
131.568909 124.0
133.328003 104.0
133.592422 116.0
136.983734 160.0
141.076324 128.0
143.874786 120.0
144.417206 256.0
145.353897 160.0
146.801987 156.0
146.980484 176.0
147.019104 64.0
147.043518 1848.0
147.284668 48.0
147.31366 68.0
147.555328 132.0
148.044281 196.0
149.765991 152.0
150.600128 148.0
150.68808 204.0
151.047424 188.0
152.059784 292.0
152.604675 144.0
152.83696 108.0
152.853088 200.0
152.944153 152.0
152.966293 96.0
153.018402 8304.0
153.086945 32.0
153.138321 60.0
153.242981 104.0
153.30864 88.0
153.325897 120.0
153.397369 56.0
153.574905 40.0
153.853745 228.0
154.020798 520.0
154.098236 208.0
155.021164 136.0
155.209549 104.0
155.340988 116.0
155.822586 72.0
157.066177 184.0
161.053558 180.0
161.692871 64.0
162.171555 64.0
169.061081 100.0
171.040024 104.0
172.03186 160.0
174.081909 160.0
177.027451 140.0
178.016556 112.0
180.904037 160.0
181.070038 132.0
186.253998 84.0
187.64183 152.0
189.050812 152.0
204.060349 152.0
213.050385 168.0
231.069946 248.0
239.899094 136.0
240.858749 148.0
248.090622 120.0
255.065277 128.0
273.074707 388.0
274.073151 168.0
286.524506 80.0
288.0513 260.0
305.040161 144.0
307.066559 48.0
308.068329 100.0
316.546387 20.0
324.020813 104.0
329.041382 144.0
329.18222 48.0
339.575989 20.0
347.054535 160.0
379.07254 20.0
750.681335 20.0
839.674377 160.0
906.275818 192.0
960.397339 64.0
966.356201 180.0
982.230835 236.0
1030.016724 132.0
1071.602051 136.0
1093.209961 172.0
1123.936768 80.0
1130.077026 148.0
1131.408813 212.0
1152.60144 176.0
1166.555908 92.0
1167.596191 236.0
1194.627319 188.0
1198.372437 204.0
1202.703125 176.0
1213.557007 228.0
1214.777588 156.0
1238.764282 140.0
1244.655396 164.0
1244.873047 40.0
1283.345337 132.0
1288.634033 48.0
1313.08313 212.0
1325.835815 168.0
1381.425293 104.0
1419.528931 176.0
1424.617554 148.0
1443.860352 156.0
1446.24353 160.0
1453.124146 204.0
1453.73877 200.0
1478.735352 156.0
1491.674805 144.0
1495.451416 144.0
