>compound Felodipine
>formula C18H19Cl2NO4 
>ionization [M+H]+
>parentmass 384.076569
#inchi InChI=1S/C18H19Cl2NO4/c1-5-25-18(23)14-10(3)21-9(2)13(17(22)24-4)15(14)11-7-6-8-12(19)16(11)20/h6-8,15,21H,5H2,1-4H3
#inchikey RZTAMFZIAATZDJ
#Ion_Source LC-ESI
#Instrument qTof
#Compound_Source Isolated
#PI Sirenas
#Data_Collector Ed Esquenazi 
#Scan -1
#Precursor_MZ 384.078
#ExactMass 0.0
#Charge 1
#CAS_Number N/A
#Pubmed_ID N/A
#Smiles N/A
#INCHI_AUX N/A
#Library_Class 3
#SpectrumID CCMSLIB00000004773
#IonMode Positive
#UpdateWorkflowName UPDATE-SINGLE-ANNOTATED-BRONZE
#LibraryQualityString Bronze
#TaskID d19310cd93df49b68e9fcbec27720eb5
##Scan# 1
#SpectrumFile Felodipine.mgf
#LibraryName fda_library.mgf
#MQScore -1
#Organism fda_library
#TIC_Query 0
#RT_Query -1
#MZErrorPPM -1
#SharedPeaks 0
#MassDiff 0
#LibMZ -1
#SpecMZ 384.078
#SpecCharge 0
#internalFilename spec-00000.mgf

>collision 10
107.17791 7.102273
112.039963 13.29493
112.308922 16.0
136.074921 43.930141
139.053009 45.363529
139.431763 9.426724
142.047882 194.946503
142.088593 7.375
142.167404 6.671875
150.056 19.232759
153.343491 8.2
155.213013 5.005952
156.06459 146.395996
166.085587 123.023903
168.08139 56.865459
174.01799 37.53146
178.04985 87.153236
179.048172 34.33638
179.075348 3.708333
180.075348 20.069441
182.077148 10.39167
190.341599 5.688889
194.891022 7.435606
196.281174 7.338235
196.994858 44.570679
197.711838 5.671875
198.971451 30.668699
206.080078 10.015
208.072632 8.333333
208.989944 264.870789
209.343689 6.972826
209.414642 8.355556
210.077972 98.799408
212.988892 29.473261
219.558151 5.208333
222.968384 81.667397
223.249008 12.18841
223.409821 5.003788
224.988495 16.20577
225.076736 17.120001
225.672852 11.80449
227.006348 18.489811
227.814957 8.462607
233.02684 8.422101
237.219894 17.36474
238.107697 465.955688
238.177536 6.72262
238.242355 20.3867
238.282043 19.032909
238.300278 27.56296
239.007523 16.398479
239.427216 2.337121
240.818054 2.337963
240.973129 35.406399
241.655579 6.352941
242.635422 13.01014
243.043564 139.980103
243.275284 13.00682
244.048355 113.072899
244.090164 3.42803
245.428589 6.061274
246.014114 19.77932
246.514587 12.72185
250.021118 246.081894
250.05571 4.673077
253.988449 35.418171
254.996262 87.983566
255.086884 4.033333
260.039978 15.18947
260.46756 2.854167
262.015137 32.962212
262.271088 1.720238
263.024567 31.840281
263.994202 52.101372
266.04541 19.22669
266.651276 17.445181
267.076538 6.120098
268.095093 24.35376
269.01178 49.99604
270.030701 77.779716
272.491028 16.410721
277.028656 81.110451
278.013489 883.757385
278.080353 2.669444
278.242828 4.017857
278.277649 10.34848
278.295044 6.815476
278.428558 11.33426
278.678223 7.681667
279.453827 28.30916
279.71875 7.681667
279.808228 36.781609
279.992676 28.00927
280.029327 248.216599
280.070343 24.32004
281.204376 2.695513
281.408691 15.7601
282.110718 51.912209
282.998505 28.24802
283.028107 4.041667
288.041443 151.400604
288.08316 2.347222
294.042938 26.75568
296.027496 19.18947
297.008728 40.910179
300.413025 4.481482
301.994049 26.438431
302.057098 309.016815
302.186859 2.003788
302.272186 3.402778
302.581177 3.926282
302.652863 13.85494
302.689819 17.15802
303.304413 5.013889
304.11911 11.79167
305.951019 10.79167
306.007385 1217.358032
306.252289 5.777778
306.383209 7.208333
306.525299 8.347222
306.564362 2.520833
306.669464 2.208333
306.709076 2.695513
306.751587 10.4422
308.059113 61.186798
310.014832 26.1131
311.017822 77.247841
316.072144 221.911697
316.274811 12.21894
316.540924 11.74167
319.700836 1.666667
320.072845 117.3993
320.114014 3.675
320.819855 4.734848
321.91748 4.763889
322.108521 4.458333
323.949646 23.05192
324.019745 765.047424
324.055725 23.0
324.122131 11.24008
324.274963 4.0
324.325073 15.0
324.364197 10.26096
324.425323 8.109649
324.47525 7.075
324.530701 5.019737
324.588287 5.160714
324.801392 6.025641
325.140045 7.162634
325.397308 6.070402
325.491425 9.88469
334.229584 1.6875
335.561859 8.307693
335.79599 3.375
335.834198 7.482143
335.852936 3.672619
335.908478 77.645737
335.949829 50.342079
335.979034 45.835079
336.021667 75.075081
336.051239 29.919439
336.076904 19.518591
336.100159 59.383839
336.15921 20.566669
336.183716 54.120789
336.239105 59.07888
336.283905 40.719841
336.317719 9.251985
336.368439 33.32716
336.403442 2.520833
336.427368 20.33877
336.644409 17.096609
336.721008 8.041667
336.810455 34.449451
336.886993 11.36333
336.932709 19.027691
337.077148 56.34111
337.393982 9.897988
337.455231 29.577221
337.666443 6.001344
337.752289 14.2803
337.779205 15.12484
337.985413 69.16407
338.035217 30928.630859
338.107178 21.66987
338.144989 29.78277
338.171661 23.78915
338.215485 53.31604
338.241486 116.245697
338.292816 180.798401
338.335632 38.015869
338.371643 27.369169
338.396759 204.489807
338.433411 50.238972
338.472351 153.768707
338.495941 89.038757
338.519897 44.068481
338.564178 72.890472
338.597321 82.938232
338.620483 55.843159
338.658264 98.461357
338.700623 130.8255
338.827454 115.899902
338.846954 38.923962
338.87558 80.343857
338.89386 25.350941
338.914124 58.423111
338.946167 71.17746
338.965424 7.708333
339.638214 7.711957
340.010834 33.93129
340.067963 10.67045
340.112579 25.06382
340.348389 8.59375
340.440155 9.067308
340.674683 21.911619
340.753265 4.844298
340.774048 5.742284
340.799622 2.672619
341.032928 101.7397
341.107483 33.12051
341.586029 16.26911
341.712311 11.34667
341.848541 30.382851
341.885956 2.337963
342.231232 12.00119
342.458679 7.338889
343.440338 4.387821
344.573578 6.805555
345.542938 11.66764
347.201324 4.963235
347.609009 5.522727
347.712708 7.344048
348.102509 192.023102
348.308685 1.708333
348.387695 14.50785
348.420166 5.37037
348.856354 12.07419
349.589966 3.35
349.722565 9.523809
349.772156 30.48241
349.829132 33.14349
349.856689 39.442509
349.885834 49.34095
349.908813 13.39701
349.963165 69.748703
350.022491 91.425308
350.072601 40.43449
350.117096 39.018822
350.134583 31.934099
350.1828 11.8652
350.213501 30.043871
350.249146 3.041667
350.398254 23.648029
350.553345 6.053572
350.651062 16.006359
350.794098 9.921875
350.988373 106.070297
351.337067 9.815
351.45932 8.75
351.575012 19.48707
351.683807 13.13524
351.909607 12.81333
352.051025 25549.660156
352.138428 60.46944
352.195618 23.638889
352.220062 19.488501
352.246063 69.040894
352.275574 94.088959
352.314819 142.521805
352.368774 113.489403
352.400421 45.028358
352.424011 92.353859
352.467133 72.876518
352.503754 89.879997
352.529877 17.686331
352.556824 52.019348
352.600342 107.327003
352.647583 61.929611
352.674622 23.00765
352.698669 62.276192
352.748322 84.568466
352.850464 100.466698
352.944702 34.113621
353.200073 46.86211
353.488129 45.060692
353.799805 2.375
353.912872 31.75124
353.964569 11.00595
354.163666 4.681667
354.321747 1.666667
354.355499 15.15385
354.616486 7.666667
354.675354 6.454545
354.812775 11.22687
355.023071 62.914661
355.1539 3.002778
355.257599 17.5
355.580383 2.053571
355.713531 11.29412
355.973877 15.02083
356.038239 67.3367
356.088776 2.583333
356.229919 6.33477
356.47406 22.25
356.558289 17.66667
357.36676 5.690476
360.13327 2.333333
362.197021 2.4
363.575439 5.678764
372.012909 4.075
378.02948 12.88889
381.536774 24.006399
381.618195 12.43561
381.645416 34.515518
381.667633 46.76458
381.706268 10.83
381.754791 12.33333
381.778015 30.79372
381.825867 6.428572
381.855835 5.008333
381.903412 4.673077
381.923798 20.397659
381.998596 11.49038
382.088287 12.15
382.543274 24.08333
382.699524 13.04545
382.849091 15.36134
383.271149 5.688889
383.450653 8.775641
383.864288 67.047768
384.076569 10053.709961
384.160461 44.253891
384.184509 19.33654
384.210815 60.143761
384.238892 7.017857
384.276215 34.410549
384.297821 12.46667
384.328156 77.745293
384.376923 24.223551
384.416901 39.05043
384.459412 89.171547
384.492584 101.706902
384.518097 17.066669
384.546021 15.35088
384.585663 31.38822
384.607086 18.668209
384.634491 25.0068
384.664795 27.542049
384.688782 29.152849
384.7453 43.976688
384.899658 74.01622
384.938721 43.690022
385.028809 44.4785
385.11911 31.06963
385.345337 2.367424
385.849915 17.33333
386.684143 16.505381
386.923553 17.000641
387.327423 16.33333
388.115875 8.818548
388.98819 6.906746
389.35672 24.29697
389.823883 7.388158
390.098206 3.125
390.542328 6.226852
390.572632 2.695513
396.714478 6.898148
398.66507 2.333333
403.577179 6.033602
427.796875 9.204166
435.058929 5.160714
548.002686 33.58865
611.765381 2.367424
634.473511 5.121212
739.460571 6.875
