>compound MLS001048999-01!1-methyl-3,4-dihydro-2H-pyrido[3,4-b]indole
>formula C12H12N2
>ionization [M+H]+
>parentmass 185.107391
#inchi InChI=1S/C12H12N2/c1-8-12-10(6-7-13-8)9-4-2-3-5-11(9)14-12/h2-5,14H,6-7H2,1H3
#inchikey CWOYLIJQLSNRRN
#Ion_Source LC-ESI
#Instrument qTof
#Compound_Source NIH Natural Product Library
#PI Dorrestein
#Data_Collector VVP/LMS
#Scan -1
#Precursor_MZ 185.108
#ExactMass 184.1
#Charge 1
#CAS_Number N/A
#Pubmed_ID N/A
#Smiles CC1=NCCc2c1[nH]c3ccccc23
#INCHI_AUX N/A
#Library_Class 1
#SpectrumID CCMSLIB00000080415
#IonMode Positive
#UpdateWorkflowName UPDATE-SINGLE-ANNOTATED-GOLD
#LibraryQualityString Gold
#TaskID b1d8e8f6646f4e71acdff9ca3d919d08
##Scan# 1349
#SpectrumFile p2-E08_GE8_01_18032.mzXML
#LibraryName NIH_Natural_Products_Library.mgf
#MQScore -1
#Organism NIH_Natural_Products_Library
#TIC_Query 0
#RT_Query -1
#MZErrorPPM -1
#SharedPeaks 0
#MassDiff 0
#LibMZ -1
#SpecMZ 185.108
#SpecCharge 0
#internalFilename spec-00000.mgf

>collision 10
94.974731 156.0
95.279503 188.0
95.615898 224.0
96.167465 80.0
96.478058 176.0
96.523026 160.0
96.787186 152.0
96.834869 252.0
96.879234 140.0
97.03994 72.0
97.389252 180.0
97.499275 120.0
97.58773 176.0
97.78051 112.0
97.800194 156.0
97.821846 200.0
98.091721 196.0
98.162697 168.0
98.328407 92.0
98.533775 168.0
98.966919 160.0
99.111511 136.0
99.129349 148.0
99.436737 228.0
99.516144 60.0
99.547913 220.0
99.59359 216.0
99.891754 136.0
99.907669 204.0
100.035034 204.0
100.389175 204.0
100.591194 80.0
100.728981 200.0
100.82489 100.0
100.940437 140.0
100.996834 172.0
101.038704 200.0
101.116882 140.0
101.188942 136.0
101.259033 148.0
101.283066 180.0
101.347176 204.0
101.535606 152.0
101.959213 156.0
102.04274 348.0
102.095886 212.0
102.172356 156.0
102.22467 164.0
102.347458 228.0
102.434059 52.0
102.522713 84.0
102.577133 220.0
102.621483 160.0
102.819168 112.0
103.05294 1236.0
103.073944 200.0
103.237358 308.0
103.322311 64.0
103.346588 76.0
103.42942 172.0
103.68071 120.0
103.778008 52.0
103.792206 196.0
103.808426 260.0
103.887527 172.0
103.99913 268.0
104.017403 196.0
104.031609 88.0
104.052269 160.0
104.200172 56.0
104.332275 160.0
104.537704 236.0
104.66391 204.0
104.825623 196.0
104.949173 136.0
105.051147 388.0
105.071548 76.0
105.614929 136.0
105.663078 148.0
106.065407 136.0
106.12281 128.0
106.202789 72.0
106.43058 160.0
106.658623 160.0
106.747025 56.0
106.987755 144.0
107.344208 216.0
107.387512 56.0
107.422577 144.0
107.552582 108.0
107.628967 204.0
107.674393 68.0
107.864487 48.0
107.912033 44.0
107.959595 84.0
107.986481 192.0
108.04026 156.0
108.120956 184.0
108.143723 200.0
108.288658 124.0
108.334229 132.0
108.885971 164.0
108.910896 172.0
108.952438 128.0
109.233086 120.0
109.701622 60.0
109.828819 164.0
110.060471 72.0
110.30909 132.0
110.518227 180.0
110.786209 136.0
110.953865 228.0
111.018867 140.0
111.48912 132.0
111.680443 164.0
111.831932 140.0
112.114151 140.0
112.162628 116.0
112.485359 180.0
112.590935 172.0
112.652184 136.0
112.776855 184.0
113.040009 344.0
113.064499 88.0
113.284698 196.0
113.61541 144.0
113.770332 156.0
113.806427 208.0
113.846771 76.0
114.031601 164.0
114.061363 104.0
114.365532 128.0
114.401718 188.0
114.667976 232.0
114.840675 124.0
114.964417 180.0
114.994293 176.0
115.055092 9928.0
115.141251 176.0
115.314934 64.0
115.456558 152.0
115.481438 160.0
115.500687 136.0
115.569145 56.0
115.958885 48.0
116.055367 1792.0
116.108055 160.0
116.14328 132.0
116.161873 168.0
116.319237 244.0
116.4674 196.0
116.632843 156.0
116.658638 80.0
116.677994 100.0
116.71669 160.0
116.802719 44.0
116.893082 132.0
116.953339 44.0
117.065331 1664.0
117.112671 112.0
117.231163 52.0
117.403625 100.0
117.47049 44.0
117.571899 52.0
117.658241 164.0
117.742455 88.0
117.960678 304.0
118.019936 108.0
118.062813 792.0
118.321442 184.0
118.805237 184.0
119.022278 32.0
119.061363 152.0
119.18084 240.0
119.776939 112.0
119.809616 160.0
120.20208 100.0
120.370155 212.0
120.608292 124.0
120.634521 236.0
120.870728 248.0
120.932007 224.0
121.33567 232.0
121.576347 224.0
121.727821 148.0
122.37648 196.0
122.422722 252.0
122.645241 60.0
122.936363 232.0
123.455513 212.0
123.555046 44.0
123.895981 48.0
123.931427 124.0
123.977966 160.0
124.024506 184.0
124.348335 124.0
124.399384 84.0
124.472649 192.0
124.886017 160.0
125.030632 76.0
125.326797 224.0
125.351311 204.0
125.420395 224.0
125.578705 188.0
125.739342 140.0
125.886688 124.0
126.047394 348.0
126.186104 160.0
126.264366 220.0
126.418732 92.0
126.673973 212.0
126.718781 164.0
126.893539 168.0
126.969833 192.0
127.053642 808.0
127.165024 188.0
127.221146 192.0
127.372749 148.0
128.050674 1628.0
128.156738 92.0
128.258163 72.0
128.510742 140.0
128.709366 184.0
128.745499 96.0
128.899109 144.0
128.960129 176.0
129.059204 648.0
129.272217 52.0
129.312958 52.0
129.711609 184.0
129.818161 172.0
129.920242 200.0
129.949722 132.0
130.020081 140.0
130.066971 2652.0
130.326019 224.0
130.369812 76.0
130.387985 176.0
130.45163 120.0
130.538025 92.0
130.799667 40.0
130.842926 176.0
130.890732 76.0
131.048416 176.0
131.068008 328.0
131.091888 236.0
131.212006 56.0
131.524521 40.0
132.061478 188.0
132.090591 232.0
132.237656 124.0
132.386459 188.0
132.663712 220.0
132.874695 212.0
132.899933 144.0
132.964188 128.0
133.056 132.0
133.078964 164.0
133.623672 124.0
133.823914 168.0
133.936752 180.0
133.971313 128.0
134.287109 252.0
134.679474 152.0
134.799622 140.0
134.942932 104.0
134.96373 48.0
135.012299 268.0
135.063171 60.0
135.225143 188.0
135.347839 156.0
135.537781 176.0
135.876282 136.0
136.577835 132.0
136.642975 132.0
136.694168 172.0
136.77562 84.0
137.013153 44.0
137.493484 168.0
137.563507 188.0
137.839111 40.0
139.051697 808.0
139.134354 224.0
139.272888 52.0
139.392715 116.0
139.665421 116.0
139.844254 228.0
140.050659 632.0
140.301239 188.0
140.489899 168.0
140.955017 148.0
141.068939 1364.0
141.141754 48.0
141.231628 172.0
141.560593 112.0
141.629272 64.0
141.66954 244.0
141.690872 160.0
141.716934 140.0
141.754837 160.0
141.854385 68.0
141.911285 72.0
141.942169 140.0
141.968185 44.0
142.01088 96.0
142.065308 4556.0
142.122375 196.0
142.17392 156.0
142.193573 36.0
142.325607 148.0
142.516525 40.0
142.594955 148.0
142.669632 200.0
142.789902 148.0
143.013641 112.0
143.073151 9852.0
143.120636 176.0
143.164337 60.0
143.201645 32.0
143.325531 56.0
143.358887 64.0
143.382721 60.0
143.47197 116.0
143.637848 172.0
143.711792 148.0
143.738052 156.0
143.769073 68.0
143.804871 104.0
143.835892 56.0
143.912292 68.0
143.948105 132.0
144.009872 236.0
144.080688 24476.0
144.139999 84.0
144.166443 80.0
144.241257 132.0
144.265152 92.0
144.30983 64.0
144.361511 64.0
144.722839 116.0
144.773132 124.0
144.792282 136.0
144.823425 104.0
144.986343 196.0
145.005508 56.0
145.083725 2932.0
145.203217 156.0
145.321793 188.0
145.355637 28.0
145.50206 112.0
145.527069 76.0
145.653351 36.0
145.90567 80.0
145.934525 48.0
145.965775 100.0
146.065826 576.0
146.083206 296.0
146.14859 40.0
146.235214 56.0
146.401337 44.0
146.442276 56.0
146.475998 160.0
146.594055 204.0
146.934036 176.0
147.052277 96.0
147.084854 40.0
147.115036 120.0
147.581314 176.0
147.857086 76.0
148.259109 212.0
148.280914 148.0
148.411819 136.0
148.569473 172.0
149.456268 212.0
149.760574 208.0
150.011551 212.0
150.260254 176.0
150.575195 124.0
150.604507 156.0
150.765747 188.0
151.125214 116.0
151.213303 180.0
151.573303 152.0
151.855225 140.0
152.056412 160.0
152.21843 116.0
153.055283 784.0
153.128357 96.0
153.379669 72.0
153.483215 212.0
153.628738 44.0
153.92984 72.0
154.064346 680.0
154.349915 132.0
154.540375 136.0
154.697372 148.0
154.765625 136.0
154.825043 84.0
155.008362 84.0
155.059814 1440.0
155.335632 116.0
155.430649 108.0
155.449753 228.0
155.879364 124.0
156.080505 1136.0
156.120483 40.0
156.287155 148.0
156.478806 192.0
156.533585 128.0
156.927277 204.0
157.084579 716.0
157.251572 68.0
157.756134 44.0
158.013718 112.0
158.095276 1504.0
158.133835 164.0
158.2565 80.0
158.491943 96.0
158.649841 88.0
158.953323 148.0
158.985947 48.0
159.093872 508.0
159.11145 192.0
159.237 168.0
159.314865 168.0
159.382706 36.0
159.46312 64.0
159.598877 160.0
159.676834 140.0
160.036682 48.0
160.366684 112.0
160.427185 148.0
160.825745 44.0
161.04541 164.0
161.169189 44.0
162.054764 120.0
162.176407 140.0
162.338669 164.0
162.627884 108.0
162.836075 192.0
163.102859 152.0
163.600662 180.0
163.965698 188.0
164.514099 220.0
165.027618 148.0
165.081314 168.0
165.864761 144.0
165.916031 184.0
165.980118 128.0
166.000641 160.0
166.064911 844.0
166.572983 116.0
166.593521 160.0
166.66803 52.0
166.709152 88.0
166.801682 108.0
166.891663 128.0
166.943085 128.0
166.981659 176.0
167.025391 132.0
167.073456 8944.0
167.106354 144.0
167.31102 72.0
167.434616 208.0
167.46553 160.0
167.558258 44.0
167.635559 60.0
167.692261 196.0
167.743805 176.0
167.787643 188.0
167.890778 112.0
168.03006 132.0
168.080154 6348.0
168.127289 112.0
168.192047 52.0
168.198715 80.0
168.249435 92.0
168.283005 72.0
168.430206 52.0
168.463776 60.0
168.600723 68.0
168.634323 104.0
168.669846 156.0
168.753235 56.0
168.916168 40.0
168.984131 116.0
169.00412 48.0
169.037766 184.0
169.076385 12384.0
169.12619 180.0
169.149048 156.0
169.202438 100.0
169.255203 208.0
169.278503 52.0
169.306992 64.0
169.349197 168.0
169.368866 72.0
169.524597 100.0
169.614014 128.0
169.708633 28.0
169.734573 88.0
169.918716 36.0
169.966675 116.0
170.082474 6368.0
170.149704 48.0
170.184265 268.0
170.256165 68.0
170.344467 84.0
170.370453 44.0
170.525299 76.0
170.544556 32.0
170.65033 64.0
170.669342 88.0
170.713547 96.0
170.760361 84.0
170.885223 80.0
170.994507 112.0
171.088425 788.0
171.130951 116.0
171.335632 120.0
171.411179 84.0
171.525864 68.0
172.094589 120.0
172.758408 100.0
173.237473 144.0
173.554596 132.0
174.497177 64.0
174.620773 224.0
174.710205 52.0
174.81546 220.0
175.055008 88.0
176.194458 52.0
176.442886 148.0
177.953049 160.0
178.864899 116.0
179.109879 84.0
179.229767 100.0
180.150208 172.0
180.206314 52.0
181.042633 172.0
181.075699 148.0
182.081436 300.0
182.102921 100.0
182.239929 200.0
182.877258 76.0
183.044174 196.0
183.091339 2100.0
183.631668 56.0
183.677521 40.0
183.852905 168.0
183.960861 148.0
184.039154 140.0
184.096985 828.0
184.525497 124.0
184.961029 164.0
185.02594 184.0
185.061203 136.0
185.107391 12288.0
185.226395 140.0
185.359146 44.0
185.429611 56.0
185.561569 88.0
185.798386 160.0
185.830704 44.0
186.039917 200.0
186.110229 1816.0
186.151245 60.0
186.229996 60.0
186.637634 68.0
186.672989 52.0
187.112427 340.0
187.190018 124.0
187.347992 104.0
187.39975 80.0
187.448792 104.0
187.50058 168.0
187.601425 72.0
188.698914 36.0
189.166718 60.0
193.184479 44.0
203.637894 48.0
214.693222 104.0
223.781235 84.0
239.506943 196.0
252.017502 48.0
265.725342 88.0
284.483185 120.0
322.583099 44.0
323.040833 72.0
345.237854 92.0
347.267395 72.0
374.94751 132.0
403.880859 108.0
408.803619 44.0
421.018311 100.0
422.964447 60.0
433.280243 60.0
433.918457 136.0
446.277191 80.0
467.009735 84.0
469.654358 92.0
477.493805 100.0
479.653412 84.0
677.563416 68.0
724.777771 44.0
724.884949 148.0
738.289246 56.0
747.712646 104.0
758.09967 124.0
792.008057 120.0
795.299316 224.0
822.309143 192.0
842.839417 160.0
847.288635 92.0
852.382812 176.0
859.521729 136.0
865.313965 92.0
902.268433 96.0
912.243835 140.0
922.878601 164.0
927.34613 112.0
927.812927 156.0
928.801331 104.0
931.605774 164.0
933.489929 20.0
942.951355 168.0
947.062805 52.0
949.367188 152.0
959.85791 264.0
968.392334 176.0
980.332886 48.0
980.663208 164.0
986.355652 284.0
1000.224426 212.0
1013.296448 76.0
1016.650757 184.0
1029.427002 148.0
1041.19751 72.0
1042.842163 168.0
1045.099365 124.0
1050.852905 160.0
1064.841675 196.0
1066.257935 240.0
1070.02417 116.0
1072.388794 156.0
1073.340576 96.0
1074.403687 188.0
1074.488525 164.0
1074.579834 140.0
1076.642456 164.0
1080.518555 156.0
1084.781738 68.0
1088.60022 72.0
1090.019165 168.0
1093.491333 168.0
1098.578125 196.0
1106.541504 164.0
1112.853394 136.0
1116.461426 160.0
1117.658813 140.0
1118.98999 72.0
1124.295776 152.0
1127.140503 148.0
1129.814819 120.0
1137.823364 148.0
1138.125488 160.0
1140.234863 200.0
1147.895752 188.0
1148.367798 160.0
1150.770142 48.0
1151.560181 164.0
1153.627808 152.0
1165.576416 216.0
1172.578857 152.0
1172.810547 136.0
1174.174194 40.0
1175.067749 128.0
1175.238281 144.0
1175.872925 168.0
1176.036743 140.0
1177.497803 152.0
1177.648071 188.0
1181.133911 60.0
1184.405762 128.0
1190.736328 120.0
1194.213989 192.0
1198.854248 136.0
1199.074707 52.0
1200.68103 176.0
1203.924561 200.0
1204.028198 64.0
1207.725708 224.0
1209.102539 172.0
1209.663208 156.0
1210.217041 152.0
1213.917114 188.0
1214.492798 168.0
1217.352051 156.0
1218.053589 124.0
1220.353882 148.0
1222.092651 116.0
1223.477539 112.0
1225.128052 220.0
1229.974487 128.0
1234.935303 180.0
1239.611816 156.0
1240.172485 132.0
1241.209961 140.0
1242.732056 148.0
1246.066895 220.0
1248.365356 208.0
1248.456787 156.0
1253.617554 168.0
1256.176147 192.0
1257.206177 188.0
1258.907471 36.0
1262.256958 160.0
1264.952515 148.0
1266.864502 108.0
1267.020264 172.0
1267.402832 148.0
1270.004639 164.0
1271.57251 160.0
1274.590576 160.0
1277.640747 132.0
1278.181519 168.0
1278.245483 76.0
1278.757935 208.0
1279.199219 68.0
1283.594971 180.0
1283.951538 128.0
1285.827881 152.0
1291.915527 236.0
1292.473633 264.0
1294.30603 164.0
1294.99353 152.0
1295.108032 204.0
1297.56604 120.0
1298.777832 184.0
1299.925781 224.0
1300.50708 272.0
1301.081299 136.0
1301.978882 120.0
1302.21582 180.0
1302.431274 96.0
1302.517578 188.0
1303.972778 184.0
1306.651001 160.0
1307.579224 188.0
1311.619873 140.0
1311.684692 164.0
1312.319092 200.0
1313.645996 56.0
1315.536743 212.0
1315.652222 172.0
1316.468018 200.0
1318.180054 136.0
1318.635376 160.0
1321.650879 168.0
1323.07666 156.0
1324.966797 196.0
1326.19873 160.0
1326.452393 260.0
1328.352173 168.0
1328.613281 148.0
1329.251831 160.0
1330.420288 152.0
1331.770996 196.0
1332.279419 144.0
1333.457275 208.0
1335.877808 220.0
1335.950562 180.0
1339.189697 156.0
1340.326172 132.0
1341.973389 156.0
1343.847778 168.0
1346.344238 180.0
1347.768677 176.0
1347.907471 176.0
1348.250854 132.0
1349.201172 124.0
1349.288818 208.0
1349.559326 56.0
1350.16626 140.0
1350.43689 116.0
1351.358643 204.0
1352.624634 204.0
1354.059692 148.0
1355.074463 128.0
1356.001221 228.0
1357.02002 136.0
1357.247314 248.0
1359.036987 192.0
1361.540161 164.0
1361.723755 148.0
1362.77417 176.0
1364.442505 224.0
1370.146118 144.0
1371.266113 212.0
1371.568237 40.0
1372.062134 160.0
1374.016479 184.0
1374.075562 148.0
1375.167603 172.0
1377.656006 144.0
1381.7146 164.0
1382.928101 140.0
1383.253784 212.0
1386.149658 168.0
1386.527588 244.0
1390.977661 160.0
1391.467651 132.0
1391.86853 112.0
1392.960327 224.0
1394.72876 32.0
1395.829102 140.0
1399.072998 212.0
1405.221313 244.0
1405.736206 184.0
1405.855591 228.0
1406.915405 176.0
1407.042358 176.0
1407.214111 204.0
1409.297852 132.0
1411.323364 48.0
1414.757446 204.0
1419.02771 180.0
1419.44751 80.0
1419.95752 204.0
1422.643677 164.0
1423.141357 188.0
1424.235596 120.0
1425.175659 124.0
1427.474731 240.0
1428.234253 40.0
1433.376099 108.0
1433.639893 64.0
1435.124878 180.0
1436.135376 40.0
1436.391846 84.0
1436.95752 196.0
1438.783936 196.0
1442.024414 164.0
1442.508179 128.0
1442.833252 176.0
1444.103638 180.0
1444.875122 116.0
1446.350708 180.0
1447.092651 160.0
1450.031738 92.0
1450.706299 244.0
1452.245605 40.0
1452.897949 176.0
1455.136719 188.0
1456.154175 208.0
1456.389648 164.0
1457.529175 164.0
1458.387939 176.0
1461.604736 108.0
1461.680908 136.0
1463.126953 188.0
1464.093506 176.0
1464.276733 196.0
1464.535645 160.0
1466.973999 184.0
1468.422729 156.0
1469.460205 100.0
1470.612427 192.0
1470.910034 216.0
1471.337524 208.0
1472.307251 212.0
1473.269653 144.0
1476.151123 208.0
1476.839355 32.0
1477.015259 172.0
1477.283081 212.0
1478.323608 148.0
1478.905151 164.0
1479.150146 212.0
1479.37207 224.0
1479.647705 124.0
1480.244873 164.0
1480.888184 184.0
1481.010742 144.0
1483.079468 156.0
1483.363159 136.0
1483.562378 200.0
1484.881226 180.0
1485.088379 248.0
1485.824707 196.0
1486.822266 144.0
1488.687622 156.0
1489.578613 156.0
1490.830933 140.0
1493.590942 168.0
1495.106689 160.0
1496.122681 108.0
1503.375488 156.0
1503.892578 168.0
