>compound Nateglinide (Starlix)
>formula C19H27NO3
>ionization [M+H]+
>parentmass 318.206116
#inchi InChI=1S/C19H27NO3/c1-13(2)15-8-10-16(11-9-15)18(21)20-17(19(22)23)12-14-6-4-3-5-7-14/h3-7,13,15-17H,8-12H2,1-2H3,(H,20,21)(H,22,23)/t15-,16-,17-/m1/s1
#inchikey OELFLUMRDSZNSF
#Ion_Source LC-ESI
#Instrument qTof
#Compound_Source Commercial
#PI Dorrestein
#Data_Collector Garg_Neha
#Scan -1
#Precursor_MZ 318.206
#ExactMass 317.199
#Charge 1
#CAS_Number 105816-04-4
#Pubmed_ID N/A
#Smiles C1[C@H](CC[C@@H](C1)C(N[C@H](CC2=CC=CC=C2)C(=O)O)=O)C(C)C
#INCHI_AUX N/A
#Library_Class 1
#SpectrumID CCMSLIB00000078488
#IonMode Positive
#UpdateWorkflowName UPDATE-SINGLE-ANNOTATED-GOLD
#LibraryQualityString Gold
#TaskID 77f51c88eb8b467eb4a01dd2d0cb90d2
##Scan# 2005
#SpectrumFile Plate7_61_80_GD5_01_15771.mzXML
#LibraryName FDALibrary_2_04302014.mgf
#MQScore -1
#Organism FDALibrary_2_04302014
#TIC_Query 0
#RT_Query -1
#MZErrorPPM -1
#SharedPeaks 0
#MassDiff 0
#LibMZ -1
#SpecMZ 318.206
#SpecCharge 0
#internalFilename spec-00000.mgf

>collision 10
45.088264 172.0
46.000313 148.0
46.186798 160.0
49.669674 188.0
58.079651 164.0
60.103802 156.0
61.79126 184.0
62.464287 164.0
69.683876 140.0
69.99659 188.0
72.44046 188.0
77.580162 140.0
78.143936 152.0
80.340904 196.0
87.941322 192.0
91.048851 256.0
91.084114 148.0
96.015808 176.0
97.285728 200.0
103.054771 252.0
104.054688 140.0
105.300949 248.0
107.050354 192.0
107.716553 148.0
108.853622 192.0
113.537949 140.0
113.845673 164.0
120.01133 140.0
120.033134 156.0
120.080139 9176.0
121.083511 988.0
122.058693 152.0
122.950897 172.0
123.375 148.0
125.069817 160.0
125.13134 9064.0
126.135559 756.0
127.141754 176.0
130.180481 172.0
131.048706 288.0
139.049271 156.0
139.378036 140.0
143.091629 148.0
147.939011 144.0
148.639465 168.0
149.058456 568.0
149.083862 140.0
153.125824 1656.0
154.095108 244.0
165.408829 168.0
165.567581 152.0
165.828918 140.0
166.085464 24392.0
166.900894 148.0
167.088333 1272.0
168.086319 308.0
169.729523 164.0
209.082718 184.0
240.291733 156.0
242.075256 176.0
272.141876 140.0
272.200897 2360.0
273.205322 436.0
291.067169 152.0
296.039124 172.0
300.193756 1060.0
301.192139 384.0
315.555542 144.0
318.206116 7508.0
319.207306 1768.0
320.213867 124.0
321.12735 156.0
1281.454102 172.0
1433.87793 140.0
1465.547119 180.0
1493.736694 184.0
1503.421875 188.0
1503.869507 216.0
1540.248413 192.0
1578.406006 244.0
1678.210449 172.0
1678.626343 148.0
1701.783447 220.0
1752.770996 196.0
1756.397583 176.0
1764.372803 192.0
1800.277588 256.0
1802.972534 208.0
1807.776123 152.0
1817.130859 196.0
1846.922241 208.0
1858.393433 148.0
1875.403931 152.0
1879.189819 148.0
1912.276367 156.0
1947.803223 140.0
1957.495483 192.0
1977.244263 196.0
