>compound MLS001148397-01!PHENOLPHTHALEIN77-09-8
>formula C20H14O4
>ionization [M+H]+
>parentmass 319.095978
#inchi InChI=1S/C20H14O4/c21-15-9-5-13(6-10-15)20(14-7-11-16(22)12-8-14)18-4-2-1-3-17(18)19(23)24-20/h1-12,21-22H
#inchikey KJFMBFZCATUALV
#Ion_Source LC-ESI
#Instrument qTof
#Compound_Source NIH Pharmacologically Active Library
#PI Dorrestein
#Data_Collector VP/LMS
#Scan -1
#Precursor_MZ 319.098
#ExactMass 318.089
#Charge 1
#CAS_Number N/A
#Pubmed_ID N/A
#Smiles Oc1ccc(cc1)C2(OC(=O)c3ccccc32)c4ccc(O)cc4
#INCHI_AUX N/A
#Library_Class 1
#SpectrumID CCMSLIB00000085119
#IonMode Positive
#UpdateWorkflowName UPDATE-SINGLE-ANNOTATED-GOLD
#LibraryQualityString Gold
#TaskID d252d724072548979f1f6f1ced849daf
##Scan# 1902
#SpectrumFile p3-F02_GF2_01_18283.mzXML
#LibraryName Pharm_Active_Library.mgf
#MQScore -1
#Organism Pharm_Active_Library
#TIC_Query 0
#RT_Query -1
#MZErrorPPM -1
#SharedPeaks 0
#MassDiff 0
#LibMZ -1
#SpecMZ 319.098
#SpecCharge 0
#internalFilename spec-00000.mgf

>collision 10
45.050663 164.0
45.084068 176.0
45.197742 148.0
45.48859 156.0
45.865261 116.0
45.892223 164.0
46.062283 200.0
46.487442 180.0
47.235489 192.0
47.246433 212.0
47.298439 204.0
47.399792 68.0
47.447769 228.0
47.582226 88.0
47.729252 140.0
48.218674 68.0
48.410984 168.0
48.985874 172.0
49.112892 204.0
49.288811 104.0
49.351715 72.0
49.487442 112.0
49.581429 204.0
49.643925 180.0
49.7384 164.0
49.83812 156.0
50.030815 196.0
50.088554 236.0
50.199905 172.0
50.656456 48.0
50.680542 44.0
50.691875 144.0
50.707466 56.0
50.723839 204.0
50.837952 204.0
51.002712 116.0
51.036831 132.0
51.079502 200.0
51.119339 96.0
51.338737 76.0
51.801857 168.0
52.155041 172.0
52.328953 76.0
52.504765 180.0
52.669312 168.0
52.81097 252.0
52.903587 168.0
53.060059 172.0
53.52795 112.0
53.714211 192.0
53.85611 252.0
54.353897 280.0
54.715492 160.0
54.846703 124.0
55.038406 132.0
55.230541 132.0
55.338734 192.0
55.353252 180.0
55.442276 160.0
55.467472 156.0
55.538651 232.0
55.563869 84.0
55.82531 188.0
56.378418 184.0
56.679218 168.0
56.784161 92.0
57.08604 116.0
57.33596 208.0
57.393246 48.0
57.485264 36.0
57.639301 136.0
58.143612 80.0
58.184597 148.0
58.204338 136.0
58.222561 84.0
58.627254 176.0
58.923294 52.0
58.938572 120.0
58.97831 128.0
59.09454 184.0
59.480755 156.0
59.628216 216.0
59.86977 164.0
59.889793 164.0
59.926769 164.0
60.217815 212.0
60.59116 124.0
60.795849 152.0
60.826893 168.0
60.88279 160.0
61.178234 176.0
61.260773 176.0
61.366756 156.0
61.52924 176.0
61.543079 236.0
61.677437 164.0
61.70089 164.0
61.9701 200.0
62.034359 60.0
62.59214 148.0
63.074936 84.0
63.16349 180.0
63.370167 184.0
63.393078 132.0
63.546894 156.0
63.910767 176.0
64.424171 184.0
64.949249 80.0
65.005409 160.0
65.421715 140.0
65.669876 52.0
65.836121 148.0
65.978317 212.0
66.548645 248.0
66.644485 136.0
66.660728 152.0
66.75502 140.0
66.937286 160.0
66.951942 100.0
67.39077 176.0
67.429153 220.0
67.732697 108.0
67.913307 176.0
67.995049 28.0
68.139565 160.0
68.200371 160.0
68.471855 116.0
68.874321 192.0
68.885887 112.0
69.147148 48.0
69.234901 224.0
69.344254 128.0
69.355858 88.0
70.370689 244.0
70.552811 44.0
70.694992 232.0
70.936188 188.0
71.151176 136.0
71.485428 104.0
72.590271 132.0
72.666603 124.0
72.746223 228.0
73.120338 160.0
73.231667 176.0
73.329834 148.0
73.505493 256.0
73.854034 164.0
73.912201 160.0
73.960121 208.0
74.056015 204.0
74.818481 140.0
75.144226 84.0
75.335869 176.0
75.700836 124.0
75.931343 176.0
76.490852 200.0
77.012238 168.0
77.196831 168.0
77.283218 172.0
78.005814 216.0
78.203293 152.0
78.248596 184.0
78.908478 152.0
78.99868 132.0
79.057068 196.0
79.214653 80.0
79.457542 148.0
80.172386 148.0
80.670387 128.0
81.001457 164.0
81.015785 112.0
81.478668 120.0
82.186279 184.0
82.267502 76.0
82.303612 124.0
82.542145 156.0
82.920517 180.0
83.361534 96.0
83.437881 176.0
83.674408 176.0
83.814659 192.0
84.345764 128.0
84.503044 136.0
84.834541 156.0
85.012466 172.0
85.115265 188.0
85.621002 136.0
85.707588 132.0
85.836624 136.0
85.853226 152.0
85.890114 180.0
85.958374 48.0
85.995285 96.0
86.107918 140.0
86.372238 252.0
87.211067 196.0
87.478249 92.0
88.020821 112.0
88.041367 88.0
88.316116 204.0
88.941978 124.0
89.122276 172.0
89.274544 164.0
89.300873 120.0
89.575699 176.0
90.272171 228.0
90.504929 124.0
90.67543 144.0
90.69249 40.0
90.736092 48.0
90.786041 224.0
90.87455 120.0
90.954262 208.0
90.967545 40.0
91.052994 160.0
91.203102 216.0
91.490349 216.0
91.722771 240.0
91.95739 160.0
92.054756 212.0
92.092957 144.0
92.263031 220.0
92.423698 204.0
92.921883 104.0
93.031281 184.0
93.113846 120.0
93.202217 156.0
93.59848 68.0
93.741035 112.0
94.099815 180.0
94.248253 156.0
95.141457 228.0
95.26963 168.0
95.740356 144.0
95.970306 108.0
95.983955 188.0
96.31575 192.0
96.391945 212.0
96.432991 160.0
97.200706 196.0
97.224258 124.0
97.2537 112.0
97.291 164.0
97.422577 48.0
97.613235 80.0
97.979347 156.0
97.99511 172.0
98.071968 160.0
98.52388 124.0
98.646408 232.0
98.808578 272.0
99.060013 52.0
99.585678 140.0
99.642204 196.0
99.804291 196.0
100.347878 120.0
100.519417 140.0
100.836967 164.0
100.932922 168.0
101.022934 164.0
101.611954 192.0
101.937248 188.0
102.399971 208.0
102.791092 148.0
103.052155 472.0
103.089973 44.0
103.373093 192.0
103.514801 188.0
103.66066 192.0
103.816757 248.0
103.897896 144.0
104.031837 172.0
104.239014 160.0
104.330482 156.0
104.576622 80.0
104.806755 196.0
104.943329 148.0
104.998383 196.0
105.03141 3728.0
105.173859 28.0
105.226936 32.0
105.298409 52.0
105.353569 140.0
105.408737 164.0
105.423042 64.0
105.682747 148.0
105.793266 116.0
105.993988 48.0
106.034706 448.0
106.073921 196.0
106.121078 32.0
106.266708 188.0
106.371376 116.0
106.511017 172.0
106.704193 104.0
106.870796 76.0
107.103439 52.0
107.262108 132.0
107.862816 68.0
108.008858 224.0
108.061356 140.0
108.454834 60.0
108.69957 124.0
108.721497 212.0
108.942497 188.0
109.214821 56.0
109.372963 152.0
109.896072 188.0
110.012947 244.0
110.113182 168.0
110.140335 172.0
110.690392 148.0
111.080238 112.0
111.426636 52.0
111.588478 116.0
111.788307 212.0
111.857765 64.0
111.908295 32.0
112.053627 172.0
112.14003 160.0
112.353012 108.0
112.401543 192.0
112.720413 100.0
113.126511 192.0
113.560913 136.0
113.671234 72.0
113.777367 140.0
114.166222 152.0
114.181114 188.0
114.300247 164.0
114.464157 84.0
114.660156 180.0
114.975807 188.0
115.018494 224.0
115.053429 3256.0
115.140198 184.0
115.187653 56.0
115.227783 36.0
115.296165 84.0
115.375252 164.0
115.509987 120.0
115.565613 56.0
115.666199 124.0
115.700447 144.0
115.768974 160.0
115.910362 36.0
116.056946 356.0
116.206268 52.0
116.756195 68.0
116.977821 152.0
117.225517 164.0
117.410011 104.0
117.862114 204.0
118.271927 204.0
118.379128 188.0
118.636971 48.0
118.845184 136.0
119.010796 612.0
119.636322 168.0
120.013252 180.0
120.403877 72.0
120.825768 80.0
121.027977 1800.0
121.068741 56.0
121.112549 76.0
121.241814 144.0
121.362389 212.0
121.992935 104.0
122.032425 264.0
122.091461 208.0
122.135445 216.0
122.699219 172.0
122.941765 92.0
123.078728 152.0
123.099915 140.0
123.917046 188.0
124.214119 140.0
124.550362 148.0
124.864937 180.0
125.002876 100.0
125.143471 224.0
125.341354 148.0
125.388161 168.0
125.437195 192.0
125.718231 140.0
125.990654 232.0
126.044273 112.0
126.077797 100.0
126.223106 148.0
126.534126 116.0
126.569954 48.0
126.699867 208.0
127.051537 1236.0
127.373718 160.0
127.404327 136.0
127.527924 168.0
127.634224 172.0
127.66732 188.0
128.029663 108.0
128.054016 176.0
128.092728 96.0
128.291046 72.0
128.430847 132.0
129.030685 160.0
129.28717 124.0
129.649536 152.0
130.225815 160.0
130.312149 168.0
130.996948 148.0
131.190659 108.0
131.240814 196.0
131.320633 196.0
131.779495 216.0
132.394852 56.0
132.415466 44.0
132.502502 124.0
132.605637 188.0
132.832642 120.0
132.876236 124.0
133.02739 120.0
133.680466 128.0
134.113464 136.0
134.498672 160.0
135.081009 128.0
135.479187 120.0
136.910049 128.0
137.159363 96.0
137.238632 148.0
137.537247 224.0
137.565262 160.0
138.758438 132.0
138.892105 100.0
139.052124 652.0
139.568497 156.0
139.939667 204.0
140.060379 32.0
140.076874 136.0
140.307831 172.0
140.46347 200.0
140.739609 92.0
140.77739 144.0
140.881317 148.0
140.910492 160.0
140.997101 200.0
141.034332 440.0
141.068878 17996.0
141.176788 60.0
141.193344 72.0
141.280197 172.0
141.373138 144.0
141.437042 128.0
141.467819 60.0
141.543579 48.0
141.614639 112.0
141.702286 64.0
141.81604 80.0
141.851593 52.0
142.071869 1932.0
142.129089 172.0
142.240631 92.0
142.416351 108.0
142.920364 76.0
143.041748 216.0
143.077362 180.0
143.134598 120.0
143.17746 36.0
143.251312 176.0
143.27037 128.0
143.499161 124.0
143.828384 228.0
143.916733 164.0
144.019424 172.0
144.081528 136.0
144.497543 116.0
144.712952 108.0
144.993225 128.0
145.06279 232.0
145.093918 100.0
145.597824 124.0
146.064133 108.0
147.005676 204.0
147.049637 208.0
147.378082 76.0
149.110809 64.0
149.490204 144.0
149.670349 200.0
149.911514 220.0
149.991943 112.0
150.045395 316.0
150.313889 288.0
150.592209 240.0
150.768127 172.0
150.848785 120.0
151.052429 1864.0
151.085999 180.0
151.367493 132.0
151.45076 144.0
151.583054 68.0
151.695801 192.0
152.034302 164.0
152.060364 2384.0
152.284729 40.0
152.344772 104.0
152.724701 120.0
153.015091 144.0
153.068634 3856.0
153.125916 100.0
153.224442 44.0
153.244156 108.0
153.406815 36.0
153.90863 164.0
154.068909 352.0
155.049942 920.0
155.425049 196.0
155.573975 100.0
156.049683 184.0
156.538712 228.0
156.675705 112.0
156.735504 104.0
156.787842 156.0
157.169388 84.0
157.726334 144.0
157.946381 124.0
158.291779 184.0
158.574875 40.0
158.652969 128.0
158.953568 108.0
159.036392 152.0
159.428207 48.0
159.662018 52.0
159.709808 124.0
160.162888 200.0
160.556091 180.0
160.934616 104.0
160.985123 144.0
161.045731 140.0
162.35173 116.0
163.02449 232.0
163.253296 108.0
163.395737 212.0
163.818359 204.0
163.940659 140.0
164.218567 196.0
164.312943 152.0
164.583511 124.0
165.097153 156.0
166.86908 228.0
167.04892 176.0
167.190628 212.0
167.775345 220.0
168.054489 1720.0
168.118408 28.0
168.479919 160.0
168.981491 144.0
169.063583 6592.0
169.100525 160.0
169.255859 64.0
169.33873 48.0
169.364639 76.0
169.416443 56.0
169.481216 184.0
169.569336 44.0
169.652283 116.0
169.755997 204.0
169.817932 68.0
169.857147 140.0
169.880493 96.0
170.066772 932.0
170.376358 92.0
170.480301 92.0
170.558273 128.0
170.602463 88.0
170.657059 64.0
170.992645 32.0
171.073181 180.0
171.187897 120.0
171.435394 276.0
171.589188 76.0
171.662201 172.0
172.241623 92.0
172.672897 200.0
172.960724 144.0
173.023544 60.0
173.06282 168.0
174.674271 52.0
174.732147 96.0
175.519699 184.0
175.641022 128.0
176.161072 160.0
176.446487 136.0
177.065323 136.0
177.59581 228.0
177.680695 208.0
177.847885 160.0
177.927521 68.0
178.227661 372.0
178.248917 172.0
178.589218 148.0
178.658386 140.0
178.945831 124.0
179.048813 1288.0
179.401413 64.0
179.520462 160.0
180.056976 284.0
180.199417 52.0
180.410553 72.0
180.766296 124.0
180.999191 164.0
181.060257 732.0
181.221512 140.0
181.279007 220.0
181.312622 168.0
182.02623 224.0
182.066513 184.0
182.410446 44.0
182.456146 156.0
183.041718 1108.0
183.789398 236.0
183.929749 200.0
184.042358 392.0
184.110641 220.0
184.199783 64.0
185.30629 120.0
185.33609 148.0
185.593597 204.0
186.31015 148.0
186.432419 200.0
187.354858 168.0
188.009277 88.0
188.276825 116.0
188.67305 144.0
188.99852 152.0
189.485901 28.0
189.828537 228.0
190.229126 152.0
190.52298 176.0
190.577927 176.0
190.865219 148.0
191.083847 60.0
191.163651 128.0
191.437759 160.0
191.645538 48.0
192.694031 52.0
192.807327 164.0
192.984238 80.0
193.67218 180.0
194.694031 160.0
195.06636 196.0
195.099716 96.0
196.107422 116.0
196.163177 140.0
196.592712 84.0
196.802078 48.0
196.913788 152.0
196.997589 104.0
197.02272 160.0
197.058548 12380.0
197.15126 68.0
197.176407 180.0
197.274246 76.0
197.419647 76.0
197.562134 68.0
197.998962 136.0
198.063019 2488.0
198.15303 28.0
198.192261 36.0
198.248306 104.0
198.374435 112.0
198.497803 64.0
198.534271 64.0
198.59317 88.0
198.666092 140.0
199.01413 208.0
199.065231 148.0
199.134888 120.0
199.278152 120.0
199.365265 64.0
199.390564 52.0
199.418671 44.0
199.441147 148.0
199.474884 60.0
199.508713 128.0
199.798294 132.0
200.054398 88.0
200.265594 84.0
200.792664 204.0
200.995789 256.0
201.069153 156.0
201.204651 92.0
201.475784 148.0
201.820602 92.0
202.074112 348.0
202.290253 68.0
202.981583 80.0
203.086517 132.0
205.7901 84.0
206.004303 220.0
206.696228 184.0
206.865082 144.0
206.988205 164.0
207.045441 724.0
207.481033 40.0
207.667435 108.0
207.687515 140.0
208.04866 396.0
208.571915 136.0
208.725403 208.0
208.86235 88.0
209.415009 76.0
211.2509 92.0
211.418716 52.0
213.612289 40.0
214.821243 68.0
214.902939 192.0
215.07872 140.0
215.194824 160.0
215.551178 124.0
215.609634 52.0
215.890289 176.0
216.090118 128.0
216.127243 124.0
217.460678 184.0
218.056915 224.0
218.91011 100.0
219.072098 100.0
219.428711 60.0
219.773804 172.0
220.60965 128.0
220.769318 108.0
221.491501 140.0
222.467148 52.0
222.621552 144.0
222.874039 240.0
223.397324 188.0
223.819962 80.0
223.840805 128.0
224.049301 124.0
224.281754 100.0
224.359253 200.0
224.395035 100.0
224.481506 128.0
224.578156 180.0
224.647705 156.0
224.652374 112.0
224.670746 248.0
224.812653 76.0
224.833542 120.0
224.872345 104.0
224.902191 84.0
224.938049 256.0
224.967865 128.0
225.053375 38040.0
225.120132 172.0
225.153412 216.0
225.179871 72.0
225.277328 64.0
225.308319 68.0
225.338196 104.0
225.359116 48.0
225.382355 120.0
225.44278 36.0
225.471176 112.0
225.50386 108.0
225.529236 52.0
225.578018 148.0
225.635254 72.0
225.658493 100.0
225.68808 128.0
225.762482 64.0
225.804535 36.0
225.960098 56.0
226.007965 116.0
226.05687 5488.0
226.179001 68.0
226.206604 76.0
226.268372 52.0
226.32988 44.0
226.463013 136.0
226.495972 48.0
226.601379 108.0
226.717682 60.0
226.774628 84.0
226.798615 52.0
226.837585 96.0
226.957504 104.0
226.99649 100.0
227.057526 908.0
227.078217 532.0
227.244324 92.0
227.317474 28.0
227.518585 28.0
227.554611 64.0
227.629669 84.0
227.665588 116.0
227.757706 116.0
227.81427 140.0
227.878983 88.0
227.90303 72.0
228.071228 128.0
228.093689 208.0
228.152496 64.0
228.399078 52.0
228.423141 60.0
228.456238 100.0
228.59465 60.0
228.808365 52.0
228.88063 56.0
229.070374 128.0
229.100494 124.0
230.449127 80.0
231.078049 352.0
232.915207 60.0
233.0569 164.0
235.046021 264.0
235.070816 204.0
235.113541 120.0
235.311951 36.0
237.067764 188.0
237.26088 60.0
238.067886 148.0
238.252182 148.0
238.4888 100.0
244.089294 272.0
244.847214 44.0
245.090912 212.0
245.841736 72.0
246.063354 140.0
246.10083 144.0
246.685074 124.0
247.068405 216.0
247.094757 124.0
250.324707 116.0
254.06398 112.0
254.546432 72.0
255.032532 64.0
255.076126 1148.0
255.207169 124.0
255.404556 60.0
256.045135 160.0
256.081879 592.0
256.624298 40.0
257.058105 132.0
257.091187 124.0
257.696747 116.0
258.246613 76.0
259.066071 100.0
260.077698 292.0
260.509735 164.0
261.091522 172.0
265.059082 160.0
265.714081 44.0
266.067841 124.0
268.792206 248.0
270.066345 92.0
271.078125 364.0
272.012787 92.0
272.077759 156.0
273.086334 568.0
273.350494 100.0
274.095215 164.0
274.615601 36.0
275.102356 172.0
275.427582 40.0
282.056763 204.0
283.07077 540.0
283.114288 140.0
284.079803 680.0
286.064423 228.0
291.266693 136.0
298.069183 88.0
299.069305 184.0
300.078827 328.0
300.118774 128.0
301.083923 428.0
302.09021 168.0
302.895996 92.0
305.673553 132.0
306.631256 140.0
311.031494 112.0
315.060181 164.0
317.140961 124.0
318.276245 120.0
319.095978 568.0
320.086212 128.0
329.054169 184.0
347.992706 112.0
356.336914 88.0
366.054565 152.0
373.745026 72.0
376.798767 112.0
402.693939 116.0
408.124176 40.0
426.748016 56.0
427.546082 116.0
429.903412 112.0
448.114349 80.0
466.513885 92.0
517.176331 40.0
558.754028 144.0
566.539246 44.0
572.867249 40.0
583.160217 96.0
590.305237 72.0
617.939087 88.0
628.89209 72.0
631.160278 48.0
634.876038 84.0
635.578308 116.0
659.969055 60.0
676.37085 80.0
753.871826 36.0
754.812134 152.0
755.846008 44.0
779.153503 52.0
783.894226 180.0
803.142029 96.0
817.123657 244.0
827.190918 36.0
857.984009 124.0
860.802307 196.0
875.810852 176.0
912.591614 112.0
933.550903 60.0
942.518127 64.0
947.68866 172.0
962.648865 204.0
965.541199 188.0
998.856506 64.0
1012.344666 164.0
1025.196655 20.0
1025.368774 176.0
1027.811279 128.0
1031.240723 196.0
1032.06543 164.0
1035.828735 164.0
1039.220215 236.0
1049.157227 148.0
1063.803955 200.0
1066.818359 80.0
1079.042603 108.0
1087.61145 120.0
1099.030029 148.0
1100.799072 220.0
1106.062012 140.0
1116.851562 164.0
1117.543457 132.0
1129.539062 156.0
1136.184692 152.0
1137.936401 224.0
1143.334351 216.0
1148.293091 148.0
1154.378174 160.0
1163.084351 96.0
1165.774048 80.0
1170.215942 144.0
1174.359375 184.0
1176.686401 188.0
1183.688232 104.0
1183.804688 224.0
1184.80481 96.0
1193.377319 88.0
1196.383911 148.0
1200.711304 176.0
1205.979492 124.0
1209.576416 104.0
1232.018066 84.0
1234.513428 184.0
1254.821045 40.0
1267.06958 276.0
1268.019165 160.0
1269.08252 196.0
1277.648193 120.0
1291.788086 164.0
1294.687012 208.0
1297.969116 128.0
1299.827026 128.0
1302.347046 180.0
1306.969727 32.0
1307.689453 120.0
1308.632446 152.0
1313.518799 204.0
1313.764038 216.0
1319.151489 168.0
1329.066772 200.0
1335.04541 172.0
1335.379883 36.0
1339.077393 188.0
1350.610107 224.0
1351.070923 208.0
1352.702881 40.0
1356.724854 200.0
1356.842163 196.0
1356.9375 56.0
1365.536743 228.0
1367.876709 176.0
1368.988525 68.0
1369.533569 96.0
1373.255859 124.0
1373.521362 236.0
1374.141113 156.0
1374.369873 160.0
1377.980469 164.0
1383.97168 184.0
1388.811157 196.0
1389.063354 68.0
1389.545532 132.0
1393.346924 156.0
1394.238647 220.0
1394.469116 140.0
1395.004272 160.0
1396.008057 152.0
1396.469116 208.0
1402.157593 128.0
1402.656982 268.0
1402.753906 128.0
1405.438843 116.0
1405.625366 168.0
1409.971802 132.0
1414.938843 144.0
1416.211914 228.0
1419.2771 168.0
1421.512573 120.0
1422.69104 148.0
1425.830811 152.0
1428.82373 176.0
1430.050293 56.0
1431.774414 168.0
1432.911987 60.0
1433.341431 136.0
1437.564453 168.0
1438.545654 188.0
1439.361084 40.0
1439.897339 204.0
1440.063477 156.0
1441.665161 264.0
1445.824707 160.0
1447.528076 172.0
1448.224854 264.0
1449.421875 176.0
1450.005493 116.0
1450.581543 160.0
1453.767212 208.0
1453.89624 216.0
1455.376465 180.0
1463.604004 220.0
1465.051147 124.0
1468.039062 56.0
1469.229004 132.0
1470.335449 220.0
1470.785767 148.0
1471.152222 44.0
1474.283936 156.0
1474.520874 128.0
1474.780762 196.0
1481.553101 224.0
1482.986084 164.0
1489.485474 76.0
1489.685181 228.0
1489.915649 184.0
1491.906128 152.0
1495.868042 152.0
1497.485107 168.0
1498.193848 124.0
1504.772583 156.0
