>compound MLS001333710-01!21-Acetoxypregnenolone566-78-9
>formula C23H34O4
>ionization [M+H]+
>parentmass 375.25298602009053
#inchi InChI=1S/C23H34O4/c1-14(24)27-13-21(26)20-7-6-18-17-5-4-15-12-16(25)8-10-22(15,2)19(17)9-11-23(18,20)3/h4,16-20,25H,5-13H2,1-3H3
#inchikey MDJRZSNPHZEMJH
#Ion_Source LC-ESI
#Instrument qTof
#Compound_Source NIH Pharmacologically Active Library
#PI Dorrestein
#Data_Collector VP/LMS
#Scan -1
#Precursor_MZ 375.248
#ExactMass 374.246
#Charge 1
#CAS_Number N/A
#Pubmed_ID N/A
#Smiles CC(=O)OCC(=O)C1CCC2C3CC=C4CC(O)CCC4(C)C3CCC12C
#INCHI_AUX N/A
#Library_Class 1
#SpectrumID CCMSLIB00000085293
#IonMode Positive
#UpdateWorkflowName UPDATE-SINGLE-ANNOTATED-GOLD
#LibraryQualityString Gold
#TaskID d252d724072548979f1f6f1ced849daf
##Scan# 2379
#SpectrumFile p3-G11_GG11_01_18304.mzXML
#LibraryName Pharm_Active_Library.mgf
#MQScore -1
#Organism Pharm_Active_Library
#TIC_Query 0
#RT_Query -1
#MZErrorPPM -1
#SharedPeaks 0
#MassDiff 0
#LibMZ -1
#SpecMZ 375.248
#SpecCharge 0
#internalFilename spec-00000.mgf

>collision 10
45.159477 156.0
45.450207 172.0
45.622131 200.0
45.780914 136.0
45.846931 128.0
46.082592 184.0
46.887848 32.0
46.951927 80.0
49.454426 52.0
49.781113 220.0
49.878059 164.0
50.111687 124.0
50.603233 240.0
50.78038 184.0
50.981995 168.0
51.159801 172.0
51.941525 136.0
53.15062 148.0
53.43251 60.0
53.98098 184.0
54.153683 164.0
54.320793 196.0
54.445564 188.0
55.108482 148.0
55.291859 168.0
56.271526 228.0
56.521152 96.0
57.076191 112.0
57.380352 240.0
57.511604 100.0
58.135193 100.0
58.180729 112.0
58.603565 180.0
59.472248 172.0
60.202061 208.0
60.83382 148.0
61.00782 64.0
61.39867 144.0
61.650032 136.0
61.95203 52.0
64.351463 96.0
65.612602 96.0
66.443932 200.0
67.538704 200.0
67.725311 120.0
67.781013 184.0
67.889214 56.0
67.951546 76.0
68.130508 180.0
68.298195 144.0
68.424911 116.0
69.608864 188.0
69.821594 192.0
69.851532 128.0
71.178635 168.0
71.318085 124.0
71.725449 232.0
72.047775 148.0
72.100159 204.0
72.216827 156.0
72.336975 200.0
73.458588 116.0
75.067497 48.0
76.310814 140.0
77.023628 160.0
77.214149 168.0
77.499504 196.0
77.84333 104.0
78.344627 172.0
78.948318 164.0
78.966003 176.0
79.556091 112.0
82.196274 164.0
82.414772 140.0
84.251732 192.0
85.452652 216.0
85.553886 208.0
85.916954 208.0
86.110786 192.0
86.169899 148.0
86.253059 172.0
86.397308 92.0
86.410263 180.0
86.608353 128.0
86.726944 200.0
86.765869 208.0
87.01078 152.0
87.17424 120.0
89.399765 184.0
89.633278 152.0
90.708725 152.0
90.794052 144.0
91.053558 384.0
91.25145 148.0
92.310013 172.0
92.369301 200.0
93.071861 396.0
94.299911 112.0
94.417854 156.0
95.082245 268.0
95.251144 204.0
95.556564 180.0
96.88813 84.0
97.063255 220.0
97.229332 184.0
97.296074 56.0
98.177628 124.0
98.33152 112.0
98.408516 156.0
98.679207 168.0
98.782051 244.0
98.86515 232.0
99.07901 148.0
99.539192 72.0
101.01812 140.0
101.793808 232.0
102.046997 148.0
102.982086 156.0
103.040672 184.0
103.054817 284.0
105.068817 1128.0
105.33847 176.0
106.074028 356.0
107.049095 168.0
107.08342 328.0
107.147964 48.0
107.269562 160.0
107.828949 128.0
108.087463 132.0
108.141273 196.0
108.161972 112.0
108.601265 128.0
108.709152 144.0
109.063217 224.0
109.099007 432.0
109.253555 136.0
109.395073 216.0
109.430466 164.0
109.707573 80.0
109.926582 184.0
110.292084 140.0
110.50959 148.0
111.079453 168.0
111.589798 176.0
111.663399 84.0
112.544304 132.0
112.723854 168.0
113.113029 76.0
113.435028 64.0
113.808434 148.0
114.975029 136.0
115.049744 80.0
115.115936 60.0
115.291115 52.0
115.712524 240.0
116.059639 116.0
116.108963 128.0
116.723167 180.0
117.068596 332.0
117.270012 144.0
117.893761 128.0
118.072968 180.0
118.192192 92.0
118.701256 224.0
119.08432 868.0
119.957985 160.0
120.086899 168.0
120.213181 136.0
120.888466 252.0
121.102165 360.0
121.372589 60.0
122.013741 128.0
122.438438 236.0
123.230385 44.0
123.666046 128.0
123.898567 212.0
124.231117 128.0
124.641876 160.0
126.658798 156.0
127.208031 232.0
128.046936 116.0
128.063675 324.0
128.09198 196.0
129.068161 252.0
129.21402 136.0
130.075729 184.0
130.506897 176.0
130.554642 112.0
130.802658 212.0
131.084259 1848.0
131.6577 116.0
132.090408 320.0
132.795212 128.0
132.841095 188.0
133.06601 168.0
133.100906 1492.0
133.767212 164.0
133.921494 108.0
134.015945 144.0
134.109177 276.0
134.299515 220.0
134.941528 212.0
135.081329 224.0
135.112701 184.0
135.464294 164.0
136.330048 136.0
136.346313 124.0
137.030472 196.0
137.147003 40.0
137.735031 224.0
140.484009 180.0
140.528839 112.0
140.705856 80.0
141.073761 184.0
141.694489 148.0
142.079208 792.0
143.017258 168.0
143.084732 564.0
143.18869 152.0
143.562866 52.0
143.591476 128.0
143.76564 148.0
144.0867 400.0
144.229004 120.0
144.834412 128.0
145.062057 128.0
145.099579 1296.0
145.186752 76.0
145.381073 116.0
145.613953 96.0
145.921555 172.0
146.106476 324.0
147.080353 148.0
147.11647 520.0
147.57077 160.0
148.078979 156.0
148.11763 184.0
149.093674 320.0
149.126724 156.0
149.212524 172.0
149.231689 48.0
149.414108 112.0
151.106415 164.0
151.173431 164.0
152.067993 180.0
152.443771 176.0
153.070251 156.0
153.127518 292.0
153.497391 60.0
153.544067 248.0
154.079926 144.0
155.083939 904.0
155.136703 120.0
156.088364 228.0
156.426025 168.0
156.879425 188.0
157.099884 1400.0
157.216171 56.0
158.10463 576.0
158.448944 176.0
159.080948 312.0
159.116531 2604.0
159.799744 140.0
159.852585 56.0
160.122604 584.0
160.159744 32.0
160.969345 172.0
161.09816 404.0
161.131699 144.0
161.421692 132.0
162.072266 216.0
162.620056 160.0
163.116364 456.0
163.149567 164.0
164.33786 212.0
165.06842 312.0
165.127243 176.0
166.073853 188.0
166.334106 72.0
166.608902 88.0
167.08609 492.0
167.447495 64.0
168.092529 320.0
169.098358 556.0
169.96553 116.0
170.104034 356.0
170.308228 128.0
170.643478 124.0
170.794312 60.0
170.955627 188.0
171.116058 988.0
171.449768 168.0
171.820724 196.0
171.951202 32.0
172.122055 168.0
172.191406 64.0
172.771729 48.0
173.091049 192.0
173.133133 864.0
173.305847 132.0
173.748962 116.0
173.995667 88.0
174.053436 120.0
174.134842 164.0
174.161118 176.0
174.686859 144.0
175.110596 192.0
175.153198 156.0
175.928116 72.0
176.115601 116.0
176.784515 88.0
178.256348 72.0
178.750961 160.0
179.084488 284.0
179.142365 128.0
179.648895 176.0
179.688904 56.0
180.096405 272.0
181.099701 448.0
182.104553 408.0
182.756851 100.0
183.113876 928.0
184.121201 464.0
184.620911 176.0
184.783218 100.0
185.089081 136.0
185.131912 960.0
185.167618 32.0
185.91861 208.0
186.13681 392.0
186.33136 224.0
186.440063 144.0
187.108444 260.0
187.149414 500.0
187.561447 68.0
188.145248 364.0
189.107498 204.0
189.129517 136.0
189.553909 116.0
190.132568 144.0
190.910049 160.0
193.09642 200.0
193.141403 100.0
193.933334 64.0
194.109192 164.0
195.113632 264.0
196.122772 268.0
197.129913 1108.0
197.352066 88.0
197.90329 160.0
198.10495 172.0
198.134537 144.0
198.603928 204.0
198.862076 32.0
199.14537 476.0
199.333893 76.0
200.150223 388.0
201.127747 372.0
201.167511 264.0
202.128479 144.0
202.19075 80.0
202.898926 148.0
203.149597 164.0
203.25914 124.0
203.562897 152.0
204.145477 184.0
205.142044 52.0
206.09816 152.0
206.856079 172.0
207.126846 152.0
207.862106 88.0
208.133224 140.0
209.014206 164.0
209.132141 672.0
210.135025 212.0
210.776321 132.0
211.15062 1568.0
211.273636 44.0
211.325714 84.0
212.151154 520.0
212.270035 40.0
212.859131 124.0
212.972397 132.0
213.162903 200.0
214.165466 172.0
215.144897 1232.0
215.179764 396.0
216.145599 160.0
216.179718 228.0
217.152237 148.0
217.17276 84.0
217.375198 52.0
219.602341 168.0
221.139954 164.0
222.137772 352.0
223.145126 792.0
224.154785 448.0
224.633301 64.0
225.167496 492.0
226.163361 140.0
226.291992 80.0
227.140137 100.0
227.179474 324.0
229.156097 244.0
230.164902 160.0
231.177597 172.0
231.855988 160.0
233.152344 216.0
233.458969 32.0
233.56543 168.0
234.162018 132.0
235.15213 180.0
236.158188 184.0
236.271378 180.0
236.34787 100.0
236.905106 192.0
237.159714 664.0
237.717651 76.0
238.164276 300.0
239.178665 260.0
240.006332 112.0
240.194458 320.0
241.16272 328.0
241.197433 300.0
241.575317 204.0
241.668137 136.0
241.767166 84.0
242.073654 132.0
242.164825 172.0
242.203735 120.0
243.177368 124.0
243.236343 60.0
247.184341 104.0
249.154419 184.0
249.181381 184.0
250.170319 312.0
251.027267 128.0
251.176392 264.0
251.210205 136.0
251.251221 36.0
252.166992 176.0
253.169937 168.0
253.193298 180.0
253.350479 48.0
254.158997 204.0
254.203415 144.0
255.051437 128.0
255.171249 192.0
255.209579 320.0
255.522095 148.0
256.174744 132.0
256.209015 164.0
257.211151 176.0
259.107605 156.0
259.171326 164.0
261.181458 180.0
263.166687 128.0
264.181549 180.0
264.213898 120.0
265.201569 152.0
268.218079 148.0
268.609406 68.0
269.183838 204.0
269.216492 44.0
269.500702 48.0
270.233582 168.0
271.956909 120.0
272.00943 84.0
273.182617 52.0
277.192993 160.0
278.033356 120.0
279.207642 352.0
280.212585 256.0
280.708099 92.0
282.187347 284.0
287.194611 48.0
288.193909 208.0
288.572449 132.0
289.181396 140.0
291.209015 224.0
292.075775 124.0
297.217529 680.0
298.218658 136.0
299.231873 176.0
302.151794 120.0
305.162689 208.0
309.681671 140.0
313.200378 212.0
315.229279 852.0
315.410248 56.0
316.202087 120.0
316.227753 132.0
316.903717 88.0
317.02066 120.0
318.837738 88.0
319.129242 112.0
329.204437 144.0
331.220734 144.0
335.067963 20.0
342.206543 164.0
349.598969 132.0
355.188568 84.0
357.237 224.0
358.258545 224.0
359.240082 164.0
359.341949 72.0
362.120483 188.0
372.231049 128.0
374.357666 64.0
375.020355 88.0
377.158752 148.0
392.159973 124.0
422.737152 128.0
502.941925 108.0
510.405975 56.0
512.327881 56.0
558.704163 28.0
742.447937 116.0
823.963745 136.0
825.815918 220.0
863.693848 168.0
865.197815 72.0
996.586121 220.0
996.724365 80.0
1009.078857 20.0
1024.12561 160.0
1031.342407 200.0
1037.071289 180.0
1051.917847 124.0
1055.600708 140.0
1057.709961 168.0
1073.902832 168.0
1105.492676 32.0
1114.06604 196.0
1134.387329 144.0
1140.495972 136.0
1158.764648 148.0
1174.495972 244.0
1178.98877 164.0
1179.214233 152.0
1182.038818 196.0
1208.815552 140.0
1210.033813 100.0
1212.735474 132.0
1225.71106 168.0
1227.328247 124.0
1239.519409 184.0
1244.836792 160.0
1245.897461 176.0
1252.29187 188.0
1259.401855 216.0
1265.641235 236.0
1277.250732 148.0
1277.300537 200.0
1293.907471 84.0
1295.654907 112.0
1300.954956 100.0
1313.80127 164.0
1318.069336 176.0
1324.22522 140.0
1325.993042 128.0
1331.681519 252.0
1333.425293 132.0
1336.326904 188.0
1340.772583 20.0
1346.364868 108.0
1346.532837 64.0
1348.797974 204.0
1351.738159 128.0
1355.656128 228.0
1373.345825 128.0
1378.270142 172.0
1383.49939 112.0
1389.814331 136.0
1415.524658 108.0
1420.576416 144.0
1421.109131 204.0
1431.572998 168.0
1434.571899 124.0
1445.955322 156.0
1450.113525 240.0
1457.482544 188.0
1459.101562 160.0
1472.895508 140.0
1488.750366 52.0
1493.077148 132.0
1493.284912 176.0
1503.925781 148.0
