>compound MLS001140565-01!1-[2-(4-methyl-6-oxobenzo[c]chromen-3-yl)oxyacetyl]piperidine-4-carboxamide
>formula C22H22N2O5
>ionization [M+H]+
>parentmass 395.16037
#inchi InChI=1S/C22H22N2O5/c1-13-18(28-12-19(25)24-10-8-14(9-11-24)21(23)26)7-6-16-15-4-2-3-5-17(15)22(27)29-20(13)16/h2-7,14H,8-12H2,1H3,(H2,23,26)
#inchikey NXXSJFHAQRBSKZ
#Ion_Source LC-ESI
#Instrument qTof
#Compound_Source NIH Natural Product Library
#PI Dorrestein
#Data_Collector VVP/LMS
#Scan -1
#Precursor_MZ 395.161
#ExactMass 394.153
#Charge 1
#CAS_Number N/A
#Pubmed_ID N/A
#Smiles Cc1c(OCC(=O)N2CCC(CC2)C(=O)N)ccc3c4ccccc4c(=O)oc13
#INCHI_AUX N/A
#Library_Class 1
#SpectrumID CCMSLIB00000080285
#IonMode Positive
#UpdateWorkflowName UPDATE-SINGLE-ANNOTATED-GOLD
#LibraryQualityString Gold
#TaskID b1d8e8f6646f4e71acdff9ca3d919d08
##Scan# 1827
#SpectrumFile p2-F06_GF6_01_18042.mzXML
#LibraryName NIH_Natural_Products_Library.mgf
#MQScore -1
#Organism NIH_Natural_Products_Library
#TIC_Query 0
#RT_Query -1
#MZErrorPPM -1
#SharedPeaks 0
#MassDiff 0
#LibMZ -1
#SpecMZ 395.161
#SpecCharge 0
#internalFilename spec-00000.mgf

>collision 10
95.347366 204.0
95.473732 124.0
96.080841 540.0
96.220032 192.0
96.288376 152.0
96.49942 152.0
96.589378 88.0
96.606987 188.0
97.051575 132.0
97.086388 228.0
97.212425 192.0
97.383224 176.0
98.058723 176.0
98.109337 28.0
98.642342 104.0
100.071198 144.0
100.407524 184.0
100.684937 68.0
101.058746 168.0
101.204865 196.0
102.774689 188.0
103.057373 128.0
103.253456 136.0
104.765678 204.0
105.236801 220.0
105.449257 128.0
105.524895 168.0
105.608734 168.0
106.070168 160.0
106.155563 88.0
106.288895 136.0
106.594864 168.0
106.759315 160.0
108.073326 132.0
108.106438 232.0
108.15818 92.0
108.574631 132.0
109.224739 160.0
109.532814 256.0
109.774574 100.0
110.566345 44.0
111.071465 100.0
111.092438 100.0
111.480705 156.0
112.07531 1328.0
112.133118 80.0
112.154198 64.0
112.280701 104.0
112.295464 148.0
112.318665 60.0
112.428383 48.0
112.671204 44.0
112.795891 124.0
113.001022 160.0
113.080475 364.0
113.775063 92.0
113.797951 140.0
113.893517 204.0
114.057129 128.0
114.076263 68.0
114.849236 168.0
114.998596 192.0
115.054092 296.0
115.071793 208.0
115.528526 100.0
115.567039 116.0
116.276352 188.0
116.368652 84.0
117.528793 176.0
118.354492 120.0
118.588463 240.0
118.996292 224.0
119.454849 160.0
119.835838 164.0
120.202156 140.0
120.40081 184.0
120.507851 80.0
121.164215 152.0
122.69825 176.0
122.720299 44.0
124.076797 396.0
124.883919 88.0
124.997375 88.0
125.084152 240.0
125.260094 168.0
125.49633 116.0
125.661377 48.0
125.743942 152.0
126.089592 396.0
126.81752 188.0
126.88253 168.0
127.086342 5424.0
127.195374 88.0
127.439148 40.0
127.54702 268.0
127.580734 152.0
127.600967 80.0
128.014984 168.0
128.055527 180.0
128.091736 576.0
128.249298 48.0
128.352997 124.0
128.434189 124.0
128.815674 124.0
129.09996 272.0
129.276917 124.0
130.036133 136.0
130.104233 176.0
131.216751 84.0
131.376389 116.0
132.482864 152.0
133.561783 168.0
133.80571 172.0
134.070602 148.0
134.68895 168.0
134.862244 116.0
135.040283 224.0
136.622284 132.0
138.066116 212.0
138.288391 160.0
139.526962 208.0
140.301514 180.0
140.867889 156.0
141.061661 228.0
141.100479 1336.0
141.246109 168.0
141.326538 148.0
141.459076 52.0
141.504059 64.0
142.106079 328.0
142.47644 140.0
142.504959 240.0
143.001968 56.0
143.081146 152.0
143.690643 124.0
144.051132 196.0
144.187317 172.0
144.31163 72.0
144.766266 20.0
145.90361 120.0
146.435394 192.0
146.541397 180.0
146.584763 160.0
148.186783 144.0
148.967972 144.0
149.101608 204.0
149.176956 164.0
150.304611 112.0
151.167206 152.0
152.032272 84.0
152.058807 476.0
152.135361 176.0
152.535782 128.0
153.069382 1280.0
153.170639 76.0
153.762405 48.0
153.97226 76.0
154.029068 76.0
154.072189 208.0
154.582886 100.0
155.040329 192.0
155.08725 664.0
156.048828 112.0
156.088608 352.0
157.06395 392.0
157.217087 72.0
157.679108 128.0
158.32959 152.0
158.587845 256.0
159.649658 140.0
160.08754 204.0
161.417419 196.0
162.66394 128.0
162.699478 192.0
163.563797 128.0
163.777695 208.0
163.978973 196.0
165.069641 680.0
165.363281 60.0
166.066742 352.0
166.208969 188.0
167.081146 320.0
167.504745 156.0
168.067719 208.0
168.089996 196.0
168.696945 184.0
169.066132 344.0
169.094055 360.0
170.041687 152.0
170.072433 176.0
170.089691 136.0
170.108429 256.0
170.602356 64.0
171.040863 216.0
171.081421 400.0
171.107056 116.0
172.079544 204.0
172.126541 244.0
172.157883 200.0
172.882019 136.0
173.054779 212.0
173.801804 168.0
176.073624 164.0
176.451492 128.0
177.076004 116.0
178.065277 140.0
178.083862 180.0
179.061874 180.0
179.086609 184.0
179.321075 172.0
179.747772 244.0
179.953293 216.0
180.052109 116.0
180.0896 192.0
180.848846 228.0
181.064545 8880.0
181.37384 68.0
181.443542 76.0
181.464981 44.0
181.580292 76.0
181.65004 56.0
181.706375 52.0
181.888855 144.0
182.065918 1032.0
182.127838 72.0
182.224548 68.0
182.861862 232.0
182.950699 108.0
183.035919 128.0
183.077057 604.0
183.300827 64.0
183.325089 140.0
183.346649 104.0
183.365509 132.0
183.400543 124.0
183.440979 88.0
183.511078 120.0
183.621643 100.0
184.078522 176.0
185.060684 248.0
186.760803 176.0
189.3647 148.0
190.879578 28.0
191.09137 148.0
193.066406 164.0
193.938538 184.0
194.254654 104.0
194.362854 72.0
195.078232 188.0
195.630371 208.0
196.048019 52.0
197.064102 332.0
198.06633 308.0
198.1633 108.0
198.788589 112.0
199.072113 168.0
199.710083 236.0
200.064651 160.0
200.118134 96.0
200.504059 44.0
200.958069 44.0
201.647095 128.0
201.819534 160.0
202.31749 164.0
203.091095 180.0
204.827835 112.0
205.85173 88.0
207.027069 152.0
207.081482 132.0
207.528534 128.0
208.177032 72.0
209.059189 1612.0
209.111389 68.0
209.217896 76.0
209.609604 60.0
210.062729 144.0
210.948776 164.0
211.074875 1712.0
211.139618 52.0
211.202164 96.0
211.483917 48.0
212.078735 204.0
212.106674 68.0
213.055603 132.0
214.38533 236.0
214.924805 200.0
216.866638 208.0
218.723007 40.0
218.778946 68.0
219.11763 172.0
219.934479 128.0
220.093903 108.0
221.178894 184.0
222.904984 40.0
223.113052 188.0
224.127975 184.0
224.613922 52.0
225.064575 276.0
225.437973 176.0
225.799713 112.0
225.991165 180.0
226.062485 2392.0
226.13887 168.0
226.232925 92.0
227.066437 512.0
228.068237 380.0
228.252808 72.0
228.649902 112.0
228.990112 144.0
229.481308 92.0
230.220596 172.0
231.021561 228.0
231.548248 112.0
234.007935 160.0
235.581604 176.0
236.575592 116.0
237.064636 200.0
237.095016 176.0
238.637177 84.0
238.698669 172.0
238.953964 184.0
238.990891 164.0
239.071045 8136.0
239.269775 120.0
239.348969 108.0
239.406448 120.0
239.428009 108.0
239.505005 60.0
239.554291 76.0
239.637482 88.0
239.979599 48.0
240.075775 2576.0
240.269516 80.0
240.553421 56.0
241.076813 692.0
241.165024 88.0
241.288681 52.0
241.437103 160.0
241.53299 72.0
241.594849 104.0
241.622696 76.0
241.795975 88.0
241.833115 92.0
242.065308 116.0
242.111771 76.0
243.075058 76.0
243.097595 172.0
245.103302 152.0
245.804901 44.0
248.295059 68.0
249.053589 160.0
249.089157 128.0
250.055847 208.0
251.07103 144.0
252.120209 168.0
253.085007 140.0
255.128235 204.0
259.078705 144.0
263.047058 180.0
265.085083 156.0
266.02243 148.0
266.061371 140.0
266.522583 68.0
266.984192 200.0
267.069611 604.0
267.64801 128.0
267.957458 56.0
268.058472 168.0
268.984711 108.0
269.569336 56.0
277.094666 208.0
278.763672 164.0
279.109436 180.0
280.098938 404.0
282.110016 112.0
284.079102 128.0
284.105957 112.0
289.079163 160.0
290.098663 108.0
291.082581 176.0
292.571808 64.0
293.106537 168.0
296.09314 520.0
296.482819 32.0
296.914795 112.0
298.030457 152.0
298.099182 252.0
305.498413 112.0
307.104462 352.0
307.17749 116.0
308.097595 304.0
308.319244 76.0
309.820343 96.0
310.090149 136.0
310.517883 116.0
310.766937 132.0
315.055176 88.0
317.107513 176.0
318.114899 144.0
319.084747 80.0
321.207214 44.0
322.146118 1220.0
322.303253 136.0
322.707153 92.0
323.025452 148.0
323.145844 288.0
323.261597 60.0
323.404755 108.0
324.153229 28.0
325.423004 64.0
326.231354 36.0
327.177521 48.0
327.825836 40.0
329.099182 96.0
330.646362 48.0
332.132416 280.0
332.748779 108.0
333.126465 124.0
335.120148 112.0
340.218506 92.0
342.11911 144.0
348.703369 104.0
349.164398 116.0
349.19043 52.0
350.141205 1484.0
351.136017 532.0
352.145813 380.0
354.956543 116.0
356.946716 32.0
360.128632 156.0
377.151947 276.0
378.145081 248.0
379.132324 100.0
391.044464 144.0
393.19635 160.0
394.211304 224.0
395.16037 148.0
395.197998 128.0
396.169922 208.0
410.563721 80.0
433.27182 96.0
451.125549 128.0
451.840271 92.0
486.372498 40.0
531.605591 92.0
547.541443 80.0
643.809082 76.0
645.466553 124.0
754.922424 80.0
781.299377 80.0
795.696045 128.0
872.681763 200.0
877.946045 132.0
891.520569 168.0
893.804077 120.0
919.537292 208.0
958.242615 172.0
1000.576843 184.0
1027.129639 60.0
1034.106934 64.0
1064.868164 80.0
1080.251099 212.0
1086.625366 228.0
1093.261841 140.0
1104.868164 136.0
1160.812744 176.0
1165.04126 144.0
1173.473389 156.0
1183.53772 52.0
1186.655273 132.0
1189.680786 128.0
1191.802856 44.0
1204.713867 48.0
1246.153564 128.0
1246.547119 152.0
1263.560913 104.0
1268.716675 156.0
1275.872681 172.0
1288.958496 196.0
1297.79834 168.0
1299.634521 144.0
1308.244507 172.0
1309.670166 248.0
1320.691895 176.0
1330.046143 204.0
1331.498169 216.0
1349.760254 160.0
1363.733154 156.0
1368.338013 88.0
1380.187378 184.0
1381.777588 92.0
1382.813599 232.0
1387.524658 120.0
1394.30835 220.0
1398.794067 32.0
1400.491699 136.0
1410.848999 196.0
1421.492065 184.0
1427.381226 76.0
1431.12085 112.0
1433.079102 144.0
1454.131714 216.0
1462.164917 208.0
1480.617432 128.0
1482.570923 148.0
1484.265015 112.0
1486.159546 164.0
1487.947876 112.0
1494.75769 124.0
1495.096313 212.0
1496.466431 196.0
1497.559937 172.0
