>compound MLS001148176-01!29094-61-9
>formula C21H27N5O4S
>ionization [M+H]+
>parentmass 446.1856517960906
#inchi InChI=1S/C21H27N5O4S/c1-15-13-24-19(14-23-15)20(27)22-12-11-16-7-9-18(10-8-16)31(29,30)26-21(28)25-17-5-3-2-4-6-17/h7-10,13-14,17H,2-6,11-12H2,1H3,(H,22,27)(H2,25,26,28)
#inchikey ZJJXGWJIGJFDTL
#Ion_Source LC-ESI
#Instrument qTof
#Compound_Source NIH Pharmacologically Active Library
#PI Dorrestein
#Data_Collector VP/LMS
#Scan -1
#Precursor_MZ 446.192
#ExactMass 445.178
#Charge 1
#CAS_Number N/A
#Pubmed_ID N/A
#Smiles Cc1cnc(cn1)C(=O)NCCc2ccc(cc2)S(=O)(=O)NC(=O)NC3CCCCC3
#INCHI_AUX N/A
#Library_Class 1
#SpectrumID CCMSLIB00000085672
#IonMode Positive
#UpdateWorkflowName UPDATE-SINGLE-ANNOTATED-GOLD
#LibraryQualityString Gold
#TaskID d252d724072548979f1f6f1ced849daf
##Scan# 1924
#SpectrumFile p4-E02_GE2_01_18374.mzXML
#LibraryName Pharm_Active_Library.mgf
#MQScore -1
#Organism Pharm_Active_Library
#TIC_Query 0
#RT_Query -1
#MZErrorPPM -1
#SharedPeaks 0
#MassDiff 0
#LibMZ -1
#SpecMZ 446.192
#SpecCharge 0
#internalFilename spec-00000.mgf

>collision 10
44.937695 116.0
44.957249 180.0
44.998631 204.0
45.140266 192.0
45.152302 196.0
45.165676 148.0
45.215183 216.0
45.319633 100.0
45.39336 196.0
45.426891 192.0
45.535614 64.0
45.565166 96.0
45.576855 264.0
45.671368 64.0
45.940781 208.0
46.109566 172.0
46.123085 84.0
46.169052 172.0
46.228577 176.0
46.266476 196.0
46.300327 168.0
46.311165 56.0
46.327744 184.0
46.411449 128.0
46.469772 180.0
46.544426 196.0
46.676235 40.0
46.706154 136.0
46.776917 168.0
46.859989 224.0
46.872253 152.0
46.963596 136.0
46.973145 132.0
47.072777 144.0
47.119217 188.0
47.163288 224.0
47.190289 148.0
47.358612 168.0
47.376423 296.0
47.390121 152.0
47.407936 152.0
47.420174 172.0
47.438446 200.0
47.497055 180.0
47.608334 208.0
47.645313 132.0
47.690662 132.0
47.707081 140.0
47.729156 120.0
47.800686 180.0
47.937016 140.0
47.946663 200.0
47.961823 112.0
48.034908 172.0
48.081821 164.0
48.113567 148.0
48.175713 168.0
48.22546 144.0
48.392044 124.0
48.403606 208.0
48.457947 192.0
48.553593 48.0
48.632679 36.0
48.697937 136.0
48.722942 152.0
48.907894 184.0
48.923206 76.0
48.952446 148.0
49.068096 144.0
49.129559 404.0
49.26767 144.0
49.357121 164.0
49.533466 200.0
49.679256 220.0
49.701706 176.0
49.726967 144.0
49.814022 132.0
49.842197 152.0
49.916622 112.0
49.954597 128.0
49.964447 208.0
49.974537 300.0
49.993996 116.0
50.012291 180.0
50.041855 192.0
50.126369 140.0
50.144691 104.0
50.273029 148.0
50.322433 132.0
50.339378 208.0
50.354912 100.0
50.466553 236.0
50.497665 124.0
50.541519 236.0
50.57143 224.0
50.585392 120.0
50.666115 204.0
50.712875 188.0
50.722801 172.0
50.748318 108.0
50.833427 120.0
50.856133 136.0
50.945595 116.0
51.036556 196.0
51.062153 168.0
51.130444 144.0
51.297096 172.0
51.35413 220.0
51.365543 40.0
51.455662 216.0
51.506859 224.0
51.564014 232.0
51.575447 100.0
51.605469 80.0
51.61977 148.0
51.635502 164.0
51.721348 128.0
51.764301 204.0
51.792942 160.0
51.874622 160.0
51.917637 124.0
51.959236 116.0
51.99511 40.0
52.055405 132.0
52.101368 120.0
52.190479 124.0
52.214924 172.0
52.252323 132.0
52.295494 176.0
52.309891 108.0
52.338684 164.0
52.363167 52.0
52.381893 100.0
52.606853 208.0
52.648727 96.0
52.72385 124.0
52.745529 236.0
52.796135 148.0
52.869919 80.0
52.926373 208.0
52.961132 184.0
52.974167 124.0
53.169914 188.0
53.25267 36.0
53.27446 184.0
53.319504 124.0
53.37051 140.0
53.400925 136.0
53.460857 164.0
53.473671 172.0
53.515888 56.0
53.596001 132.0
53.644096 108.0
53.848377 88.0
53.87175 188.0
54.041748 104.0
54.072071 136.0
54.082317 116.0
54.187756 112.0
54.39307 248.0
54.444458 112.0
54.587006 204.0
54.679688 148.0
54.706184 188.0
54.798969 132.0
54.815174 140.0
54.825493 160.0
54.840229 212.0
55.092564 192.0
55.152287 192.0
55.175323 224.0
55.201939 168.0
55.240395 32.0
55.253708 168.0
55.415089 48.0
55.462509 172.0
55.493641 200.0
55.53574 196.0
55.56744 180.0
55.649433 136.0
55.765305 152.0
55.793549 124.0
55.931896 88.0
56.045082 44.0
56.194183 136.0
56.267319 172.0
56.349461 176.0
56.434658 164.0
56.530567 204.0
56.653168 68.0
56.693623 208.0
56.783577 152.0
56.869099 264.0
56.986233 212.0
57.056873 88.0
57.123043 68.0
57.144417 192.0
57.249474 96.0
57.306713 136.0
57.339867 128.0
57.46352 188.0
57.477097 248.0
57.576733 192.0
57.759617 164.0
57.972828 156.0
58.047379 204.0
58.09288 72.0
58.135365 192.0
58.191528 124.0
58.479603 180.0
58.506241 164.0
58.533436 172.0
58.603718 116.0
58.640289 204.0
58.844704 132.0
59.029591 148.0
59.231003 180.0
59.260723 108.0
59.302101 168.0
59.401768 168.0
59.476959 176.0
59.556805 176.0
59.641315 100.0
59.722809 152.0
59.735115 212.0
59.830528 132.0
59.992287 156.0
60.013874 144.0
60.035461 160.0
60.204094 88.0
60.413887 216.0
60.441734 172.0
60.506744 184.0
60.536625 228.0
60.568829 132.0
60.598122 216.0
60.719032 148.0
60.765465 180.0
60.782639 220.0
60.829197 148.0
60.877331 116.0
60.888203 208.0
60.920822 196.0
61.003628 224.0
61.017818 184.0
61.057606 136.0
61.070049 204.0
61.208557 212.0
61.235031 160.0
61.258396 96.0
61.269302 184.0
61.3862 180.0
61.512581 192.0
61.553173 212.0
61.589092 144.0
61.637524 136.0
61.731316 144.0
61.76416 36.0
61.776676 140.0
61.926945 120.0
62.035065 220.0
62.14642 176.0
62.333275 140.0
62.377014 140.0
62.404007 156.0
62.432312 144.0
62.476353 108.0
62.500599 264.0
62.610149 200.0
62.756699 132.0
62.800854 192.0
62.900265 148.0
63.031612 120.0
63.050312 212.0
63.12936 204.0
63.219532 160.0
63.364391 136.0
63.419758 180.0
63.468231 152.0
63.690418 176.0
63.707813 168.0
63.876396 216.0
64.035568 188.0
64.193344 220.0
64.298637 176.0
64.386444 60.0
64.400818 164.0
64.480705 116.0
64.498291 180.0
64.533463 152.0
64.583038 144.0
64.637428 228.0
64.687042 52.0
64.811966 164.0
64.919373 116.0
64.954659 184.0
65.009209 152.0
65.156929 116.0
65.311256 216.0
65.34021 240.0
65.464149 144.0
65.509247 84.0
65.54953 108.0
65.609169 176.0
65.691414 196.0
65.751114 248.0
65.791466 156.0
65.872208 176.0
65.935226 172.0
66.01606 148.0
66.036537 236.0
66.061348 184.0
66.111504 120.0
66.236176 260.0
66.365829 204.0
66.388527 180.0
66.804337 196.0
66.838501 184.0
66.872681 176.0
66.986664 44.0
67.102371 184.0
67.152924 160.0
67.250816 144.0
67.270409 208.0
67.292702 152.0
67.317757 124.0
67.353691 136.0
67.376556 140.0
67.435287 196.0
67.931534 180.0
68.02343 188.0
68.036896 176.0
68.307716 140.0
68.39328 116.0
68.432793 192.0
68.541504 144.0
68.666794 184.0
68.731133 96.0
68.767433 180.0
68.812004 216.0
68.833473 120.0
68.896233 160.0
69.023506 116.0
69.112823 224.0
69.131027 52.0
69.185646 60.0
69.215454 160.0
69.39772 156.0
69.465714 172.0
69.54702 164.0
69.593506 160.0
69.619431 252.0
69.638344 204.0
69.73246 204.0
69.869408 184.0
69.982582 168.0
70.067528 128.0
70.115845 196.0
70.165855 204.0
70.183571 128.0
70.334343 180.0
70.372742 140.0
70.396118 188.0
70.461258 184.0
70.546494 156.0
70.559868 208.0
70.71209 160.0
70.742218 176.0
70.892967 144.0
71.023743 128.0
71.085815 176.0
71.105957 128.0
71.142433 152.0
71.179535 140.0
71.336075 176.0
71.530571 212.0
71.548042 200.0
71.618767 192.0
71.736725 100.0
71.834534 204.0
71.861526 396.0
71.880089 160.0
71.895271 192.0
72.074272 136.0
72.121597 184.0
72.135551 188.0
72.34549 236.0
72.404144 64.0
72.458351 212.0
72.471909 168.0
72.519356 56.0
72.580391 256.0
72.705917 248.0
72.77552 152.0
72.816277 92.0
72.83326 220.0
72.851944 96.0
72.899521 160.0
73.01342 88.0
73.035538 140.0
73.078064 160.0
73.149544 208.0
73.181892 172.0
73.284088 80.0
73.347519 180.0
73.42662 140.0
73.466515 60.0
73.478455 200.0
73.539886 232.0
73.585976 108.0
73.644035 144.0
73.693581 188.0
73.729721 160.0
73.746559 144.0
73.780746 172.0
73.8423 164.0
73.909019 180.0
73.99118 220.0
74.10936 124.0
74.15905 192.0
74.17791 168.0
74.213379 180.0
74.430115 100.0
74.448997 216.0
74.552078 108.0
74.56411 44.0
74.583015 128.0
74.650009 128.0
74.748116 164.0
74.949585 200.0
74.96682 152.0
75.075424 116.0
75.156326 156.0
75.194466 160.0
75.206551 40.0
75.384438 136.0
75.427643 208.0
75.600601 96.0
75.612717 164.0
75.816345 160.0
76.003494 208.0
76.082466 136.0
76.158875 168.0
76.433556 172.0
76.480545 204.0
76.50666 120.0
76.658195 404.0
76.722687 68.0
76.865707 164.0
76.89875 176.0
76.919815 152.0
76.980919 140.0
77.038559 148.0
77.05603 228.0
77.095253 128.0
77.146912 160.0
77.218109 172.0
77.320076 132.0
77.437378 176.0
77.451393 196.0
77.470657 108.0
77.514465 244.0
77.561783 84.0
77.688042 212.0
77.756477 156.0
77.858299 212.0
77.976013 144.0
78.016441 204.0
78.065674 204.0
78.160667 184.0
78.255714 188.0
78.350822 64.0
78.391342 156.0
78.414253 148.0
78.446762 136.0
78.57296 148.0
78.601189 56.0
78.972191 152.0
79.009338 268.0
79.044724 152.0
79.062424 64.0
79.090736 56.0
79.127914 172.0
79.227089 136.0
79.25721 160.0
79.322784 152.0
79.423859 224.0
79.544525 52.0
79.638634 144.0
79.6866 208.0
79.770126 104.0
79.933754 208.0
79.987144 156.0
80.032631 176.0
80.102898 156.0
80.234772 200.0
80.259727 184.0
80.276634 204.0
80.393517 172.0
80.406013 224.0
80.470276 280.0
80.557785 188.0
80.589943 172.0
80.659645 172.0
80.690033 188.0
80.704338 140.0
80.82077 168.0
80.842072 168.0
80.868919 228.0
80.902931 152.0
81.071297 144.0
81.455261 236.0
81.575661 120.0
81.617012 224.0
81.681755 200.0
81.732132 144.0
81.750122 120.0
81.822121 156.0
81.834724 216.0
81.915771 136.0
82.234924 64.0
82.388412 176.0
82.433586 212.0
82.469734 144.0
82.520348 192.0
82.538429 164.0
82.616203 164.0
82.646965 44.0
82.666862 132.0
82.69944 136.0
82.797211 80.0
82.829811 36.0
82.889603 160.0
82.92585 120.0
83.058212 112.0
83.072723 48.0
83.126373 212.0
83.143486 320.0
83.223358 128.0
83.270576 72.0
83.286919 160.0
83.352325 140.0
83.665161 148.0
83.743469 124.0
83.85643 96.0
83.923882 144.0
84.007774 212.0
84.104485 128.0
84.256058 160.0
84.330978 212.0
84.409592 140.0
84.473602 232.0
84.524834 160.0
84.566925 224.0
84.709747 56.0
84.77021 220.0
84.797699 208.0
84.87394 116.0
84.920547 148.0
85.026962 136.0
85.307991 212.0
85.381538 180.0
85.396255 188.0
85.657631 180.0
85.698158 196.0
85.784782 140.0
86.003662 236.0
86.033829 204.0
86.225929 44.0
86.30912 196.0
86.338707 144.0
86.451553 56.0
86.631157 136.0
86.664505 184.0
86.747292 128.0
86.855598 160.0
86.925957 176.0
86.998344 172.0
87.042908 164.0
87.195244 160.0
87.247284 168.0
87.329109 132.0
87.436287 224.0
87.477966 116.0
87.526375 176.0
87.54686 204.0
87.680161 188.0
87.7015 108.0
87.824051 176.0
87.841347 168.0
87.85627 240.0
88.013046 180.0
88.074677 164.0
88.123253 136.0
88.261955 172.0
88.295227 108.0
88.323288 132.0
88.399994 76.0
88.521545 156.0
88.570366 212.0
88.604088 176.0
88.624695 168.0
88.665924 136.0
88.719086 188.0
88.813576 192.0
89.04866 132.0
89.065567 164.0
89.144478 112.0
89.285469 84.0
89.315567 152.0
89.494347 184.0
89.654465 176.0
89.837364 176.0
89.961914 164.0
90.264214 48.0
90.293045 180.0
90.324966 200.0
90.349327 40.0
90.381493 180.0
90.40799 156.0
90.428802 196.0
90.472343 148.0
90.517784 180.0
90.531036 264.0
90.557556 152.0
90.748955 48.0
90.802048 148.0
90.836189 136.0
90.999405 132.0
91.054398 544.0
91.185562 200.0
91.29583 216.0
91.366211 240.0
91.387138 196.0
91.450981 132.0
91.535614 112.0
91.602272 220.0
91.794769 180.0
91.852577 168.0
92.008514 168.0
92.046661 160.0
92.062195 176.0
92.10968 128.0
92.199486 196.0
92.254913 200.0
92.287415 184.0
92.392609 140.0
92.492119 92.0
92.528496 164.0
92.62233 144.0
92.691299 132.0
92.734467 152.0
92.894531 180.0
93.044991 7168.0
93.07093 452.0
93.088379 180.0
93.103745 36.0
93.140907 200.0
93.161369 64.0
93.18058 72.0
93.208176 100.0
93.225449 216.0
93.407425 172.0
93.428589 148.0
93.476692 216.0
93.495934 208.0
93.572929 36.0
93.60952 64.0
93.728951 84.0
93.7752 72.0
93.798332 112.0
93.815681 168.0
93.848457 132.0
93.861954 56.0
93.908234 168.0
94.049026 352.0
94.174591 148.0
94.190048 168.0
94.236412 204.0
94.311783 164.0
94.36274 232.0
94.392296 124.0
94.42392 144.0
94.44133 120.0
94.466476 188.0
94.560837 188.0
94.578712 160.0
94.642593 180.0
94.685196 88.0
94.764618 128.0
94.847954 168.0
94.993385 200.0
95.045593 172.0
95.061295 204.0
95.129227 204.0
95.158348 100.0
95.191643 164.0
95.210777 196.0
95.243889 172.0
95.270988 200.0
95.305962 144.0
95.364265 196.0
95.447861 124.0
95.474068 212.0
95.64241 128.0
95.860542 200.0
95.920959 144.0
95.983345 60.0
96.102333 116.0
96.262398 200.0
96.279968 120.0
96.506645 120.0
96.561401 168.0
96.71402 152.0
96.759041 156.0
96.829536 132.0
96.854996 220.0
97.019608 156.0
97.062737 192.0
97.096077 192.0
97.221634 132.0
97.247154 180.0
97.298187 148.0
97.335495 212.0
97.355133 176.0
97.484917 184.0
97.53392 128.0
97.606667 164.0
97.73452 136.0
97.815216 152.0
97.863213 220.0
97.921539 168.0
97.951088 180.0
98.217194 196.0
98.268433 156.0
98.373085 176.0
98.407845 204.0
98.481689 136.0
98.519218 52.0
98.546883 128.0
98.714897 176.0
98.767067 148.0
98.866447 184.0
98.874924 112.0
98.879784 172.0
99.116737 244.0
99.267387 248.0
99.289207 136.0
99.307053 216.0
99.378471 128.0
99.396332 160.0
99.485641 132.0
99.545212 184.0
99.857224 220.0
99.922867 120.0
100.111702 1704.0
100.205589 92.0
100.317192 56.0
100.382988 72.0
100.410904 148.0
100.488708 160.0
100.526398 184.0
100.612442 160.0
100.678337 152.0
100.834167 152.0
100.906136 168.0
100.926125 172.0
100.944122 128.0
100.97612 104.0
101.005653 136.0
101.116592 152.0
101.258324 176.0
101.306396 168.0
101.326431 120.0
101.364502 120.0
101.494789 60.0
101.516853 164.0
101.773705 256.0
101.882156 84.0
101.940422 132.0
102.046753 1172.0
102.065346 168.0
102.111305 144.0
102.125389 152.0
102.151535 168.0
102.195801 204.0
102.213905 216.0
102.254486 172.0
102.320587 108.0
102.336693 104.0
102.368912 80.0
102.405159 120.0
102.540154 156.0
102.568581 188.0
102.638931 184.0
102.653534 152.0
102.71154 52.0
102.814438 220.0
102.832603 188.0
102.872971 208.0
102.957779 132.0
103.002213 164.0
103.054733 29464.0
103.11573 52.0
103.129509 136.0
103.163872 192.0
103.179001 124.0
103.208351 108.0
103.231979 76.0
103.290024 104.0
103.313522 36.0
103.349449 180.0
103.387688 120.0
103.414162 232.0
103.432915 68.0
103.453163 192.0
103.476929 92.0
103.511879 136.0
103.584785 56.0
103.631386 56.0
103.659752 208.0
103.686096 56.0
103.710419 48.0
103.73542 72.0
103.74662 56.0
103.836128 76.0
103.919296 136.0
104.027092 104.0
104.059166 5036.0
104.138542 56.0
104.199486 172.0
104.222794 144.0
104.256378 100.0
104.270607 80.0
104.317352 204.0
104.347847 40.0
104.425125 112.0
104.447502 72.0
104.465805 188.0
104.488182 52.0
104.577721 132.0
104.616402 52.0
104.712097 136.0
104.752037 112.0
104.771172 52.0
104.795624 180.0
104.82283 140.0
104.848602 100.0
104.88237 236.0
104.903633 176.0
104.924026 152.0
104.989273 64.0
105.020676 192.0
105.064659 276.0
105.067108 304.0
105.295403 132.0
105.409805 176.0
105.460899 48.0
105.491562 140.0
105.796371 40.0
105.927437 112.0
106.040977 212.0
106.069443 364.0
106.159958 172.0
106.220573 132.0
106.643562 168.0
106.67028 108.0
106.773087 160.0
106.789543 160.0
106.85331 232.0
106.997375 204.0
107.024147 212.0
107.048698 3948.0
107.07975 32.0
107.143112 76.0
107.219841 192.0
107.236336 152.0
107.329102 40.0
107.459045 212.0
107.621468 156.0
107.770821 160.0
107.954788 200.0
108.051819 448.0
108.157547 192.0
108.414375 168.0
108.524239 128.0
108.594742 56.0
108.649078 256.0
108.673576 56.0
108.727524 148.0
108.789795 192.0
108.827171 124.0
108.874931 148.0
108.908157 108.0
108.935165 180.0
108.962173 160.0
109.013428 144.0
109.055199 256.0
109.132599 148.0
109.163795 160.0
109.209549 136.0
109.288597 136.0
109.44471 188.0
109.638664 220.0
109.669701 144.0
109.865715 68.0
109.911621 172.0
109.961708 144.0
110.011879 192.0
110.068176 168.0
110.160072 104.0
110.176781 72.0
110.241554 176.0
110.576172 152.0
110.731102 116.0
110.766716 152.0
110.798134 132.0
110.861 180.0
110.957413 108.0
111.025192 348.0
111.055611 2072.0
111.204948 156.0
111.249031 128.0
111.326714 164.0
111.364517 132.0
111.410736 200.0
111.463257 168.0
111.49688 172.0
111.511024 132.0
111.543121 172.0
111.574654 172.0
111.59568 44.0
111.759743 76.0
111.84182 120.0
111.934448 104.0
112.035553 228.0
112.058891 216.0
112.115616 112.0
112.149338 168.0
112.193611 212.0
112.337013 100.0
112.423523 164.0
112.548065 104.0
112.626205 144.0
112.689583 116.0
112.710709 36.0
112.727615 140.0
112.755089 72.0
112.964417 120.0
113.040588 196.0
113.061752 116.0
113.121017 168.0
113.884377 104.0
113.996979 184.0
114.256386 124.0
114.467102 148.0
114.588509 136.0
114.650307 92.0
114.733437 140.0
114.831528 148.0
114.901917 212.0
114.980873 132.0
115.050209 172.0
115.123909 128.0
115.151672 136.0
115.185852 200.0
115.234985 160.0
115.317001 168.0
115.339699 224.0
115.55912 220.0
115.699089 148.0
116.016151 152.0
116.069756 144.0
116.29287 264.0
116.438866 140.0
116.520493 80.0
116.54628 152.0
116.603912 220.0
116.89032 160.0
117.021622 196.0
117.056168 188.0
117.084068 160.0
117.178848 176.0
117.377151 116.0
117.476364 136.0
117.607994 136.0
117.661957 212.0
117.692184 120.0
117.841225 132.0
117.979538 148.0
118.040779 444.0
118.062912 792.0
118.094147 216.0
118.167702 132.0
118.247765 140.0
118.291054 192.0
118.310539 148.0
118.611649 180.0
118.657173 160.0
118.690819 180.0
118.853561 140.0
118.906631 196.0
119.048386 5436.0
119.073433 2768.0
119.117249 152.0
119.322815 88.0
119.547752 56.0
119.730621 100.0
119.812706 228.0
119.909271 168.0
119.998642 160.0
120.029167 160.0
120.055565 7016.0
120.078102 2356.0
120.159157 100.0
120.180817 84.0
120.208046 76.0
120.273521 108.0
120.309174 132.0
120.316505 208.0
120.343376 36.0
120.378311 204.0
120.532417 168.0
120.568047 132.0
120.614273 52.0
120.662369 36.0
120.769524 132.0
120.80233 80.0
120.846085 56.0
120.946754 180.0
120.964264 124.0
120.981781 100.0
121.007927 116.0
121.039619 13800.0
121.063484 3060.0
121.130455 112.0
121.231476 68.0
121.270927 196.0
121.422211 80.0
121.444702 204.0
121.464027 120.0
121.597725 88.0
121.672363 88.0
121.773376 200.0
121.815109 124.0
121.968925 156.0
122.044487 1156.0
122.066338 180.0
122.089851 180.0
122.358307 36.0
122.395737 68.0
122.66893 72.0
122.750504 196.0
122.87941 136.0
122.933601 56.0
122.988777 152.0
123.028511 212.0
123.06353 152.0
123.068832 76.0
123.077805 220.0
123.271469 168.0
123.375359 152.0
123.423996 124.0
123.780258 168.0
123.864418 120.0
123.913155 168.0
123.988495 140.0
124.208 140.0
124.332253 140.0
124.381081 192.0
124.689812 176.0
124.868889 176.0
125.006241 444.0
125.041214 68.0
125.067924 184.0
125.154747 108.0
125.346313 196.0
125.667397 208.0
125.833427 184.0
126.109566 84.0
126.25489 156.0
126.360023 76.0
126.400299 92.0
126.633125 136.0
126.684647 120.0
126.724968 148.0
126.769783 120.0
126.810127 100.0
126.828339 200.0
126.955856 36.0
127.00071 72.0
127.052299 152.0
127.256538 104.0
127.34861 96.0
127.595802 160.0
127.86348 120.0
127.958023 144.0
128.047867 388.0
128.097656 48.0
128.257645 76.0
128.458328 100.0
128.530533 88.0
128.557602 192.0
128.632095 152.0
128.695297 84.0
129.069565 316.0
129.201569 208.0
129.276245 192.0
129.328293 212.0
129.383759 156.0
129.439224 64.0
129.649902 196.0
129.77005 140.0
129.840347 172.0
129.919739 196.0
130.070221 204.0
130.146698 200.0
130.278427 140.0
130.3125 164.0
130.360214 100.0
130.412491 44.0
130.95401 148.0
131.02887 180.0
131.06012 9280.0
131.159073 136.0
131.183365 140.0
131.202393 52.0
131.24115 120.0
131.41449 108.0
131.487518 60.0
131.59024 148.0
131.654175 144.0
131.677017 84.0
131.772964 64.0
131.800369 100.0
131.836945 64.0
131.92836 64.0
131.962662 116.0
132.024399 104.0
132.062927 768.0
132.113602 152.0
132.143341 44.0
132.195969 64.0
132.331024 120.0
132.413467 40.0
132.505096 144.0
132.686157 168.0
132.807693 112.0
133.00502 28.0
133.064072 144.0
133.079254 156.0
133.595596 80.0
133.699142 188.0
133.897125 152.0
133.912582 236.0
134.058533 796.0
134.254349 236.0
134.713882 128.0
135.018768 84.0
135.041901 168.0
135.065353 388.0
135.104355 212.0
135.152939 228.0
135.729706 224.0
135.808563 136.0
135.871201 144.0
135.899033 132.0
135.973297 144.0
136.048843 200.0
136.077759 132.0
136.140442 152.0
136.258911 80.0
136.28215 200.0
136.535522 60.0
136.644852 124.0
136.712341 120.0
136.728622 132.0
136.898575 188.0
136.961456 224.0
137.008041 408.0
137.056976 152.0
137.103577 116.0
137.36705 160.0
137.684494 156.0
137.738205 48.0
137.955536 172.0
137.981247 84.0
137.999954 44.0
138.041199 88.0
138.065491 896.0
138.10051 52.0
138.151978 220.0
138.463287 156.0
138.535904 108.0
138.594467 124.0
138.706894 124.0
138.784332 140.0
138.880478 84.0
139.021606 3844.0
139.049652 5764.0
139.0858 40.0
139.241425 148.0
139.270126 76.0
139.312408 84.0
139.575638 72.0
139.610916 124.0
139.650894 76.0
139.700287 160.0
139.857956 180.0
139.945053 176.0
139.966248 156.0
140.022919 372.0
140.051666 372.0
140.213608 152.0
140.310242 60.0
140.345612 80.0
140.794434 164.0
140.860107 104.0
140.909714 36.0
140.942795 172.0
141.016052 328.0
141.037323 88.0
141.07515 148.0
141.094055 76.0
141.19101 160.0
141.419159 148.0
141.489151 208.0
141.631241 180.0
141.702316 160.0
141.849243 196.0
141.894287 104.0
142.010483 268.0
142.034195 180.0
142.059418 372.0
142.293228 184.0
142.504257 184.0
142.739563 156.0
142.772858 144.0
142.89418 148.0
142.920349 132.0
143.161514 64.0
143.327515 132.0
144.045639 144.0
144.365921 272.0
144.492691 208.0
144.581223 208.0
144.667404 172.0
144.703308 136.0
144.782333 152.0
144.954819 176.0
145.033905 56.0
145.580917 68.0
145.717834 124.0
145.782715 152.0
145.804352 156.0
145.8452 64.0
146.011108 144.0
146.054047 488.0
146.124161 164.0
146.143417 116.0
146.367264 192.0
146.422653 112.0
146.547913 200.0
146.576828 72.0
146.649124 156.0
147.075089 180.0
147.228165 56.0
147.435928 188.0
147.593063 208.0
147.837372 48.0
147.980194 132.0
148.02124 4440.0
148.052841 208.0
148.083984 204.0
148.11824 136.0
148.227264 84.0
148.377533 156.0
148.501205 88.0
148.544861 176.0
148.583679 104.0
148.612793 136.0
148.87738 192.0
149.005539 2288.0
149.059357 1096.0
149.292953 36.0
149.373215 124.0
149.390244 180.0
149.521637 164.0
149.748062 92.0
149.884491 172.0
149.903976 100.0
149.932724 196.0
149.967346 208.0
150.010895 396.0
150.065903 20708.0
150.141861 76.0
150.177032 64.0
150.196426 80.0
150.219574 128.0
150.246063 204.0
150.352707 120.0
150.375626 156.0
150.455215 88.0
150.521149 56.0
150.628601 68.0
150.730377 84.0
150.83876 96.0
150.973846 64.0
151.00502 168.0
151.068176 1664.0
151.100433 164.0
151.119995 88.0
151.15181 192.0
151.281525 68.0
151.656311 56.0
151.751923 156.0
151.981445 152.0
152.071014 164.0
152.122375 152.0
152.17392 92.0
152.191116 52.0
152.306534 84.0
152.35321 44.0
152.394974 176.0
152.436752 36.0
152.471161 120.0
152.495728 172.0
152.640778 132.0
152.726852 36.0
152.746536 100.0
152.867096 116.0
153.055939 224.0
153.112488 224.0
153.145294 84.0
153.477997 196.0
153.662979 148.0
153.927094 44.0
153.988831 196.0
154.064438 340.0
154.24086 52.0
154.381775 168.0
154.416412 188.0
154.463409 232.0
154.584641 172.0
154.631653 68.0
154.705917 156.0
154.847061 156.0
155.015488 768.0
155.070038 176.0
155.197128 180.0
155.402344 140.0
155.556213 208.0
155.593445 196.0
155.620758 32.0
155.645584 148.0
155.712631 276.0
155.951157 164.0
156.021515 284.0
156.05806 208.0
156.078369 208.0
156.431229 72.0
156.814835 140.0
156.857208 88.0
157.006805 364.0
157.041718 68.0
157.101593 164.0
157.181427 44.0
157.426071 160.0
157.466019 212.0
157.690887 244.0
157.800873 124.0
158.005966 76.0
158.056 188.0
158.074539 88.0
158.091034 208.0
158.278778 136.0
158.345093 200.0
158.383972 140.0
158.569382 164.0
158.654602 48.0
158.800049 52.0
158.842682 236.0
158.872787 168.0
159.063507 48.0
159.588577 108.0
159.880371 128.0
160.283295 160.0
160.374023 64.0
160.487473 224.0
160.565643 204.0
160.785126 136.0
161.083069 172.0
161.237198 168.0
161.272583 136.0
161.333252 132.0
161.644363 92.0
161.753189 156.0
161.867111 56.0
162.064392 136.0
162.277603 156.0
162.335922 152.0
162.373962 136.0
162.673264 156.0
162.734299 140.0
162.830795 168.0
163.061996 124.0
163.237411 116.0
163.316254 120.0
163.405289 104.0
163.657272 136.0
163.761673 116.0
163.799881 68.0
163.899246 176.0
163.961929 208.0
164.024124 116.0
164.080215 132.0
164.30719 196.0
164.337814 160.0
164.516464 140.0
164.884277 196.0
164.920059 64.0
165.111816 76.0
165.38559 116.0
165.490555 136.0
165.531525 184.0
165.628845 132.0
165.743439 208.0
165.913284 208.0
166.030807 4576.0
166.090225 80.0
166.208252 48.0
166.274963 92.0
166.301544 180.0
166.369934 36.0
166.395615 32.0
166.43927 300.0
166.660156 44.0
166.755249 72.0
166.806656 208.0
166.829788 124.0
166.847778 132.0
166.894928 96.0
166.948029 168.0
166.954269 164.0
166.965179 200.0
166.983444 224.0
167.015961 51216.0
167.111557 56.0
167.133286 68.0
167.172882 72.0
167.203598 92.0
167.242905 72.0
167.287155 132.0
167.331467 52.0
167.352066 124.0
167.384537 92.0
167.440796 24.0
167.483398 64.0
167.506592 44.0
167.542343 68.0
167.619949 76.0
167.642517 124.0
167.688766 188.0
167.761703 40.0
167.795227 72.0
167.826477 72.0
167.878738 112.0
167.926224 60.0
167.955109 48.0
167.975739 28.0
168.018799 4188.0
168.073242 184.0
168.135712 104.0
168.20282 64.0
168.236374 64.0
168.357742 32.0
168.38356 44.0
168.502396 160.0
168.534943 80.0
168.626419 60.0
168.69104 56.0
168.755676 80.0
168.794464 156.0
168.906326 220.0
168.967758 60.0
169.012985 2620.0
169.071701 252.0
169.094559 204.0
169.226578 204.0
169.270142 224.0
169.301666 120.0
169.343933 76.0
169.396774 240.0
169.429062 44.0
169.516693 116.0
169.973083 204.0
170.01062 184.0
170.054749 128.0
170.104874 216.0
170.204102 84.0
170.258194 116.0
170.59642 176.0
170.965759 36.0
171.095917 204.0
171.134964 172.0
171.187622 72.0
171.20787 152.0
171.351151 88.0
171.61438 48.0
171.992661 168.0
172.070984 128.0
172.19371 48.0
173.069763 104.0
173.630554 176.0
173.711868 156.0
174.018921 220.0
174.320999 104.0
174.828537 204.0
174.88118 124.0
175.010178 188.0
175.273575 156.0
176.012161 40.0
176.493073 220.0
176.818451 172.0
177.059372 180.0
177.077911 132.0
177.679642 144.0
177.700867 92.0
177.897507 168.0
178.205338 224.0
178.250504 80.0
178.436569 164.0
178.766464 144.0
178.792999 196.0
179.048172 128.0
179.197754 116.0
179.456299 68.0
179.53363 184.0
179.666992 232.0
179.733688 132.0
179.864471 120.0
179.928543 100.0
179.995285 132.0
180.04068 172.0
180.062042 184.0
180.275772 40.0
180.318542 100.0
180.570679 116.0
180.632904 140.0
180.78656 56.0
181.075363 400.0
181.126587 192.0
181.458893 204.0
182.079803 336.0
182.323242 104.0
182.530228 96.0
182.640503 88.0
182.664764 212.0
182.753494 212.0
182.820755 124.0
182.906891 60.0
182.949951 148.0
182.984955 72.0
183.049423 140.0
183.052841 132.0
183.090942 6596.0
183.494171 100.0
183.609573 60.0
183.661362 76.0
183.685638 84.0
183.723404 236.0
183.758484 88.0
183.852921 168.0
183.879913 104.0
183.944687 112.0
183.975464 80.0
184.014603 380.0
184.043289 3408.0
184.096695 1504.0
184.132401 152.0
184.166107 64.0
184.22554 164.0
184.322525 76.0
184.836578 60.0
185.027527 532.0
185.035889 676.0
185.07103 248.0
185.106476 336.0
185.95311 176.0
186.025925 184.0
186.137711 224.0
186.227341 44.0
186.363159 120.0
186.702957 160.0
187.081131 208.0
187.20369 44.0
187.277222 152.0
187.838745 120.0
188.149841 200.0
188.635727 140.0
188.672668 140.0
189.284546 152.0
189.317398 108.0
189.972473 88.0
190.002655 184.0
190.095947 128.0
190.18103 52.0
190.491318 152.0
190.656174 108.0
190.719391 184.0
190.741379 244.0
191.008102 52.0
191.027359 168.0
191.244751 48.0
191.503555 164.0
192.013443 124.0
192.032761 96.0
192.307648 232.0
193.082275 112.0
193.159714 140.0
194.087509 128.0
195.089859 1432.0
195.309479 84.0
195.448578 176.0
195.713013 216.0
195.754776 152.0
196.080475 272.0
196.114166 180.0
196.217316 112.0
196.691559 128.0
197.073227 168.0
197.106537 636.0
197.166382 176.0
197.359268 168.0
197.412399 144.0
197.440353 44.0
198.031693 792.0
198.089493 148.0
198.109924 596.0
198.386765 64.0
198.87767 96.0
198.916962 40.0
199.081589 180.0
199.512512 76.0
200.02388 536.0
200.083618 80.0
200.489243 148.0
200.658371 136.0
200.906555 144.0
201.059158 184.0
201.437271 120.0
201.505066 140.0
201.892334 56.0
202.050735 140.0
202.447006 152.0
202.996765 184.0
204.650543 120.0
205.00946 176.0
205.075623 312.0
205.68541 160.0
205.799606 208.0
205.936676 160.0
206.028091 112.0
206.073288 372.0
206.199539 120.0
206.39679 172.0
206.428253 136.0
206.888901 160.0
207.020615 104.0
207.078079 620.0
207.476196 80.0
207.536407 136.0
207.780197 188.0
207.955246 108.0
208.0811 368.0
208.127487 176.0
208.475067 40.0
208.578537 60.0
209.09465 588.0
209.150955 220.0
209.364014 160.0
209.617523 88.0
209.842346 132.0
209.914429 164.0
209.940384 220.0
209.963455 120.0
209.983643 48.0
210.021667 3012.0
210.067963 192.0
210.104172 144.0
210.410721 44.0
210.517807 140.0
210.942276 208.0
211.026733 484.0
211.086075 6012.0
211.234344 156.0
211.290817 100.0
211.329819 52.0
211.57872 44.0
211.729294 148.0
211.874115 172.0
211.894409 108.0
212.016296 116.0
212.084625 396.0
212.13205 140.0
212.410431 44.0
212.777328 176.0
212.802216 88.0
212.874802 128.0
212.999695 196.0
213.034546 96.0
213.068069 320.0
213.108688 268.0
213.735229 48.0
213.947708 200.0
214.023407 124.0
214.059586 188.0
214.096207 92.0
214.428329 116.0
214.451645 124.0
214.472046 88.0
214.521606 144.0
214.792801 52.0
214.970779 116.0
215.35907 120.0
215.686325 120.0
216.116226 116.0
216.139633 96.0
216.1689 96.0
216.271332 120.0
216.660797 168.0
216.701813 124.0
216.980255 76.0
217.015442 120.0
217.091675 152.0
217.229523 208.0
217.379166 124.0
218.828278 136.0
219.119858 208.0
220.085541 420.0
220.341293 152.0
220.486084 216.0
220.707794 260.0
221.018372 136.0
221.066193 152.0
221.092484 500.0
221.468369 128.0
221.903992 224.0
221.957367 224.0
221.998886 232.0
222.101669 9520.0
222.17981 144.0
222.224319 72.0
222.375656 64.0
222.500336 52.0
222.57457 72.0
222.844864 80.0
222.89537 88.0
223.087753 1456.0
223.103714 1040.0
223.180725 180.0
223.228302 36.0
223.249115 32.0
223.469238 36.0
224.005112 88.0
224.085876 644.0
224.113327 188.0
224.398499 96.0
224.443222 108.0
224.580414 96.0
224.714661 68.0
224.780304 132.0
224.938477 164.0
225.015106 156.0
225.087357 728.0
225.225143 68.0
225.425308 96.0
225.479111 56.0
225.529922 96.0
225.750565 120.0
225.825928 132.0
225.921646 68.0
226.097076 2944.0
226.262817 68.0
226.283783 60.0
226.412537 52.0
226.511383 100.0
226.634216 56.0
227.044891 92.0
227.100464 1116.0
227.221863 36.0
227.404404 116.0
227.488968 136.0
228.03566 152.0
228.086746 152.0
228.106461 144.0
228.182953 56.0
228.294205 128.0
228.658234 124.0
228.908096 76.0
228.962311 128.0
229.568054 144.0
230.03775 352.0
230.093079 100.0
230.851501 100.0
230.966431 152.0
231.062332 136.0
231.090454 168.0
232.0233 52.0
232.059677 132.0
232.6604 124.0
232.797028 132.0
233.68158 136.0
233.708954 116.0
234.339233 120.0
234.961197 76.0
235.516785 180.0
235.587036 168.0
235.700089 208.0
236.082535 176.0
236.357513 140.0
236.706467 96.0
237.090607 328.0
237.190536 88.0
237.307037 112.0
237.583054 44.0
237.813202 84.0
237.868454 148.0
237.997406 72.0
238.028107 200.0
238.096588 5268.0
238.215454 120.0
238.240036 36.0
238.288193 108.0
238.326065 120.0
238.651871 60.0
238.707214 44.0
238.773849 96.0
238.796402 56.0
238.925598 108.0
238.974823 136.0
239.067139 88.0
239.103424 760.0
239.294922 32.0
239.381134 136.0
239.756973 140.0
239.78511 92.0
239.837112 188.0
239.867935 48.0
239.920349 112.0
240.064301 164.0
240.112762 9800.0
240.176285 140.0
240.204056 84.0
240.28299 68.0
240.324371 40.0
240.392258 92.0
240.420029 60.0
240.460266 104.0
240.562012 172.0
240.589798 136.0
240.620667 52.0
240.746277 124.0
240.796677 144.0
240.963486 116.0
241.04422 156.0
241.115082 1504.0
241.210724 48.0
241.365311 68.0
241.538498 132.0
241.847931 88.0
241.876373 168.0
241.974854 144.0
242.119354 252.0
242.140076 460.0
242.300049 132.0
242.324829 76.0
242.396103 76.0
242.537415 140.0
242.684372 88.0
242.761887 188.0
242.870438 116.0
243.006943 44.0
243.042023 144.0
243.059143 92.0
243.066223 116.0
243.214859 32.0
243.307983 72.0
243.357666 100.0
243.404236 116.0
243.814301 224.0
244.109634 172.0
244.330475 56.0
245.034088 148.0
245.055893 164.0
245.389389 68.0
246.060181 200.0
246.419357 100.0
246.788162 28.0
247.116577 84.0
247.29007 76.0
247.40451 36.0
250.192307 124.0
250.482025 176.0
250.740402 144.0
251.036743 136.0
251.213364 84.0
251.63942 284.0
252.486282 172.0
252.559036 132.0
252.948242 156.0
253.087204 188.0
253.293396 52.0
253.616592 64.0
253.778275 76.0
254.076401 104.0
254.45726 80.0
254.803436 92.0
254.847916 68.0
254.901932 128.0
255.09729 1020.0
255.283401 172.0
255.51561 112.0
255.77655 132.0
255.802017 92.0
255.993057 80.0
256.052551 164.0
256.106964 8352.0
256.177795 100.0
256.222382 100.0
256.49704 44.0
256.576141 56.0
256.678162 88.0
256.711182 104.0
256.926971 172.0
257.057831 152.0
257.108459 1920.0
257.255676 136.0
257.281189 92.0
257.440369 104.0
257.546234 200.0
257.875336 92.0
258.030273 104.0
258.069122 2588.0
258.105133 148.0
258.145844 72.0
258.217438 48.0
258.364594 32.0
258.44458 68.0
258.742249 36.0
259.071533 572.0
259.116943 160.0
259.18103 192.0
259.248322 100.0
259.565704 92.0
260.064697 160.0
260.202423 116.0
260.535004 100.0
261.061829 132.0
261.084656 184.0
261.898926 140.0
262.127655 108.0
263.625 48.0
263.854492 104.0
263.883606 236.0
264.032349 52.0
264.91922 76.0
265.35144 200.0
265.4216 124.0
265.765411 132.0
265.843292 104.0
265.976379 208.0
266.00235 236.0
267.009583 152.0
267.370728 160.0
267.487885 132.0
267.585571 156.0
267.820038 124.0
268.055206 908.0
268.113251 120.0
268.30426 156.0
268.64801 68.0
269.046234 124.0
269.372711 200.0
270.059143 96.0
270.10495 100.0
271.169098 104.0
271.408386 132.0
271.998932 128.0
272.092804 248.0
272.307587 184.0
273.468201 192.0
273.501129 40.0
273.751343 124.0
274.097229 136.0
274.308136 148.0
274.529053 112.0
274.608215 68.0
274.756653 168.0
274.961243 124.0
275.159302 232.0
275.238525 68.0
275.720825 92.0
275.872894 100.0
276.378906 52.0
276.554321 148.0
276.693329 48.0
277.282959 68.0
278.919312 212.0
279.198608 152.0
280.133911 128.0
280.770538 168.0
280.793884 172.0
280.953979 140.0
281.324432 80.0
282.417114 124.0
282.731598 80.0
282.935791 240.0
284.122192 72.0
284.32016 60.0
284.437622 96.0
284.592072 216.0
284.716309 148.0
284.739807 104.0
284.817078 56.0
285.042267 296.0
285.112732 128.0
285.257263 172.0
285.35141 88.0
285.405182 212.0
285.526245 112.0
285.549805 124.0
285.596222 220.0
285.674255 44.0
285.721344 116.0
285.755005 72.0
285.832397 124.0
285.928894 148.0
285.967651 148.0
286.00885 244.0
286.063599 25924.0
286.158325 24.0
286.296478 60.0
286.377777 56.0
286.41803 80.0
286.556305 36.0
286.654022 56.0
286.697845 104.0
286.745026 52.0
286.842773 196.0
286.866119 52.0
287.065582 4124.0
287.19577 64.0
287.264282 172.0
287.402618 88.0
287.530853 108.0
287.598358 116.0
287.628723 40.0
287.682739 124.0
287.767151 88.0
287.907074 128.0
287.986633 44.0
288.059662 1472.0
288.209625 64.0
288.504639 124.0
288.554382 160.0
288.592957 56.0
288.732666 112.0
288.758575 92.0
288.784332 52.0
288.868896 68.0
289.007599 92.0
289.06839 120.0
289.251251 40.0
289.90155 56.0
290.060852 112.0
290.366028 52.0
291.062866 196.0
292.894806 104.0
293.453705 136.0
294.14624 100.0
295.372986 132.0
295.427734 72.0
295.550903 32.0
295.841827 156.0
299.550629 72.0
299.764221 168.0
300.08136 48.0
302.039459 84.0
302.070587 48.0
302.392365 88.0
302.818237 120.0
303.090698 688.0
303.327576 52.0
303.355316 180.0
303.410797 68.0
303.51828 56.0
303.577209 116.0
303.705536 188.0
303.810486 132.0
303.833893 176.0
303.917175 120.0
303.985535 136.0
304.075043 10124.0
304.142731 60.0
304.173981 40.0
304.227417 132.0
304.321136 96.0
304.48996 52.0
304.872101 108.0
305.076111 1252.0
305.212769 56.0
305.278839 72.0
305.470154 100.0
305.734589 52.0
305.818115 76.0
305.960815 124.0
306.077698 416.0
306.291656 76.0
306.831818 56.0
307.081329 288.0
307.166595 52.0
307.211945 132.0
307.456177 108.0
307.505035 88.0
307.920532 104.0
308.381714 76.0
308.406189 116.0
308.920197 40.0
310.412262 36.0
312.646484 140.0
313.026703 128.0
313.111206 48.0
314.789886 108.0
314.899353 40.0
315.800629 36.0
316.944122 64.0
317.766724 48.0
318.089661 148.0
320.183899 60.0
320.743286 116.0
320.814606 140.0
321.101318 8624.0
321.219116 64.0
321.285339 52.0
321.513702 68.0
321.538696 56.0
321.742157 52.0
321.781433 64.0
321.936066 64.0
321.963531 196.0
322.100586 1280.0
322.227875 56.0
322.395813 40.0
322.578094 44.0
322.603119 36.0
322.642456 60.0
322.735413 60.0
323.096161 560.0
323.46524 56.0
323.687225 36.0
324.091675 160.0
324.242493 112.0
324.303406 44.0
324.439636 124.0
325.314972 40.0
327.097961 60.0
327.638153 52.0
329.063171 168.0
330.061951 156.0
330.222717 40.0
332.763 80.0
333.122528 28.0
333.253326 76.0
339.847534 132.0
341.62207 180.0
346.932556 104.0
347.080536 1404.0
347.175293 52.0
347.611328 56.0
347.648438 56.0
347.68924 136.0
348.075378 180.0
348.179321 72.0
349.07547 364.0
349.599457 72.0
350.679504 96.0
353.121307 60.0
353.203613 60.0
354.176819 84.0
360.943665 164.0
361.14032 40.0
362.325165 56.0
364.556274 48.0
371.455597 144.0
373.441437 52.0
377.03476 100.0
377.162292 104.0
378.961823 84.0
383.999908 132.0
386.371002 100.0
388.769012 48.0
399.556396 80.0
401.751526 44.0
423.152924 68.0
427.331116 48.0
428.1091 56.0
432.887085 72.0
445.844788 36.0
447.131714 148.0
447.287445 156.0
455.333801 96.0
468.913788 76.0
474.945465 120.0
477.394989 104.0
484.417786 140.0
485.263611 88.0
514.645935 100.0
516.209351 112.0
517.892944 88.0
520.178284 88.0
526.685364 160.0
531.836609 36.0
539.316956 144.0
560.651917 52.0
561.109131 108.0
562.312012 48.0
565.279907 40.0
573.0625 64.0
574.459412 56.0
600.474243 104.0
602.03595 60.0
605.645447 72.0
619.943359 160.0
620.047485 88.0
633.982117 40.0
649.699036 56.0
663.822693 84.0
680.889465 128.0
681.003723 64.0
681.471252 88.0
705.047485 60.0
714.629639 112.0
722.055176 76.0
727.295227 44.0
729.08374 152.0
729.895508 32.0
732.494995 76.0
780.621033 180.0
797.960693 104.0
799.051819 228.0
808.175232 124.0
819.235046 208.0
820.48877 128.0
820.671265 36.0
822.730896 100.0
823.267639 176.0
840.743042 164.0
855.90802 168.0
862.588257 156.0
866.544373 112.0
878.148621 152.0
879.269592 228.0
879.499756 152.0
879.718201 224.0
882.19342 72.0
888.743835 180.0
900.578857 160.0
903.980652 164.0
909.812683 48.0
914.393066 144.0
916.079041 144.0
919.491882 28.0
923.013855 72.0
932.178589 160.0
937.443237 156.0
938.747803 232.0
939.772522 232.0
940.81012 196.0
950.597107 180.0
951.566956 200.0
952.021362 120.0
952.869019 192.0
953.243835 200.0
953.661743 180.0
957.07605 160.0
966.80481 180.0
967.739502 248.0
968.519836 148.0
968.575562 136.0
968.662292 44.0
973.419373 84.0
974.643066 144.0
980.74823 180.0
982.718872 140.0
985.078796 200.0
987.992004 172.0
989.030762 160.0
990.521057 204.0
991.310486 196.0
993.442261 188.0
994.276794 152.0
998.278625 184.0
999.171814 152.0
999.605957 144.0
1000.827148 184.0
1001.563965 240.0
1004.804199 224.0
1005.031372 180.0
1005.321655 188.0
1007.165222 104.0
1009.497375 164.0
1009.857849 104.0
1010.920715 112.0
1012.763062 124.0
1013.035461 184.0
1013.276184 68.0
1019.952271 40.0
1020.123901 164.0
1021.332092 160.0
1022.070068 40.0
1022.356445 184.0
1023.253967 176.0
1023.674194 168.0
1023.954407 208.0
1025.789429 232.0
1026.223022 92.0
1027.071167 188.0
1027.224243 104.0
1028.794189 176.0
1029.266602 172.0
1030.544067 68.0
1032.333862 52.0
1033.574951 184.0
1034.240479 44.0
1034.791016 244.0
1034.919067 168.0
1035.239258 136.0
1035.399414 140.0
1035.572266 48.0
1035.636353 156.0
1036.411499 224.0
1038.033203 164.0
1038.944092 180.0
1039.040283 196.0
1039.130127 120.0
1041.890747 228.0
1045.665405 188.0
1051.356201 180.0
1053.138062 120.0
1053.435303 128.0
1053.570923 192.0
1054.624268 68.0
1054.992676 168.0
1055.050903 180.0
1058.888062 124.0
1065.361694 132.0
1065.731934 188.0
1066.349365 64.0
1067.578125 148.0
1070.272095 164.0
1070.578125 120.0
1073.960693 76.0
1074.508667 172.0
1074.887085 32.0
1076.375488 128.0
1078.65564 124.0
1078.786377 132.0
1079.989502 128.0
1082.371704 152.0
1083.963501 144.0
1084.868042 124.0
1085.169556 88.0
1085.549927 132.0
1086.723999 124.0
1089.343506 188.0
1089.547241 220.0
1090.033447 164.0
1090.624878 152.0
1091.946533 368.0
1093.466309 192.0
1093.696655 132.0
1095.092529 132.0
1095.349487 228.0
1095.810547 120.0
1095.981934 128.0
1096.179565 168.0
1096.502563 160.0
1098.210205 104.0
1099.674927 156.0
1100.420898 184.0
1100.863281 164.0
1101.755005 80.0
1104.465332 148.0
1106.131348 92.0
1106.158936 72.0
1106.169556 160.0
1107.006714 208.0
1109.484863 228.0
1109.869385 136.0
1112.224609 188.0
1112.622925 164.0
1113.678711 208.0
1116.290649 44.0
1117.993652 140.0
1118.053467 180.0
1119.185181 216.0
1119.5448 164.0
1120.840942 196.0
1120.988281 212.0
1123.137207 204.0
1124.605103 224.0
1125.412842 136.0
1125.987183 192.0
1126.882324 176.0
1127.029297 168.0
1127.730957 72.0
1127.831299 164.0
1127.978271 72.0
1131.798462 156.0
1132.883423 196.0
1135.242798 152.0
1136.074463 144.0
1136.671631 128.0
1136.785767 164.0
1138.067871 200.0
1138.255859 176.0
1138.732666 128.0
1139.861328 160.0
1140.331787 128.0
1141.54187 180.0
1141.716675 48.0
1141.85791 216.0
1142.288452 204.0
1143.4104 192.0
1144.12561 192.0
1145.256958 124.0
1146.752686 148.0
1147.029053 160.0
1147.763916 172.0
1148.627197 96.0
1149.686523 160.0
1149.821533 184.0
1150.935303 148.0
1151.928101 240.0
1152.35376 176.0
1152.678101 184.0
1153.82312 176.0
1154.259888 140.0
1156.160767 160.0
1158.557739 156.0
1160.841919 156.0
1163.216675 184.0
1163.620972 184.0
1163.759766 188.0
1164.432007 216.0
1164.479614 140.0
1165.539429 164.0
1167.429199 128.0
1168.299805 176.0
1169.623413 160.0
1170.069214 208.0
1170.886353 48.0
1171.404053 84.0
1171.649292 164.0
1172.296631 224.0
1173.332642 40.0
1175.474365 184.0
1175.56311 144.0
1176.552856 60.0
1179.339844 132.0
1179.538086 180.0
1180.66626 208.0
1182.73938 124.0
1184.74585 36.0
1186.911621 168.0
1187.268311 180.0
1188.345215 148.0
1188.820435 232.0
1189.347168 120.0
1190.589844 184.0
1191.029419 96.0
1192.087524 168.0
1193.0979 56.0
1193.194092 132.0
1193.647949 124.0
1195.732422 164.0
1196.035278 156.0
1196.489624 176.0
1196.758179 64.0
1197.405396 228.0
1197.646484 192.0
1198.859131 196.0
1200.210205 124.0
1201.334473 204.0
1205.532349 144.0
1207.440552 132.0
1207.523438 112.0
1209.18396 204.0
1210.901001 220.0
1212.792603 124.0
1213.208496 128.0
1214.643921 160.0
1214.768799 36.0
1214.900635 196.0
1215.351562 228.0
1215.483398 232.0
1216.135742 148.0
1217.059082 180.0
1217.982788 208.0
1219.309814 160.0
1220.908813 108.0
1221.493164 196.0
1222.592407 164.0
1224.360718 104.0
1224.527954 164.0
1225.510132 188.0
1226.925049 188.0
1228.431396 204.0
1230.353882 180.0
1231.244263 176.0
1232.536621 168.0
1233.004883 204.0
1233.170654 224.0
1233.955444 168.0
1234.521851 168.0
1235.354248 144.0
1236.424805 168.0
1236.487793 188.0
1237.558838 184.0
1237.979004 72.0
1238.707397 136.0
1239.183716 124.0
1241.286621 140.0
1242.184326 204.0
1243.103394 216.0
1244.338867 156.0
1245.926025 204.0
1246.186035 196.0
1246.284424 116.0
1246.65686 172.0
1246.846558 84.0
1247.26123 240.0
1248.484619 152.0
1248.681519 120.0
1248.998047 224.0
1249.187988 184.0
1250.602295 136.0
1252.179443 52.0
1252.510498 72.0
1253.109375 152.0
1253.172729 172.0
1253.285522 196.0
1254.709229 184.0
1255.830444 152.0
1256.042114 148.0
1257.121582 140.0
1257.2146 180.0
1257.516724 192.0
1258.187378 372.0
1259.882324 140.0
1260.843262 160.0
1262.42688 196.0
1262.985596 144.0
1263.721313 132.0
1264.061035 180.0
1264.662598 88.0
1265.05188 196.0
1266.014893 216.0
1267.658325 128.0
1268.097778 40.0
1269.210815 160.0
1269.62207 176.0
1272.446167 180.0
1272.772827 184.0
1272.98584 160.0
1273.042725 92.0
1273.170532 160.0
1274.633911 124.0
1275.03894 124.0
1275.402222 176.0
1275.778198 192.0
1275.856445 84.0
1276.574585 176.0
1277.250244 40.0
1280.588501 140.0
1281.322266 196.0
1281.756836 84.0
1282.797363 212.0
1283.032715 176.0
1283.845581 172.0
1284.43042 160.0
1285.814575 256.0
1286.25708 148.0
1286.364258 192.0
1286.606934 168.0
1286.792603 140.0
1287.013916 168.0
1287.406616 132.0
1287.642334 172.0
1288.435181 80.0
1289.835938 160.0
1289.97168 60.0
1290.815308 144.0
1291.265869 180.0
1292.474854 148.0
1292.696777 156.0
1293.437256 184.0
1293.505493 56.0
1296.599731 124.0
1297.302246 196.0
1297.796875 148.0
1298.248657 188.0
1298.951538 64.0
1299.72644 184.0
1299.8125 184.0
1301.161865 120.0
1301.226562 164.0
1302.784912 212.0
1303.992188 160.0
1305.919067 216.0
1306.911865 128.0
1307.048584 120.0
1307.456787 192.0
1308.956055 156.0
1309.287354 104.0
1309.582642 176.0
1310.00769 236.0
1310.07251 248.0
1310.987549 120.0
1311.189331 224.0
1311.283081 120.0
1311.520874 132.0
1312.328247 208.0
1313.035034 204.0
1313.619263 160.0
1313.972778 136.0
1314.160278 76.0
1314.903564 108.0
1315.213989 72.0
1315.979248 156.0
1317.423706 96.0
1318.659302 124.0
1319.367676 192.0
1319.967773 140.0
1320.199219 176.0
1320.416138 124.0
1320.473999 204.0
1320.647583 184.0
1321.522949 188.0
1321.696655 208.0
1322.188721 192.0
1322.23938 196.0
1323.658325 160.0
1324.505615 120.0
1324.962036 156.0
1325.396729 160.0
1325.860596 144.0
1325.94751 184.0
1327.484375 212.0
1327.578735 144.0
1327.716553 152.0
1328.180664 160.0
1328.862671 120.0
1329.726196 232.0
1329.936646 184.0
1331.461304 120.0
1332.420166 180.0
1332.485596 192.0
1333.030518 48.0
1333.582886 140.0
1334.69519 144.0
1336.499146 144.0
1337.073975 116.0
1337.321411 180.0
1337.750854 220.0
1339.513184 184.0
1339.687988 108.0
1339.81189 148.0
1341.998413 96.0
1342.720337 220.0
1342.866211 76.0
1343.055786 192.0
1343.544556 132.0
1344.916504 176.0
1345.595337 160.0
1346.405884 188.0
1346.734619 152.0
1347.560059 184.0
1348.108154 152.0
1348.203125 132.0
1348.341919 124.0
1348.670898 204.0
1349.248413 196.0
1349.350708 176.0
1350.937744 232.0
1351.779175 44.0
1352.218262 280.0
1352.335327 160.0
1352.62085 176.0
1352.730591 184.0
1353.118652 176.0
1353.169922 52.0
1354.898315 220.0
1355.008179 132.0
1356.583862 40.0
1356.657227 156.0
1357.177734 172.0
1357.449097 188.0
1358.563965 148.0
1359.062866 112.0
1359.268311 144.0
1359.620483 168.0
1360.758301 148.0
1360.831665 108.0
1361.602783 180.0
1361.933228 160.0
1362.770752 68.0
1362.858887 176.0
1363.057373 148.0
1363.314575 180.0
1364.512695 52.0
1365.008545 160.0
1365.373047 208.0
1365.498047 116.0
1366.469116 148.0
1367.138672 144.0
1367.241699 100.0
1367.558228 180.0
1368.434204 144.0
1369.03064 140.0
1369.546143 212.0
1369.656738 112.0
1371.358765 148.0
1372.140137 160.0
1372.768188 180.0
1372.899658 236.0
1373.253662 172.0
1373.77002 172.0
1374.987549 156.0
1375.09082 100.0
1375.217285 232.0
1375.784668 188.0
1376.545166 176.0
1376.848022 96.0
1378.591431 204.0
1379.256714 144.0
1379.707642 164.0
1380.373047 144.0
1381.99292 196.0
1382.629395 224.0
1383.095703 148.0
1383.265869 180.0
1383.650879 160.0
1383.85083 48.0
1383.924805 84.0
1384.361694 132.0
1384.561646 112.0
1385.02832 92.0
1385.080078 136.0
1385.89502 192.0
1386.717651 152.0
1387.27356 140.0
1388.044678 76.0
1388.393188 76.0
1388.771484 160.0
1389.120117 156.0
1389.453979 152.0
1389.728516 116.0
1389.795288 124.0
1389.891724 172.0
1391.46521 180.0
1391.970093 184.0
1392.111206 212.0
1392.486694 152.0
1393.43335 200.0
1394.161621 148.0
1394.369751 152.0
1395.098145 200.0
1395.938354 132.0
1396.287842 56.0
1396.540771 200.0
1397.612061 188.0
1397.716187 124.0
1398.31897 144.0
1400.723999 220.0
1401.193359 188.0
1402.654053 164.0
1402.996948 64.0
1403.302612 120.0
1403.526245 140.0
1404.25708 116.0
1404.973267 152.0
1405.050537 200.0
1406.077515 140.0
1406.144775 124.0
1406.35376 160.0
1407.107666 224.0
1408.571411 212.0
1408.915039 100.0
1409.647339 172.0
1410.095703 60.0
1410.17041 188.0
1410.262939 196.0
1411.187134 208.0
1411.531128 200.0
1412.189209 144.0
1412.83313 156.0
1413.012085 124.0
1413.408569 208.0
1414.808228 120.0
1415.324829 36.0
1417.047607 56.0
1417.219971 168.0
1417.369751 116.0
1417.504639 132.0
1418.952881 172.0
1419.01123 148.0
1419.221191 188.0
1419.543701 280.0
1420.226074 216.0
1420.931274 212.0
1421.29895 132.0
1422.228516 180.0
1422.253418 156.0
1422.552368 176.0
1422.717529 160.0
1423.663574 112.0
1423.716187 164.0
1424.584106 180.0
1426.759277 148.0
1427.060059 48.0
1427.699219 180.0
1427.766846 116.0
1428.819946 140.0
1429.143555 112.0
1430.52832 124.0
1432.252686 204.0
1432.418457 180.0
1432.724243 260.0
1433.390381 116.0
1433.834961 80.0
1434.020752 180.0
1434.223389 204.0
1434.867676 132.0
1436.119507 156.0
1437.039795 120.0
1437.296387 128.0
1437.907715 168.0
1437.998169 100.0
1438.126587 224.0
1438.285034 152.0
1438.541748 172.0
1439.387329 136.0
1439.802612 32.0
1441.517578 176.0
1441.736694 164.0
1442.054077 164.0
1444.156128 116.0
1444.360352 224.0
1444.677979 140.0
1444.730957 172.0
1445.782715 92.0
1445.888672 192.0
1446.638062 212.0
1447.63501 260.0
1448.197876 224.0
1448.796387 156.0
1449.319092 88.0
1449.546387 72.0
1449.73584 112.0
1449.849609 144.0
1450.122437 148.0
1450.857666 196.0
1450.933472 216.0
1451.138184 228.0
1451.540039 132.0
1452.124023 184.0
1453.542725 152.0
1454.142212 52.0
1454.3396 68.0
1455.880859 120.0
1456.085938 176.0
1456.951782 140.0
1457.251953 180.0
1457.407715 168.0
1457.878784 252.0
1460.113892 68.0
1461.460449 136.0
1461.711548 208.0
1461.802856 28.0
1462.670532 180.0
1462.929321 180.0
1463.089111 128.0
1463.264282 60.0
1463.964844 136.0
1464.140015 132.0
1464.520752 188.0
1465.02356 152.0
1465.564453 148.0
1466.677124 172.0
1466.997314 228.0
1468.682495 128.0
1469.796387 152.0
1471.826782 164.0
1472.055908 168.0
1472.613403 180.0
1472.987671 188.0
1473.178711 224.0
1473.881592 52.0
1474.210205 172.0
1475.609009 212.0
1476.3125 128.0
1476.679565 72.0
1477.429199 120.0
1477.964722 124.0
1478.38562 168.0
1478.79895 164.0
1479.748169 176.0
1480.077393 160.0
1480.613403 240.0
1480.96582 132.0
1481.034668 228.0
1483.072876 184.0
1483.233887 232.0
1483.425537 96.0
1484.858643 204.0
1485.28125 180.0
1486.316895 100.0
1486.646851 116.0
1487.752197 164.0
1488.23584 44.0
1488.52771 180.0
1489.572144 108.0
1490.186768 168.0
1490.255981 172.0
1490.609375 220.0
1491.524048 168.0
1492.069824 156.0
1492.592651 132.0
1493.330933 156.0
1493.523193 200.0
1493.838623 180.0
1493.923218 68.0
1494.477173 160.0
1495.608398 184.0
1495.746948 76.0
1496.547607 128.0
1497.240723 136.0
1498.242065 44.0
1498.357666 116.0
1498.434692 136.0
1499.312988 244.0
1499.467285 180.0
1500.029907 200.0
1500.114746 132.0
1500.59436 184.0
1502.474609 116.0
1502.729126 172.0
1504.172363 160.0
1504.303589 160.0
