>compound MLS001162662-01!2-[(5-hydroxy-2,2-dimethyl-4-oxo-3H-chromen-7-yl)oxy]-N-(4-sulfamoylphenyl)acetamide
>formula C19H20N2O7S
>ionization [M+H]+
>parentmass 421.107
#inchi InChI=1S/C19H20N2O7S/c1-19(2)9-15(23)18-14(22)7-12(8-16(18)28-19)27-10-17(24)21-11-3-5-13(6-4-11)29(20,25)26/h3-8,22H,9-10H2,1-2H3,(H,21,24)(H2,20,25,26)
#inchikey BELDXALZBZBVSZ
#Ion_Source LC-ESI
#Instrument qTof
#Compound_Source NIH Natural Product Library
#PI Dorrestein
#Data_Collector VVP/LMS
#Scan -1
#Precursor_MZ 421.107
#ExactMass 420.099
#Charge 1
#CAS_Number N/A
#Pubmed_ID N/A
#Smiles CC1(C)CC(=O)c2c(O)cc(OCC(=O)Nc3ccc(cc3)S(=O)(=O)N)cc2O1
#INCHI_AUX N/A
#Library_Class 1
#SpectrumID CCMSLIB00000080376
#IonMode Positive
#UpdateWorkflowName UPDATE-SINGLE-ANNOTATED-GOLD
#LibraryQualityString Gold
#TaskID b1d8e8f6646f4e71acdff9ca3d919d08
##Scan# 2048
#SpectrumFile p2-A08_GA8_01_17977.mzXML
#LibraryName NIH_Natural_Products_Library.mgf
#MQScore -1
#Organism NIH_Natural_Products_Library
#TIC_Query 0
#RT_Query -1
#MZErrorPPM -1
#SharedPeaks 0
#MassDiff 0
#LibMZ -1
#SpecMZ 421.107
#SpecCharge 0
#internalFilename spec-00000.mgf

>collision 10
95.113655 144.0
95.430321 160.0
96.584839 80.0
97.058784 176.0
97.429741 168.0
97.451355 40.0
97.579109 64.0
97.618439 104.0
97.706947 152.0
98.021988 48.0
98.22506 132.0
98.412544 136.0
98.465866 200.0
99.257462 264.0
99.691895 104.0
100.351074 180.0
100.462761 116.0
100.55455 188.0
100.594467 160.0
100.822426 156.0
100.898132 188.0
100.99012 168.0
101.152946 192.0
101.308395 140.0
101.396561 72.0
101.421417 240.0
101.496796 108.0
102.028862 140.0
102.232018 244.0
102.443436 48.0
102.624825 80.0
103.053719 168.0
103.858452 152.0
103.988312 108.0
104.048248 1244.0
104.309242 160.0
104.651024 216.0
105.033478 348.0
105.057304 880.0
105.528381 144.0
105.854553 216.0
105.98278 168.0
106.061409 296.0
106.280098 176.0
106.417618 196.0
106.512085 112.0
106.678535 100.0
107.020058 108.0
107.050949 180.0
107.188965 148.0
107.275536 140.0
107.306458 192.0
107.791519 140.0
108.045067 120.0
108.101707 176.0
108.511841 156.0
108.77739 196.0
109.028854 176.0
109.066124 152.0
109.318985 208.0
109.480164 164.0
109.676811 176.0
109.734383 68.0
110.532288 88.0
111.007797 188.0
111.024574 232.0
111.146248 188.0
111.829254 76.0
113.023735 188.0
113.080872 192.0
113.154961 232.0
113.307457 172.0
113.566078 116.0
113.667908 104.0
113.682762 160.0
113.892952 116.0
114.135231 136.0
114.48848 196.0
114.650391 148.0
114.863609 140.0
115.048286 244.0
115.17099 116.0
115.352615 148.0
115.600723 164.0
115.994812 132.0
116.052696 180.0
116.426079 148.0
116.492668 156.0
116.673187 228.0
116.879669 140.0
117.057831 420.0
117.07341 276.0
117.293175 48.0
117.653435 140.0
117.785164 240.0
118.065376 916.0
118.431915 140.0
118.468742 200.0
118.891556 168.0
119.061996 184.0
119.530464 100.0
120.020569 96.0
120.044006 240.0
120.19944 112.0
120.236542 184.0
120.422119 116.0
120.605659 160.0
120.662498 96.0
121.027885 204.0
121.076065 100.0
121.203125 176.0
122.039413 200.0
122.060173 152.0
122.153778 144.0
122.539047 236.0
122.563278 196.0
122.691116 204.0
122.717575 196.0
122.891823 216.0
123.007248 396.0
123.043526 380.0
123.178825 56.0
123.196495 100.0
123.490486 140.0
124.020866 156.0
124.883408 164.0
124.947914 156.0
125.188309 136.0
125.270721 116.0
125.420021 44.0
126.038216 176.0
127.101837 140.0
127.157944 192.0
127.391464 176.0
127.61396 256.0
127.791649 108.0
128.048279 184.0
128.271347 164.0
128.731613 148.0
128.837769 160.0
129.070572 320.0
129.428101 148.0
129.635117 204.0
130.06395 1220.0
130.246811 148.0
130.446777 64.0
130.922318 132.0
131.049881 92.0
131.305206 236.0
131.551636 44.0
131.718338 180.0
131.828003 144.0
132.044861 528.0
132.081787 440.0
132.349548 44.0
132.466354 168.0
132.592377 216.0
132.622177 256.0
132.759735 212.0
132.807907 192.0
132.924911 128.0
132.975403 160.0
133.051895 7076.0
133.115433 40.0
133.285431 168.0
133.533707 44.0
133.569366 160.0
133.598114 36.0
133.669434 60.0
133.862808 196.0
133.885834 172.0
134.057983 364.0
134.160034 148.0
134.20845 148.0
134.279938 128.0
134.478363 168.0
134.545303 220.0
134.704651 40.0
135.005127 204.0
135.079086 224.0
135.692841 160.0
135.838943 184.0
136.026917 68.0
136.045486 164.0
137.003632 172.0
137.02861 276.0
138.16626 184.0
138.74942 176.0
138.861969 64.0
139.007431 168.0
139.042633 104.0
140.015137 332.0
140.079559 152.0
140.112534 172.0
140.593567 224.0
141.023315 224.0
141.054138 68.0
141.252777 48.0
141.394745 100.0
141.47049 124.0
142.017868 128.0
142.065918 336.0
142.326385 172.0
142.390503 144.0
142.801682 164.0
143.072952 288.0
143.242035 184.0
143.272934 156.0
143.530426 208.0
143.671143 124.0
144.038269 188.0
144.086548 172.0
144.239502 76.0
144.311218 212.0
144.739517 96.0
145.027008 72.0
145.044739 188.0
145.06282 172.0
145.859924 228.0
145.987366 192.0
146.021027 248.0
146.059906 9828.0
146.098007 188.0
146.129272 40.0
146.187027 60.0
146.39888 128.0
146.524124 84.0
147.065521 1660.0
148.041046 216.0
148.067688 192.0
148.104019 76.0
148.761169 44.0
149.23735 112.0
149.582825 100.0
149.641251 136.0
149.719162 164.0
150.050568 148.0
150.49707 172.0
150.77066 144.0
150.81221 60.0
151.000717 160.0
151.041855 688.0
151.073853 160.0
151.230469 92.0
151.384705 220.0
151.563522 176.0
152.009811 268.0
152.442017 196.0
152.761642 112.0
152.803467 168.0
152.873535 244.0
153.018036 6056.0
153.086548 80.0
153.103775 64.0
153.12471 40.0
153.162888 44.0
153.22316 216.0
153.599197 224.0
153.712692 28.0
153.732422 96.0
153.757111 88.0
153.806473 40.0
153.949677 112.0
153.981781 36.0
154.021515 312.0
154.055878 124.0
154.248627 136.0
154.738464 56.0
154.787979 76.0
154.892014 176.0
155.025665 308.0
155.068939 152.0
155.115021 112.0
155.226593 84.0
155.467224 120.0
155.559067 60.0
156.009979 180.0
156.075668 172.0
156.257401 116.0
156.274826 120.0
156.658234 180.0
157.060684 224.0
157.299118 128.0
158.06189 1300.0
158.09285 176.0
158.316742 80.0
158.614899 84.0
159.064423 288.0
159.096542 128.0
159.184418 140.0
159.649323 200.0
160.040421 508.0
160.075638 864.0
160.301331 44.0
160.523178 132.0
160.624054 136.0
160.868835 72.0
160.901657 196.0
160.926895 100.0
160.982452 204.0
161.050644 136.0
161.791916 144.0
161.986572 84.0
162.311371 128.0
162.397202 220.0
162.694092 192.0
162.790588 224.0
163.037094 320.0
163.077988 176.0
163.10817 264.0
164.006714 100.0
164.050049 148.0
164.394379 160.0
164.971619 184.0
165.020401 716.0
165.056 192.0
165.073898 184.0
165.153183 92.0
165.970139 92.0
166.016296 140.0
166.062454 208.0
167.010239 108.0
167.030823 136.0
167.2341 140.0
167.257263 120.0
167.470978 72.0
167.85498 160.0
167.891083 224.0
168.043274 152.0
169.025146 184.0
169.524933 52.0
170.060364 496.0
170.617691 72.0
170.646286 144.0
171.044754 204.0
171.083374 128.0
171.656586 76.0
171.974869 84.0
171.995758 176.0
172.04245 36.0
172.07402 616.0
172.108017 148.0
172.539124 96.0
172.580948 52.0
172.625412 132.0
172.805893 72.0
173.056381 332.0
174.05481 284.0
174.489716 188.0
175.039642 52.0
175.058075 164.0
175.108109 172.0
175.289886 152.0
176.036469 316.0
176.060852 160.0
176.311172 152.0
177.021454 204.0
177.051041 156.0
177.940262 224.0
177.980087 132.0
178.059753 160.0
179.000015 164.0
179.041122 172.0
179.071091 192.0
180.950378 172.0
181.017166 136.0
181.285202 204.0
181.714233 84.0
181.985321 52.0
182.05928 288.0
182.100159 188.0
182.710983 176.0
182.891296 160.0
183.042053 124.0
183.066406 96.0
183.626862 124.0
183.883163 124.0
183.942551 196.0
184.028946 144.0
184.073608 640.0
184.123459 76.0
184.653183 152.0
185.038055 1876.0
185.08429 128.0
185.438354 60.0
185.690628 180.0
185.983536 56.0
186.05484 6424.0
186.206177 156.0
186.316193 56.0
186.404495 192.0
186.426239 188.0
186.684494 56.0
186.945663 156.0
186.964706 232.0
187.033142 180.0
187.060684 1204.0
187.305054 152.0
187.446716 124.0
187.9048 56.0
187.981201 40.0
188.069382 1172.0
188.191391 196.0
188.215958 188.0
188.524643 116.0
188.642166 64.0
188.702316 156.0
188.84726 128.0
189.070374 324.0
189.126343 88.0
189.402893 48.0
190.062347 536.0
190.228287 208.0
190.376556 108.0
190.467194 104.0
190.816208 220.0
191.06752 1004.0
191.201309 68.0
191.920303 152.0
192.040451 292.0
192.072327 288.0
192.179581 32.0
192.24028 52.0
192.472168 44.0
193.009659 648.0
193.045395 424.0
193.179703 48.0
193.229492 52.0
193.497955 148.0
194.008224 180.0
194.079819 132.0
195.026489 184.0
195.0793 216.0
195.59671 184.0
196.039551 156.0
196.101028 144.0
197.060837 152.0
197.097153 72.0
198.056976 448.0
198.278107 48.0
198.390228 104.0
198.597733 240.0
199.001846 76.0
199.060333 260.0
199.164719 240.0
200.042053 388.0
200.071335 752.0
200.093933 160.0
200.132156 160.0
200.165939 96.0
200.825409 92.0
201.059128 200.0
201.291077 148.0
202.045746 56.0
202.088181 152.0
202.113647 180.0
202.175903 92.0
203.076859 148.0
203.105225 124.0
203.360596 160.0
203.917282 112.0
204.061752 312.0
204.121964 160.0
204.369446 172.0
204.597137 136.0
204.927505 124.0
205.045853 316.0
205.686111 176.0
206.053207 88.0
207.029907 184.0
207.066299 524.0
207.175995 200.0
207.324982 60.0
207.433899 92.0
207.726395 200.0
208.102356 220.0
208.27179 48.0
209.03212 132.0
209.080505 2032.0
209.128647 116.0
209.18045 56.0
209.361847 76.0
209.721985 96.0
209.952637 120.0
210.057327 1240.0
210.154572 240.0
210.36525 172.0
210.760925 140.0
210.873627 92.0
211.047699 132.0
211.069473 292.0
211.327652 48.0
211.756088 64.0
212.073029 436.0
212.132782 72.0
212.292236 52.0
212.40535 52.0
212.562027 44.0
213.040695 288.0
213.068665 360.0
213.474167 76.0
213.887314 136.0
213.989212 176.0
214.050613 3432.0
214.09404 144.0
214.123154 96.0
214.233841 144.0
214.303772 36.0
214.528183 200.0
214.673965 48.0
215.054871 532.0
215.216721 256.0
215.242996 184.0
215.818634 44.0
216.065308 2720.0
216.25351 104.0
216.292572 72.0
216.359909 40.0
216.424316 84.0
216.582474 88.0
216.638123 144.0
217.069565 412.0
217.189224 72.0
217.277222 68.0
217.779205 192.0
218.305283 44.0
218.543549 132.0
219.365234 68.0
220.84462 116.0
221.045792 360.0
221.081299 924.0
221.643951 36.0
221.741745 156.0
222.085236 356.0
223.059631 96.0
223.098267 124.0
223.39566 96.0
224.074432 140.0
224.10556 188.0
225.097519 196.0
226.047318 300.0
226.096191 192.0
227.042709 260.0
227.081696 48.0
227.736008 116.0
227.94632 56.0
228.038055 304.0
228.06488 1172.0
228.109314 196.0
228.258942 72.0
228.95108 144.0
229.026382 156.0
229.066238 104.0
229.104706 136.0
229.17099 104.0
229.288864 152.0
229.816238 84.0
229.94902 60.0
230.039566 92.0
230.077286 352.0
230.115143 116.0
230.480515 108.0
230.546997 136.0
230.646744 56.0
231.012634 160.0
232.054459 164.0
232.130264 100.0
232.943665 72.0
233.788925 76.0
234.066147 184.0
234.093353 172.0
235.053589 180.0
235.096863 264.0
236.034134 108.0
236.080002 132.0
236.107529 144.0
236.621597 52.0
237.035095 132.0
238.047974 728.0
238.317719 40.0
238.379166 116.0
239.028015 216.0
239.052231 184.0
239.10495 240.0
239.249619 72.0
239.44841 72.0
239.493454 196.0
239.69931 96.0
239.764023 44.0
240.069992 368.0
240.507339 56.0
240.544373 148.0
241.050903 192.0
241.140518 192.0
241.353836 216.0
241.755966 148.0
241.824051 140.0
242.045319 8100.0
242.118958 176.0
242.263763 80.0
242.328827 76.0
242.387695 40.0
242.409393 72.0
242.468277 52.0
243.048813 1500.0
243.113342 40.0
243.240601 48.0
243.339935 56.0
243.976837 76.0
244.053238 188.0
244.294037 40.0
244.670609 48.0
244.73288 60.0
244.944656 100.0
245.390305 68.0
246.426514 88.0
246.926682 168.0
247.863495 60.0
248.072708 136.0
249.026611 184.0
249.078781 336.0
250.086288 184.0
250.208984 152.0
250.807526 176.0
250.845352 64.0
251.08046 176.0
252.099792 356.0
253.056824 128.0
253.102966 140.0
253.883865 100.0
254.046906 184.0
254.078323 172.0
254.515366 64.0
254.674149 208.0
255.23349 60.0
255.421127 140.0
255.822083 56.0
256.061096 1668.0
256.446411 76.0
256.57074 36.0
256.730164 52.0
256.88327 76.0
257.066345 612.0
257.189606 60.0
257.278992 84.0
257.304504 36.0
257.825195 68.0
258.068085 272.0
258.075287 280.0
258.589569 224.0
259.300598 124.0
259.993317 172.0
260.054291 980.0
260.227661 84.0
260.760925 64.0
260.931274 168.0
261.058289 140.0
262.028778 128.0
262.083557 136.0
263.055878 148.0
264.062439 72.0
265.071106 300.0
265.095184 180.0
265.746948 176.0
266.051971 180.0
266.097504 104.0
266.120209 168.0
266.3638 92.0
267.025085 120.0
267.052887 164.0
267.082153 72.0
267.114685 140.0
267.508453 76.0
268.091461 100.0
269.063477 192.0
269.749542 144.0
269.945709 88.0
270.114838 168.0
271.124237 136.0
272.055756 200.0
273.064545 104.0
274.427887 216.0
275.087708 176.0
279.096558 144.0
280.094849 364.0
280.844971 60.0
282.043152 148.0
282.06311 64.0
282.123932 108.0
283.050629 140.0
283.691223 108.0
283.91864 120.0
284.055878 5680.0
284.140045 52.0
284.206909 112.0
284.3078 56.0
284.391724 48.0
284.505859 28.0
284.892059 64.0
285.058319 572.0
285.157501 44.0
285.335663 60.0
285.493713 136.0
285.628235 72.0
285.688812 40.0
285.776276 48.0
286.067017 208.0
286.143127 176.0
286.466431 88.0
287.019379 132.0
287.04953 60.0
287.120331 76.0
287.832397 144.0
287.889801 72.0
288.241119 76.0
289.045929 180.0
290.011108 168.0
290.075531 124.0
291.602966 144.0
294.111938 216.0
294.635712 64.0
294.786041 76.0
295.093872 152.0
295.123596 324.0
298.116028 168.0
298.422943 52.0
300.045227 332.0
300.099731 136.0
300.203186 104.0
300.475677 88.0
301.082428 164.0
302.063293 308.0
302.095947 72.0
302.767426 132.0
304.189026 140.0
309.204803 172.0
312.120605 524.0
313.121216 360.0
314.095001 184.0
314.105194 144.0
315.787689 128.0
317.076416 88.0
317.18631 76.0
318.012756 236.0
319.137787 116.0
320.021301 116.0
320.199371 56.0
322.10376 156.0
323.029877 140.0
324.103943 152.0
325.095856 372.0
328.125916 136.0
330.014374 188.0
330.328857 44.0
332.020294 184.0
337.50824 92.0
337.97644 116.0
340.069 148.0
340.118378 808.0
340.14975 244.0
340.278229 80.0
341.111847 304.0
342.116455 72.0
344.059296 44.0
345.197906 128.0
346.04837 176.0
346.374268 152.0
347.167419 208.0
347.705353 208.0
347.935516 88.0
348.017914 3220.0
348.080322 140.0
348.299438 32.0
348.410889 52.0
348.644958 44.0
348.678406 48.0
349.022308 672.0
349.377472 68.0
350.017395 312.0
350.237396 64.0
350.378937 28.0
351.027496 140.0
351.357025 128.0
351.549744 100.0
352.587952 112.0
356.838806 120.0
356.891449 64.0
360.850433 76.0
363.058014 140.0
365.040009 312.0
365.087555 48.0
366.010681 92.0
366.052582 248.0
368.058319 164.0
373.585083 44.0
383.198212 120.0
386.059357 244.0
388.06427 136.0
390.833374 76.0
392.318207 40.0
401.728912 120.0
402.81073 108.0
404.079926 908.0
404.510254 104.0
404.538269 72.0
404.954712 44.0
405.086945 284.0
405.936584 56.0
406.056885 96.0
407.429504 76.0
419.253265 128.0
422.200836 168.0
441.670166 56.0
465.048462 100.0
474.742889 76.0
482.047668 108.0
502.354187 76.0
520.465515 92.0
547.92627 88.0
562.317749 176.0
568.583984 72.0
569.514587 184.0
579.978577 20.0
582.286377 100.0
584.108093 140.0
600.06543 56.0
616.425659 132.0
623.378113 256.0
627.404785 228.0
724.453125 80.0
736.896973 132.0
744.627075 72.0
767.303833 224.0
773.745728 104.0
779.003052 20.0
829.611877 132.0
830.150879 84.0
847.507385 104.0
868.160583 88.0
882.84198 180.0
910.314819 68.0
970.282837 136.0
994.216858 68.0
1027.705078 152.0
1036.7854 68.0
1051.306519 220.0
1076.298706 184.0
1080.311646 188.0
1083.552246 116.0
1086.810791 168.0
1087.421143 100.0
1096.279785 156.0
1096.378662 232.0
1103.540649 48.0
1103.798584 196.0
1104.030029 216.0
1116.963379 160.0
1124.98645 64.0
1145.560547 180.0
1156.756836 132.0
1163.956909 128.0
1169.429565 212.0
1171.043091 60.0
1172.875977 224.0
1173.039551 56.0
1173.728149 44.0
1188.605713 132.0
1192.753906 124.0
1197.432617 156.0
1201.547852 172.0
1211.01123 216.0
1211.64856 220.0
1228.960693 104.0
1237.047363 188.0
1252.551392 220.0
1252.967041 124.0
1254.235474 112.0
1256.075928 96.0
1263.160889 108.0
1263.939087 160.0
1269.209106 204.0
1269.769287 184.0
1284.728027 84.0
1287.226074 184.0
1314.973145 60.0
1315.124756 152.0
1320.369995 224.0
1322.656372 80.0
1326.51001 100.0
1333.819702 204.0
1337.849731 144.0
1338.213745 60.0
1344.920532 180.0
1345.314697 188.0
1351.995239 172.0
1352.053833 80.0
1365.192871 104.0
1366.237305 140.0
1370.99646 56.0
1372.143677 116.0
1378.350952 100.0
1382.314453 156.0
1386.039062 32.0
1387.18042 192.0
1387.751343 128.0
1391.52771 184.0
1403.014771 136.0
1406.140137 208.0
1408.275391 148.0
1418.016846 148.0
1418.901367 116.0
1420.768799 164.0
1422.47229 180.0
1427.889648 172.0
1429.522095 188.0
1431.464233 212.0
1433.83728 136.0
1440.265503 120.0
1441.353394 148.0
1442.282959 180.0
1443.031372 164.0
1450.782837 160.0
1451.951538 168.0
1452.937622 176.0
1457.941406 184.0
1462.702637 160.0
1473.241211 48.0
1477.438232 128.0
1478.440552 184.0
1481.0896 132.0
1485.988159 252.0
1495.039795 44.0
1495.10144 104.0
1496.202148 212.0
1501.60376 136.0
