>compound Fluocinonide
>formula C26H32F2O7 
>ionization [M+H]+
>parentmass 495.220612
#inchi InChI=1S/C26H32F2O7/c1-13(29)33-12-20(32)26-21(34-22(2,3)35-26)10-15-16-9-18(27)17-8-14(30)6-7-23(17,4)25(16,28)19(31)11-24(15,26)5/h6-8,15-16,18-19,21,31H,9-12H2,1-5H3/t15-,16-,18-,19-,21+,23-,24-,25-,26+/m0/s1
#inchikey WJOHZNCJWYWUJD
#Ion_Source LC-ESI
#Instrument qTof
#Compound_Source Isolated
#PI Sirenas
#Data_Collector Ed Esquenazi 
#Scan -1
#Precursor_MZ 495.221
#ExactMass 0.0
#Charge 1
#CAS_Number N/A
#Pubmed_ID N/A
#Smiles N/A
#INCHI_AUX N/A
#Library_Class 3
#SpectrumID CCMSLIB00000005045
#IonMode Positive
#UpdateWorkflowName UPDATE-SINGLE-ANNOTATED-BRONZE
#LibraryQualityString Bronze
#TaskID d19310cd93df49b68e9fcbec27720eb5
##Scan# 1
#SpectrumFile Fluocinonide.mgf
#LibraryName fda_library.mgf
#MQScore -1
#Organism fda_library
#TIC_Query 0
#RT_Query -1
#MZErrorPPM -1
#SharedPeaks 0
#MassDiff 0
#LibMZ -1
#SpecMZ 495.221
#SpecCharge 0
#internalFilename spec-00000.mgf

>collision 10
101.022896 348.566711
101.057289 17.226851
107.047142 62.498631
107.076347 6.335318
107.087029 28.019739
111.604393 3.888889
113.021912 41.78241
120.682213 11.00833
121.063728 206.875107
121.522331 9.573718
123.042313 18.85634
125.061623 19.222879
125.093834 33.882172
129.055344 5.939394
130.658997 2.482143
135.077652 167.362198
135.109253 2.669872
137.059509 25.002451
137.075592 29.980721
140.50177 4.5
143.034454 25.08913
143.068176 24.823641
143.624023 3.583333
145.198029 5.351191
147.162415 17.52083
151.074707 65.143639
152.151474 27.27273
153.184265 14.09339
153.492294 24.732531
153.64296 24.537279
155.073334 24.685749
157.053238 37.693691
159.078491 72.095238
161.095108 25.05336
163.072525 17.627029
165.068527 59.040878
169.064896 119.634102
169.101089 2.416667
171.078598 31.85206
175.075211 62.34618
177.087738 1.672619
177.554916 7.2
179.047012 84.020409
179.084641 17.07
179.401794 9.338889
183.081924 30.76754
185.054749 61.21978
185.064896 30.300289
185.097626 22.27212
185.168823 6.481482
185.261017 23.061871
187.077606 23.87756
191.087265 29.891979
193.060608 88.333344
193.084549 49.450001
193.12146 4.6
197.061584 45.613171
199.068329 35.115669
201.073883 21.933331
201.335693 8.601666
203.079407 17.669451
205.064438 29.669189
205.827026 9.428572
211.110153 132.982193
211.141785 4.6
213.088287 26.912411
216.092148 29.28056
219.463974 13.85494
221.098282 144.689804
221.446442 17.442209
221.996841 5.265351
222.200821 8.132247
223.076736 26.85887
223.109177 148.073196
223.143433 3.016667
225.129379 27.04735
225.69191 6.422101
226.061417 15.59524
229.101562 35.426361
230.113937 14.14583
231.085983 18.00057
231.112473 37.342548
233.128876 11.88005
233.753769 4.009259
235.11084 180.517502
235.816681 17.739731
237.088852 59.355469
237.12178 60.18034
237.20665 7.705246
239.10524 142.016907
239.146118 4.711957
240.163849 10.02671
241.121201 97.699303
242.562363 9.453431
245.127548 14.00126
246.09552 50.96212
247.078537 15.62888
247.109299 108.7705
247.147034 6.001344
247.406967 4.59375
248.307846 11.64031
251.107895 67.895714
251.145111 47.166931
251.300629 12.69338
252.9104 12.74359
253.122604 305.297089
253.156082 21.72854
253.190628 4.761905
253.387924 8.058333
253.846741 5.523809
259.111572 69.518921
259.684235 5.008333
259.74173 6.306818
261.125519 59.33857
262.097107 3.125
263.10434 3.823718
263.142792 133.588898
263.19989 2.0
263.946381 3.668651
265.119598 33.351261
267.115265 38.77478
267.602203 14.02222
269.11319 25.3787
269.136841 26.35854
273.125763 111.879799
273.526062 6.334524
275.106262 78.068909
275.140594 13.42188
275.21225 5.510417
276.035156 4.190476
277.122528 402.555511
279.137207 167.287994
280.759583 13.07
281.152435 40.671299
283.097809 99.113358
283.130432 17.23188
283.283508 8.962963
283.839935 1.720238
289.116821 52.755089
289.585327 17.41346
289.831909 6.001812
290.575073 13.26754
291.136688 619.762329
291.211487 3.893518
291.445099 15.2381
293.116028 56.81287
293.152069 4.047619
293.553741 6.25926
294.122223 57.057949
295.101868 58.074081
295.133942 125.976501
295.650177 9.25
297.122864 31.760639
297.258453 5.415
297.666473 3.670455
297.9263 5.669445
299.146973 86.953453
301.12323 313.810913
301.175018 3.518939
301.417542 5.358974
301.746063 4.854167
301.823578 6.446428
302.911896 19.01437
303.155304 105.856102
304.111237 9.122549
305.130646 20.10289
306.119965 10.30044
307.137848 125.549103
309.148499 430.456787
309.678986 22.815001
311.803406 7.130208
313.120819 37.911861
314.179138 21.668859
315.124512 28.459999
315.141388 68.092278
317.430969 14.11538
317.487183 41.4245
318.652679 33.093891
319.133362 546.066711
319.276062 8.6875
319.342865 5.703703
319.386414 13.8776
319.429932 6.840517
319.461029 10.08681
319.530579 3.926282
319.681091 9.964286
319.768463 25.687189
320.014679 3.669118
320.039551 5.76923
320.158051 14.21894
320.23877 2.4
320.300995 9.469594
320.593292 4.802778
321.199585 4.083333
321.491302 9.015873
329.153595 98.894127
329.62619 6.335145
331.156464 20.01195
331.175568 13.51894
333.126068 41.854839
335.90863 8.186728
336.980927 6.728535
337.143372 1033.672974
337.214569 30.573389
337.26886 44.17477
337.336273 1.708333
337.68457 10.22685
337.958649 5.401515
338.079956 3.020833
338.144135 5.686403
338.164093 7.148148
339.140198 695.75293
339.26178 9.300439
339.482483 9.0
339.575806 14.17708
339.594666 3.375
339.636047 7.989943
340.226685 4.734848
342.692963 6.782407
343.157288 48.085419
345.146606 18.352079
349.152527 9.344048
349.627045 6.339743
351.151031 43.336899
351.561737 3.440476
353.174072 37.85833
353.905243 3.075
354.955475 15.21111
354.995544 33.595509
355.148926 267.864685
355.76651 36.81818
355.84845 17.336109
356.025757 8.595239
356.697968 15.32065
357.147247 769.240112
357.249664 6.958333
357.391052 4.694444
357.410309 7.061274
357.437378 4.531863
357.581787 8.732527
357.719849 4.844298
357.849792 7.558333
357.891052 14.69086
358.029266 3.047619
358.048309 17.74898
358.08194 15.01766
358.475555 10.45343
358.754883 5.703947
359.138916 181.737396
359.16748 45.17308
359.217804 7.008333
359.641418 7.136111
360.211792 8.388441
361.298248 19.378151
361.632416 5.454545
362.147339 44.0
363.445068 3.777778
369.146942 31.184271
369.173462 16.34568
371.16217 33.506779
373.156677 43.03194
375.155853 138.935501
375.449799 10.68314
375.512634 19.13611
375.6185 23.172029
376.319794 7.351191
376.894989 20.177641
377.083954 51.6908
377.154663 331.628113
377.234222 2.695513
377.292053 6.133333
377.684296 3.402778
378.902252 6.732527
379.15509 571.926025
379.354736 13.38844
379.463226 23.26042
379.55249 7.49359
380.149261 9.561992
381.140656 8.666667
382.158417 15.52083
389.173065 55.015839
392.766846 17.72781
394.684021 27.781151
394.893158 20.45833
395.179779 169.651398
395.301147 4.675
395.550201 13.00872
396.300812 14.30826
396.360138 18.049601
397.161804 838.103821
397.337311 8.33772
397.376465 12.03132
397.441315 3.355392
397.489868 2.333333
397.593933 11.44048
397.699066 8.888888
397.836792 8.057693
398.142273 15.3477
398.892151 6.049603
399.017242 5.049603
399.204895 4.741667
399.316101 1.833333
399.500366 5.958333
400.1651 91.407227
400.518127 6.125
401.328461 7.410257
401.460144 9.0
411.439484 3.185606
413.193115 28.154949
413.445343 12.13333
414.195129 324.114014
415.015198 3.916667
415.278503 1.666667
415.543701 26.367649
415.904663 5.337963
415.927795 20.551359
416.006287 4.75
416.196289 21.93223
416.24823 6.520061
417.169678 918.221191
417.427155 36.798901
417.486786 7.5625
417.716248 1.777778
417.82431 22.51709
419.239227 11.56522
432.842987 10.21814
433.150238 8.240196
433.200256 87.453949
435.195648 143.924805
435.241516 3.708333
435.274261 9.019608
435.535583 9.349999
435.928741 3.027778
436.116364 17.14583
437.178925 305.869507
437.23819 2.708333
438.349823 9.022163
452.263428 25.12397
452.838348 13.36149
453.408539 14.08046
454.372009 8.371913
455.206329 1748.67395
455.284973 6.345943
455.343964 3.010417
455.379364 7.757576
455.425995 23.168751
455.537018 6.125
455.581573 13.67
455.700378 19.44363
455.738525 23.44511
455.811127 13.97743
456.08551 16.847219
456.666321 5.669117
457.350525 4.335526
457.75238 18.79431
458.126617 31.637951
459.629974 12.68003
461.900665 5.265351
472.218811 39.720242
472.275665 10.88889
472.341797 6.417735
472.585663 5.338889
472.676239 10.66886
473.368744 4.083333
474.238464 4.387821
474.36441 18.460939
475.212128 2141.011963
475.279999 10.51923
475.312378 28.10075
475.342529 7.670455
475.390991 28.31288
475.421326 6.148809
475.456299 17.40476
475.541656 15.95163
475.582275 5.560185
475.615631 3.010417
475.668671 6.777778
475.713531 39.329201
475.74469 15.98177
475.978394 6.037281
476.077087 7.704545
476.11322 8.054487
476.21814 276.308197
478.618439 19.51803
481.421539 3.375
491.844574 4.59375
492.059723 4.351191
492.149628 38.954121
492.257111 22.530109
492.306305 18.053329
492.391693 6.564103
492.522858 2.695513
492.924408 4.363636
494.697357 4.013889
495.066193 18.500231
495.220612 3642.510986
495.327911 44.487801
495.360901 4.802778
495.395874 17.3869
495.438599 43.331539
495.476868 44.544922
495.538696 2.083333
495.624298 48.182919
495.707886 6.394608
495.760864 24.09466
495.801819 13.90079
495.898315 32.515339
495.959045 18.3678
496.023254 13.82675
496.158234 20.57819
496.53833 17.151239
497.179962 6.333333
497.484192 14.03261
508.206665 5.5
526.552368 12.10289
545.69519 39.043629
