>compound MLS000877007-01!2-(1,5-dihydroxy-3,4-dioxonaphthalen-2-yl)-3-methoxy-5-methylbenzoic acid
>formula C19H14O7
>ionization [M+H]+
>parentmass 355.082
#inchi InChI=1S/C19H14O7/c1-8-6-10(19(24)25)14(12(7-8)26-2)15-16(21)9-4-3-5-11(20)13(9)17(22)18(15)23/h3-7,20,23H,1-2H3,(H,24,25)
#inchikey PBKZJIMGHNPKBJ
#Ion_Source LC-ESI
#Instrument qTof
#Compound_Source NIH Natural Product Library
#PI Dorrestein
#Data_Collector VVP/LMS
#Scan -1
#Precursor_MZ 355.082
#ExactMass 354.074
#Charge 1
#CAS_Number N/A
#Pubmed_ID N/A
#Smiles COc1cc(C)cc(C(=O)O)c1C2=C(O)C(=O)c3c(O)cccc3C2=O
#INCHI_AUX N/A
#Library_Class 1
#SpectrumID CCMSLIB00000080020
#IonMode Positive
#UpdateWorkflowName UPDATE-SINGLE-ANNOTATED-GOLD
#LibraryQualityString Gold
#TaskID b1d8e8f6646f4e71acdff9ca3d919d08
##Scan# 1958
#SpectrumFile p2-A03_GA3_01_17980.mzXML
#LibraryName NIH_Natural_Products_Library.mgf
#MQScore -1
#Organism NIH_Natural_Products_Library
#TIC_Query 0
#RT_Query -1
#MZErrorPPM -1
#SharedPeaks 0
#MassDiff 0
#LibMZ -1
#SpecMZ 355.082
#SpecCharge 0
#internalFilename spec-00000.mgf

>collision 10
95.772385 172.0
97.264336 120.0
97.631752 208.0
98.096428 164.0
98.463432 144.0
99.56459 204.0
100.685852 232.0
101.273872 188.0
101.482285 172.0
102.030403 212.0
102.36441 156.0
102.694931 264.0
103.598495 184.0
103.874199 220.0
104.052788 104.0
105.315361 176.0
105.546295 252.0
105.615829 48.0
105.816383 156.0
106.177032 96.0
106.717102 108.0
107.048393 144.0
107.384323 68.0
108.291672 84.0
108.922241 172.0
109.469238 112.0
109.494232 176.0
109.523392 176.0
110.672012 176.0
110.910843 124.0
112.625755 104.0
113.688606 152.0
113.805351 108.0
114.477303 168.0
115.053001 140.0
115.26873 144.0
115.786438 208.0
117.588127 164.0
117.862389 140.0
117.901291 136.0
118.312263 144.0
118.951782 76.0
120.345131 192.0
121.032478 332.0
121.060951 404.0
121.334068 104.0
121.5951 60.0
121.790512 128.0
122.126816 48.0
122.265427 120.0
122.675117 68.0
123.083282 192.0
123.118614 160.0
123.138489 172.0
123.162788 152.0
124.956238 144.0
127.42907 124.0
127.444794 256.0
127.552666 128.0
127.604378 176.0
127.87207 132.0
128.099487 136.0
128.421829 232.0
129.185318 232.0
129.828598 180.0
129.953354 148.0
130.275742 164.0
130.300735 180.0
130.628098 220.0
131.619522 104.0
131.964539 124.0
132.245926 144.0
132.330627 100.0
132.949539 148.0
133.026505 128.0
133.707947 180.0
133.908249 164.0
135.618027 184.0
136.0495 196.0
136.372375 108.0
136.70961 140.0
137.378326 188.0
137.810242 180.0
137.948441 148.0
138.001907 188.0
139.063324 172.0
139.824615 40.0
140.43248 160.0
142.188049 48.0
142.237885 156.0
142.420731 196.0
142.974701 112.0
143.866165 120.0
144.344025 168.0
144.849014 124.0
145.055099 168.0
145.136612 128.0
145.472504 140.0
146.179138 160.0
146.588501 156.0
146.774124 124.0
146.986389 184.0
147.220551 132.0
147.781357 116.0
148.226883 244.0
148.277786 152.0
148.869736 208.0
149.021774 448.0
149.059036 184.0
149.102966 160.0
149.470169 140.0
150.027924 140.0
150.132767 236.0
150.374298 176.0
151.25914 124.0
151.879074 76.0
152.057098 276.0
152.320923 124.0
152.763397 80.0
153.413528 160.0
153.623154 140.0
154.0354 160.0
154.076508 256.0
154.114456 148.0
154.418518 44.0
155.632828 108.0
156.615158 148.0
156.82196 144.0
157.023911 172.0
157.106232 184.0
157.475662 200.0
158.721954 120.0
159.045593 152.0
160.127686 264.0
160.472 144.0
160.610703 160.0
161.833862 208.0
162.064346 76.0
162.998123 156.0
163.054031 184.0
163.634018 188.0
164.059479 148.0
164.983643 80.0
165.069382 744.0
165.098709 260.0
166.025787 164.0
166.077606 468.0
166.521118 156.0
166.983749 164.0
167.086533 320.0
167.230743 68.0
167.392929 148.0
167.557785 212.0
167.709824 132.0
168.052811 292.0
168.955795 64.0
169.008835 176.0
169.052826 156.0
170.073975 48.0
170.389862 156.0
171.387299 140.0
172.049774 76.0
172.488647 288.0
173.022324 200.0
173.541077 176.0
173.863739 196.0
173.979233 40.0
174.029114 172.0
174.078995 88.0
174.467865 204.0
174.930878 72.0
174.951935 188.0
175.054626 152.0
175.091492 124.0
175.220566 148.0
175.362869 156.0
176.065063 160.0
176.220505 104.0
176.283936 148.0
176.785385 196.0
177.073517 340.0
177.920853 152.0
178.07782 836.0
178.236908 112.0
178.516022 32.0
178.939102 140.0
179.04715 164.0
179.084625 1244.0
179.290726 140.0
179.338699 236.0
181.011124 80.0
181.064163 396.0
181.099503 164.0
181.434464 84.0
182.073441 956.0
182.296066 160.0
182.356049 152.0
182.417007 64.0
183.059113 196.0
183.580154 56.0
183.844528 36.0
184.055084 192.0
184.652328 112.0
184.830872 244.0
185.023041 228.0
185.982666 116.0
186.256927 156.0
186.656433 172.0
187.069992 176.0
187.955765 48.0
188.327057 196.0
188.365295 28.0
188.832993 188.0
188.909286 172.0
189.066223 300.0
189.150101 204.0
189.602036 52.0
189.826828 140.0
190.072281 156.0
190.617416 88.0
191.060089 120.0
191.085663 260.0
191.106857 244.0
191.985596 160.0
192.057877 152.0
192.283539 132.0
192.623169 160.0
192.648026 144.0
192.838684 160.0
193.062897 256.0
193.502594 168.0
193.668762 180.0
194.072586 1708.0
194.794952 180.0
194.953323 48.0
195.078934 852.0
195.670959 48.0
196.049789 216.0
196.081802 140.0
196.836456 216.0
197.06189 244.0
197.101837 380.0
197.484833 132.0
197.512802 40.0
197.535187 160.0
197.742249 68.0
197.784515 200.0
198.039032 152.0
198.063629 192.0
200.043945 168.0
200.452332 136.0
200.94014 204.0
201.309509 144.0
201.713928 112.0
202.240067 208.0
202.608185 140.0
202.670517 188.0
202.897263 164.0
203.107117 132.0
203.904968 260.0
204.058472 136.0
204.277451 44.0
204.727158 156.0
205.058075 132.0
205.518478 180.0
205.999268 180.0
206.076401 76.0
206.35936 80.0
206.450867 140.0
207.082367 532.0
207.249512 104.0
207.518951 52.0
208.086914 280.0
208.325409 172.0
208.891724 72.0
209.061569 936.0
209.09314 300.0
209.530823 168.0
209.709732 144.0
210.067047 1380.0
211.037216 160.0
211.068161 628.0
211.419266 120.0
212.047455 340.0
212.61618 100.0
213.057541 136.0
214.057785 152.0
216.722076 100.0
217.068237 176.0
217.508057 196.0
218.070862 144.0
218.536652 36.0
219.082504 328.0
219.78006 104.0
220.047638 476.0
220.088898 216.0
220.423782 136.0
221.061005 868.0
221.628098 252.0
221.697266 176.0
221.859283 168.0
222.067169 1940.0
222.247803 84.0
222.379745 52.0
222.568375 68.0
223.038544 472.0
223.07222 1588.0
223.251846 160.0
223.308365 152.0
223.338104 172.0
223.382721 160.0
224.047867 148.0
224.078674 384.0
224.469818 44.0
224.929291 96.0
225.091415 688.0
225.40416 164.0
226.06221 784.0
226.091553 168.0
226.271561 116.0
226.304489 200.0
226.472198 232.0
227.059647 148.0
227.200623 132.0
227.230637 140.0
227.251633 112.0
227.957275 136.0
228.089523 172.0
228.564697 52.0
229.610382 176.0
229.670364 176.0
229.706558 68.0
230.089813 112.0
231.910904 196.0
232.065933 196.0
232.939545 156.0
233.066727 144.0
233.468414 112.0
233.669174 136.0
234.070816 352.0
234.128815 220.0
234.378601 172.0
235.074265 1416.0
235.211197 60.0
235.59903 72.0
235.883224 144.0
235.932129 28.0
236.051376 140.0
236.075851 136.0
237.058929 424.0
237.641113 160.0
238.062546 2176.0
238.104645 96.0
238.138428 64.0
238.645493 64.0
239.070374 316.0
239.106918 60.0
239.651978 112.0
239.806061 52.0
240.07962 384.0
240.984894 116.0
241.044434 176.0
243.565506 184.0
244.308456 92.0
244.579193 152.0
245.061584 120.0
245.520126 144.0
246.62851 100.0
246.875488 160.0
247.073502 476.0
247.128876 184.0
248.081589 120.0
249.055344 828.0
249.13855 144.0
249.597427 184.0
249.845901 224.0
250.061646 1280.0
250.220413 80.0
250.588913 120.0
250.711807 124.0
250.967133 88.0
251.03537 316.0
251.070511 1324.0
251.967651 136.0
252.070129 316.0
253.046143 176.0
253.086227 916.0
253.416718 64.0
253.584671 180.0
253.743179 112.0
253.965149 168.0
254.057602 308.0
254.09343 156.0
254.203094 160.0
254.320526 40.0
255.134949 252.0
256.085175 144.0
256.508972 84.0
257.127747 240.0
257.341644 44.0
259.094299 168.0
259.145569 60.0
260.035065 180.0
260.457672 76.0
260.814331 180.0
261.058685 168.0
261.599243 80.0
262.070648 524.0
262.117767 144.0
262.377228 168.0
263.07135 1452.0
263.18222 196.0
263.214508 36.0
263.292023 64.0
263.590637 148.0
263.786377 72.0
263.938324 172.0
264.050995 152.0
264.071075 164.0
264.109741 32.0
264.478607 40.0
264.510986 104.0
265.049072 1364.0
265.149048 144.0
265.268982 40.0
265.92746 172.0
266.059113 2744.0
266.196899 84.0
266.518494 60.0
266.580231 76.0
267.016968 120.0
267.061127 336.0
267.142731 48.0
267.194794 68.0
267.520233 176.0
267.751404 224.0
268.070007 140.0
268.970825 84.0
269.411682 156.0
269.503174 128.0
270.052185 224.0
270.265015 108.0
271.470459 124.0
271.887115 232.0
272.635895 164.0
273.065338 340.0
274.064026 92.0
274.291443 184.0
275.234985 124.0
275.899109 64.0
276.040924 268.0
276.080963 104.0
277.047333 236.0
277.650726 200.0
278.0578 336.0
278.902466 48.0
279.026917 132.0
279.067688 1360.0
279.281494 136.0
279.38797 72.0
280.074768 520.0
280.390228 44.0
280.897034 48.0
281.055786 256.0
281.082886 376.0
281.257416 204.0
282.032349 184.0
282.08432 140.0
282.236298 208.0
282.721344 128.0
283.059845 132.0
283.628998 184.0
284.454163 108.0
287.172974 116.0
288.216125 144.0
289.048004 284.0
289.085175 136.0
289.163025 204.0
290.061462 300.0
290.610016 120.0
291.06485 552.0
291.316193 108.0
291.401123 88.0
292.074219 168.0
292.217102 32.0
292.244324 44.0
292.315796 124.0
293.048431 340.0
293.238708 96.0
293.320496 124.0
293.671722 124.0
293.944641 144.0
294.053009 18588.0
294.115295 36.0
294.166473 112.0
294.207458 52.0
294.363647 80.0
294.460144 40.0
294.56601 56.0
294.603607 56.0
294.679779 120.0
294.799438 64.0
295.000671 212.0
295.057556 3916.0
295.15387 100.0
295.368286 52.0
295.471954 44.0
295.845001 52.0
295.907928 84.0
295.9888 120.0
296.061096 612.0
296.245667 60.0
296.276489 64.0
296.516357 52.0
296.550629 76.0
296.66156 76.0
296.807739 56.0
296.886627 28.0
296.920898 72.0
296.989502 76.0
297.043701 120.0
297.063049 136.0
297.141998 68.0
297.717102 48.0
297.875122 72.0
299.223206 124.0
300.156952 56.0
301.043976 364.0
301.354675 64.0
301.800568 52.0
302.056824 120.0
302.226013 120.0
303.074341 192.0
303.098602 72.0
303.299591 72.0
304.027954 156.0
305.051727 608.0
306.040649 252.0
306.573608 60.0
307.032623 252.0
307.064209 392.0
307.173309 52.0
308.052277 144.0
308.510773 116.0
308.8255 104.0
309.077972 3328.0
309.581451 68.0
309.903717 120.0
310.074951 272.0
310.121002 32.0
310.152557 68.0
310.580322 84.0
311.079498 64.0
312.920776 156.0
313.791046 144.0
314.030823 100.0
314.274231 144.0
314.962646 176.0
315.065094 160.0
315.25943 52.0
316.068115 44.0
317.230927 48.0
317.528778 80.0
318.044617 124.0
318.266907 60.0
318.75708 116.0
318.88147 216.0
319.060211 2824.0
319.176178 40.0
319.24765 80.0
319.838257 112.0
320.019836 108.0
320.068146 900.0
320.112396 140.0
320.600464 40.0
320.643219 72.0
320.846405 92.0
320.899872 76.0
321.083801 152.0
321.093445 212.0
321.210144 104.0
322.040405 220.0
322.341919 296.0
323.035522 116.0
323.060577 232.0
324.07019 204.0
326.040985 180.0
328.849457 52.0
335.84137 140.0
336.750183 64.0
336.921875 164.0
337.071075 1528.0
337.137451 100.0
337.192291 60.0
338.064819 152.0
338.087463 380.0
339.084473 100.0
341.095886 52.0
350.321442 80.0
371.343933 124.0
371.731415 112.0
371.846527 52.0
383.052277 72.0
398.128876 68.0
401.42395 80.0
402.589203 100.0
407.588531 44.0
414.059265 136.0
420.026001 80.0
424.906433 84.0
426.701202 48.0
427.902557 52.0
435.702728 96.0
458.954407 76.0
464.921844 92.0
465.07962 84.0
468.473389 48.0
472.328247 60.0
484.72348 96.0
500.061554 108.0
500.186188 48.0
510.359711 44.0
529.197266 80.0
534.399597 100.0
544.820679 52.0
548.706726 68.0
549.494873 132.0
601.038147 32.0
657.139771 84.0
663.507263 80.0
670.791748 76.0
685.209229 84.0
803.932556 84.0
845.667725 100.0
996.937744 164.0
1047.291504 52.0
1076.509277 80.0
1194.756348 100.0
1205.540161 76.0
1358.678711 156.0
1402.255371 76.0
1432.353882 44.0
1467.144531 172.0
1471.508423 100.0
1479.153076 72.0
