>compound MLS001074187-01!57-83-0
>formula C21H30O2
>ionization [M+H]+
>parentmass 315.2318566520905
#inchi InChI=1S/C21H30O2/c1-13(22)17-6-7-18-16-5-4-14-12-15(23)8-10-20(14,2)19(16)9-11-21(17,18)3/h12,16-19H,4-11H2,1-3H3/t16-,17+,18-,19-,20-,21+/m0/s1
#inchikey RJKFOVLPORLFTN
#Ion_Source LC-ESI
#Instrument qTof
#Compound_Source NIH Pharmacologically Active Library
#PI Dorrestein
#Data_Collector VP/LMS
#Scan -1
#Precursor_MZ 315.236
#ExactMass 314.225
#Charge 1
#CAS_Number N/A
#Pubmed_ID N/A
#Smiles CC(=O)[C@H]1CC[C@H]2[C@@H]3CC/C/4=C/C(=O)CC[C@]4(C)[C@H]3CC[C@]12C
#INCHI_AUX N/A
#Library_Class 1
#SpectrumID CCMSLIB00000084845
#IonMode Positive
#UpdateWorkflowName UPDATE-SINGLE-ANNOTATED-GOLD
#LibraryQualityString Gold
#TaskID d252d724072548979f1f6f1ced849daf
##Scan# 2453
#SpectrumFile p3-B07_GB7_01_18240.mzXML
#LibraryName Pharm_Active_Library.mgf
#MQScore -1
#Organism Pharm_Active_Library
#TIC_Query 0
#RT_Query -1
#MZErrorPPM -1
#SharedPeaks 0
#MassDiff 0
#LibMZ -1
#SpecMZ 315.236
#SpecCharge 0
#internalFilename spec-00000.mgf

>collision 10
45.061531 112.0
45.108307 176.0
45.127026 152.0
45.149757 200.0
45.264847 164.0
45.351929 100.0
45.50486 220.0
45.888313 100.0
46.039444 172.0
46.1124 148.0
46.246304 168.0
46.265251 56.0
46.446838 192.0
46.577152 124.0
46.821976 156.0
46.871017 168.0
46.901001 200.0
46.965088 200.0
46.978729 196.0
47.056519 200.0
47.087929 196.0
47.180847 204.0
47.24102 72.0
47.261543 140.0
47.387508 148.0
47.519131 196.0
47.577702 184.0
47.699036 184.0
47.85725 168.0
47.887547 232.0
48.431751 160.0
48.566204 104.0
48.642521 180.0
48.812019 180.0
48.926113 148.0
48.951176 184.0
49.126793 76.0
49.185402 188.0
49.217514 200.0
49.346058 184.0
49.455173 140.0
49.512577 228.0
49.557404 148.0
49.673767 92.0
49.686394 148.0
49.811028 184.0
49.995766 116.0
50.458187 184.0
50.731422 148.0
50.785305 156.0
50.908783 128.0
50.979813 224.0
51.14764 164.0
51.197472 208.0
51.217411 132.0
51.305763 132.0
51.384773 220.0
51.526974 220.0
51.551266 168.0
51.960781 84.0
52.170837 212.0
52.281212 180.0
52.345993 168.0
52.388348 128.0
52.505959 124.0
52.621399 248.0
52.706615 244.0
52.885944 232.0
52.926479 60.0
52.936615 96.0
52.991657 148.0
53.069927 140.0
53.309437 120.0
53.363216 84.0
53.463249 224.0
53.604843 204.0
53.819271 212.0
53.963921 152.0
54.044716 184.0
54.215694 112.0
54.480148 188.0
54.626812 260.0
54.68235 220.0
54.751923 224.0
54.766651 160.0
54.871281 248.0
54.888973 120.0
55.04982 132.0
55.401844 204.0
55.438885 172.0
55.455189 164.0
55.790661 144.0
55.867992 120.0
55.881382 104.0
56.185314 176.0
56.315186 136.0
56.443707 120.0
56.582859 64.0
56.773155 144.0
56.837658 164.0
57.002838 180.0
57.061459 104.0
57.100555 208.0
57.121613 176.0
57.174274 152.0
57.329388 68.0
57.921654 180.0
58.042896 220.0
58.225002 200.0
58.383053 156.0
58.486515 172.0
58.623585 176.0
58.678459 128.0
58.765396 120.0
58.820335 228.0
58.922653 212.0
58.989895 180.0
59.10001 128.0
59.165821 136.0
59.176537 68.0
59.2332 196.0
59.286827 164.0
59.453987 112.0
59.75322 168.0
59.79517 132.0
59.875229 200.0
59.949177 220.0
59.969212 72.0
60.132702 176.0
60.157398 220.0
60.50214 124.0
60.530006 128.0
60.857182 172.0
60.909981 148.0
60.955036 160.0
60.992336 148.0
61.054527 120.0
61.119663 156.0
61.554764 136.0
61.878426 80.0
62.066444 112.0
62.121338 136.0
62.558205 160.0
62.657417 152.0
62.955536 76.0
63.165604 180.0
63.362045 144.0
63.520573 44.0
63.568172 60.0
63.836636 80.0
64.070389 124.0
64.127975 216.0
64.198128 60.0
64.855225 124.0
64.892097 196.0
64.920959 116.0
65.205116 152.0
65.290329 188.0
65.336975 212.0
65.435143 136.0
65.451248 164.0
65.618813 148.0
65.828575 216.0
65.894798 160.0
65.949745 184.0
65.971024 244.0
66.347961 176.0
66.375519 48.0
66.455002 220.0
66.749001 108.0
66.801041 216.0
66.900307 60.0
67.387947 192.0
67.559608 156.0
67.718384 200.0
67.746231 148.0
67.87735 148.0
67.934753 136.0
68.00531 132.0
68.054565 128.0
68.075912 176.0
68.373199 200.0
68.732712 196.0
68.818542 164.0
68.993668 132.0
69.101166 276.0
69.114403 192.0
69.323044 128.0
69.362823 148.0
69.532005 188.0
69.719666 196.0
69.972504 180.0
70.21579 204.0
70.332581 220.0
70.394165 216.0
70.517982 128.0
70.614952 148.0
70.847618 168.0
70.887833 212.0
70.943146 160.0
71.078995 160.0
71.110878 132.0
72.00827 148.0
72.977577 160.0
73.038795 252.0
73.134079 72.0
73.158379 116.0
73.268608 128.0
73.589241 148.0
73.679764 144.0
73.772041 112.0
73.871231 124.0
74.004715 96.0
74.308083 104.0
74.692894 28.0
74.76516 168.0
74.839172 188.0
74.894524 228.0
75.066628 228.0
75.126991 212.0
75.177032 136.0
75.330696 168.0
75.37043 116.0
75.384254 192.0
75.465492 52.0
75.500076 216.0
75.565811 200.0
75.595222 340.0
75.676582 164.0
76.089218 120.0
76.461205 68.0
76.502975 60.0
76.689362 184.0
76.748627 168.0
76.76432 172.0
76.820137 156.0
77.300606 144.0
77.449417 164.0
78.088577 180.0
78.137558 184.0
78.392868 176.0
78.668015 180.0
79.203812 256.0
79.244553 60.0
79.453758 164.0
79.48037 196.0
79.556686 108.0
79.599297 124.0
80.102623 188.0
80.287987 156.0
80.357552 172.0
80.428528 124.0
80.474991 224.0
80.516418 204.0
80.696899 152.0
80.763062 160.0
81.166016 248.0
81.424423 228.0
81.852425 212.0
81.973114 108.0
82.090286 132.0
82.350159 164.0
82.686447 204.0
82.780586 176.0
82.991051 132.0
83.302933 108.0
83.371971 92.0
83.533791 260.0
83.718651 156.0
83.746758 172.0
83.839676 84.0
84.197243 188.0
84.233772 128.0
84.266655 184.0
84.286758 176.0
84.63063 220.0
84.733192 132.0
84.749687 136.0
84.830322 88.0
84.843155 236.0
84.86882 116.0
85.000893 232.0
85.30761 164.0
85.718033 76.0
86.033424 420.0
86.306862 72.0
86.364189 184.0
86.567772 176.0
86.862457 224.0
86.953377 96.0
87.023918 92.0
87.04248 68.0
87.079628 32.0
87.094482 92.0
87.278465 212.0
87.297058 152.0
87.661919 224.0
87.807335 168.0
87.988335 120.0
88.010735 244.0
88.074234 196.0
88.255508 236.0
88.485641 196.0
88.500618 68.0
88.562416 124.0
88.667336 172.0
88.886742 52.0
89.561668 84.0
89.861397 184.0
90.276955 204.0
90.50592 168.0
90.555153 120.0
90.697258 200.0
90.962814 140.0
91.006485 140.0
91.053108 444.0
91.18885 36.0
91.244949 132.0
91.44751 220.0
91.55603 140.0
91.775169 184.0
91.89151 236.0
92.058182 136.0
92.081398 156.0
92.093857 232.0
92.587296 120.0
92.725235 212.0
92.778908 140.0
92.817253 188.0
93.071548 504.0
93.10894 168.0
93.272255 144.0
93.51268 164.0
93.84787 36.0
93.884506 184.0
94.007973 40.0
94.038918 204.0
94.174004 192.0
94.189453 56.0
94.349846 180.0
94.446533 92.0
94.547142 48.0
95.04837 296.0
95.086197 864.0
95.153847 80.0
95.179085 88.0
95.254829 160.0
95.32283 140.0
95.540588 208.0
95.88134 76.0
96.041214 188.0
96.090569 160.0
96.511864 160.0
96.642906 140.0
96.838669 60.0
96.911148 128.0
96.977806 232.0
97.043701 152.0
97.066154 14868.0
97.109138 48.0
97.141502 80.0
97.197418 80.0
97.287704 100.0
97.405525 60.0
97.605988 40.0
97.678749 64.0
97.743675 68.0
97.779099 248.0
97.873589 64.0
98.067413 872.0
98.096649 180.0
98.242142 140.0
98.273705 96.0
98.309227 48.0
98.523331 196.0
98.680573 160.0
98.743851 96.0
98.830887 48.0
99.070198 208.0
99.090256 164.0
99.465065 140.0
99.564339 160.0
99.594124 268.0
99.707375 192.0
100.352325 224.0
100.491936 188.0
100.565773 100.0
101.081375 168.0
101.447426 120.0
101.516068 132.0
101.853241 176.0
101.939629 156.0
102.372131 180.0
102.440605 160.0
102.561508 196.0
102.81765 212.0
103.053635 436.0
103.541412 204.0
103.632568 188.0
104.060524 180.0
104.20269 44.0
104.371384 200.0
104.735672 100.0
105.070061 2216.0
105.374184 172.0
105.439568 36.0
105.613358 188.0
105.678818 44.0
105.73513 108.0
106.07428 520.0
106.190941 156.0
106.219353 188.0
106.264786 100.0
106.353027 168.0
106.768044 76.0
107.029388 204.0
107.048409 628.0
107.084991 2072.0
107.109703 188.0
107.583984 132.0
107.743004 168.0
108.051041 120.0
108.09449 164.0
108.146233 48.0
108.454849 180.0
108.769699 116.0
108.799187 188.0
108.883446 208.0
108.952866 108.0
109.00618 152.0
109.040497 208.0
109.06604 29844.0
109.103188 816.0
109.162796 48.0
109.202057 56.0
109.28968 64.0
109.310486 72.0
109.366676 32.0
109.502014 76.0
109.522835 220.0
109.635345 48.0
110.000343 232.0
110.067566 940.0
110.125626 184.0
110.154869 76.0
110.336678 56.0
110.606529 28.0
110.640022 72.0
110.673523 180.0
110.71331 160.0
110.762428 132.0
110.807564 72.0
110.87252 128.0
110.912346 108.0
110.9375 108.0
111.006691 64.0
111.031853 92.0
111.078262 188.0
111.338257 96.0
111.659798 176.0
111.95443 96.0
112.066071 200.0
112.940041 44.0
112.978119 124.0
113.077568 216.0
113.609413 164.0
114.304688 164.0
114.416977 204.0
114.710953 148.0
114.730141 172.0
114.780159 96.0
114.998909 96.0
115.055069 208.0
115.629402 136.0
116.060944 320.0
116.113586 152.0
116.341026 152.0
116.624573 168.0
117.013931 96.0
117.070801 1272.0
117.100067 60.0
117.158226 48.0
117.190544 208.0
117.356499 196.0
118.075317 292.0
119.061653 152.0
119.085945 1928.0
119.144196 40.0
119.430321 160.0
119.500748 132.0
119.555145 100.0
120.087669 348.0
120.481819 156.0
120.770363 184.0
120.897255 264.0
121.065613 328.0
121.101654 1488.0
121.19725 180.0
121.374794 52.0
121.396721 156.0
121.440582 56.0
121.598549 156.0
122.037888 156.0
122.066475 168.0
122.105385 196.0
122.20945 120.0
122.918594 100.0
123.080971 4872.0
123.116882 148.0
123.400452 144.0
123.685829 68.0
123.973747 184.0
124.083481 544.0
124.652786 124.0
124.713539 212.0
124.732796 144.0
124.959625 120.0
124.993004 188.0
125.095375 168.0
125.119865 184.0
125.253479 48.0
125.471863 172.0
125.592278 116.0
126.192993 128.0
126.267143 200.0
127.127045 80.0
127.340317 144.0
128.060562 356.0
128.465759 168.0
128.48381 40.0
128.513138 140.0
128.761444 32.0
129.069168 932.0
129.247467 204.0
129.272354 184.0
129.711731 124.0
129.859741 216.0
129.874985 156.0
130.078094 392.0
131.032059 168.0
131.084824 1644.0
131.705002 76.0
131.992966 160.0
132.090897 336.0
132.134766 156.0
132.560638 192.0
132.583557 36.0
132.627106 112.0
132.650024 104.0
132.688995 108.0
133.010162 128.0
133.053772 216.0
133.101547 1392.0
133.124954 56.0
133.20993 40.0
133.288055 100.0
134.106125 304.0
134.439423 36.0
135.030838 164.0
135.079376 244.0
135.115997 232.0
135.141876 40.0
136.080551 76.0
136.120026 180.0
136.812881 96.0
137.064407 84.0
137.09697 136.0
137.13385 160.0
138.019089 44.0
138.104385 252.0
138.229599 60.0
138.941879 60.0
139.04512 152.0
139.11319 232.0
139.858322 152.0
140.839188 176.0
140.886444 100.0
141.070877 172.0
142.078125 524.0
142.975372 152.0
143.086182 948.0
143.287292 100.0
143.320648 52.0
143.375458 176.0
143.559021 176.0
143.833389 140.0
144.088943 196.0
144.957443 160.0
145.060501 64.0
145.101044 3600.0
145.362701 100.0
145.439499 76.0
145.963211 212.0
146.073853 152.0
146.106644 304.0
146.177307 56.0
147.035202 88.0
147.05452 96.0
147.077835 384.0
147.11676 1792.0
147.163147 68.0
147.242828 84.0
147.801239 184.0
147.852066 80.0
148.086212 184.0
148.11969 172.0
148.491653 104.0
148.92366 72.0
149.020828 200.0
149.095596 668.0
149.130783 888.0
149.387924 72.0
149.558258 76.0
149.585037 68.0
150.101532 192.0
150.137421 184.0
150.816833 72.0
151.109726 160.0
151.293839 132.0
151.76178 188.0
152.06105 368.0
153.071533 172.0
153.741928 140.0
154.080048 180.0
155.086563 164.0
155.290649 84.0
155.327866 256.0
155.392365 40.0
156.088943 268.0
156.237045 180.0
156.373901 184.0
156.637833 160.0
157.102646 1836.0
157.138901 180.0
157.395981 144.0
157.570038 64.0
158.109451 260.0
158.378815 40.0
158.564224 104.0
158.807419 148.0
158.867615 56.0
159.023193 64.0
159.077469 236.0
159.115295 1584.0
159.186371 144.0
159.299393 60.0
159.457687 216.0
159.523041 100.0
159.540634 108.0
160.121185 324.0
160.583084 56.0
161.091858 412.0
161.132248 1344.0
161.421524 72.0
161.816238 108.0
162.097382 440.0
162.138168 232.0
162.640106 124.0
162.815292 56.0
163.082047 56.0
163.10907 1120.0
163.149551 484.0
163.700256 128.0
164.107681 188.0
164.143753 172.0
164.707657 164.0
165.065445 180.0
165.111481 132.0
165.131943 144.0
165.771957 124.0
166.080673 124.0
166.125763 160.0
166.60582 132.0
167.082047 180.0
167.560272 64.0
168.089615 132.0
168.690598 80.0
168.982819 136.0
169.100754 476.0
169.220932 132.0
169.402206 68.0
169.456619 124.0
169.788406 124.0
169.811752 44.0
170.107498 472.0
170.297089 160.0
170.754517 92.0
171.117386 680.0
171.251617 52.0
171.668594 164.0
172.125595 532.0
172.355118 36.0
172.794357 176.0
173.096588 272.0
173.132416 1616.0
174.10495 136.0
174.136475 276.0
174.430756 56.0
174.659515 64.0
174.73317 52.0
174.912109 108.0
175.107132 292.0
175.148605 648.0
175.278183 44.0
175.320343 56.0
176.116302 340.0
176.150589 272.0
177.129486 672.0
177.162949 344.0
177.779358 56.0
177.989441 72.0
178.138168 400.0
178.159424 96.0
178.22052 44.0
179.085983 156.0
179.144135 144.0
179.89035 136.0
180.095963 92.0
181.097397 312.0
181.479477 176.0
182.108093 532.0
183.118942 592.0
183.514816 200.0
184.035538 96.0
184.121902 356.0
184.965515 172.0
185.09465 160.0
185.132492 740.0
185.762177 152.0
186.098694 116.0
186.139008 160.0
187.1035 248.0
187.146393 1300.0
188.148773 192.0
189.127075 1048.0
189.164261 748.0
189.45871 104.0
189.952148 96.0
190.089325 76.0
190.126129 192.0
190.174393 132.0
190.429733 140.0
191.108719 148.0
191.141785 124.0
191.441788 128.0
193.152939 124.0
194.036331 132.0
194.100098 136.0
194.910614 96.0
195.118423 276.0
195.272003 164.0
196.118393 196.0
197.13533 764.0
197.570435 104.0
198.139282 348.0
198.413376 144.0
199.150558 1060.0
199.283417 76.0
200.121567 92.0
200.150238 108.0
200.259537 132.0
201.125488 168.0
201.162689 912.0
201.707016 116.0
202.122742 144.0
202.159531 224.0
202.258591 176.0
202.813751 40.0
202.991623 140.0
203.14267 188.0
203.176712 196.0
204.176544 148.0
204.563492 152.0
205.16153 180.0
205.424072 48.0
207.113403 92.0
207.136322 172.0
207.167831 124.0
207.784195 240.0
208.125732 40.0
209.136093 440.0
209.638763 40.0
210.143555 184.0
210.697678 92.0
211.14978 548.0
212.152634 300.0
212.3302 44.0
212.591293 136.0
213.139771 136.0
213.164749 416.0
214.05928 152.0
214.160248 168.0
214.376801 64.0
214.922073 112.0
215.14978 548.0
215.179291 860.0
215.263596 48.0
215.891876 184.0
216.08493 48.0
216.150421 344.0
216.171448 84.0
217.158539 360.0
218.158325 184.0
219.164841 52.0
220.120529 212.0
221.141846 164.0
223.06842 140.0
223.147095 324.0
223.862808 100.0
224.155594 160.0
224.190491 168.0
225.165207 340.0
225.554428 52.0
226.131683 156.0
226.161621 232.0
227.012451 44.0
227.143234 264.0
227.177094 368.0
227.327438 80.0
227.423462 64.0
227.69368 48.0
228.144379 388.0
228.17746 144.0
229.086288 152.0
229.119431 184.0
229.163681 340.0
229.788712 108.0
230.186966 148.0
230.591949 192.0
231.173843 348.0
231.432907 140.0
231.717606 32.0
233.186264 364.0
233.213623 188.0
233.426422 100.0
233.76712 232.0
235.150681 128.0
237.16629 472.0
237.396194 76.0
238.166702 204.0
238.965775 60.0
239.178802 864.0
240.1772 144.0
241.159637 556.0
241.306671 96.0
241.86969 28.0
242.164749 188.0
245.188339 324.0
246.175674 128.0
246.409927 164.0
249.179474 128.0
249.305161 92.0
249.371155 60.0
250.173447 156.0
251.18248 396.0
252.787415 164.0
253.160095 152.0
253.196365 320.0
254.19191 120.0
255.174622 316.0
255.206238 696.0
256.205261 76.0
257.196808 144.0
257.437256 72.0
259.174164 112.0
259.879547 124.0
260.062469 64.0
261.167725 148.0
262.694519 56.0
264.190186 128.0
265.190735 132.0
265.291229 92.0
267.189606 268.0
269.190948 196.0
269.22818 100.0
270.820923 72.0
271.211761 316.0
271.243591 184.0
273.21991 548.0
274.228058 124.0
277.417786 196.0
279.024536 200.0
279.21283 656.0
279.263947 44.0
280.214691 476.0
282.191803 172.0
285.679596 200.0
286.056488 100.0
288.989197 56.0
296.48056 108.0
297.220306 1092.0
297.801422 136.0
298.225098 276.0
299.180298 104.0
299.235352 288.0
299.472961 84.0
307.101654 152.0
315.175995 152.0
315.234955 900.0
315.349152 48.0
316.229279 308.0
316.314758 84.0
317.884827 68.0
327.077087 152.0
343.146942 156.0
349.119537 60.0
349.238556 104.0
357.966034 48.0
362.737762 104.0
365.004272 56.0
393.19101 164.0
397.068115 64.0
404.563019 88.0
408.109589 48.0
445.232208 164.0
455.822784 84.0
503.400696 60.0
542.230347 76.0
559.570068 92.0
570.156189 88.0
588.319519 132.0
705.340027 216.0
706.032654 108.0
708.870056 28.0
762.229492 192.0
765.419861 88.0
768.390625 148.0
775.795654 108.0
789.996033 180.0
809.605835 244.0
822.12384 168.0
837.14325 168.0
842.709412 72.0
847.326294 52.0
868.551575 112.0
879.584351 132.0
882.727356 160.0
884.887024 224.0
887.72522 204.0
888.075073 40.0
891.726501 168.0
898.192627 176.0
900.21582 148.0
926.718628 56.0
929.956848 92.0
933.577759 212.0
938.394165 68.0
939.02832 148.0
943.663086 208.0
953.876404 200.0
954.76178 136.0
956.133667 196.0
957.869934 116.0
960.008606 76.0
960.168945 152.0
966.667725 236.0
974.020691 156.0
987.421204 128.0
988.284424 164.0
989.930664 212.0
1002.708618 180.0
1003.23175 196.0
1011.329712 124.0
1011.734863 148.0
1012.311035 184.0
1016.069641 156.0
1017.040527 88.0
1018.049988 184.0
1025.161987 248.0
1025.346802 144.0
1027.202271 184.0
1028.440063 200.0
1030.06189 84.0
1030.898926 200.0
1031.691406 60.0
1035.338501 172.0
1038.38269 208.0
1041.630371 148.0
1045.494507 168.0
1050.900757 144.0
1053.024536 132.0
1056.068726 108.0
1059.881714 172.0
1061.301147 144.0
1061.768066 180.0
1063.422485 120.0
1065.29895 184.0
1065.896729 172.0
1067.651855 120.0
1070.886353 188.0
1072.665161 136.0
1073.297607 124.0
1076.109741 44.0
1079.134766 40.0
1079.788574 172.0
1079.978271 200.0
1082.085449 56.0
1087.047119 168.0
1089.115234 204.0
1092.184692 192.0
1093.750732 168.0
1099.847778 152.0
1100.111816 148.0
1100.455078 60.0
1103.342163 132.0
1105.955078 156.0
1112.318359 148.0
1112.935791 212.0
1115.965454 228.0
1117.28894 176.0
1117.867798 212.0
1118.134033 124.0
1119.718506 196.0
1121.670776 144.0
1126.956177 156.0
1128.941406 164.0
1130.005005 176.0
1131.61792 52.0
1132.019653 144.0
1135.913574 168.0
1140.882935 176.0
1143.223511 176.0
1144.980591 148.0
1148.94397 160.0
1149.557983 136.0
1151.427856 240.0
1152.157471 160.0
1155.25354 116.0
1159.227905 124.0
1163.460205 156.0
1170.272461 148.0
1173.19519 168.0
1174.620361 196.0
1177.835449 156.0
1178.573242 244.0
1178.969604 192.0
1182.560059 184.0
1182.635376 180.0
1183.025513 184.0
1185.525391 164.0
1186.6427 124.0
1186.971802 144.0
1189.51709 152.0
1190.183105 120.0
1190.244873 124.0
1195.166382 196.0
1198.126831 176.0
1200.7323 204.0
1204.265991 132.0
1204.887695 148.0
1208.109253 180.0
1208.351318 76.0
1212.124878 148.0
1214.794067 68.0
1216.098633 184.0
1216.556763 56.0
1216.605347 172.0
1216.653931 68.0
1218.619385 148.0
1219.154419 192.0
1221.810425 48.0
1221.963501 116.0
1223.007324 176.0
1224.156006 148.0
1226.552734 76.0
1229.558838 208.0
1230.054321 96.0
1232.016602 156.0
1235.79187 272.0
1236.673584 180.0
1236.729614 180.0
1238.524658 128.0
1239.446777 188.0
1243.675537 152.0
1243.724731 124.0
1244.279297 160.0
1246.049072 292.0
1247.299927 164.0
1247.623291 168.0
1250.007568 104.0
1250.612793 172.0
1250.823975 164.0
1251.337891 160.0
1252.513916 196.0
1252.697021 220.0
1252.746338 216.0
1253.662354 192.0
1253.937134 104.0
1258.465942 128.0
1259.857178 120.0
1261.949097 188.0
1263.321167 52.0
1266.230225 124.0
1268.171509 184.0
1270.815552 188.0
1271.348755 184.0
1273.426636 148.0
1275.503662 188.0
1275.987061 160.0
1276.2146 172.0
1277.231567 140.0
1278.170654 88.0
1278.327148 164.0
1278.512207 164.0
1279.053101 200.0
1281.709473 208.0
1282.151245 208.0
1283.912109 96.0
1284.290161 172.0
1285.460205 220.0
1286.559326 84.0
1286.814331 168.0
1289.616577 124.0
1291.346802 124.0
1292.155151 128.0
1292.491333 204.0
1292.584351 148.0
1292.677368 156.0
1293.314331 200.0
1295.19751 116.0
1295.577148 216.0
1295.727661 176.0
1295.849365 36.0
1296.200439 168.0
1297.605347 176.0
1301.522827 212.0
1302.334229 64.0
1302.571289 216.0
1302.793945 140.0
1305.805786 100.0
1306.517822 164.0
1306.63269 184.0
1312.178467 204.0
1312.63269 216.0
1312.805786 192.0
1314.580322 160.0
1317.410645 176.0
1319.455811 236.0
1320.670654 196.0
1320.779175 184.0
1321.437378 88.0
1323.768066 160.0
1323.934692 128.0
1324.94873 140.0
1326.434326 192.0
1327.884399 100.0
1328.41394 212.0
1328.682251 56.0
1329.306274 76.0
1329.552979 124.0
1329.676392 176.0
1332.268555 136.0
1332.806274 164.0
1333.176758 252.0
1333.845459 164.0
1334.870605 116.0
1335.670532 148.0
1337.322266 152.0
1337.577026 56.0
1337.970093 168.0
1340.417358 124.0
1340.643188 176.0
1341.27002 44.0
1342.458374 220.0
1345.041138 188.0
1346.272095 164.0
1347.567871 168.0
1348.298584 84.0
1348.766357 240.0
1350.016479 144.0
1350.082397 200.0
1350.228638 148.0
1350.769897 84.0
1350.821045 64.0
1351.596558 172.0
1356.532715 180.0
1357.287964 164.0
1357.815918 56.0
1358.534668 196.0
1359.319702 188.0
1359.422485 132.0
1362.161011 168.0
1362.939819 32.0
1363.167603 148.0
1363.226318 116.0
1364.277344 196.0
1366.255615 204.0
1370.93103 236.0
1372.021973 128.0
1372.176758 224.0
1372.434814 180.0
1372.906738 88.0
1373.01001 192.0
1373.592651 184.0
1378.650146 56.0
1384.435059 64.0
1384.531372 204.0
1384.790649 428.0
1387.628662 220.0
1389.453125 88.0
1389.824097 116.0
1391.308472 168.0
1391.486694 176.0
1391.791016 256.0
1393.1427 208.0
1394.718018 268.0
1394.866699 148.0
1396.457886 220.0
1400.23877 168.0
1400.551514 148.0
1402.078857 172.0
1402.690063 168.0
1403.293945 40.0
1404.225952 128.0
1404.367676 148.0
1404.859985 192.0
1407.987427 176.0
1409.858398 224.0
1410.520264 136.0
1410.595093 164.0
1414.387451 172.0
1414.567139 168.0
1415.353149 136.0
1415.884888 176.0
1416.843628 220.0
1420.381836 120.0
1420.53186 148.0
1421.049561 184.0
1421.38623 156.0
1421.859985 144.0
1422.820679 176.0
1424.345093 160.0
1424.615601 148.0
1425.359375 108.0
1425.915405 160.0
1433.079224 176.0
1433.222412 144.0
1433.651978 184.0
1434.752319 164.0
1435.418457 140.0
1435.506348 104.0
1436.185059 136.0
1437.248779 172.0
1439.883301 192.0
1441.061768 208.0
1441.235474 188.0
1445.19751 124.0
1445.424438 244.0
1448.786133 116.0
1450.453247 184.0
1450.817017 204.0
1451.271973 164.0
1451.537354 116.0
1452.515625 188.0
1452.970825 208.0
1453.084595 132.0
1456.25769 164.0
1458.970337 176.0
1466.277588 188.0
1466.35376 196.0
1467.116089 144.0
1467.748901 180.0
1467.901367 192.0
1470.304321 160.0
1471.678345 160.0
1474.841064 148.0
1475.177368 252.0
1478.772339 168.0
1479.874634 180.0
1481.230225 208.0
1482.984863 96.0
1483.697754 236.0
1483.858643 176.0
1484.671509 188.0
1486.067505 160.0
1486.988403 196.0
1487.594727 176.0
1488.293335 216.0
1491.222412 208.0
1491.496948 124.0
1492.627075 204.0
1494.388428 124.0
1494.950073 196.0
1495.404175 120.0
1495.735107 160.0
1496.721313 200.0
1496.83606 172.0
1498.88501 148.0
1500.364868 184.0
1500.896851 184.0
1503.751099 208.0
1503.820557 148.0
