>compound MLS001157768-01!(2S)-N-(5-chloro-2,4-dimethoxyphenyl)-1-(4,5-dimethoxy-3-oxo-1H-2-benzofuran-1-yl)-5-oxopyrrolidine-2-carboxamide
>formula C23H23ClN2O8
>ionization [M+H]+
>parentmass 491.122
#inchi InChI=1S/C23H23ClN2O8/c1-30-15-7-5-11-19(20(15)33-4)23(29)34-22(11)26-14(6-8-18(26)27)21(28)25-13-9-12(24)16(31-2)10-17(13)32-3/h5,7,9-10,14,22H,6,8H2,1-4H3,(H,25,28)/t14-,22?/m0/s1
#inchikey YTCNSNZHGOIWAK
#Ion_Source LC-ESI
#Instrument qTof
#Compound_Source NIH Natural Product Library
#PI Dorrestein
#Data_Collector VVP/LMS
#Scan -1
#Precursor_MZ 491.122
#ExactMass 490.114
#Charge 1
#CAS_Number N/A
#Pubmed_ID N/A
#Smiles COc1ccc2C(OC(=O)c2c1OC)N3[C@@H](CCC3=O)C(=O)Nc4cc(Cl)c(OC)cc4OC
#INCHI_AUX N/A
#Library_Class 1
#SpectrumID CCMSLIB00000080493
#IonMode Positive
#UpdateWorkflowName UPDATE-SINGLE-ANNOTATED-GOLD
#LibraryQualityString Gold
#TaskID b1d8e8f6646f4e71acdff9ca3d919d08
##Scan# 1894
#SpectrumFile p2-G09_GG9_01_18057.mzXML
#LibraryName NIH_Natural_Products_Library.mgf
#MQScore -1
#Organism NIH_Natural_Products_Library
#TIC_Query 0
#RT_Query -1
#MZErrorPPM -1
#SharedPeaks 0
#MassDiff 0
#LibMZ -1
#SpecMZ 491.122
#SpecCharge 0
#internalFilename spec-00000.mgf

>collision 10
94.989441 144.0
95.01078 160.0
95.172737 180.0
95.251503 120.0
95.292297 28.0
95.311592 172.0
95.342819 208.0
95.393356 144.0
95.463348 164.0
95.49836 124.0
95.56839 92.0
95.673492 200.0
95.729958 200.0
95.893608 220.0
95.917 152.0
95.946243 136.0
95.969635 140.0
96.151054 64.0
96.190094 188.0
96.252571 160.0
96.283813 152.0
96.498764 212.0
96.610245 216.0
96.629807 156.0
96.751152 128.0
96.780518 160.0
96.880836 164.0
96.915672 116.0
96.92939 168.0
97.025429 128.0
97.347221 148.0
97.577118 176.0
97.620377 160.0
97.714798 224.0
97.96344 176.0
98.023933 168.0
98.04364 212.0
98.197418 224.0
98.225037 160.0
98.258575 180.0
98.292114 172.0
98.34343 120.0
98.359215 72.0
98.546837 180.0
98.661469 284.0
98.698296 172.0
98.706474 152.0
98.712585 136.0
98.758362 220.0
98.857285 196.0
98.964172 148.0
98.992897 156.0
99.050896 228.0
99.086975 164.0
99.190025 128.0
99.305031 152.0
99.334785 212.0
99.35955 144.0
99.415283 228.0
99.432007 160.0
99.523323 236.0
99.549141 136.0
99.654419 180.0
99.678261 276.0
99.877075 216.0
99.940742 252.0
100.123878 140.0
100.22747 172.0
100.367004 48.0
100.396912 156.0
100.412865 116.0
100.561646 204.0
100.588455 204.0
100.626389 176.0
100.796165 72.0
100.906105 168.0
100.998093 136.0
101.020096 112.0
101.036102 168.0
101.233116 140.0
101.304367 84.0
101.358459 200.0
101.436623 128.0
101.45266 212.0
101.737534 180.0
101.751587 120.0
101.769661 136.0
101.815849 132.0
101.900215 140.0
101.96653 184.0
102.085144 136.0
102.250107 212.0
102.431007 204.0
102.558273 164.0
102.592537 212.0
102.838638 152.0
102.992096 148.0
103.016983 564.0
103.062805 172.0
103.438972 208.0
103.491615 124.0
103.528061 48.0
103.627319 156.0
103.700272 152.0
103.761086 240.0
103.832062 236.0
103.901024 144.0
103.937546 132.0
104.014008 160.0
104.041267 200.0
104.059334 128.0
104.085732 152.0
104.209633 220.0
104.252304 112.0
104.28981 140.0
104.351906 184.0
104.461731 72.0
104.512596 100.0
104.638786 80.0
104.714134 120.0
104.771164 144.0
104.846558 148.0
104.873055 196.0
104.89344 64.0
104.968872 124.0
105.009666 128.0
105.031815 564.0
105.060661 80.0
105.179016 172.0
105.236183 188.0
105.317871 184.0
105.332169 216.0
105.507912 116.0
105.853706 124.0
106.003242 160.0
106.040672 168.0
106.183319 244.0
106.247246 48.0
106.31044 200.0
106.333427 140.0
106.407326 196.0
106.434021 192.0
106.464821 188.0
106.496132 180.0
106.606575 200.0
106.987091 172.0
107.010437 456.0
107.048111 4188.0
107.096687 36.0
107.114769 148.0
107.133308 44.0
107.234764 88.0
107.510643 72.0
107.570503 164.0
107.601471 208.0
107.686134 132.0
107.715691 168.0
107.772896 156.0
108.020134 220.0
108.052635 452.0
108.072464 196.0
108.11203 152.0
108.134796 176.0
108.20932 200.0
108.261086 128.0
108.302505 56.0
108.588539 236.0
108.609283 172.0
108.686043 116.0
108.729622 164.0
108.756607 200.0
108.777359 64.0
108.818886 136.0
108.875465 176.0
108.937263 144.0
109.027542 4548.0
109.062546 276.0
109.155945 148.0
109.309433 192.0
109.399704 108.0
109.500961 188.0
109.555122 184.0
109.573868 176.0
109.592621 180.0
110.031433 352.0
110.066086 176.0
110.369102 188.0
110.4925 168.0
110.52433 208.0
110.659943 216.0
110.68911 172.0
110.714386 136.0
110.729042 128.0
110.752083 168.0
110.978416 52.0
111.036957 200.0
111.058105 44.0
111.129433 152.0
111.174423 236.0
111.322296 164.0
111.362144 188.0
111.387665 176.0
111.578903 136.0
111.632294 132.0
111.644882 200.0
111.661751 180.0
111.67984 188.0
111.706039 140.0
111.73243 96.0
111.810287 140.0
111.835541 124.0
111.997673 68.0
112.088264 356.0
112.174683 180.0
112.244255 192.0
112.330727 132.0
112.444672 116.0
112.47422 108.0
112.725548 172.0
112.86718 188.0
112.922165 220.0
113.101074 192.0
113.267952 164.0
113.383713 224.0
113.462143 192.0
113.759148 68.0
113.90567 180.0
113.969406 120.0
114.024658 56.0
114.041664 112.0
114.124573 160.0
114.294739 236.0
114.384125 148.0
114.399025 168.0
114.541702 140.0
114.729233 212.0
114.85878 208.0
115.027893 168.0
115.081268 136.0
115.12397 68.0
115.177368 124.0
115.25428 304.0
115.269234 124.0
115.324799 152.0
115.367554 128.0
115.483025 188.0
115.510834 192.0
115.635635 184.0
115.667046 164.0
115.761246 180.0
115.88221 196.0
115.918839 184.0
116.011932 164.0
116.080544 152.0
116.102402 208.0
116.118942 208.0
116.166336 92.0
116.462563 240.0
116.858124 208.0
116.888245 156.0
116.904648 72.0
116.937744 228.0
116.998016 100.0
117.031715 612.0
117.109993 64.0
117.247879 128.0
117.399818 176.0
117.467812 180.0
117.534492 172.0
117.584328 132.0
117.649086 132.0
117.679314 164.0
117.789452 120.0
117.966652 168.0
118.110992 160.0
118.126678 180.0
118.230537 156.0
118.263 84.0
118.314949 188.0
118.347427 136.0
118.50988 36.0
118.530067 88.0
118.581573 96.0
118.616074 32.0
118.663765 152.0
118.681114 196.0
118.752678 88.0
118.865486 196.0
118.900215 156.0
118.921913 140.0
119.013268 552.0
119.049576 448.0
119.165138 176.0
119.187439 228.0
119.21946 128.0
119.317276 176.0
119.341194 220.0
119.376938 168.0
119.412956 144.0
119.47821 264.0
119.530434 116.0
119.617493 108.0
119.787346 168.0
119.883209 176.0
119.928978 164.0
119.957314 80.0
120.020592 588.0
120.32164 188.0
120.374046 128.0
120.419907 140.0
120.553177 176.0
120.618744 204.0
120.63842 216.0
120.909645 176.0
120.975311 204.0
121.028 5684.0
121.065163 368.0
121.090202 120.0
121.127579 128.0
121.231583 92.0
121.376259 176.0
121.428894 40.0
121.624176 40.0
121.716377 48.0
121.74054 116.0
121.883324 116.0
121.97123 44.0
122.0364 8404.0
122.060043 212.0
122.162865 180.0
122.18895 188.0
122.208748 48.0
122.228554 128.0
122.374405 212.0
122.505966 120.0
122.535873 132.0
122.558846 44.0
122.576477 92.0
122.631569 148.0
122.852081 124.0
122.935921 92.0
122.973442 108.0
123.007309 676.0
123.039726 412.0
123.064453 176.0
123.127991 156.0
123.216347 196.0
123.289917 68.0
123.378174 168.0
123.466133 40.0
123.488251 44.0
123.585587 228.0
123.616562 132.0
123.711739 192.0
123.813988 112.0
123.829094 252.0
123.937645 180.0
123.962021 176.0
124.016068 176.0
124.171829 176.0
124.290207 204.0
124.390083 144.0
124.572174 180.0
124.601059 164.0
124.746811 192.0
124.816658 200.0
124.839447 224.0
124.872925 172.0
124.901169 40.0
125.061272 176.0
125.284439 140.0
125.32193 184.0
125.35759 100.0
125.384331 156.0
125.446739 208.0
125.567146 232.0
125.65789 196.0
125.689842 120.0
125.743408 276.0
125.83493 200.0
125.953293 156.0
125.968925 140.0
126.029251 256.0
126.044891 40.0
126.096291 136.0
126.134285 172.0
126.219246 100.0
126.295288 144.0
126.664619 92.0
126.926842 280.0
126.964966 132.0
127.0345 156.0
127.205048 244.0
127.27169 152.0
127.339775 96.0
127.359985 52.0
127.402664 32.0
127.47007 60.0
127.589203 192.0
127.676895 100.0
127.802872 156.0
127.825371 140.0
127.897392 180.0
127.937912 136.0
128.14061 132.0
128.361084 132.0
128.47879 120.0
128.580322 176.0
128.633286 188.0
128.769974 176.0
128.799347 76.0
128.894226 140.0
128.971802 224.0
129.036621 152.0
129.108994 92.0
129.332977 184.0
129.550369 184.0
129.588882 200.0
129.629669 160.0
129.720337 180.0
129.835968 72.0
130.015198 104.0
130.280853 128.0
130.380829 40.0
130.4263 208.0
130.471756 144.0
130.528595 64.0
130.564987 56.0
130.585449 168.0
130.637772 44.0
130.678726 64.0
130.822113 184.0
130.9655 148.0
130.990616 156.0
131.012848 264.0
131.096878 208.0
131.32341 224.0
131.50032 216.0
131.526749 140.0
131.567581 136.0
131.684814 164.0
131.706879 164.0
132.021927 496.0
132.129791 84.0
132.349518 68.0
132.519012 180.0
132.578598 80.0
132.635529 204.0
132.709259 196.0
132.734482 268.0
132.760086 172.0
132.849167 180.0
132.920288 140.0
133.0271 484.0
133.092438 180.0
133.126892 32.0
133.25322 256.0
133.271606 140.0
133.33136 172.0
133.4095 136.0
133.697021 148.0
133.766068 112.0
133.938782 132.0
134.03537 596.0
134.266068 44.0
134.36171 208.0
134.409103 192.0
134.492172 184.0
134.52449 180.0
134.575287 112.0
134.596069 108.0
134.642258 132.0
134.725403 80.0
134.766998 164.0
134.789215 160.0
134.857132 160.0
134.907974 212.0
134.958847 148.0
135.007248 744.0
135.044373 12296.0
135.124329 80.0
135.141571 48.0
135.157761 96.0
135.214203 228.0
135.33754 120.0
135.434814 168.0
135.484222 160.0
135.500443 56.0
135.583862 68.0
135.60704 40.0
135.697449 116.0
135.757736 40.0
135.822678 348.0
135.926498 168.0
135.950287 124.0
136.018066 316.0
136.047974 1412.0
136.091888 228.0
136.110458 196.0
136.166199 36.0
136.261444 200.0
136.310303 140.0
136.35672 164.0
136.372986 188.0
136.449692 56.0
136.49263 200.0
136.570618 152.0
136.666 76.0
136.826157 128.0
136.862625 328.0
136.950012 224.0
136.980301 220.0
137.023224 3156.0
137.058624 1124.0
137.099136 56.0
137.236664 32.0
137.278641 200.0
137.346268 140.0
137.434036 148.0
137.649673 116.0
137.718491 164.0
137.98848 96.0
138.026489 344.0
138.065109 192.0
138.100723 112.0
138.206009 176.0
138.327698 168.0
138.38858 64.0
138.56189 104.0
138.643906 108.0
138.695465 156.0
138.825027 168.0
139.019699 196.0
139.152924 148.0
139.171707 72.0
139.232773 156.0
139.27269 148.0
139.33847 64.0
139.416016 132.0
139.538239 140.0
139.734375 204.0
139.891129 140.0
139.928802 132.0
140.098373 100.0
140.329346 156.0
140.383575 116.0
140.532867 220.0
140.551056 120.0
140.615906 52.0
140.669067 176.0
140.690308 52.0
140.834351 128.0
140.879242 76.0
140.928848 176.0
140.952484 28.0
141.035202 188.0
141.127396 120.0
141.193619 60.0
141.300064 100.0
141.361572 76.0
141.501236 180.0
141.527283 100.0
141.564331 148.0
141.593582 160.0
141.889786 176.0
141.965668 100.0
142.017838 208.0
142.506882 152.0
142.730301 152.0
142.852615 216.0
142.901566 216.0
143.001511 160.0
143.130066 156.0
143.20076 152.0
143.214355 172.0
143.318237 144.0
143.477936 196.0
143.518463 116.0
143.549469 92.0
143.566162 152.0
143.658661 168.0
143.723602 148.0
143.785645 128.0
143.857254 256.0
143.957535 264.0
144.00769 188.0
144.036346 168.0
144.158203 120.0
144.225113 72.0
144.411621 212.0
144.445114 156.0
144.476212 200.0
144.500137 120.0
144.521667 168.0
144.543198 108.0
144.734695 200.0
144.787384 144.0
145.028671 492.0
145.094452 180.0
145.120468 168.0
145.209198 188.0
145.35553 220.0
145.45874 148.0
145.607605 184.0
145.693192 236.0
145.78299 196.0
145.859894 184.0
145.927216 188.0
146.054672 256.0
146.095566 164.0
146.170151 176.0
146.21347 40.0
146.251984 280.0
146.283264 136.0
146.32901 136.0
146.618073 240.0
146.634949 132.0
146.745834 216.0
146.767532 56.0
146.791641 156.0
146.958084 172.0
147.044983 280.0
147.199463 88.0
147.356461 88.0
147.431381 84.0
147.474884 176.0
147.719101 132.0
147.760223 168.0
147.968369 192.0
148.045853 124.0
148.070267 156.0
148.128204 44.0
148.496643 172.0
148.555435 136.0
148.605804 144.0
148.663345 112.0
148.761124 136.0
148.782974 152.0
148.846115 164.0
148.893188 156.0
148.967545 64.0
148.996475 180.0
149.023331 7676.0
149.059845 284.0
149.092682 168.0
149.109848 120.0
149.194244 56.0
149.28595 244.0
149.338318 196.0
149.356476 88.0
149.375946 76.0
149.487854 172.0
149.638443 172.0
149.721573 120.0
149.80925 152.0
149.848236 68.0
149.90184 168.0
149.923782 56.0
149.972519 172.0
150.030075 9136.0
150.061859 136.0
150.133438 156.0
150.189529 48.0
150.452209 56.0
150.621582 76.0
150.682648 136.0
150.768173 48.0
150.796021 152.0
150.856171 156.0
150.909958 136.0
151.001572 104.0
151.034927 1024.0
151.122757 144.0
151.204407 120.0
151.237778 108.0
151.396912 132.0
151.580643 76.0
151.747314 140.0
151.806168 52.0
151.877289 108.0
151.928818 148.0
151.953339 172.0
152.038361 356.0
152.06131 228.0
152.095673 112.0
152.115311 132.0
152.65831 52.0
153.01738 436.0
153.039719 64.0
153.155746 180.0
153.192413 144.0
153.286041 156.0
153.535034 188.0
153.616425 152.0
153.966919 60.0
154.023621 716.0
154.051666 136.0
154.148727 276.0
154.320282 188.0
154.379639 168.0
154.660919 128.0
154.733475 64.0
155.033997 184.0
155.231522 88.0
155.266235 196.0
155.345612 220.0
155.484558 120.0
155.566467 180.0
155.777557 160.0
155.834702 152.0
155.908325 216.0
156.013809 184.0
156.040985 152.0
156.073303 148.0
156.317078 160.0
156.419128 160.0
156.616196 144.0
156.673141 236.0
156.892441 212.0
157.007156 144.0
157.101929 180.0
157.171799 140.0
157.206726 208.0
157.491348 168.0
157.521317 116.0
157.673737 48.0
157.726227 124.0
157.886246 224.0
157.991302 108.0
158.023834 140.0
158.269119 208.0
158.314194 148.0
158.396851 120.0
158.436935 184.0
158.46254 184.0
158.534653 92.0
158.762787 216.0
158.950928 116.0
158.968491 304.0
158.998611 120.0
159.071396 160.0
159.143005 176.0
159.262238 200.0
159.473297 200.0
159.946182 156.0
160.019424 420.0
160.253418 100.0
160.346664 148.0
160.40715 64.0
160.555923 144.0
160.606979 196.0
160.666901 124.0
160.68457 148.0
160.704742 48.0
160.722412 140.0
160.914246 156.0
160.968491 132.0
161.032806 320.0
161.070816 136.0
161.128922 168.0
161.212296 120.0
161.280548 128.0
161.518234 92.0
161.57135 84.0
161.771286 204.0
161.812683 204.0
161.910538 188.0
162.057465 188.0
162.09256 188.0
162.135757 196.0
162.217133 136.0
162.321075 88.0
162.501526 144.0
162.548798 120.0
162.650909 152.0
162.671219 144.0
162.691528 144.0
162.761047 176.0
162.798157 148.0
162.903275 332.0
162.932846 184.0
162.951584 192.0
163.002441 548.0
163.039215 36620.0
163.114151 208.0
163.147491 60.0
163.169144 56.0
163.220001 36.0
163.237793 84.0
163.265778 52.0
163.33699 60.0
163.415848 104.0
163.438751 176.0
163.471527 164.0
163.503754 120.0
163.561768 72.0
163.594009 68.0
163.64238 96.0
163.674927 168.0
163.751282 188.0
163.78244 152.0
163.851227 100.0
163.905701 148.0
163.927475 156.0
164.003693 176.0
164.042252 3548.0
164.126495 64.0
164.199738 128.0
164.218475 172.0
164.246368 172.0
164.348404 144.0
164.371368 112.0
164.44075 132.0
164.462357 164.0
164.503113 188.0
164.652191 124.0
164.671478 116.0
164.695602 100.0
164.828461 76.0
164.884674 128.0
164.905121 120.0
164.94783 176.0
165.020096 1648.0
165.054535 1872.0
165.132675 60.0
165.209412 76.0
165.268265 80.0
165.322006 88.0
165.344086 148.0
165.398788 60.0
165.506317 72.0
165.570145 224.0
165.61644 124.0
165.642044 128.0
165.795776 84.0
165.823975 128.0
165.952148 164.0
166.019028 304.0
166.059128 576.0
166.126541 224.0
166.172058 152.0
166.224045 48.0
166.271515 112.0
166.44136 152.0
166.506439 180.0
166.696548 124.0
166.722244 184.0
166.879044 184.0
166.963898 96.0
167.025635 152.0
167.118256 192.0
167.914246 80.0
168.044357 160.0
168.146454 144.0
168.167099 164.0
168.363312 92.0
168.479553 164.0
168.523483 152.0
168.608749 168.0
168.781952 60.0
168.875061 172.0
168.916443 192.0
169.007553 168.0
169.102737 240.0
169.15451 132.0
169.172638 144.0
169.201111 164.0
169.357697 68.0
169.377213 140.0
169.43161 152.0
169.45752 76.0
169.50415 176.0
169.835999 180.0
169.91124 108.0
169.931992 200.0
170.005066 172.0
170.040985 168.0
170.152603 108.0
170.227905 124.0
170.313614 96.0
170.381149 216.0
170.588928 172.0
170.895935 136.0
171.015656 132.0
171.226547 88.0
171.3125 156.0
171.464951 148.0
171.596573 60.0
171.755646 36.0
171.77652 172.0
171.797394 44.0
172.026947 452.0
172.063583 40.0
172.11319 148.0
172.301254 204.0
172.345673 60.0
172.566635 156.0
172.791916 220.0
172.845093 220.0
172.986435 188.0
173.015228 156.0
173.070206 164.0
173.345261 184.0
173.44223 220.0
173.641495 144.0
173.71756 220.0
173.798889 68.0
173.851379 208.0
174.022003 68.0
174.158554 192.0
174.313568 204.0
174.39241 188.0
174.429214 60.0
174.75531 140.0
174.776367 228.0
174.842148 176.0
174.884262 132.0
175.037201 488.0
175.176559 152.0
175.416351 116.0
175.440079 48.0
175.535004 116.0
175.558731 144.0
175.61412 208.0
175.674789 68.0
175.753937 72.0
175.875336 152.0
176.037689 216.0
176.139389 196.0
176.234497 144.0
176.387787 196.0
176.480316 84.0
176.527908 144.0
176.617828 92.0
176.773926 148.0
176.980408 164.0
177.019836 304.0
177.07309 220.0
177.094269 48.0
177.192291 56.0
177.327438 32.0
177.404388 132.0
177.499756 132.0
177.518326 168.0
177.569397 140.0
177.696045 136.0
177.911011 164.0
177.988007 68.0
178.025543 5144.0
178.057892 164.0
178.104858 124.0
178.227066 124.0
178.258957 60.0
178.512421 80.0
178.566254 180.0
178.599258 68.0
178.63118 208.0
178.958527 64.0
179.027496 940.0
179.067215 548.0
179.222229 164.0
179.283508 80.0
179.563446 100.0
180.035324 256.0
180.073227 196.0
180.113297 52.0
180.249542 92.0
180.302994 64.0
180.351105 136.0
180.369812 68.0
180.401886 52.0
180.607788 148.0
180.629196 176.0
180.65271 152.0
180.682693 172.0
180.746918 120.0
180.86467 144.0
180.920883 164.0
180.974426 172.0
181.598831 236.0
181.628342 180.0
181.668579 204.0
181.885941 192.0
181.912781 192.0
181.942322 152.0
182.0336 132.0
182.154465 200.0
182.327774 216.0
183.297913 136.0
183.330246 116.0
183.405716 180.0
183.467712 144.0
183.535126 68.0
183.624115 192.0
183.648392 72.0
183.777878 160.0
184.006485 132.0
184.011765 92.0
184.022202 192.0
184.27739 108.0
184.469269 236.0
184.501709 164.0
184.526047 100.0
184.593643 212.0
184.791092 156.0
184.83168 144.0
185.132172 140.0
185.208008 36.0
185.226959 40.0
185.267166 228.0
185.398407 72.0
186.052917 136.0
186.222427 140.0
186.399689 164.0
186.638229 128.0
186.953781 152.0
187.036148 224.0
187.155212 188.0
187.277771 200.0
187.302277 112.0
187.607773 188.0
188.144928 176.0
188.333344 124.0
188.606598 184.0
188.627289 192.0
188.726883 96.0
188.901917 160.0
188.981262 228.0
189.01683 124.0
189.049408 228.0
189.077682 136.0
189.156403 208.0
189.19603 244.0
189.331635 156.0
189.606812 272.0
189.635757 240.0
189.72348 128.0
189.794754 128.0
189.835892 144.0
189.879776 144.0
189.931885 200.0
189.997604 204.0
190.040131 140.0
190.063568 144.0
190.110229 108.0
190.324341 132.0
190.530334 136.0
190.65947 160.0
190.750183 116.0
190.827164 200.0
190.895905 120.0
191.035019 780.0
191.126053 120.0
191.146225 128.0
191.220535 220.0
191.248062 48.0
191.330643 220.0
191.366425 120.0
191.413239 104.0
191.482086 68.0
191.570236 68.0
191.597778 100.0
191.650131 136.0
191.760361 152.0
191.785172 84.0
191.84581 60.0
191.920258 104.0
192.014008 164.0
192.070297 220.0
192.099045 208.0
192.178543 112.0
192.208984 136.0
192.287735 168.0
192.42276 96.0
192.446396 152.0
192.480148 272.0
192.513535 224.0
192.549438 172.0
192.568771 140.0
192.609741 236.0
192.61586 84.0
192.626541 388.0
192.696457 596.0
192.720718 128.0
192.761032 264.0
192.80162 288.0
192.829041 240.0
192.850601 236.0
192.897064 212.0
192.95105 392.0
192.958847 184.0
192.971222 240.0
193.005142 248.0
193.050552 182268.0
193.126587 96.0
193.134018 72.0
193.144348 84.0
193.178802 116.0
193.183273 152.0
193.194839 184.0
193.220444 136.0
193.258926 292.0
193.296097 156.0
193.319077 172.0
193.34169 236.0
193.390228 224.0
193.423569 96.0
193.469345 148.0
193.50621 2092.0
193.533813 144.0
193.555237 336.0
193.596375 68.0
193.619446 72.0
193.650406 312.0
193.672897 256.0
193.718582 88.0
193.75087 104.0
193.776489 128.0
193.843246 168.0
193.865967 164.0
193.890274 56.0
193.927963 256.0
193.960022 104.0
193.977478 272.0
193.985825 92.0
193.996643 164.0
194.008865 112.0
194.053574 23540.0
194.113968 48.0
194.122177 68.0
194.134079 68.0
194.143738 56.0
194.176575 44.0
194.21843 44.0
194.272736 68.0
194.332169 64.0
194.342255 96.0
194.397293 144.0
194.42424 68.0
194.444199 104.0
194.52298 48.0
194.575027 48.0
194.604172 72.0
194.717255 112.0
194.770798 88.0
194.805283 116.0
194.843033 68.0
194.887482 64.0
194.930359 112.0
194.956467 68.0
194.960693 104.0
194.99704 76.0
195.054886 1916.0
195.083679 128.0
195.109833 76.0
195.136292 168.0
195.191132 84.0
195.218964 140.0
195.239716 96.0
195.258667 48.0
195.299545 108.0
195.345428 216.0
195.386414 116.0
195.407227 88.0
195.438309 204.0
195.457504 72.0
195.485336 124.0
195.510376 120.0
195.537827 88.0
195.572891 180.0
195.598969 116.0
195.639343 108.0
195.669037 128.0
195.724152 96.0
195.749786 68.0
195.785431 40.0
195.850052 68.0
195.89183 36.0
195.911331 56.0
196.000488 88.0
196.028366 68.0
196.065125 332.0
196.248566 108.0
196.324738 76.0
196.428116 116.0
196.462387 84.0
196.47348 56.0
196.479507 80.0
196.499588 112.0
196.535736 84.0
196.565002 60.0
196.639114 64.0
196.697739 64.0
196.746475 96.0
196.826157 48.0
196.848495 44.0
196.915527 44.0
196.988144 68.0
197.146255 108.0
197.188156 72.0
197.382446 104.0
197.450699 108.0
197.48851 40.0
197.533264 36.0
197.653564 80.0
197.675949 108.0
197.743118 92.0
198.014969 332.0
198.112732 36.0
198.191589 56.0
198.275253 32.0
198.365829 64.0
198.641937 72.0
198.895111 76.0
198.962479 80.0
199.229279 44.0
199.535614 68.0
200.332062 140.0
200.360245 100.0
200.456039 88.0
201.240204 104.0
201.432236 164.0
201.466141 80.0
201.635681 172.0
202.206985 76.0
202.359848 32.0
202.756424 136.0
202.861298 112.0
203.068298 44.0
203.125031 48.0
203.205978 120.0
203.474091 44.0
203.863235 92.0
203.883133 136.0
204.375076 100.0
204.773636 84.0
205.075653 108.0
205.1241 76.0
205.620407 64.0
205.843079 112.0
206.011597 124.0
206.097305 84.0
206.391724 64.0
206.589066 56.0
206.614807 112.0
206.697784 40.0
206.735321 68.0
207.064224 80.0
207.147293 56.0
208.139633 48.0
209.044418 232.0
209.448212 88.0
210.053543 104.0
210.261292 96.0
211.038361 188.0
211.307343 32.0
212.488708 112.0
213.119492 64.0
213.337463 132.0
213.683548 96.0
215.056107 136.0
215.733795 96.0
216.108154 120.0
216.3862 92.0
217.06012 144.0
220.055603 156.0
221.759476 48.0
221.886932 112.0
222.029266 144.0
222.922852 108.0
224.014801 132.0
224.342606 32.0
226.077988 132.0
230.077286 140.0
232.436584 92.0
234.035446 52.0
237.068756 96.0
240.528885 108.0
243.038803 88.0
243.523102 88.0
243.566589 32.0
245.231262 72.0
253.97261 124.0
254.023376 36.0
254.061432 136.0
254.49942 60.0
257.144836 68.0
258.039276 132.0
260.051025 140.0
263.968597 224.0
265.017365 60.0
267.368408 88.0
270.073181 156.0
274.338806 68.0
276.105316 88.0
277.462952 64.0
279.608795 56.0
281.085114 184.0
284.086304 140.0
284.401733 128.0
285.335602 44.0
287.845825 84.0
287.957275 92.0
288.061981 184.0
289.012024 112.0
289.039093 120.0
289.171051 84.0
289.787384 40.0
290.031372 176.0
290.05661 200.0
290.158234 76.0
291.161224 52.0
292.099335 64.0
292.91629 124.0
292.987823 68.0
293.952759 120.0
294.014191 64.0
294.444366 84.0
295.097046 168.0
296.661621 124.0
297.636017 112.0
298.113495 152.0
302.0336 80.0
302.954407 80.0
303.796814 132.0
304.04007 444.0
304.067474 204.0
304.220184 28.0
305.040039 172.0
306.038513 176.0
306.289246 72.0
306.390289 100.0
315.327972 92.0
316.035248 120.0
318.053925 132.0
319.060608 80.0
319.939331 100.0
319.978516 148.0
320.047607 88.0
322.350494 76.0
324.774261 40.0
325.129456 92.0
329.641815 72.0
330.082825 132.0
333.269012 116.0
334.014313 116.0
334.0896 192.0
334.199829 116.0
336.069031 124.0
346.740997 48.0
347.043671 124.0
348.08194 200.0
348.73407 72.0
349.054138 140.0
349.299286 84.0
351.833344 48.0
352.393555 80.0
352.434662 60.0
353.085114 136.0
353.339478 64.0
353.680023 84.0
354.43277 224.0
359.845337 72.0
361.932465 108.0
362.079285 1376.0
362.421082 64.0
363.083374 452.0
363.915527 80.0
364.074585 356.0
364.770325 68.0
365.085907 188.0
366.776367 116.0
372.516296 64.0
373.069672 128.0
373.658081 92.0
375.036713 52.0
376.827301 96.0
377.132599 88.0
377.325897 120.0
377.716461 48.0
377.906036 44.0
386.853577 48.0
387.096344 100.0
387.190338 100.0
391.100891 68.0
391.778198 64.0
398.186249 116.0
403.577972 80.0
404.221985 96.0
414.356781 52.0
420.101288 68.0
420.24408 32.0
421.869537 32.0
429.668427 72.0
434.2435 136.0
445.799774 88.0
446.611206 80.0
447.926819 72.0
447.991913 80.0
448.080383 84.0
454.222931 52.0
454.392639 48.0
456.1763 68.0
459.259216 124.0
459.557831 96.0
469.462494 56.0
470.951477 100.0
489.320038 116.0
490.452179 64.0
493.149048 64.0
493.485016 68.0
495.755798 40.0
498.511627 64.0
510.020294 80.0
516.848206 40.0
524.573669 76.0
545.441101 108.0
546.552612 76.0
549.445984 76.0
557.12384 116.0
608.951965 80.0
615.896851 52.0
618.581909 96.0
631.274292 48.0
635.993713 72.0
636.947754 152.0
640.886963 52.0
649.126282 192.0
657.566162 20.0
674.123718 120.0
683.2547 68.0
683.801025 68.0
698.483154 152.0
709.742859 60.0
725.503296 88.0
736.524048 92.0
759.407104 180.0
773.573914 84.0
776.854553 56.0
792.672302 80.0
812.326843 152.0
819.125549 236.0
847.321777 68.0
849.565369 20.0
866.853088 256.0
883.498352 184.0
885.44574 124.0
885.718201 152.0
889.73877 176.0
890.896851 48.0
891.318665 180.0
903.852661 104.0
910.84314 108.0
919.77301 64.0
920.956482 204.0
927.8974 108.0
931.295654 120.0
940.068665 88.0
941.332275 32.0
947.424194 192.0
951.416565 136.0
957.350037 156.0
966.386902 168.0
973.347656 144.0
975.254944 160.0
980.900574 120.0
984.419434 136.0
991.331909 48.0
994.895996 256.0
996.904419 56.0
1006.51709 112.0
1007.256042 92.0
1015.953857 88.0
1016.328186 112.0
1016.474121 120.0
1017.908752 180.0
1024.434326 176.0
1027.43689 64.0
1027.564453 72.0
1030.309814 220.0
1032.169678 224.0
1032.374268 200.0
1032.783691 68.0
1034.114502 148.0
1037.701782 64.0
1038.33667 156.0
1038.516235 132.0
1040.845825 84.0
1041.956909 64.0
1048.152954 164.0
1053.701904 180.0
1059.168213 40.0
1060.924316 192.0
1065.713989 72.0
1068.939209 164.0
1080.057983 180.0
1080.435669 116.0
1080.965698 220.0
1082.130737 104.0
1091.691162 100.0
1092.006836 196.0
1093.500366 176.0
1096.279541 248.0
1096.398193 152.0
1097.657227 172.0
1098.224365 148.0
1101.650269 156.0
1109.499023 124.0
1112.013062 172.0
1112.477661 160.0
1117.202637 140.0
1118.087524 176.0
1121.077759 152.0
1122.037476 160.0
1123.664795 120.0
1125.500366 144.0
1126.655762 180.0
1127.771729 88.0
1129.844604 160.0
1130.393311 100.0
1132.060181 168.0
1136.698975 144.0
1142.705811 128.0
1146.968628 180.0
1150.111938 188.0
1154.36145 176.0
1157.169434 112.0
1157.338745 140.0
1160.92334 48.0
1162.992676 208.0
1164.194336 120.0
1166.959839 184.0
1167.320312 116.0
1170.777222 236.0
1173.557495 148.0
1174.798706 96.0
1175.337646 136.0
1176.040649 140.0
1178.287231 156.0
1179.633545 128.0
1181.958862 76.0
1182.732178 104.0
1185.49231 160.0
1186.301025 132.0
1188.118286 112.0
1188.667236 164.0
1189.360352 168.0
1191.708984 212.0
1193.152344 100.0
1193.227905 104.0
1195.360229 140.0
1195.56665 160.0
1197.907593 148.0
1198.541504 220.0
1199.147949 124.0
1200.368164 180.0
1201.678711 72.0
1204.094727 52.0
1206.105225 240.0
1210.10376 196.0
1211.184082 256.0
1219.183716 240.0
1220.129028 96.0
1221.666016 156.0
1224.018433 48.0
1224.450195 180.0
1225.0979 144.0
1227.502563 232.0
1228.395264 120.0
1231.801758 92.0
1236.045532 120.0
1236.885376 164.0
1237.347412 200.0
1238.628906 136.0
1238.740967 200.0
1239.80603 96.0
1240.030273 224.0
1242.38623 36.0
1242.856323 116.0
1243.0177 192.0
1245.137817 68.0
1245.755859 192.0
1245.875366 52.0
1245.952637 208.0
1246.043945 140.0
1247.238647 88.0
1250.379639 152.0
1253.911011 80.0
1254.136475 132.0
1254.214844 152.0
1254.820312 136.0
1258.743408 48.0
1263.422363 180.0
1264.052002 188.0
1265.446411 232.0
1267.769775 156.0
1267.996582 136.0
1269.017334 208.0
1271.507202 148.0
1275.122192 168.0
1279.212036 188.0
1279.468262 160.0
1280.458008 184.0
1280.643188 116.0
1280.849854 140.0
1284.249756 208.0
1284.770508 140.0
1286.211914 128.0
1286.547485 188.0
1286.932983 56.0
1288.654297 140.0
1289.483276 144.0
1289.726196 92.0
1289.840576 172.0
1290.147949 200.0
1295.314697 148.0
1295.636963 200.0
1296.289062 208.0
1296.51123 248.0
1298.540039 168.0
1305.44165 140.0
1306.009766 112.0
1309.759888 272.0
1313.169067 88.0
1315.932983 96.0
1316.048462 256.0
1316.752686 244.0
1318.641846 112.0
1319.155029 64.0
1321.657349 52.0
1322.105957 132.0
1323.380005 164.0
1323.872437 168.0
1324.241699 164.0
1327.648071 164.0
1328.707031 124.0
1329.737427 88.0
1330.4198 208.0
1330.739136 148.0
1331.349121 188.0
1331.45813 100.0
1331.632324 148.0
1332.522461 176.0
1333.80481 224.0
1335.062622 168.0
1336.895874 136.0
1338.854248 240.0
1339.400513 192.0
1341.324097 152.0
1341.841675 212.0
1347.307983 180.0
1347.578369 240.0
1347.651367 168.0
1347.950928 176.0
1348.206787 220.0
1351.980347 156.0
1352.251099 188.0
1352.507324 164.0
1352.704956 76.0
1355.13623 180.0
1355.436646 112.0
1358.16394 220.0
1359.080933 200.0
1359.280029 156.0
1360.578125 144.0
1363.303223 96.0
1365.155762 220.0
1365.545532 228.0
1366.972656 200.0
1367.554077 164.0
1367.708618 176.0
1368.106201 164.0
1368.172485 164.0
1370.234497 168.0
1371.973755 172.0
1372.489868 160.0
1372.873291 172.0
1375.381836 176.0
1375.780396 36.0
1376.127441 136.0
1376.976685 156.0
1377.766968 160.0
1379.858521 172.0
1380.272583 136.0
1381.056519 52.0
1381.663086 156.0
1382.402954 168.0
1383.624268 144.0
1383.987061 140.0
1384.209106 260.0
1385.653442 152.0
1385.972046 224.0
1387.34314 152.0
1387.395142 172.0
1387.632324 152.0
1387.721313 188.0
1388.485107 96.0
1389.21936 68.0
1389.360352 152.0
1395.643677 160.0
1398.172852 188.0
1398.492798 132.0
1398.70874 136.0
1398.917114 72.0
1400.950073 160.0
1406.363647 216.0
1409.111816 196.0
1409.836548 212.0
1409.903809 92.0
1410.172852 336.0
1412.154175 84.0
1415.656616 192.0
1417.304565 148.0
1417.589355 176.0
1419.320923 104.0
1420.063354 156.0
1420.813477 164.0
1421.256104 204.0
1422.036621 40.0
1422.62207 172.0
1424.334106 136.0
1427.347778 184.0
1427.896851 180.0
1428.114868 104.0
1428.754272 140.0
1429.138062 220.0
1430.605591 140.0
1432.42041 152.0
1433.536621 160.0
1435.163696 76.0
1435.744263 216.0
1438.619019 204.0
1438.754883 152.0
1439.177734 188.0
1440.076294 196.0
1440.142944 132.0
1440.877075 100.0
1441.254883 212.0
1442.237305 160.0
1445.148804 228.0
1445.981201 164.0
1447.109009 204.0
1447.677002 124.0
1448.063232 132.0
1449.972412 116.0
1450.324707 260.0
1451.329346 100.0
1451.761597 188.0
1453.695923 136.0
1453.870483 32.0
1456.03418 124.0
1456.239258 176.0
1457.134155 176.0
1457.249512 152.0
1458.153809 204.0
1458.617432 100.0
1459.263672 140.0
1459.370117 136.0
1460.932129 152.0
1461.203003 76.0
1463.745239 152.0
1464.948608 172.0
1465.61145 132.0
1466.00769 204.0
1466.731689 224.0
1467.524536 168.0
1468.309937 184.0
1468.653198 192.0
1469.37793 204.0
1469.728882 296.0
1469.942505 180.0
1470.720947 172.0
1472.072266 92.0
1472.938599 180.0
1474.769165 152.0
1475.587036 104.0
1478.26416 176.0
1478.417236 144.0
1479.205566 96.0
1480.315674 164.0
1481.601562 164.0
1483.526001 68.0
1483.985962 176.0
1486.102905 204.0
1486.593994 160.0
1486.985352 144.0
1488.236572 172.0
1489.611328 124.0
1490.709961 148.0
1493.239258 128.0
1493.931519 132.0
1494.454712 108.0
1496.247925 104.0
1496.694458 176.0
1499.86084 104.0
1499.953369 176.0
1500.246216 168.0
1500.863037 184.0
1501.055786 152.0
1502.613892 68.0
1503.069092 148.0
1503.910278 128.0
