>compound MLS002153440-01!16595-80-5
>formula C11H12N2S
>ionization [M+H]+
>parentmass 205.079437
#inchi InChI=1S/C11H12N2S/c1-2-4-9(5-3-1)10-8-13-6-7-14-11(13)12-10/h1-5,10H,6-8H2/t10-/m1/s1
#inchikey HLFSDGLLUJUHTE
#origInchi InChI=1S/C11H12N2S.ClH/c1-2-4-9(5-3-1)10-8-13-6-7-14-11(13)12-10;/h1-5,10H,6-8H2;1H/t10-;/m1./s1
#Ion_Source LC-ESI
#Instrument qTof
#Compound_Source NIH Pharmacologically Active Library
#PI Dorrestein
#Data_Collector VP/LMS
#Scan -1
#Precursor_MZ 205.076
#ExactMass 204.072
#Charge 1
#CAS_Number N/A
#Pubmed_ID N/A
#Smiles C1CN2C[C@@H](N=C2S1)c3ccccc3.Cl
#INCHI_AUX N/A
#Library_Class 1
#SpectrumID CCMSLIB00000085344
#IonMode Positive
#UpdateWorkflowName UPDATE-SINGLE-ANNOTATED-GOLD
#LibraryQualityString Gold
#TaskID d252d724072548979f1f6f1ced849daf
##Scan# 1135
#SpectrumFile p3-H07_GH7_01_18312.mzXML
#LibraryName Pharm_Active_Library.mgf
#MQScore -1
#Organism Pharm_Active_Library
#TIC_Query 0
#RT_Query -1
#MZErrorPPM -1
#SharedPeaks 0
#MassDiff 0
#LibMZ -1
#SpecMZ 205.076
#SpecCharge 0
#internalFilename spec-00000.mgf

>collision 10
44.915184 148.0
45.017956 176.0
45.099461 208.0
45.151604 168.0
45.168995 192.0
45.407623 136.0
45.428886 200.0
45.498676 208.0
46.007599 164.0
46.018398 128.0
46.198158 172.0
46.314579 108.0
46.416229 140.0
46.660645 156.0
46.743164 168.0
46.783092 128.0
46.892952 68.0
46.961609 80.0
46.983437 180.0
47.044849 156.0
47.410072 124.0
47.58017 116.0
47.644718 208.0
47.698318 152.0
47.879948 132.0
47.951591 168.0
48.001225 184.0
48.335693 244.0
48.497574 144.0
48.596043 192.0
48.843338 212.0
48.949116 68.0
49.099632 124.0
49.193123 228.0
49.461529 172.0
49.663311 136.0
49.69558 176.0
50.013199 124.0
50.02446 152.0
50.113194 120.0
50.192131 160.0
50.429314 164.0
50.604736 112.0
50.712406 172.0
50.73225 192.0
50.817352 68.0
50.963604 96.0
51.149918 192.0
51.309479 52.0
51.430737 192.0
51.466431 168.0
51.569294 188.0
51.585018 40.0
51.775326 172.0
51.915779 212.0
51.993252 148.0
52.224583 180.0
52.577587 184.0
52.781284 220.0
53.166637 160.0
53.269733 144.0
53.345303 168.0
53.356934 136.0
53.598557 88.0
53.618961 148.0
53.732704 164.0
53.905006 132.0
54.090763 132.0
54.222591 188.0
54.850239 224.0
54.932823 188.0
54.98299 148.0
55.024323 156.0
55.03466 184.0
55.078968 136.0
55.136593 228.0
55.188335 176.0
55.388134 172.0
55.646385 272.0
55.759087 136.0
55.781384 240.0
55.802197 144.0
55.970341 188.0
56.095493 196.0
56.140228 112.0
56.189453 172.0
56.531643 124.0
56.822346 176.0
56.911427 172.0
57.097252 156.0
57.297459 120.0
57.416546 148.0
57.581059 92.0
57.635445 184.0
57.785141 232.0
57.925941 80.0
58.643177 236.0
58.891891 136.0
58.995804 176.0
59.286636 212.0
59.331089 172.0
59.572456 192.0
59.713459 184.0
60.032131 224.0
60.212837 124.0
60.591835 260.0
60.680183 140.0
60.722054 60.0
60.872593 168.0
60.894337 152.0
61.006222 128.0
61.09798 136.0
61.255219 188.0
61.557804 160.0
61.576546 100.0
61.642166 104.0
61.668732 52.0
61.696873 140.0
61.762554 116.0
61.825138 156.0
61.865837 72.0
61.930042 200.0
62.063255 196.0
62.201321 180.0
62.242142 176.0
62.433868 120.0
62.577068 100.0
62.723583 188.0
63.335972 152.0
63.544392 112.0
63.590412 232.0
63.623749 164.0
63.712685 196.0
63.763538 188.0
63.777843 144.0
64.018089 196.0
64.210938 188.0
64.40567 128.0
64.560707 164.0
64.631096 132.0
64.877754 180.0
64.917839 124.0
64.964355 136.0
64.982002 80.0
65.006073 140.0
65.165047 184.0
65.401451 88.0
65.676994 208.0
65.864243 228.0
65.94342 136.0
66.032349 184.0
66.404877 184.0
66.508728 168.0
66.6679 148.0
66.718285 80.0
66.834679 164.0
67.030807 132.0
67.042213 80.0
67.096001 156.0
67.156342 108.0
67.267303 108.0
67.979301 72.0
68.053658 188.0
68.13694 180.0
68.164871 136.0
68.322723 180.0
68.668701 140.0
68.89315 108.0
69.396301 96.0
69.646896 200.0
69.668495 44.0
69.75325 44.0
69.788162 172.0
69.89296 144.0
70.15612 192.0
70.451515 192.0
70.540337 164.0
70.628716 144.0
70.836288 88.0
70.985466 148.0
71.101875 72.0
71.138153 168.0
71.294365 144.0
71.316208 140.0
71.907417 196.0
71.920921 148.0
71.952995 124.0
72.214935 212.0
72.572426 208.0
72.646889 188.0
72.780975 180.0
72.817017 200.0
72.882896 84.0
73.180565 160.0
73.21122 212.0
73.330482 208.0
73.367981 156.0
73.606857 128.0
73.709358 168.0
73.733284 100.0
73.952209 192.0
74.123474 112.0
74.411644 240.0
74.561096 140.0
74.888008 112.0
75.17421 168.0
75.194916 136.0
75.512833 172.0
75.684158 180.0
75.963203 92.0
76.134857 180.0
76.199318 108.0
76.475822 184.0
76.620522 132.0
76.94651 108.0
76.976196 88.0
77.016365 84.0
77.03878 188.0
77.306602 84.0
77.574593 160.0
77.637711 76.0
77.82872 92.0
77.995354 168.0
78.034576 172.0
78.201698 180.0
78.298538 164.0
78.423637 84.0
78.487106 180.0
78.524139 176.0
78.559418 96.0
78.62294 204.0
78.721802 204.0
78.773026 124.0
78.905571 156.0
79.024078 184.0
79.038231 124.0
79.176315 200.0
79.33934 136.0
79.380119 224.0
79.412048 200.0
79.435104 168.0
79.475914 116.0
79.857872 156.0
80.091049 92.0
80.260361 80.0
80.39772 188.0
80.431633 144.0
80.522697 108.0
81.18132 196.0
81.529602 88.0
81.570946 212.0
81.65905 216.0
81.767006 128.0
81.909256 156.0
81.941681 92.0
82.057037 140.0
82.091293 128.0
82.230217 128.0
82.437912 200.0
82.521065 124.0
82.544571 152.0
82.676628 72.0
82.855896 192.0
83.053497 172.0
83.327629 180.0
83.433044 228.0
83.950172 144.0
84.055977 172.0
84.222122 180.0
84.520126 128.0
84.657417 180.0
84.723366 152.0
84.765503 232.0
84.807655 240.0
85.251816 176.0
85.286743 236.0
85.582939 180.0
85.662132 144.0
85.855675 144.0
86.315514 164.0
86.80439 144.0
86.965797 172.0
87.562645 156.0
87.661385 160.0
88.002747 140.0
88.264351 116.0
88.685593 164.0
88.921928 144.0
89.03833 188.0
89.218727 132.0
89.337204 176.0
89.610199 184.0
89.685585 160.0
89.881721 144.0
90.093193 216.0
90.479012 180.0
90.897903 124.0
90.928268 232.0
90.96434 44.0
91.053894 2576.0
91.106766 148.0
91.156174 48.0
91.211288 132.0
91.409088 60.0
91.540443 204.0
91.692223 216.0
91.765297 44.0
91.956062 52.0
92.057556 200.0
92.139381 60.0
92.171867 184.0
92.384102 72.0
92.504662 176.0
92.669373 208.0
92.68853 64.0
92.70578 104.0
92.893684 192.0
93.018417 128.0
93.062576 184.0
93.0933 168.0
93.125954 156.0
93.198952 172.0
93.481628 68.0
94.519844 176.0
94.577904 240.0
94.70166 236.0
95.299347 228.0
95.449356 96.0
95.608543 224.0
96.072296 152.0
96.167915 172.0
96.431602 124.0
96.500023 236.0
96.867722 168.0
97.044342 156.0
97.130638 148.0
97.454575 152.0
97.617729 196.0
97.68264 120.0
97.775116 192.0
97.853859 108.0
98.639053 108.0
98.658821 144.0
98.773521 220.0
98.813087 152.0
98.900162 240.0
98.96946 96.0
99.110214 192.0
99.737244 224.0
100.127228 76.0
100.167061 152.0
100.204918 172.0
100.3564 168.0
100.505997 140.0
100.697647 116.0
100.731911 156.0
100.967468 192.0
101.039482 148.0
101.801178 212.0
101.929749 68.0
102.045815 308.0
102.124763 168.0
102.269638 116.0
102.384399 220.0
102.436768 168.0
102.743202 132.0
102.955147 84.0
103.054199 3300.0
103.080666 184.0
103.124863 40.0
103.19796 256.0
103.21463 160.0
103.284607 76.0
103.329109 180.0
103.480911 132.0
103.636871 68.0
103.893547 188.0
103.977562 192.0
104.06073 808.0
104.22126 144.0
104.257835 64.0
104.320847 44.0
104.552727 124.0
104.632118 68.0
104.877274 188.0
104.958122 180.0
105.025429 144.0
105.069153 3152.0
105.170303 168.0
105.251968 176.0
105.276474 192.0
105.305061 48.0
105.421516 112.0
105.630074 44.0
105.67675 196.0
105.736473 68.0
105.801979 60.0
105.870201 88.0
105.963776 148.0
105.992462 144.0
106.065231 892.0
106.433487 80.0
106.626595 116.0
106.856911 72.0
107.007164 244.0
107.254379 212.0
107.37397 216.0
107.617477 180.0
107.644318 108.0
107.683563 132.0
107.755859 176.0
108.505905 164.0
108.799706 100.0
109.244453 152.0
109.311035 116.0
109.408859 232.0
109.456749 92.0
110.101151 184.0
110.140831 340.0
110.282921 100.0
110.718117 180.0
110.994743 104.0
111.049271 236.0
111.336807 68.0
111.681503 212.0
111.704643 184.0
111.860367 72.0
112.102585 228.0
112.273346 156.0
112.376717 188.0
112.418915 36.0
112.478012 164.0
113.11853 212.0
113.690819 232.0
113.705673 168.0
114.162453 224.0
114.443344 160.0
114.524269 164.0
114.931465 188.0
115.006165 132.0
115.054764 3564.0
115.085152 256.0
115.315872 60.0
115.715912 152.0
115.904404 112.0
116.053688 764.0
116.118782 60.0
116.206741 96.0
116.404221 100.0
116.445023 152.0
116.524506 132.0
116.72226 140.0
116.760963 112.0
116.793228 252.0
116.819046 108.0
116.83625 204.0
116.943848 100.0
116.963219 100.0
116.982597 180.0
117.012733 216.0
117.061981 1556.0
117.09697 140.0
117.272232 96.0
117.495514 48.0
117.689774 88.0
117.845291 188.0
117.860413 188.0
117.910118 148.0
118.064911 4308.0
118.154472 44.0
118.228043 68.0
118.258339 188.0
118.323288 216.0
118.59407 84.0
118.637428 104.0
118.690521 176.0
118.763199 204.0
119.067772 408.0
119.134407 148.0
119.201759 168.0
119.348312 56.0
119.490959 104.0
119.665077 84.0
119.704277 60.0
119.80011 136.0
120.07975 516.0
120.124931 140.0
120.596596 120.0
120.6119 72.0
120.734337 164.0
120.845901 180.0
120.924683 188.0
121.012253 292.0
121.538307 164.0
122.276711 116.0
122.375771 180.0
122.399994 260.0
122.82756 160.0
122.995262 96.0
123.026253 12992.0
123.087593 44.0
123.104187 120.0
123.134369 68.0
123.200638 56.0
123.450409 60.0
123.678299 132.0
123.746925 92.0
123.84581 196.0
123.860771 216.0
124.029495 1108.0
124.276672 60.0
124.349899 60.0
124.372101 56.0
124.523087 160.0
124.640831 204.0
124.6875 56.0
124.858688 80.0
124.932098 112.0
125.02063 296.0
125.172478 84.0
125.308357 64.0
125.743202 104.0
125.897255 60.0
126.046463 172.0
126.342072 208.0
126.547981 240.0
127.05336 1384.0
127.431702 176.0
127.501366 220.0
128.06102 5380.0
128.234955 140.0
128.242264 172.0
128.661438 116.0
128.695297 48.0
128.975449 144.0
129.007095 184.0
129.033203 168.0
129.069489 2916.0
129.16539 196.0
129.303665 176.0
129.384903 144.0
129.434723 164.0
129.461899 180.0
129.568359 168.0
129.742859 220.0
129.912949 192.0
130.065369 3968.0
130.09079 176.0
130.138718 244.0
130.174469 92.0
130.189209 68.0
130.341431 152.0
130.380707 184.0
130.53302 76.0
130.626282 60.0
130.715012 176.0
130.760529 52.0
131.071106 2520.0
131.134064 92.0
131.177368 52.0
131.334717 52.0
131.832443 100.0
131.955872 36.0
131.999329 120.0
132.078995 1244.0
132.168594 140.0
132.505188 168.0
132.647278 152.0
132.814667 64.0
133.00972 108.0
133.083908 152.0
133.742981 264.0
133.943314 180.0
134.013931 172.0
134.316757 36.0
134.434418 160.0
134.561386 172.0
134.616791 116.0
134.810852 124.0
134.991165 212.0
135.025543 1564.0
135.065186 40.0
135.266495 72.0
135.310486 136.0
135.484192 60.0
135.620911 116.0
135.8992 120.0
136.031494 172.0
136.047745 156.0
136.524078 172.0
136.698563 148.0
137.02092 208.0
137.074158 164.0
137.092133 36.0
137.638 88.0
137.698715 76.0
138.004852 172.0
138.330048 172.0
140.664383 136.0
141.520233 200.0
141.901703 216.0
142.072464 240.0
143.073288 204.0
143.511398 200.0
143.614288 140.0
143.888382 236.0
144.079315 2436.0
144.230011 120.0
145.005524 108.0
145.079041 1036.0
145.216522 144.0
145.389069 152.0
145.891281 200.0
145.939362 76.0
146.001892 172.0
146.058762 700.0
146.095306 2164.0
146.182327 36.0
146.211197 100.0
146.367676 48.0
146.406204 72.0
146.444748 156.0
146.521835 40.0
146.678482 48.0
146.704163 220.0
146.84726 64.0
147.035461 176.0
147.076492 144.0
147.100632 220.0
147.141663 152.0
147.298645 148.0
147.966125 52.0
148.021423 316.0
148.104156 212.0
148.14534 68.0
148.68364 84.0
149.036133 192.0
149.237503 100.0
149.475891 168.0
150.036438 1204.0
150.472824 56.0
150.648666 52.0
151.0401 340.0
151.769623 184.0
151.889801 64.0
152.034714 180.0
152.142563 76.0
152.339035 156.0
152.577408 192.0
152.990738 124.0
154.288422 80.0
155.060684 764.0
155.571732 108.0
155.912033 144.0
155.996536 168.0
156.07045 236.0
156.26265 200.0
156.548904 176.0
156.790573 156.0
156.872818 144.0
156.967575 180.0
157.072327 156.0
157.359314 184.0
157.876572 172.0
158.339584 84.0
158.580109 32.0
158.763138 168.0
159.094574 172.0
159.45607 184.0
160.019562 144.0
161.039337 136.0
161.99707 100.0
162.095886 196.0
162.887482 124.0
163.10347 80.0
163.902618 224.0
164.185593 100.0
164.951584 68.0
166.817825 136.0
168.611847 236.0
169.279312 132.0
170.096024 196.0
172.079834 172.0
172.343628 120.0
173.034149 132.0
174.038361 236.0
174.982285 144.0
175.003357 36.0
175.30629 20.0
176.171738 176.0
176.412216 196.0
176.647583 176.0
177.052567 188.0
177.481857 192.0
177.582642 32.0
177.688751 88.0
177.760391 120.0
177.818436 188.0
177.841934 116.0
177.948853 192.0
178.015244 380.0
178.033829 96.0
178.068436 23872.0
178.11351 188.0
178.170288 204.0
178.195862 48.0
178.251663 64.0
178.348434 80.0
178.50325 56.0
178.564896 68.0
178.797882 72.0
178.81813 72.0
178.912903 72.0
178.948578 52.0
179.071259 3108.0
179.119019 192.0
179.190948 32.0
179.213211 88.0
179.393494 72.0
179.540146 68.0
179.596161 52.0
179.620163 80.0
179.833633 60.0
179.908371 172.0
179.940414 76.0
180.001831 36.0
180.063293 1088.0
180.132706 32.0
180.236893 52.0
180.314392 120.0
180.405289 152.0
180.4534 40.0
180.497116 124.0
180.528275 36.0
180.546997 96.0
181.023361 116.0
181.068893 148.0
181.618347 236.0
182.249252 192.0
182.996994 88.0
183.929794 68.0
185.225052 100.0
186.693436 112.0
186.780472 144.0
186.992706 168.0
187.930161 124.0
188.050461 524.0
188.126663 100.0
189.064392 188.0
190.058975 164.0
190.432327 108.0
190.580673 96.0
191.204926 56.0
191.383865 48.0
191.590424 56.0
192.508942 44.0
192.73822 84.0
194.380295 72.0
194.938477 120.0
195.032974 104.0
195.466827 204.0
195.876663 100.0
196.408524 52.0
196.966812 68.0
198.335144 192.0
199.205048 80.0
199.483246 196.0
202.23674 160.0
202.647018 100.0
204.387604 168.0
205.079437 17812.0
205.136658 60.0
205.182465 60.0
205.222183 44.0
205.242142 72.0
205.310593 128.0
205.33847 152.0
205.393295 120.0
205.421829 176.0
205.448868 100.0
205.470322 36.0
205.550217 72.0
205.63298 56.0
205.767151 68.0
205.869949 52.0
205.892792 112.0
206.00705 160.0
206.081024 2048.0
206.147049 40.0
206.229935 80.0
206.670349 44.0
206.966827 76.0
207.02359 100.0
207.075745 880.0
207.107162 204.0
207.386307 144.0
207.483276 92.0
207.595612 112.0
207.716064 64.0
207.736145 92.0
208.052811 160.0
208.232742 56.0
208.589035 40.0
208.649414 44.0
208.807556 76.0
209.835602 28.0
211.120575 100.0
211.27388 68.0
211.739929 84.0
213.501587 44.0
215.796539 88.0
215.825775 60.0
220.248901 124.0
227.107178 140.0
242.665329 80.0
256.802368 92.0
261.837646 36.0
261.972931 108.0
266.580444 52.0
268.096985 128.0
280.270721 88.0
288.277588 52.0
295.431641 52.0
300.727051 40.0
320.715759 52.0
324.351044 64.0
350.349396 52.0
374.151459 128.0
402.95578 80.0
432.083069 108.0
514.438538 64.0
519.811096 76.0
602.159912 64.0
606.068665 76.0
659.090637 152.0
685.522949 44.0
749.89325 208.0
759.396118 120.0
791.384827 172.0
805.27533 176.0
806.721924 140.0
816.224548 68.0
847.399597 188.0
848.222534 96.0
856.03717 112.0
877.866943 164.0
882.756653 120.0
892.529236 180.0
893.272705 156.0
905.479309 148.0
908.050537 132.0
911.135986 112.0
917.382935 216.0
919.940796 176.0
923.221741 136.0
937.256836 92.0
940.782166 220.0
944.240723 176.0
945.023743 120.0
946.841858 172.0
965.909912 148.0
968.132751 76.0
982.547607 176.0
986.800964 188.0
987.119812 188.0
994.901917 160.0
1010.291931 104.0
1012.108459 164.0
1014.699951 220.0
1019.975525 72.0
1021.228149 180.0
1023.672058 208.0
1026.782104 212.0
1027.311523 196.0
1030.644287 240.0
1043.778687 116.0
1047.189575 192.0
1048.091431 212.0
1050.212524 176.0
1053.885864 188.0
1058.71814 216.0
1071.517944 172.0
1071.62561 192.0
1071.99707 216.0
1072.70752 168.0
1075.975952 280.0
1088.679199 160.0
1091.024902 192.0
1099.126343 112.0
1099.833252 144.0
1102.335693 188.0
1103.095703 136.0
1104.365356 164.0
1106.549194 164.0
1107.006104 196.0
1107.608765 104.0
1111.294922 184.0
1119.557617 140.0
1119.710815 140.0
1124.371094 100.0
1127.008911 184.0
1130.057983 184.0
1136.872803 184.0
1142.214355 128.0
1145.122192 152.0
1147.190918 148.0
1148.532837 176.0
1151.043457 204.0
1151.59729 164.0
1155.389648 140.0
1163.841553 156.0
1165.064209 176.0
1171.445435 160.0
1173.633179 264.0
1179.682373 204.0
1183.246704 120.0
1184.794556 176.0
1189.71875 132.0
1189.96582 204.0
1191.263916 200.0
1191.325684 164.0
1191.710449 112.0
1192.610718 80.0
1194.0271 76.0
1197.633789 204.0
1198.419067 232.0
1201.935791 224.0
1203.640747 208.0
1204.980713 212.0
1205.40918 140.0
1209.171387 64.0
1209.918945 152.0
1217.463257 184.0
1217.768799 72.0
1221.571045 60.0
1225.867065 44.0
1229.458618 168.0
1232.181885 144.0
1232.300659 196.0
1232.349609 228.0
1234.67749 80.0
1238.877319 52.0
1240.825684 212.0
1242.789551 180.0
1247.03125 44.0
1247.825562 124.0
1249.809082 200.0
1251.90686 172.0
1252.322388 148.0
1253.188965 172.0
1255.910156 164.0
1256.502686 172.0
1257.80127 176.0
1259.382935 176.0
1260.704224 192.0
1265.181641 192.0
1265.712646 212.0
1265.861328 144.0
1266.024292 212.0
1268.730957 216.0
1269.454224 140.0
1269.688232 164.0
1270.880005 204.0
1271.555664 164.0
1273.229736 152.0
1274.679077 252.0
1278.811035 160.0
1279.15271 108.0
1281.168091 160.0
1281.218018 244.0
1284.525757 112.0
1285.845825 184.0
1287.473633 144.0
1291.065186 176.0
1293.114624 40.0
1294.489258 212.0
1295.133789 152.0
1299.973389 152.0
1302.292358 204.0
1302.80957 204.0
1310.464722 108.0
1310.861084 276.0
1312.67041 156.0
1319.588013 244.0
1322.358643 140.0
1323.34314 36.0
1324.922119 184.0
1325.088745 128.0
1326.777344 140.0
1327.814331 180.0
1328.213257 152.0
1332.300293 84.0
1334.022705 28.0
1336.175415 192.0
1337.128662 88.0
1337.179688 208.0
1340.318481 152.0
1347.958618 100.0
1349.493652 160.0
1350.561401 156.0
1351.446533 164.0
1354.455566 148.0
1358.098633 152.0
1359.382568 220.0
1360.035767 88.0
1360.872681 212.0
1360.982788 220.0
1362.392944 52.0
1364.531738 84.0
1364.803711 192.0
1365.075806 104.0
1365.208252 148.0
1365.480347 184.0
1366.620605 156.0
1367.709717 128.0
1367.776001 156.0
1369.02771 156.0
1370.103149 168.0
1371.363281 184.0
1372.336304 112.0
1372.587036 120.0
1377.864502 152.0
1382.560059 184.0
1383.063354 148.0
1384.270142 192.0
1385.321899 180.0
1385.38855 168.0
1385.647949 128.0
1386.307373 156.0
1390.022705 188.0
1391.002441 104.0
1391.856201 172.0
1393.341797 40.0
1395.556641 144.0
1395.876343 172.0
1396.664795 48.0
1397.512817 196.0
1398.041138 188.0
1398.204956 148.0
1398.368652 152.0
1398.934448 136.0
1399.180054 244.0
1403.665649 160.0
1406.455933 156.0
1407.934326 120.0
1409.136963 136.0
1409.577881 196.0
1411.633545 164.0
1414.184814 104.0
1414.431885 64.0
1414.813599 132.0
1415.322754 180.0
1418.004761 180.0
1418.491943 232.0
1419.279175 124.0
1420.261597 124.0
1420.404175 108.0
1425.494629 132.0
1426.584473 132.0
1426.862671 156.0
1427.539429 164.0
1429.33728 168.0
1430.541504 224.0
1430.94812 60.0
1431.158936 208.0
1431.633301 188.0
1432.838501 208.0
1433.162476 184.0
1433.471436 128.0
1435.137329 192.0
1439.332764 44.0
1439.574463 192.0
1444.615967 172.0
1445.569336 204.0
1445.743408 180.0
1446.712158 164.0
1448.529663 192.0
1450.387085 220.0
1451.887573 56.0
1452.126709 228.0
1452.317261 60.0
1452.524658 48.0
1454.953125 168.0
1455.568115 168.0
1456.540283 208.0
1457.197021 192.0
1459.1698 124.0
1460.333252 148.0
1461.04834 180.0
1462.16687 228.0
1462.341919 144.0
1463.164062 52.0
1464.359619 40.0
1464.999512 140.0
1465.631958 172.0
1466.988525 168.0
1467.27063 200.0
1468.742432 44.0
1468.826416 200.0
1469.780029 164.0
1474.255005 208.0
1474.438477 196.0
1476.143311 52.0
1476.219727 136.0
1476.449219 192.0
1478.400024 196.0
1479.272583 128.0
1481.983765 148.0
1484.367798 120.0
1484.475098 152.0
1484.559448 184.0
1484.896973 200.0
1486.024536 116.0
1486.546387 192.0
1486.991455 164.0
1487.628662 204.0
1489.556152 128.0
1490.247559 204.0
1491.04248 184.0
1491.38501 152.0
1492.522827 132.0
1495.122925 228.0
1495.592529 188.0
1496.015869 164.0
1498.988892 160.0
1499.836792 156.0
1501.008667 144.0
