>compound MLS001148578-01!389-08-2
>formula C12H12N2O3
>ionization [M+H]+
>parentmass 233.092
#inchi InChI=1S/C12H12N2O3/c1-3-14-6-9(12(16)17)10(15)8-5-4-7(2)13-11(8)14/h4-6H,3H2,1-2H3,(H,16,17)
#inchikey MHWLWQUZZRMNGJ
#Ion_Source LC-ESI
#Instrument qTof
#Compound_Source NIH Pharmacologically Active Library
#PI Dorrestein
#Data_Collector VP/LMS
#Scan -1
#Precursor_MZ 233.092
#ExactMass 232.085
#Charge 1
#CAS_Number N/A
#Pubmed_ID N/A
#Smiles CCn1cc(C(=O)O)c(=O)c2ccc(C)nc12
#INCHI_AUX N/A
#Library_Class 3
#SpectrumID CCMSLIB00000084757
#IonMode Positive
#UpdateWorkflowName UPDATE-SINGLE-ANNOTATED-BRONZE
#LibraryQualityString Bronze
#TaskID d252d724072548979f1f6f1ced849daf
##Scan# 1782
#SpectrumFile p3-A04_GA4_01_18226.mzXML
#LibraryName Pharm_Active_Library.mgf
#MQScore -1
#Organism Pharm_Active_Library
#TIC_Query 0
#RT_Query -1
#MZErrorPPM -1
#SharedPeaks 0
#MassDiff 0
#LibMZ -1
#SpecMZ 233.092
#SpecCharge 0
#internalFilename spec-00000.mgf

>collision 10
45.83477 64.0
50.028301 160.0
56.240986 236.0
58.17992 208.0
59.397701 100.0
59.958908 76.0
61.296318 176.0
67.569969 196.0
68.045265 204.0
69.128204 104.0
70.018028 148.0
76.049911 196.0
76.324394 124.0
77.574463 216.0
82.87001 164.0
84.044586 180.0
87.210388 128.0
96.463768 148.0
98.308044 52.0
98.883141 228.0
104.048256 336.0
105.072876 232.0
111.091484 164.0
113.067902 176.0
114.829163 128.0
115.966591 128.0
116.129539 144.0
118.065727 156.0
118.364357 116.0
119.941612 104.0
120.961708 160.0
124.544937 148.0
126.169426 216.0
127.39975 128.0
129.662918 156.0
131.06015 1052.0
132.756577 80.0
133.346588 52.0
133.769806 192.0
134.909378 152.0
137.226349 236.0
142.126587 212.0
142.86232 112.0
143.059845 136.0
144.810089 128.0
146.636047 132.0
151.576721 136.0
159.055008 1452.0
159.084137 172.0
160.05542 164.0
160.10051 68.0
164.07103 236.0
168.379318 132.0
171.740402 180.0
172.108368 160.0
179.129166 52.0
186.986374 32.0
187.050812 2276.0
187.122482 64.0
188.055283 104.0
188.680298 60.0
189.063232 136.0
190.15947 140.0
195.101181 64.0
200.94899 180.0
203.161331 156.0
205.057724 352.0
206.073792 152.0
215.080521 612.0
216.104233 208.0
216.806992 36.0
221.900574 80.0
232.209473 228.0
233.098297 380.0
234.088638 112.0
281.639343 88.0
304.122345 132.0
1216.219482 140.0
1277.611816 168.0
1345.979248 220.0
