>compound MLS001140359-01!1-[2-(4,7-dimethyl-2-oxochromen-5-yl)oxyacetyl]piperidine-4-carboxamide
>formula C19H22N2O5
>ionization [M+H]+
>parentmass 359.161041
#inchi InChI=1S/C19H22N2O5/c1-11-7-14(18-12(2)9-17(23)26-15(18)8-11)25-10-16(22)21-5-3-13(4-6-21)19(20)24/h7-9,13H,3-6,10H2,1-2H3,(H2,20,24)
#inchikey FXEKRKUZKLMXEX
#Ion_Source LC-ESI
#Instrument qTof
#Compound_Source NIH Natural Product Library
#PI Dorrestein
#Data_Collector VVP/LMS
#Scan -1
#Precursor_MZ 359.161
#ExactMass 358.153
#Charge 1
#CAS_Number N/A
#Pubmed_ID N/A
#Smiles Cc1cc(OCC(=O)N2CCC(CC2)C(=O)N)c3c(C)cc(=O)oc3c1
#INCHI_AUX N/A
#Library_Class 1
#SpectrumID CCMSLIB00000079990
#IonMode Positive
#UpdateWorkflowName UPDATE-SINGLE-ANNOTATED-GOLD
#LibraryQualityString Gold
#TaskID b1d8e8f6646f4e71acdff9ca3d919d08
##Scan# 1611
#SpectrumFile p2-F02_GF2_01_18038.mzXML
#LibraryName NIH_Natural_Products_Library.mgf
#MQScore -1
#Organism NIH_Natural_Products_Library
#TIC_Query 0
#RT_Query -1
#MZErrorPPM -1
#SharedPeaks 0
#MassDiff 0
#LibMZ -1
#SpecMZ 359.161
#SpecCharge 0
#internalFilename spec-00000.mgf

>collision 10
96.043968 216.0
96.081802 1192.0
96.145424 156.0
96.327011 76.0
96.743538 200.0
96.829697 248.0
97.053093 248.0
97.0867 256.0
97.968971 188.0
98.059937 1112.0
98.093124 116.0
98.375214 188.0
98.643875 212.0
98.659691 68.0
98.764496 192.0
100.064331 212.0
100.080261 168.0
100.470901 232.0
100.658524 172.0
101.948616 84.0
102.045097 128.0
102.117493 144.0
103.054886 224.0
103.105408 160.0
103.17009 160.0
103.329857 40.0
104.46595 180.0
104.706139 192.0
104.852829 192.0
105.032249 112.0
105.065674 192.0
105.31189 200.0
105.82518 144.0
106.120224 176.0
106.192001 120.0
106.407463 48.0
106.528633 68.0
106.909012 124.0
107.046936 96.0
107.101517 252.0
107.750298 184.0
108.103882 120.0
108.228081 136.0
108.98101 156.0
109.022568 40.0
109.176407 72.0
109.859596 196.0
109.938889 76.0
110.060478 564.0
110.689354 156.0
110.930298 200.0
111.056114 212.0
111.091415 164.0
111.268059 180.0
111.751457 164.0
112.076439 2288.0
112.423653 64.0
112.448425 168.0
113.073219 356.0
113.38591 232.0
113.676445 140.0
113.907875 156.0
114.003479 156.0
114.077873 168.0
114.260765 160.0
114.299065 176.0
115.052849 320.0
115.860725 144.0
116.060936 164.0
117.065041 972.0
117.297501 152.0
117.452759 192.0
117.597321 124.0
118.073067 312.0
119.047867 356.0
119.083801 516.0
119.204277 116.0
119.430382 172.0
120.057632 160.0
120.284546 164.0
121.100143 48.0
121.455223 128.0
121.510063 48.0
121.646133 156.0
121.927277 112.0
122.054779 204.0
122.087769 128.0
122.89399 116.0
123.044075 124.0
123.077194 48.0
123.095459 172.0
123.110321 216.0
123.802505 204.0
123.908829 216.0
124.07312 780.0
124.878906 44.0
124.916718 52.0
125.086693 352.0
126.041534 164.0
126.08847 672.0
126.163315 156.0
126.734032 104.0
126.877472 48.0
126.933525 132.0
127.014267 200.0
127.047508 196.0
127.086891 4644.0
127.175819 52.0
127.205002 200.0
127.231941 48.0
127.737579 112.0
128.034683 148.0
128.061615 392.0
128.091049 640.0
128.196884 128.0
128.302826 48.0
128.365952 148.0
129.070358 1056.0
129.097275 172.0
129.100616 360.0
129.142715 64.0
129.799622 180.0
129.910751 44.0
130.082489 100.0
130.090714 144.0
130.108185 164.0
130.185394 164.0
130.201294 100.0
130.999649 188.0
131.061127 188.0
131.083847 344.0
131.309647 172.0
131.827881 148.0
132.019913 180.0
132.045074 128.0
132.065826 164.0
132.897247 116.0
133.03035 52.0
133.064728 468.0
133.103821 224.0
133.21637 136.0
133.37262 136.0
134.06308 112.0
134.212921 224.0
134.57518 168.0
134.988785 168.0
135.078995 160.0
135.48642 208.0
136.516998 56.0
137.024429 156.0
137.441788 172.0
137.911194 220.0
138.156723 224.0
138.81488 104.0
139.088165 308.0
140.095856 152.0
140.572128 132.0
140.784592 152.0
141.05867 228.0
141.101639 6704.0
141.150864 60.0
141.297516 108.0
141.318817 220.0
141.439499 128.0
141.524734 40.0
141.659729 72.0
141.681046 52.0
141.749756 80.0
141.823227 60.0
142.101349 576.0
142.43779 112.0
142.577972 156.0
143.103683 140.0
143.225143 88.0
143.2966 84.0
143.387161 224.0
144.056931 292.0
144.083923 164.0
144.299026 64.0
144.533417 120.0
144.708145 120.0
145.002792 192.0
145.065231 2660.0
145.096283 112.0
145.147888 48.0
145.213776 88.0
145.393723 80.0
145.698669 172.0
146.069595 488.0
146.155487 52.0
146.191589 64.0
146.986801 152.0
147.039902 152.0
147.079224 1336.0
147.191986 148.0
147.27858 136.0
148.087677 416.0
148.108582 204.0
149.054764 96.0
149.088776 116.0
150.128647 196.0
150.164871 128.0
150.242935 176.0
150.7948 76.0
151.041748 132.0
151.53627 180.0
151.751953 140.0
152.069901 152.0
152.785919 236.0
153.022186 136.0
153.100983 144.0
153.404053 184.0
153.54953 180.0
154.629196 132.0
154.849548 244.0
155.071274 164.0
155.764816 68.0
156.095367 144.0
157.067871 208.0
158.263763 204.0
159.045944 160.0
159.08078 480.0
160.051193 152.0
160.085464 172.0
160.870956 132.0
161.0578 668.0
162.066376 924.0
162.102692 68.0
162.675903 68.0
163.031494 168.0
163.069366 324.0
164.289322 100.0
165.058105 88.0
167.086945 276.0
169.100372 748.0
170.01976 276.0
170.107193 432.0
171.137527 100.0
171.890839 196.0
172.426193 160.0
172.954529 144.0
172.975464 132.0
173.059784 1276.0
173.093277 164.0
173.129944 160.0
174.059265 136.0
174.284149 156.0
174.920609 68.0
175.028549 92.0
175.074509 4168.0
175.389481 128.0
175.668991 52.0
175.829941 64.0
175.972488 88.0
176.079102 920.0
176.646393 68.0
176.715179 180.0
177.058167 96.0
177.08049 164.0
177.112274 48.0
177.223541 56.0
178.401932 80.0
179.08847 168.0
179.22966 116.0
179.976517 92.0
180.62059 144.0
181.067581 64.0
181.306015 136.0
181.576797 116.0
183.092575 168.0
183.343124 124.0
183.658569 116.0
184.390274 132.0
184.844604 228.0
185.063843 144.0
185.2155 48.0
185.489182 76.0
185.942154 240.0
185.977432 80.0
186.33046 136.0
186.844299 144.0
187.078903 176.0
187.421509 60.0
187.710449 56.0
188.041092 200.0
188.070572 172.0
188.975113 112.0
189.05983 236.0
189.131104 148.0
189.254303 100.0
189.517242 184.0
190.002533 412.0
190.062088 1724.0
190.370346 28.0
190.449982 44.0
190.664291 52.0
190.700027 92.0
191.00798 208.0
191.068069 1096.0
191.704544 156.0
191.880966 132.0
192.225739 52.0
192.941116 196.0
193.098724 220.0
193.74646 172.0
196.153046 68.0
198.137192 164.0
198.403427 240.0
199.385864 144.0
200.044037 196.0
200.472153 152.0
201.062698 88.0
201.391891 60.0
201.841248 116.0
201.880829 164.0
202.77829 100.0
202.917191 172.0
203.070419 8680.0
203.169601 52.0
203.339859 76.0
203.535736 68.0
203.620926 40.0
203.950516 76.0
203.976089 184.0
204.072708 764.0
204.197876 60.0
204.633255 56.0
204.787033 36.0
205.081116 132.0
205.214493 60.0
205.648102 132.0
205.689178 144.0
206.528137 52.0
208.949295 212.0
209.372437 52.0
210.087265 84.0
211.208084 172.0
212.068039 132.0
212.111511 124.0
212.140503 120.0
212.831009 108.0
213.051483 480.0
214.227036 88.0
214.626312 216.0
215.075745 148.0
217.044495 160.0
217.103134 56.0
218.088074 148.0
220.707504 128.0
222.880219 124.0
223.070419 172.0
225.084457 212.0
226.074326 132.0
227.065567 184.0
228.086426 96.0
228.335983 172.0
229.055344 140.0
229.881454 212.0
230.400787 144.0
230.902557 164.0
230.987244 156.0
231.029602 176.0
231.064392 1824.0
231.52298 68.0
231.910782 72.0
232.069733 376.0
232.138153 68.0
232.605392 84.0
232.951569 80.0
233.075195 336.0
233.298004 36.0
233.480438 44.0
233.757278 68.0
233.903366 120.0
234.125626 136.0
234.210907 132.0
242.073517 120.0
242.736649 36.0
243.087189 148.0
243.109268 204.0
243.705109 72.0
244.090546 136.0
245.080383 176.0
245.738266 52.0
248.096054 248.0
249.078613 136.0
250.075363 96.0
255.111191 188.0
256.123108 132.0
257.114685 120.0
258.063416 204.0
258.146545 160.0
260.004639 116.0
260.084869 204.0
262.094879 52.0
267.591461 124.0
269.097748 144.0
269.140198 172.0
269.182648 36.0
270.483887 64.0
271.099457 336.0
272.087341 188.0
273.09903 140.0
274.591064 120.0
276.097046 108.0
280.849854 40.0
281.256927 88.0
281.814636 140.0
284.141571 212.0
285.105255 88.0
285.172485 80.0
286.140503 584.0
286.986969 172.0
287.152222 140.0
287.337738 72.0
288.096619 112.0
292.941681 84.0
296.131378 144.0
298.01535 84.0
302.869293 104.0
306.120056 132.0
306.450958 164.0
311.495758 48.0
313.131348 180.0
313.157654 152.0
314.138123 1400.0
315.140167 312.0
315.845581 64.0
316.135712 144.0
316.510925 68.0
322.205353 88.0
324.120117 96.0
325.141571 176.0
326.042999 88.0
327.662231 56.0
328.84137 56.0
340.275696 132.0
341.147949 292.0
342.08078 156.0
342.133575 1180.0
342.747375 84.0
343.132355 160.0
343.241302 100.0
345.908783 112.0
351.05838 172.0
359.161041 488.0
359.246338 168.0
360.165192 144.0
361.182312 124.0
373.178314 48.0
432.027893 88.0
476.492157 64.0
557.513184 100.0
594.349243 60.0
635.701233 80.0
702.331543 152.0
706.705688 156.0
725.629639 144.0
834.71814 92.0
879.983704 148.0
907.256287 136.0
922.692322 196.0
923.817139 148.0
928.559875 204.0
939.929749 176.0
943.423279 208.0
978.646423 112.0
1001.863342 164.0
1005.406921 196.0
1031.179443 160.0
1033.091309 164.0
1040.152954 132.0
1051.145386 140.0
1058.592163 224.0
1072.762573 172.0
1076.977905 92.0
1121.150879 120.0
1141.817627 188.0
1142.853516 160.0
1143.560059 200.0
1157.229858 124.0
1159.451782 196.0
1159.926147 156.0
1178.40271 144.0
1181.102905 160.0
1194.038574 136.0
1194.251709 184.0
1203.679443 116.0
1209.597412 196.0
1210.062988 128.0
1216.827881 132.0
1220.2052 152.0
1227.808228 48.0
1227.982544 56.0
1238.270386 172.0
1251.746826 160.0
1254.551025 108.0
1258.092407 164.0
1282.002319 184.0
1285.4823 164.0
1288.002441 96.0
1293.057495 144.0
1294.790039 164.0
1296.136719 52.0
1297.333618 200.0
1299.743408 128.0
1309.210571 168.0
1320.707642 72.0
1323.863037 176.0
1330.947632 68.0
1336.093384 212.0
1344.326782 176.0
1345.655151 196.0
1361.074951 168.0
1362.947998 144.0
1363.344849 52.0
1366.065186 108.0
1366.5802 160.0
1366.742065 224.0
1375.704712 204.0
1375.785156 152.0
1377.461548 164.0
1377.897339 144.0
1382.074707 44.0
1384.547119 76.0
1390.626465 220.0
1393.894043 44.0
1407.629883 116.0
1410.012939 124.0
1413.131226 128.0
1414.710205 132.0
1416.35022 160.0
1418.35083 112.0
1419.460327 204.0
1425.052246 84.0
1425.360352 164.0
1430.165894 156.0
1431.513428 188.0
1431.724365 156.0
1432.10083 248.0
1441.032471 92.0
1441.954346 180.0
1446.220093 148.0
1449.847778 164.0
1457.648804 132.0
1457.793213 144.0
1460.058594 60.0
1461.366943 156.0
1466.789185 72.0
1470.137329 144.0
1475.629272 188.0
1480.564819 220.0
1499.27124 104.0
1499.833862 144.0
1502.725708 152.0
1503.404785 176.0
