>compound MLS000069761-01!ALPHA-METHYL-P-[1-OXO-2-ISOINDOLINYL]-BENZENEACETIC ACID
>formula C17H15NO3
>ionization [M+H]+
>parentmass 282.1124697920905
#inchi InChI=1S/C17H15NO3/c1-11(17(20)21)12-6-8-14(9-7-12)18-10-13-4-2-3-5-15(13)16(18)19/h2-9,11H,10H2,1H3,(H,20,21)
#inchikey RJMIEHBSYVWVIN
#Ion_Source LC-ESI
#Instrument qTof
#Compound_Source NIH Pharmacologically Active Library
#PI Dorrestein
#Data_Collector VP/LMS
#Scan -1
#Precursor_MZ 282.115
#ExactMass 281.105
#Charge 1
#CAS_Number N/A
#Pubmed_ID N/A
#Smiles CC(C(=O)O)c1ccc(cc1)N2Cc3ccccc3C2=O
#INCHI_AUX N/A
#Library_Class 1
#SpectrumID CCMSLIB00000084881
#IonMode Positive
#UpdateWorkflowName UPDATE-SINGLE-ANNOTATED-GOLD
#LibraryQualityString Gold
#TaskID d252d724072548979f1f6f1ced849daf
##Scan# 1883
#SpectrumFile p3-C02_GC2_01_18247.mzXML
#LibraryName Pharm_Active_Library.mgf
#MQScore -1
#Organism Pharm_Active_Library
#TIC_Query 0
#RT_Query -1
#MZErrorPPM -1
#SharedPeaks 0
#MassDiff 0
#LibMZ -1
#SpecMZ 282.115
#SpecCharge 0
#internalFilename spec-00000.mgf

>collision 0
91.0531 1.69
103.0538 2.52
105.0334 2.72
115.0542 4.92
119.0498 2.31
130.0659 2.72
132.0445 4.63
143.0484 1.26
158.0602 10.52
180.0812 20.42
181.0886 12.8
191.0852 3.05
203.0713 1.54
206.0948 3.03
207.1043 1.78
208.075 12.72
209.082 9.58
210.0911 5.29
217.089 9.86
218.0962 34.52
221.0838 2.79
234.0918 1.96
235.0985 2.12
236.1069 100.0
282.1107 3.24
