>compound Docetaxel
>formula C43H53NO14 
>ionization [M+H]+
>parentmass 808.3538818280905
#inchi InChI=1S/C43H53NO14/c1-22-26(55-37(51)32(48)30(24-15-11-9-12-16-24)44-38(52)58-39(3,4)5)20-43(53)35(56-36(50)25-17-13-10-14-18-25)33-41(8,34(49)31(47)29(22)40(43,6)7)27(46)19-28-42(33,21-54-28)57-23(2)45/h9-18,26-28,30-33,35,46-48,53H,19-21H2,1-8H3,(H,44,52)/t26-,27-,28+,30-,31+,32+,33-,35-,41+,42-,43+/m0/s1
#inchikey ZDZOTLJHXYCWBA
#Ion_Source LC-ESI
#Instrument qTof
#Compound_Source Isolated
#PI Sirenas
#Data_Collector Ed Esquenazi 
#Scan -1
#Precursor_MZ 808.35
#ExactMass 0.0
#Charge 1
#CAS_Number N/A
#Pubmed_ID N/A
#Smiles N/A
#INCHI_AUX N/A
#Library_Class 3
#SpectrumID CCMSLIB00000005880
#IonMode Positive
#UpdateWorkflowName UPDATE-SINGLE-ANNOTATED-BRONZE
#LibraryQualityString Bronze
#TaskID d19310cd93df49b68e9fcbec27720eb5
##Scan# 1
#SpectrumFile Docetaxel.mgf
#LibraryName fda_library.mgf
#MQScore -1
#Organism fda_library
#TIC_Query 0
#RT_Query -1
#MZErrorPPM -1
#SharedPeaks 0
#MassDiff 0
#LibMZ -1
#SpecMZ 808.35
#SpecCharge 0
#internalFilename spec-00000.mgf

>collision 0
136.0742 4.18
180.0622 13.36
182.078 95.05
208.0577 13.99
213.1211 5.49
226.0675 100.0
263.1365 5.86
269.112 16.01
282.1298 5.29
287.1238 14.65
291.1298 7.7
297.1419 6.51
299.1592 10.17
309.1429 36.34
327.1541 86.23
329.1346 4.67
345.1653 41.76
347.1422 4.13
363.1746 5.68
369.16 4.81
387.1747 20.37
405.1848 65.1
423.1951 15.13
431.1768 10.93
449.1895 30.2
467.2023 19.58
491.1975 9.91
509.2099 45.68
527.2209 54.98
716.259 3.52
734.276 7.62
752.2809 29.05
808.3456 1601.28
