>compound MLS001049096-01!3-hydroxy-8-methoxybenzo[c]chromen-6-one
>formula C14H10O4
>ionization [M+H]+
>parentmass 243.065994
#inchi InChI=1S/C14H10O4/c1-17-9-3-5-10-11-4-2-8(15)6-13(11)18-14(16)12(10)7-9/h2-7,15H,1H3
#inchikey IGJLBTGXYKPECW
#Ion_Source LC-ESI
#Instrument qTof
#Compound_Source NIH Natural Product Library
#PI Dorrestein
#Data_Collector VVP/LMS
#Scan -1
#Precursor_MZ 243.066
#ExactMass 242.058
#Charge 1
#CAS_Number N/A
#Pubmed_ID N/A
#Smiles COc1ccc2c(c1)c(=O)oc3cc(O)ccc32
#INCHI_AUX N/A
#Library_Class 1
#SpectrumID CCMSLIB00000080024
#IonMode Positive
#UpdateWorkflowName UPDATE-SINGLE-ANNOTATED-GOLD
#LibraryQualityString Gold
#TaskID b1d8e8f6646f4e71acdff9ca3d919d08
##Scan# 2026
#SpectrumFile p2-B03_GB3_01_17991.mzXML
#LibraryName NIH_Natural_Products_Library.mgf
#MQScore -1
#Organism NIH_Natural_Products_Library
#TIC_Query 0
#RT_Query -1
#MZErrorPPM -1
#SharedPeaks 0
#MassDiff 0
#LibMZ -1
#SpecMZ 243.066
#SpecCharge 0
#internalFilename spec-00000.mgf

>collision 0
102.0465 2.25
103.0539 1.47
115.0532 8.15
125.038 1.6
127.0541 2.39
128.0621 100.0
139.0529 8.58
141.0688 6.16
144.0563 12.0
155.049 18.46
156.0566 47.35
159.0456 1.57
159.0802 2.01
167.0487 2.04
168.0563 15.83
169.065 4.07
171.0429 3.96
171.0809 12.71
172.0523 10.72
184.0519 69.05
187.0761 5.27
199.0753 13.66
200.0478 8.5
228.0429 1.63
243.0649 7.96
