>compound Methoxsalen
>formula C12H8O4 
>ionization [M+H]+
>parentmass 217.05
#inchi InChI=1S/C12H8O4/c1-14-12-10-8(4-5-15-10)6-7-2-3-9(13)16-11(7)12/h2-6H,1H3
#inchikey QXKHYNVANLEOEG
#Ion_Source LC-ESI
#Instrument qTof
#Compound_Source Isolated
#PI Sirenas
#Data_Collector Ed Esquenazi 
#Scan -1
#Precursor_MZ 217.05
#ExactMass 0.0
#Charge 1
#CAS_Number N/A
#Pubmed_ID N/A
#Smiles N/A
#INCHI_AUX N/A
#Library_Class 3
#SpectrumID CCMSLIB00000005192
#IonMode Positive
#UpdateWorkflowName UPDATE-SINGLE-ANNOTATED-BRONZE
#LibraryQualityString Bronze
#TaskID d19310cd93df49b68e9fcbec27720eb5
##Scan# 3
#SpectrumFile Methoxsalen.mgf
#LibraryName fda_library.mgf
#MQScore -1
#Organism fda_library
#TIC_Query 0
#RT_Query -1
#MZErrorPPM -1
#SharedPeaks 0
#MassDiff 0
#LibMZ -1
#SpecMZ 217.05
#SpecCharge 0
#internalFilename spec-00000.mgf

>collision 0
100.0316 0.51
101.0384 2.62
102.0466 4.38
103.0545 3.32
104.0619 1.06
105.0327 0.55
105.0698 2.48
107.0483 0.35
115.0542 7.27
117.0339 8.3
118.0417 73.75
120.0199 0.2
128.0242 0.21
129.0333 4.48
130.0412 1.91
131.0493 8.04
132.0199 0.8
133.0644 0.32
145.0283 26.86
146.036 24.64
157.0272 1.54
158.0347 0.9
161.0593 12.18
173.0233 0.4
174.0313 100.0
185.0238 0.31
189.0543 0.34
202.026 8.11
217.0496 0.0
