>compound MLS002154125-01!Oxyphenbutazone129-20-4
>formula C19H20N2O3
>ionization [M+H]+
>parentmass 325.156
#inchi InChI=1S/C19H20N2O3/c1-2-3-9-17-18(23)20(14-7-5-4-6-8-14)21(19(17)24)15-10-12-16(22)13-11-15/h4-8,10-13,17,22H,2-3,9H2,1H3
#inchikey HFHZKZSRXITVMK
#Ion_Source LC-ESI
#Instrument qTof
#Compound_Source NIH Pharmacologically Active Library
#PI Dorrestein
#Data_Collector VP/LMS
#Scan -1
#Precursor_MZ 325.156
#ExactMass 324.147
#Charge 1
#CAS_Number N/A
#Pubmed_ID N/A
#Smiles CCCCC1C(=O)N(N(C1=O)c2ccc(O)cc2)c3ccccc3
#INCHI_AUX N/A
#Library_Class 1
#SpectrumID CCMSLIB00000085768
#IonMode Positive
#UpdateWorkflowName UPDATE-SINGLE-ANNOTATED-GOLD
#LibraryQualityString Gold
#TaskID d252d724072548979f1f6f1ced849daf
##Scan# 2015
#SpectrumFile p4-F03_GF3_01_18387.mzXML
#LibraryName Pharm_Active_Library.mgf
#MQScore -1
#Organism Pharm_Active_Library
#TIC_Query 0
#RT_Query -1
#MZErrorPPM -1
#SharedPeaks 0
#MassDiff 0
#LibMZ -1
#SpecMZ 325.156
#SpecCharge 0
#internalFilename spec-00000.mgf

>collision 0
91.0554 5.29
92.0504 14.17
93.0561 7.0
94.0623 11.76
104.047 10.29
106.0285 7.7
106.0649 18.4
107.0484 4.17
108.0438 31.92
110.0604 5.82
118.0665 4.59
120.043 28.92
122.0593 13.23
128.0499 7.29
130.0657 5.47
132.0789 7.29
134.0589 9.94
148.0376 100.0
149.0473 74.13
158.0588 9.11
160.1119 21.93
162.0555 22.1
162.0902 8.11
172.1099 7.11
176.0337 4.0
176.1054 7.05
178.1225 7.88
200.1071 5.7
204.1002 47.97
214.0843 5.11
232.0948 10.41
325.1563 0.0
