>compound MLS001049028-01!3-methoxybenzo[c]chromen-6-one
>formula C14H10O3
>ionization [M+H]+
>parentmass 227.071213
#inchi InChI=1S/C14H10O3/c1-16-9-6-7-11-10-4-2-3-5-12(10)14(15)17-13(11)8-9/h2-8H,1H3
#inchikey BSGMHOUSWFFEMZ
#Ion_Source LC-ESI
#Instrument qTof
#Compound_Source NIH Natural Product Library
#PI Dorrestein
#Data_Collector VVP/LMS
#Scan -1
#Precursor_MZ 227.071
#ExactMass 226.063
#Charge 1
#CAS_Number N/A
#Pubmed_ID N/A
#Smiles COc1ccc2c(c1)oc(=O)c3ccccc32
#INCHI_AUX N/A
#Library_Class 1
#SpectrumID CCMSLIB00000080562
#IonMode Positive
#UpdateWorkflowName UPDATE-SINGLE-ANNOTATED-GOLD
#LibraryQualityString Gold
#TaskID b1d8e8f6646f4e71acdff9ca3d919d08
##Scan# 2257
#SpectrumFile p2-F10_GF10_01_18046.mzXML
#LibraryName NIH_Natural_Products_Library.mgf
#MQScore -1
#Organism NIH_Natural_Products_Library
#TIC_Query 0
#RT_Query -1
#MZErrorPPM -1
#SharedPeaks 0
#MassDiff 0
#LibMZ -1
#SpecMZ 227.071
#SpecCharge 0
#internalFilename spec-00000.mgf

>collision 0
102.0464 5.0
113.0386 2.59
114.0461 2.85
115.0554 4.17
116.0626 6.11
127.0535 3.14
128.0629 71.69
131.0487 1.94
138.0457 3.08
139.0556 87.35
140.0624 92.41
142.0427 3.58
143.0491 3.46
144.0558 1.64
145.0646 2.13
152.0629 17.67
153.0692 7.27
155.0506 19.21
156.0578 25.89
165.0688 3.6
166.0426 2.93
167.0511 5.42
168.0574 100.0
171.0818 6.9
172.0513 3.62
183.0801 13.18
184.0519 43.59
194.0367 10.1
195.0437 1.68
211.039 1.68
212.0458 23.36
227.0709 17.77
