>compound Doxorubicin (Adriamycin)
>formula C27H29NO11
>ionization [M+H]+
>parentmass 544.180786
#inchi InChI=1S/C27H29NO11/c1-10-22(31)13(28)6-17(38-10)39-15-8-27(36,16(30)9-29)7-12-19(15)26(35)21-20(24(12)33)23(32)11-4-3-5-14(37-2)18(11)25(21)34/h3-5,10,13,15,17,22,29,31,33,35-36H,6-9,28H2,1-2H3/t10-,13-,15+,17-,22+,27-/m0/s1
#inchikey AOJJSUZBOXZQNB
#origInchi InChI=1S/C27H29NO11.ClH/c1-10-22(31)13(28)6-17(38-10)39-15-8-27(36,16(30)9-29)7-12-19(15)26(35)21-20(24(12)33)23(32)11-4-3-5-14(37-2)18(11)25(21)34;/h3-5,10,13,15,17,22,29,31,33,35-36H,6-9,28H2,1-2H3;1H/t10-,13-,15+,17-,22+,27-;/m0./s1
#Ion_Source LC-ESI
#Instrument qTof
#Compound_Source Commercial
#PI Dorrestein
#Data_Collector Garg_Neha
#Scan -1
#Precursor_MZ 544.181
#ExactMass 543.174
#Charge 1
#CAS_Number 25316-40-9, 23214-92-8 (free base), 1246449-85-3 (4-methylbenzenesulfonate)
#Pubmed_ID N/A
#Smiles C1(=CC=C2C(=C1OC)C(C3=C(C2=O)C(=C4C(=C3O)[C@@H](C[C@@](C4)(C(CO)=O)O)O[C@]5(C[C@@H]([C@@H]([C@@H](O5)C)O)N)[H])O)=O).Cl
#INCHI_AUX N/A
#Library_Class 1
#SpectrumID CCMSLIB00000078047
#IonMode Positive
#UpdateWorkflowName UPDATE-SINGLE-ANNOTATED-GOLD
#LibraryQualityString Gold
#TaskID 77f51c88eb8b467eb4a01dd2d0cb90d2
##Scan# 1105
#SpectrumFile Plate1_41_60_GG3_01_16490.mzXML
#LibraryName FDALibrary_2_04302014.mgf
#MQScore -1
#Organism FDALibrary_2_04302014
#TIC_Query 0
#RT_Query -1
#MZErrorPPM -1
#SharedPeaks 0
#MassDiff 0
#LibMZ -1
#SpecMZ 544.181
#SpecCharge 0
#internalFilename spec-00000.mgf

>collision 0
95.0483 1.02
112.0756 3.76
113.0604 10.52
130.0869 40.24
148.0968 3.92
287.0685 1.07
290.0567 0.42
293.081 1.48
303.0638 1.38
305.0797 1.47
306.0521 7.71
307.0586 1.32
309.0764 0.92
315.066 1.93
316.0667 0.47
321.0764 67.72
325.0699 0.76
333.0757 9.57
334.0784 2.42
336.063 0.52
337.0706 2.06
346.0473 31.13
347.0497 7.49
348.0555 1.46
351.0837 2.34
361.0714 49.75
362.0741 14.26
363.0767 2.09
364.058 1.04
379.0819 65.22
381.0862 3.41
397.0934 100.0
399.0978 3.68
414.1173 0.97
508.161 1.43
526.1697 4.82
544.1808 14.62
