>compound MLS000862198-01!Ibudilast
>formula C14H18N2O
>ionization [M+H]+
>parentmass 231.148819
#inchi InChI=1S/C14H18N2O/c1-9(2)13-12(14(17)10(3)4)11-7-5-6-8-16(11)15-13/h5-10H,1-4H3
#inchikey ZJVFLBOZORBYFE
#Ion_Source LC-ESI
#Instrument qTof
#Compound_Source NIH Pharmacologically Active Library
#PI Dorrestein
#Data_Collector VP/LMS
#Scan -1
#Precursor_MZ 231.152
#ExactMass 230.142
#Charge 1
#CAS_Number N/A
#Pubmed_ID N/A
#Smiles CC(C)C(=O)c1c(nn2ccccc12)C(C)C
#INCHI_AUX N/A
#Library_Class 1
#SpectrumID CCMSLIB00000084844
#IonMode Positive
#UpdateWorkflowName UPDATE-SINGLE-ANNOTATED-GOLD
#LibraryQualityString Gold
#TaskID d252d724072548979f1f6f1ced849daf
##Scan# 2255
#SpectrumFile p3-B07_GB7_01_18240.mzXML
#LibraryName Pharm_Active_Library.mgf
#MQScore -1
#Organism Pharm_Active_Library
#TIC_Query 0
#RT_Query -1
#MZErrorPPM -1
#SharedPeaks 0
#MassDiff 0
#LibMZ -1
#SpecMZ 231.152
#SpecCharge 0
#internalFilename spec-00000.mgf

>collision 0
92.0508 11.54
104.0502 12.93
105.0448 8.16
106.0648 5.39
117.0575 28.35
118.0648 36.1
119.0618 45.73
120.0453 7.09
120.0814 12.9
130.0651 15.66
132.07 29.09
134.0962 10.73
142.0663 10.01
143.0732 28.15
144.0816 71.61
145.0776 100.0
146.0844 42.81
147.0917 15.68
154.0648 7.11
155.0623 4.6
159.0916 58.73
160.0992 13.41
161.1081 67.68
170.0958 12.38
173.0721 55.54
173.108 24.35
174.0777 9.74
181.088 19.8
186.1278 5.36
187.0874 30.21
188.0942 6.2
189.1023 38.19
197.1082 15.51
198.0912 3.66
198.1148 5.72
201.1027 37.42
215.1176 17.79
216.1258 9.27
231.1498 81.95
