>compound MLS001074128-01!ALPHA-[1-(T-BUTYLAMINO)ETHYL]-2,5-DIMETHOXYBENZYL ALCOHOL HYDROCHLORIDE
>formula C15H25NO3
>ionization [M+H]+
>parentmass 268.1907201120905
#inchi InChI=1S/C15H25NO3/c1-10(16-15(2,3)4)14(17)12-9-11(18-5)7-8-13(12)19-6/h7-10,14,16-17H,1-6H3/t10-,14-/m0/s1
#inchikey TWUSDDMONZULSC
#origInchi InChI=1S/C15H25NO3.ClH/c1-10(16-15(2,3)4)14(17)12-9-11(18-5)7-8-13(12)19-6;/h7-10,14,16-17H,1-6H3;1H/t10-,14-;/m0./s1
#Ion_Source LC-ESI
#Instrument qTof
#Compound_Source NIH Pharmacologically Active Library
#PI Dorrestein
#Data_Collector VP/LMS
#Scan -1
#Precursor_MZ 268.192
#ExactMass 267.183
#Charge 1
#CAS_Number N/A
#Pubmed_ID N/A
#Smiles COc1ccc(OC)c(c1)[C@@H](O)[C@H](C)NC(C)(C)C.Cl
#INCHI_AUX N/A
#Library_Class 1
#SpectrumID CCMSLIB00000084952
#IonMode Positive
#UpdateWorkflowName UPDATE-SINGLE-ANNOTATED-GOLD
#LibraryQualityString Gold
#TaskID d252d724072548979f1f6f1ced849daf
##Scan# 1476
#SpectrumFile p3-D02_GD2_01_18259.mzXML
#LibraryName Pharm_Active_Library.mgf
#MQScore -1
#Organism Pharm_Active_Library
#TIC_Query 0
#RT_Query -1
#MZErrorPPM -1
#SharedPeaks 0
#MassDiff 0
#LibMZ -1
#SpecMZ 268.192
#SpecCharge 0
#internalFilename spec-00000.mgf

>collision 0
91.0529 2.93
103.0539 5.45
104.0495 1.64
105.0345 1.8
105.0703 8.3
107.0484 2.83
108.0563 1.38
109.0633 4.66
115.0541 3.0
118.0653 7.98
119.0489 7.64
119.0729 10.69
120.0573 4.42
121.0644 16.97
123.0443 32.47
130.0652 9.97
131.073 19.37
132.0436 11.05
133.0632 1.45
134.0715 2.34
135.0805 21.25
136.0754 17.85
137.0597 20.88
138.067 56.34
145.0629 2.68
146.0611 9.0
147.0433 17.18
147.0677 68.59
149.0963 4.51
153.0915 5.19
161.0593 7.36
162.0675 34.78
162.0907 96.46
163.0747 12.23
164.0701 34.13
177.0899 4.68
178.0863 2.08
179.0939 58.07
194.1174 100.0
268.191 0.0
