>compound 4-(dibenzo[1,2-a:1',2'-e][7]annulen-11-ylidene)-1-methylpiperidine
>formula C21H21N
>ionization [M+H]+
>parentmass 288.176361
#inchi InChI=1S/C21H21N/c1-22-14-12-18(13-15-22)21-19-8-4-2-6-16(19)10-11-17-7-3-5-9-20(17)21/h2-11H,12-15H2,1H3
#inchikey JJCFRYNCJDLXIK
#Ion_Source LC-ESI
#Instrument qTof
#Compound_Source Commercial
#PI Dorrestein
#Data_Collector Garg_Neha
#Scan -1
#Precursor_MZ 288.175
#ExactMass 287.167
#Charge 1
#CAS_Number N/A
#Pubmed_ID N/A
#Smiles CN1CCC(=C2c3ccccc3C=Cc4ccccc24)CC1
#INCHI_AUX N/A
#Library_Class 1
#SpectrumID CCMSLIB00000079057
#IonMode Positive
#UpdateWorkflowName UPDATE-SINGLE-ANNOTATED-GOLD
#LibraryQualityString Gold
#TaskID 278b19f5865741e282cec7349aa7e7a1
##Scan# 1181
#SpectrumFile NCP003432_A2_B11_BC8_01_15722.mzXML
#LibraryName NIHcollectionI_05062014.mgf
#MQScore -1
#Organism NIHcollectionI_05062014
#TIC_Query 0
#RT_Query -1
#MZErrorPPM -1
#SharedPeaks 0
#MassDiff 0
#LibMZ -1
#SpecMZ 288.175
#SpecCharge 0
#internalFilename spec-00000.mgf

>collision 0
115.0543 3.12
117.0684 5.17
128.0627 2.41
141.0692 6.38
153.0685 6.64
165.0709 2.41
167.0845 7.55
178.0778 7.61
179.0859 6.58
180.0929 3.2
190.0772 1.79
191.0861 100.0
194.097 2.0
202.0792 7.41
203.0853 16.7
204.0936 20.19
215.086 21.34
216.0936 22.9
217.1019 32.86
228.0942 9.29
229.1031 11.38
230.1104 12.85
231.1151 4.61
241.0996 4.76
242.1069 4.23
243.1177 5.85
245.1335 7.85
257.1325 3.09
272.1455 3.03
288.1764 672.55
