>compound AMOXICILLIN CRYSTALLINE
>formula C16H19N3O5S 
>ionization [M+H]+
>parentmass 366.111969
#inchi InChI=1S/C16H19N3O5S/c1-16(2)11(15(23)24)19-13(22)10(14(19)25-16)18-12(21)9(17)7-3-5-8(20)6-4-7/h3-6,9-11,14,20H,17H2,1-2H3,(H,18,21)(H,23,24)/t9-,10-,11+,14-/m1/s1
#inchikey LSQZJLSUYDQPKJ
#Ion_Source LC-ESI
#Instrument qTof
#Compound_Source Commercial
#PI Dorrestein
#Data_Collector Garg_Neha
#Scan -1
#Precursor_MZ 366.114
#ExactMass 365.105
#Charge 1
#CAS_Number N/A
#Pubmed_ID N/A
#Smiles N/A
#INCHI_AUX N/A
#Library_Class 1
#SpectrumID CCMSLIB00000077122
#IonMode Positive
#UpdateWorkflowName UPDATE-SINGLE-ANNOTATED-GOLD
#LibraryQualityString Gold
#TaskID 48f7f52fc6d249b5abbcc6e7b3df5969
##Scan# 1103
#SpectrumFile NCP003106_G2_H11_BB5_01_15708.mzXML
#LibraryName NIH_Clinical_Collection_2.mgf
#MQScore -1
#Organism NIHcollection2_04212014_2_mgf
#TIC_Query 0
#RT_Query -1
#MZErrorPPM -1
#SharedPeaks 0
#MassDiff 0
#LibMZ -1
#SpecMZ 366.114
#SpecCharge 0
#internalFilename spec-00000.mgf

>collision 0
114.0372 8.71
115.0215 4.9
122.0607 12.49
151.0486 5.2
152.0344 2.72
160.0434 100.0
161.047 8.16
162.0544 6.5
165.0127 6.17
167.0274 6.05
168.0104 3.02
179.0458 7.17
189.0667 5.81
193.0048 13.58
200.0368 10.77
211.0168 21.41
217.0612 14.67
231.0757 3.75
234.0283 4.26
243.0416 5.65
244.0506 3.3
259.0421 2.6
275.0678 7.59
276.0706 3.33
318.0544 12.85
321.0891 4.02
336.0647 24.83
349.0847 91.29
351.0875 6.65
366.112 53.64
