>compound 8-chloro-1-methyl-6-phenyl-4H-[1,2,4]triazolo[4,3-a][1,4]benzodiazepine
>formula C17H13ClN4
>ionization [M+H]+
>parentmass 309.09015054809055
#inchi InChI=1S/C17H13ClN4/c1-11-20-21-16-10-19-17(12-5-3-2-4-6-12)14-9-13(18)7-8-15(14)22(11)16/h2-9H,10H2,1H3
#inchikey VREFGVBLTWBCJP
#Ion_Source LC-ESI
#Instrument qTof
#Compound_Source Commercial
#PI Dorrestein
#Data_Collector Garg_Neha
#Scan -1
#Precursor_MZ 309.09
#ExactMass 308.083
#Charge 1
#CAS_Number N/A
#Pubmed_ID N/A
#Smiles Cc1nnc2CN=C(c3ccccc3)c4cc(Cl)ccc4-n12
#INCHI_AUX N/A
#Library_Class 1
#SpectrumID CCMSLIB00000078969
#IonMode Positive
#UpdateWorkflowName UPDATE-SINGLE-ANNOTATED-GOLD
#LibraryQualityString Gold
#TaskID 278b19f5865741e282cec7349aa7e7a1
##Scan# 1256
#SpectrumFile NCP003352_A2_B11_BC4_01_15718.mzXML
#LibraryName NIHcollectionI_05062014.mgf
#MQScore -1
#Organism NIHcollectionI_05062014
#TIC_Query 0
#RT_Query -1
#MZErrorPPM -1
#SharedPeaks 0
#MassDiff 0
#LibMZ -1
#SpecMZ 309.09
#SpecCharge 0
#internalFilename spec-00000.mgf

>collision 0
104.0508 1.15
128.0478 1.62
131.0616 2.75
138.0102 4.25
163.0056 1.12
165.0215 7.67
171.079 1.44
190.0657 1.57
191.0743 2.91
199.031 1.53
204.0323 1.95
204.0807 3.97
205.0772 18.2
206.0481 3.16
216.0688 3.04
224.0264 7.27
226.0428 2.51
227.049 5.53
232.0874 1.19
238.043 1.87
241.0535 16.4
247.1103 0.99
251.0378 9.87
252.0441 2.58
255.0686 5.79
264.0573 1.68
273.1139 2.0
274.1222 36.7
280.064 2.04
281.0731 100.0
282.0765 16.2
309.0927 268.76
