>compound Azlocillin sodium salt
>formula C20H23N5O6S
>ionization [M+Na]+
>parentmass 484.12735
#inchi InChI=1S/C20H23N5O6S/c1-20(2)13(17(28)29)25-15(27)12(16(25)32-20)22-14(26)11(10-6-4-3-5-7-10)23-19(31)24-9-8-21-18(24)30/h3-7,11-13,16H,8-9H2,1-2H3,(H,21,30)(H,22,26)(H,23,31)(H,28,29)/t11-,12?,13?,16?/m1/s1
#inchikey JTWOMNBEOCYFNV
#origInchi InChI=1S/C20H23N5O6S.Na/c1-20(2)13(17(28)29)25-15(27)12(16(25)32-20)22-14(26)11(10-6-4-3-5-7-10)23-19(31)24-9-8-21-18(24)30;/h3-7,11-13,16H,8-9H2,1-2H3,(H,21,30)(H,22,26)(H,23,31)(H,28,29);/t11-,12?,13?,16?;/m1./s1
#Ion_Source LC-ESI
#Instrument qTof
#Compound_Source Commercial
#PI Dorrestein
#Data_Collector Garg_Neha
#Scan -1
#Precursor_MZ 484.126
#ExactMass 461.137
#Charge 1
#CAS_Number 37091-65-9 ,37091-66-0(free base)
#Pubmed_ID N/A
#Smiles N12(C(C(SC(C(C1=O)NC(=O)[C@@H](C3C=CC=CC=3)NC(=O)N4CCNC4=O)2)(C)C)C(=O)O).[Na]
#INCHI_AUX N/A
#Library_Class 1
#SpectrumID CCMSLIB00000078603
#IonMode Positive
#UpdateWorkflowName UPDATE-SINGLE-ANNOTATED-GOLD
#LibraryQualityString Gold
#TaskID 77f51c88eb8b467eb4a01dd2d0cb90d2
##Scan# 1098
#SpectrumFile Plate9_61_80_GC7_01_15756.mzXML
#LibraryName FDALibrary_2_04302014.mgf
#MQScore -1
#Organism FDALibrary_2_04302014
#TIC_Query 0
#RT_Query -1
#MZErrorPPM -1
#SharedPeaks 0
#MassDiff 0
#LibMZ -1
#SpecMZ 484.126
#SpecCharge 0
#internalFilename spec-00000.mgf

>collision 0
109.0361 4.58
117.0538 4.06
139.0188 4.14
152.0418 15.73
176.0939 6.06
182.0247 28.88
183.0528 7.53
195.0485 5.02
196.0326 12.78
199.0467 9.97
218.0938 31.54
219.0982 9.45
239.0447 12.19
240.0744 64.4
241.0794 14.03
268.0744 7.09
281.0997 12.85
282.1015 7.83
285.0977 10.12
297.0956 13.15
322.058 4.14
325.0917 100.0
326.0935 30.35
327.09 4.21
366.1172 9.31
370.0832 4.06
380.1693 8.71
398.0808 16.54
402.1059 7.9
457.1019 5.17
483.1203 6.72
484.1305 794.02
