>compound Artemisinin
>formula C15H22O5
>ionization [M+H]+
>parentmass 283.1540002560905
#inchi InChI=1S/C15H22O5/c1-8-4-5-11-9(2)12(16)17-13-15(11)10(8)6-7-14(3,18-13)19-20-15/h8-11,13H,4-7H2,1-3H3/t8-,9-,10-,11-,13+,14+,15+/m0/s1
#inchikey BLUAFEHZUWYNDE
#Ion_Source LC-ESI
#Instrument qTof
#Compound_Source Commercial
#PI Dorrestein
#Data_Collector Garg_Neha
#Scan -1
#Precursor_MZ 283.154
#ExactMass 282.147
#Charge 1
#CAS_Number 63968-64-9
#Pubmed_ID N/A
#Smiles [C@@]12(O[C@@]3([C@]4([C@@](CC1)([C@H](CC[C@]4([C@@H](C(O3)=O)C)[H])C)[H])OO2)[H])C
#INCHI_AUX N/A
#Library_Class 1
#SpectrumID CCMSLIB00000078082
#IonMode Positive
#UpdateWorkflowName UPDATE-SINGLE-ANNOTATED-GOLD
#LibraryQualityString Gold
#TaskID 77f51c88eb8b467eb4a01dd2d0cb90d2
##Scan# 1800
#SpectrumFile Plate1_61_88_GG4_01_16491.mzXML
#LibraryName FDALibrary_2_04302014.mgf
#MQScore -1
#Organism FDALibrary_2_04302014
#TIC_Query 0
#RT_Query -1
#MZErrorPPM -1
#SharedPeaks 0
#MassDiff 0
#LibMZ -1
#SpecMZ 283.154
#SpecCharge 0
#internalFilename spec-00000.mgf

>collision 0
105.0714 8.44
107.085 16.04
119.0861 8.98
121.0657 16.65
121.101 19.11
123.0805 12.13
125.0966 7.44
131.0865 10.74
133.101 17.19
135.0441 8.06
135.0815 12.05
143.0844 9.21
149.0956 23.48
149.134 10.28
151.0753 11.2
151.1125 14.74
159.1161 21.49
161.0968 22.03
163.1101 20.87
165.0921 14.35
172.0884 11.28
173.096 36.22
173.1331 35.46
177.0906 13.81
177.1276 25.25
179.1072 18.27
181.1221 16.96
187.1129 15.58
189.0904 34.23
191.1077 19.72
191.1429 34.38
195.1016 7.9
201.1271 70.38
205.1223 34.69
209.1156 10.28
209.1529 12.36
219.1373 94.24
223.131 14.66
229.1222 38.76
237.1491 41.21
247.1322 100.0
265.1433 89.79
283.152 27.01
