>compound Ouabain
>formula C29H44O12
>ionization [M+H]+
>parentmass 585.291565
#inchi InChI=1S/C29H44O12/c1-13-22(34)23(35)24(36)25(40-13)41-15-8-19(32)28(12-30)21-17(3-5-27(28,37)9-15)29(38)6-4-16(14-7-20(33)39-11-14)26(29,2)10-18(21)31/h7,13,15-19,21-25,30-32,34-38H,3-6,8-12H2,1-2H3/t13-,15-,16+,17-,18-,19+,21-,22+,23-,24+,25+,26-,27+,28-,29+/m1/s1
#inchikey LPMXVESGRSUGHW
#origInchi InChI=1S/C29H44O12.8H2O/c1-13-22(34)23(35)24(36)25(40-13)41-15-8-19(32)28(12-30)21-17(3-5-27(28,37)9-15)29(38)6-4-16(14-7-20(33)39-11-14)26(29,2)10-18(21)31;;;;;;;;/h7,13,15-19,21-25,30-32,34-38H,3-6,8-12H2,1-2H3;8*1H2/t13-,15-,16+,17-,18-,19+,21-,22+,23-,24+,25+,26-,27+,28-,29+;;;;;;;;/m1......../s1
#Ion_Source LC-ESI
#Instrument qTof
#Compound_Source Commercial
#PI Dorrestein
#Data_Collector Garg_Neha
#Scan -1
#Precursor_MZ 585.291
#ExactMass 584.283
#Charge 1
#CAS_Number 11018-89-6
#Pubmed_ID N/A
#Smiles [C@]12([C@]3([H])[C@]([H])([C@@]4([C@](C[C@H]3O)([C@H](C5COC(C=5)=O)CC4)C)O)CC[C@]1(O)C[C@H](O[C@H]6[C@@H](O)[C@@H]([C@H]([C@H](O6)C)O)O)C[C@@H]2O)CO.O.O.O.O.O.O.O.O
#INCHI_AUX N/A
#Library_Class 1
#SpectrumID CCMSLIB00000078625
#IonMode Positive
#UpdateWorkflowName UPDATE-SINGLE-ANNOTATED-GOLD
#LibraryQualityString Gold
#TaskID 77f51c88eb8b467eb4a01dd2d0cb90d2
##Scan# 1002
#SpectrumFile Plate10_1_20_GC1_01_15743.mzXML
#LibraryName FDALibrary_2_04302014.mgf
#MQScore -1
#Organism FDALibrary_2_04302014
#TIC_Query 0
#RT_Query -1
#MZErrorPPM -1
#SharedPeaks 0
#MassDiff 0
#LibMZ -1
#SpecMZ 585.291
#SpecCharge 0
#internalFilename spec-00000.mgf

>collision 0
141.0711 15.8
143.0858 23.37
155.0842 9.16
157.1014 47.41
159.1167 10.36
161.0955 12.88
170.1082 10.09
183.1162 10.49
233.1328 10.76
267.1372 9.56
273.1648 12.75
291.1755 9.16
319.1691 32.8
321.1849 15.27
323.163 12.75
331.1721 17.8
332.177 9.16
337.181 79.68
349.1787 47.54
350.1875 25.37
351.1955 13.28
355.1919 68.39
367.1908 53.52
369.2026 9.03
373.2043 100.0
385.2013 66.14
403.2134 80.74
421.2237 39.31
423.237 9.03
439.2339 70.12
440.2401 33.86
513.2473 9.03
531.2572 11.16
549.2746 18.86
567.2808 10.62
585.2935 13.28
