>compound MLS001401434-01!VINCRISTINE SULFATE
>formula C46H56N4O10
>ionization [M+H]+
>parentmass 825.4069204440905
#inchi InChI=1S/C46H56N4O10/c1-7-42(55)22-28-23-45(40(53)58-5,36-30(14-18-48(24-28)25-42)29-12-9-10-13-33(29)47-36)32-20-31-34(21-35(32)57-4)50(26-51)38-44(31)16-19-49-17-11-15-43(8-2,37(44)49)39(60-27(3)52)46(38,56)41(54)59-6/h9-13,15,20-21,26,28,37-39,47,55-56H,7-8,14,16-19,22-25H2,1-6H3/t28-,37-,38+,39+,42-,43+,44+,45-,46-/m0/s1
#inchikey OGWKCGZFUXNPDA
#origInchi InChI=1S/C46H56N4O10.H2O4S/c1-7-42(55)22-28-23-45(40(53)58-5,36-30(14-18-48(24-28)25-42)29-12-9-10-13-33(29)47-36)32-20-31-34(21-35(32)57-4)50(26-51)38-44(31)16-19-49-17-11-15-43(8-2,37(44)49)39(60-27(3)52)46(38,56)41(54)59-6;1-5(2,3)4/h9-13,15,20-21,26,28,37-39,47,55-56H,7-8,14,16-19,22-25H2,1-6H3;(H2,1,2,3,4)/t28-,37-,38+,39+,42-,43+,44+,45-,46-;/m0./s1
#Ion_Source LC-ESI
#Instrument qTof
#Compound_Source NIH Pharmacologically Active Library
#PI Dorrestein
#Data_Collector VP/LMS
#Scan -1
#Precursor_MZ 825.408
#ExactMass 824.4
#Charge 1
#CAS_Number N/A
#Pubmed_ID N/A
#Smiles CC[C@]1(O)C[C@@H]2CN(C1)CCc3c([nH]c4ccccc34)[C@@](C2)(C(=O)OC)c5cc6c(cc5OC)N(C=O)[C@@H]7[C@@]86CCN9CC=C[C@](CC)([C@H]98)[C@@H](OC(=O)C)[C@]7(O)C(=O)OC.OS(=O)(=O)O
#INCHI_AUX N/A
#Library_Class 1
#SpectrumID CCMSLIB00000084765
#IonMode Positive
#UpdateWorkflowName UPDATE-SINGLE-ANNOTATED-GOLD
#LibraryQualityString Gold
#TaskID d252d724072548979f1f6f1ced849daf
##Scan# 1597
#SpectrumFile p3-A05_GA5_01_18227.mzXML
#LibraryName Pharm_Active_Library.mgf
#MQScore -1
#Organism Pharm_Active_Library
#TIC_Query 0
#RT_Query -1
#MZErrorPPM -1
#SharedPeaks 0
#MassDiff 0
#LibMZ -1
#SpecMZ 825.408
#SpecCharge 0
#internalFilename spec-00000.mgf

>collision 0
108.0801 8.46
122.0965 24.52
138.1286 19.02
140.1076 8.64
144.0808 15.97
156.0775 10.47
167.0725 7.77
224.1294 35.08
225.1371 34.64
228.1025 10.65
265.172 8.03
353.1861 15.62
354.1836 9.25
355.1968 8.73
395.1977 8.2
409.2017 9.42
415.2122 11.17
455.2177 9.42
492.2741 7.42
517.2837 6.72
526.2686 8.12
538.2683 8.9
552.2743 6.37
556.2631 12.22
567.294 6.98
576.3183 6.37
599.2932 6.89
610.2668 6.81
627.2969 7.68
663.3306 10.73
664.3474 7.07
677.364 8.99
687.3585 11.26
705.3655 30.45
706.3711 16.67
707.3596 9.51
723.3739 28.45
724.3834 13.79
725.3886 8.64
734.3792 8.03
747.3726 7.16
765.3865 100.0
766.394 46.16
767.39 17.54
783.3844 12.74
807.3956 66.14
808.408 23.04
825.4068 362.13
