>compound MLS000877038-01!2-(4,5-dihydroxy-2-methylphenyl)-6-hydroxy-4-methoxybenzoic acid
>formula C15H14O6
>ionization [M+H]+
>parentmass 291.087
#inchi InChI=1S/C15H14O6/c1-7-3-11(16)12(17)6-9(7)10-4-8(21-2)5-13(18)14(10)15(19)20/h3-6,16-18H,1-2H3,(H,19,20)
#inchikey ADPBTBPPIIKLEH
#Ion_Source LC-ESI
#Instrument qTof
#Compound_Source NIH Natural Product Library
#PI Dorrestein
#Data_Collector VVP/LMS
#Scan -1
#Precursor_MZ 291.087
#ExactMass 290.079
#Charge 1
#CAS_Number N/A
#Pubmed_ID N/A
#Smiles COc1cc(O)c(C(=O)O)c(c1)c2cc(O)c(O)cc2C
#INCHI_AUX N/A
#Library_Class 1
#SpectrumID CCMSLIB00000080309
#IonMode Positive
#UpdateWorkflowName UPDATE-SINGLE-ANNOTATED-GOLD
#LibraryQualityString Gold
#TaskID b1d8e8f6646f4e71acdff9ca3d919d08
##Scan# 1809
#SpectrumFile p2-A07_GA7_01_17984.mzXML
#LibraryName NIH_Natural_Products_Library.mgf
#MQScore -1
#Organism NIH_Natural_Products_Library
#TIC_Query 0
#RT_Query -1
#MZErrorPPM -1
#SharedPeaks 0
#MassDiff 0
#LibMZ -1
#SpecMZ 291.087
#SpecCharge 0
#internalFilename spec-00000.mgf

>collision 0
128.0638 4.98
129.0685 5.49
138.0472 4.32
139.056 15.09
141.0698 10.18
152.0617 10.4
156.0563 14.21
157.0656 7.33
166.0428 8.72
168.0586 8.72
173.061 7.69
174.0686 9.96
181.0659 8.72
184.0515 55.24
184.9868 4.32
185.0584 18.1
189.0903 6.23
197.0577 9.08
199.0763 100.0
212.0464 22.56
215.0338 4.4
217.0842 16.85
227.0718 75.31
230.0587 20.0
231.0641 7.77
245.0807 7.03
255.0658 53.7
291.087 0.0
