>compound MLS001401425-01!Indinavir Sulfate157810-81-6
>formula C36H47N5O4
>ionization [M+Na]+
>parentmass 636.352234
#inchi InChI=1S/C36H47N5O4/c1-36(2,3)39-35(45)31-24-40(22-26-12-9-15-37-21-26)16-17-41(31)23-29(42)19-28(18-25-10-5-4-6-11-25)34(44)38-33-30-14-8-7-13-27(30)20-32(33)43/h4-15,21,28-29,31-33,42-43H,16-20,22-24H2,1-3H3,(H,38,44)(H,39,45)/t28-,29+,31+,32-,33+/m1/s1
#inchikey CBVCZFGXHXORBI
#origInchi InChI=1S/C36H47N5O4.H2O4S/c1-36(2,3)39-35(45)31-24-40(22-26-12-9-15-37-21-26)16-17-41(31)23-29(42)19-28(18-25-10-5-4-6-11-25)34(44)38-33-30-14-8-7-13-27(30)20-32(33)43;1-5(2,3)4/h4-15,21,28-29,31-33,42-43H,16-20,22-24H2,1-3H3,(H,38,44)(H,39,45);(H2,1,2,3,4)/t28-,29+,31+,32-,33+;/m1./s1
#Ion_Source LC-ESI
#Instrument qTof
#Compound_Source NIH Pharmacologically Active Library
#PI Dorrestein
#Data_Collector VP/LMS
#Scan -1
#Precursor_MZ 636.363
#ExactMass 613.363
#Charge 1
#CAS_Number N/A
#Pubmed_ID N/A
#Smiles CC(C)(C)NC(=O)[C@@H]1CN(Cc2cccnc2)CCN1C[C@@H](O)C[C@@H](Cc3ccccc3)C(=O)N[C@@H]4[C@H](O)Cc5ccccc45.OS(=O)(=O)O
#INCHI_AUX N/A
#Library_Class 3
#SpectrumID CCMSLIB00000086083
#IonMode Positive
#UpdateWorkflowName UPDATE-SINGLE-ANNOTATED-BRONZE
#LibraryQualityString Bronze
#TaskID d252d724072548979f1f6f1ced849daf
##Scan# 1553
#SpectrumFile p5-D04_GD4_01_18455.mzXML
#LibraryName Pharm_Active_Library.mgf
#MQScore -1
#Organism Pharm_Active_Library
#TIC_Query 0
#RT_Query -1
#MZErrorPPM -1
#SharedPeaks 0
#MassDiff 0
#LibMZ -1
#SpecMZ 636.363
#SpecCharge 0
#internalFilename spec-00000.mgf

>collision 0
175.1093 11.94
214.0853 11.94
244.1225 12.47
252.096 11.41
256.0944 12.47
266.1224 19.1
272.1367 10.88
291.1188 11.67
299.1801 19.89
302.1147 13.0
303.1187 11.41
304.1418 10.88
314.2028 12.2
328.1291 21.49
342.1427 11.41
346.14 32.89
347.1567 18.04
361.1605 10.34
362.1977 13.26
371.1729 11.67
390.1916 11.14
394.2041 11.41
440.2263 12.73
470.2234 13.53
472.2541 11.94
486.2827 12.47
487.2659 62.33
487.3198 11.94
488.2682 29.44
489.2647 12.47
490.2991 10.88
503.229 17.24
546.3525 10.88
562.2788 14.32
563.2993 13.0
564.3389 11.94
580.3008 13.0
618.3399 100.0
619.3462 66.05
636.3557 413.26
