>compound Diadzein
>formula C15H10O4 
>ionization [M+H]+
>parentmass 255.064407
#inchi InChI=1S/C15H10O4/c16-10-3-1-9(2-4-10)13-8-19-14-7-11(17)5-6-12(14)15(13)18/h1-8,16-17H
#inchikey ZQSIJRDFPHDXIC
#Ion_Source LC-ESI
#Instrument qTof
#Compound_Source Isolated
#PI Sirenas
#Data_Collector Ed Esquenazi 
#Scan -1
#Precursor_MZ 255.066
#ExactMass 0.0
#Charge 1
#CAS_Number N/A
#Pubmed_ID N/A
#Smiles N/A
#INCHI_AUX N/A
#Library_Class 3
#SpectrumID CCMSLIB00000006050
#IonMode Positive
#UpdateWorkflowName UPDATE-SINGLE-ANNOTATED-BRONZE
#LibraryQualityString Bronze
#TaskID d19310cd93df49b68e9fcbec27720eb5
##Scan# 3
#SpectrumFile Diadzein.mgf
#LibraryName fda_library.mgf
#MQScore -1
#Organism fda_library
#TIC_Query 0
#RT_Query -1
#MZErrorPPM -1
#SharedPeaks 0
#MassDiff 0
#LibMZ -1
#SpecMZ 255.066
#SpecCharge 0
#internalFilename spec-00000.mgf

>collision 0
103.055 5.78
105.0333 17.58
107.0498 6.28
109.0279 15.54
117.0702 2.74
118.0405 3.06
119.0482 28.69
120.0198 0.99
121.0275 7.68
127.0539 11.2
128.0614 57.29
131.0491 14.45
133.0298 3.89
135.0455 1.21
137.0231 95.76
141.0679 5.33
143.0856 13.87
149.0237 3.38
151.0529 12.68
152.0618 86.77
153.0698 74.72
156.0586 3.35
159.0432 2.84
165.0693 3.58
169.0649 7.73
170.0712 3.88
171.079 15.96
181.0646 100.0
184.0503 19.03
187.039 1.92
197.0594 29.58
198.0672 11.42
199.0756 33.51
227.0703 14.23
237.0558 9.32
255.0652 8.79
