>compound Vinorelbine (Navelbine)
>formula C45H54N4O8
>ionization [M+H]+
>parentmass 779.400818
#inchi InChI=1S/C45H54N4O8/c1-8-27-19-28-22-44(40(51)55-6,36-30(25-48(23-27)24-28)29-13-10-11-14-33(29)46-36)32-20-31-34(21-35(32)54-5)47(4)38-43(31)16-18-49-17-12-15-42(9-2,37(43)49)39(57-26(3)50)45(38,53)41(52)56-7/h10-15,19-21,28,37-39,46,53H,8-9,16-18,22-25H2,1-7H3/t28-,37+,38+,39+,42+,43-,44-,45-/m0/s1
#inchikey GBABOYUKABKIAF
#Ion_Source LC-ESI
#Instrument qTof
#Compound_Source Commercial
#PI Dorrestein
#Data_Collector Garg_Neha
#Scan -1
#Precursor_MZ 779.401
#ExactMass 778.394
#Charge 1
#CAS_Number 71486-22-1, 1151995-01-5
#Pubmed_ID N/A
#Smiles C1(=C(C=C2C(=C1)[C@]34[C@@](N2C)([C@]([C@@H]([C@]5([C@]3(N(CC=C5)CC4)[H])CC)OC(C)=O)(C(OC)=O)O)[H])OC)[C@]6(C[C@@]7(C=C(C[N@@](C7)CC8=C6NC9=C8C=CC=C9)CC)[H])C(OC)=O
#INCHI_AUX N/A
#Library_Class 1
#SpectrumID CCMSLIB00000078180
#IonMode Positive
#UpdateWorkflowName UPDATE-SINGLE-ANNOTATED-GOLD
#LibraryQualityString Gold
#TaskID 77f51c88eb8b467eb4a01dd2d0cb90d2
##Scan# 1136
#SpectrumFile Plate3_21_40_GG10_01_16499.mzXML
#LibraryName FDALibrary_2_04302014.mgf
#MQScore -1
#Organism FDALibrary_2_04302014
#TIC_Query 0
#RT_Query -1
#MZErrorPPM -1
#SharedPeaks 0
#MassDiff 0
#LibMZ -1
#SpecMZ 779.401
#SpecCharge 0
#internalFilename spec-00000.mgf

>collision 0
122.0962 74.03
156.0821 10.82
167.0703 11.72
188.1076 27.5
214.086 51.49
222.111 11.63
240.0978 16.59
246.1108 14.88
258.1116 28.31
263.1527 12.26
291.1492 29.31
292.1578 19.21
306.1479 14.43
323.1752 73.94
324.1803 24.08
347.1738 14.07
357.1589 28.49
358.1591 13.89
379.2023 53.38
380.2038 12.98
385.1595 12.62
387.1678 11.36
389.1861 49.68
390.1812 27.14
457.233 72.32
458.2349 17.49
467.2226 12.17
469.23 34.81
470.2397 11.36
478.2463 14.43
508.2617 13.17
510.2744 100.0
511.2773 48.42
512.2847 20.02
527.2321 15.87
566.2694 34.36
567.2629 15.69
589.3064 11.18
598.2906 34.81
599.289 17.67
617.3452 35.08
626.2852 39.22
627.2862 14.07
658.3113 52.66
659.318 24.62
701.3682 16.77
719.3755 52.39
761.3921 17.31
779.4016 753.02
